,timestamps,TP9,AF7,AF8,TP10,Secondary Timestamp,emg_signal
0,1686197550.82,-138.672,113.77,14.648,-126.465,955.737,407
1,1686197550.824,-79.59,-138.184,-63.477,-75.195,955.741,407
2,1686197550.828,-25.879,-594.727,25.391,-44.434,955.745,408
3,1686197550.832,-64.941,-224.609,181.152,-91.309,955.749,408
4,1686197550.836,-123.535,223.145,19.531,-130.371,955.753,408
5,1686197550.84,-104.98,-265.625,-43.945,-82.52,955.757,408
6,1686197550.844,-51.758,-494.141,13.672,-40.039,955.761,409
7,1686197550.847,-60.547,-81.055,61.523,-83.008,955.765,409
8,1686197550.851,-107.91,376.953,10.742,-125.977,955.769,409
9,1686197550.855,-105.469,-199.219,-65.918,-87.891,955.773,409
10,1686197550.859,-56.152,-539.551,115.234,-45.41,955.777,410
11,1686197550.863,-37.598,328.125,147.949,-74.707,955.78,410
12,1686197550.872,-97.168,396.973,-58.105,-114.258,955.769,410
13,1686197550.876,-116.699,132.324,19.531,-106.934,955.773,410
14,1686197550.88,-62.012,186.523,32.227,-55.664,955.777,410
15,1686197550.884,-38.574,177.734,3.418,-51.758,955.78,410
16,1686197550.888,-85.938,252.93,-12.207,-110.352,955.784,410
17,1686197550.892,-127.441,-453.125,-48.828,-119.141,955.788,410
18,1686197550.896,-68.359,-630.371,166.016,-64.941,955.792,410
19,1686197550.899,-10.254,305.664,132.324,-45.898,955.796,410
20,1686197550.903,-62.012,284.668,-53.223,-92.773,955.8,410
21,1686197550.907,-124.512,-243.164,56.152,-116.211,955.804,410
22,1686197550.911,-90.332,-3.906,147.949,-69.824,955.808,411
23,1686197550.915,-25.879,473.145,33.691,-29.785,955.812,411
24,1686197550.932,-44.434,135.742,-59.082,-54.688,955.832,411
25,1686197550.936,-102.539,-136.23,-38.574,-99.609,955.836,411
26,1686197550.94,-97.656,147.461,35.645,-85.449,955.84,411
27,1686197550.944,-41.016,355.957,19.043,-38.574,955.844,411
28,1686197550.948,-35.156,61.523,-33.691,-50.781,955.847,411
29,1686197550.952,-103.027,-357.91,-34.18,-99.121,955.851,411
30,1686197550.956,-118.164,-258.789,22.949,-90.332,955.855,410
31,1686197550.959,-60.059,-76.66,31.25,-50.781,955.859,410
32,1686197550.962,-16.602,318.359,-20.996,-39.062,955.86,410
33,1686197550.963,-42.48,-271.973,-13.672,-53.223,955.863,410
34,1686197550.966,-37.109,278.32,24.414,-67.871,955.864,410
35,1686197550.967,-96.191,-1000.0,-33.691,-88.867,955.867,410
36,1686197550.97,-84.961,319.824,0.488,-89.844,955.868,410
37,1686197550.971,-123.047,-588.379,132.324,-105.469,955.871,410
38,1686197550.974,-69.824,195.801,-0.977,-59.082,955.871,410
39,1686197550.975,-65.918,404.785,97.656,-66.895,955.875,410
40,1686197550.978,-8.301,142.09,-5.859,-17.09,955.875,410
41,1686197550.982,-20.02,-30.273,-12.695,-41.504,955.879,410
42,1686197550.986,-101.562,-41.992,2.93,-91.309,955.883,410
43,1686197550.989,-111.328,49.316,-4.883,-76.66,955.887,410
44,1686197550.993,-39.551,-113.77,56.152,-32.227,955.891,410
45,1686197550.997,-16.113,120.117,81.543,-47.852,955.895,410
46,1686197551.001,-80.566,341.797,0.977,-105.469,955.899,410
47,1686197551.005,-115.234,183.594,-36.621,-103.027,955.903,410
48,1686197551.007,-66.406,-661.133,-41.504,-42.969,955.904,410
49,1686197551.011,-20.02,-552.734,101.562,-33.203,955.908,410
50,1686197551.015,-54.688,351.562,56.152,-87.402,955.912,410
51,1686197551.019,-102.539,107.91,-32.715,-104.004,955.916,410
52,1686197551.023,-63.965,-55.664,11.719,-56.152,955.92,410
53,1686197551.027,-13.184,18.066,-11.23,-29.297,955.924,410
54,1686197551.031,-40.039,-3.418,-3.906,-68.359,955.928,410
55,1686197551.034,-102.051,-287.109,-44.922,-106.445,955.932,410
56,1686197551.038,-101.562,-903.809,16.113,-69.336,955.936,409
57,1686197551.042,-26.855,-178.223,195.801,-28.32,955.94,409
58,1686197551.046,-14.648,475.586,6.836,-52.734,955.944,409
59,1686197551.05,-94.727,-84.473,27.832,-95.703,955.947,408
60,1686197551.054,-101.074,46.387,207.52,-73.73,955.953,408
61,1686197551.058,-31.25,594.238,91.309,-19.531,955.957,408
62,1686197551.062,-16.113,543.457,-44.922,-33.203,955.96,407
63,1686197551.066,-76.172,-31.738,15.137,-88.867,955.964,407
64,1686197551.07,-112.793,-32.715,78.613,-98.145,955.968,407
65,1686197551.074,-68.359,160.645,6.836,-54.199,955.972,407
66,1686197551.078,-20.508,136.719,-7.812,-39.062,955.976,406
67,1686197551.081,-63.477,-373.535,4.395,-72.754,955.98,406
68,1686197551.085,-120.117,-334.473,205.566,-105.469,955.984,406
69,1686197551.089,-77.637,508.301,128.906,-64.941,955.988,405
70,1686197551.093,-22.461,406.25,-27.344,-22.949,955.992,405
71,1686197551.097,-46.387,157.715,-11.719,-71.777,955.996,405
72,1686197551.098,-106.445,239.258,7.812,-112.305,955.998,405
73,1686197551.102,-99.121,133.789,2.441,-79.102,956.001,404
74,1686197551.106,-41.992,-75.684,-15.137,-32.715,956.005,404
75,1686197551.11,-28.809,59.57,-8.301,-43.457,956.009,404
76,1686197551.114,-82.031,238.77,-22.461,-88.379,956.013,404
77,1686197551.118,-102.539,4.883,-3.418,-89.355,956.017,403
78,1686197551.122,-45.41,-238.77,6.348,-44.922,956.021,403
79,1686197551.125,-31.25,-904.785,-68.359,-32.227,956.025,403
80,1686197551.129,-76.66,-631.348,152.832,-84.473,956.029,403
81,1686197551.133,-92.773,363.281,130.371,-97.656,956.033,401
82,1686197551.137,-56.152,273.438,-3.418,-47.852,956.037,401
83,1686197551.141,-14.648,287.598,62.5,-37.109,956.04,401
84,1686197551.142,-53.223,521.973,-2.93,-83.496,956.052,401
85,1686197551.146,-100.586,395.02,-16.602,-109.863,956.056,399
86,1686197551.15,-78.613,180.664,9.277,-75.195,956.06,399
87,1686197551.154,-36.133,145.508,4.395,-38.086,956.064,399
88,1686197551.158,-47.852,157.715,-24.414,-68.848,956.068,399
89,1686197551.162,-106.445,122.07,-24.902,-117.188,956.072,398
90,1686197551.166,-113.77,-602.051,-42.48,-77.637,956.076,398
91,1686197551.169,-48.34,-626.465,131.348,-18.555,956.08,398
92,1686197551.173,-26.367,430.664,145.508,-48.828,956.084,397
93,1686197551.177,-94.727,357.422,-55.176,-95.703,956.088,397
94,1686197551.181,-123.047,58.594,24.902,-91.797,956.091,397
95,1686197551.185,-64.453,399.414,78.125,-54.688,956.095,397
96,1686197551.187,-21.484,535.645,-6.836,-46.387,956.098,394
97,1686197551.191,-72.266,148.438,-48.34,-83.984,956.102,394
98,1686197551.195,-117.188,-23.438,-3.418,-103.027,956.106,394
99,1686197551.199,-62.988,291.504,44.434,-61.523,956.11,394
100,1686197551.203,-7.812,457.52,0.977,-37.109,956.114,393
101,1686197551.207,-49.316,-187.988,-101.562,-77.637,956.118,393
102,1686197551.211,-116.699,-685.547,24.414,-105.957,956.122,393
103,1686197551.214,-91.797,-273.438,113.281,-77.637,956.126,392
104,1686197551.218,-27.344,32.715,30.762,-37.109,956.13,392
105,1686197551.222,-43.945,-262.695,-38.574,-53.711,956.134,392
106,1686197551.226,-114.746,-850.586,62.5,-94.727,956.137,392
107,1686197551.23,-90.82,-55.664,230.957,-85.449,956.141,390
108,1686197551.247,-6.348,597.168,50.781,-28.809,956.144,389
109,1686197551.251,5.859,336.426,-12.207,-31.738,956.148,389
110,1686197551.255,-65.43,267.09,19.043,-88.867,956.152,387
111,1686197551.259,-94.238,369.141,15.137,-91.797,956.156,387
112,1686197551.263,-38.086,277.832,18.066,-47.363,956.16,387
113,1686197551.267,-17.578,-73.73,-5.859,-33.691,956.164,387
114,1686197551.271,-78.125,-42.969,16.113,-80.566,956.168,386
115,1686197551.274,-128.906,291.016,20.02,-107.422,956.171,386
116,1686197551.278,-89.355,310.547,-30.273,-57.129,956.175,386
117,1686197551.282,-37.598,-494.141,-20.508,-15.625,956.179,384
118,1686197551.286,-56.641,-447.754,95.703,-59.082,956.183,384
119,1686197551.29,-103.027,449.219,36.133,-105.469,956.187,384
120,1686197551.292,-88.379,237.793,-35.156,-73.73,956.189,384
121,1686197551.296,-30.762,88.867,5.371,-31.25,956.193,384
122,1686197551.3,-32.227,365.723,32.715,-49.805,956.197,383
123,1686197551.304,-88.867,408.203,0.488,-97.168,956.201,383
124,1686197551.308,-90.82,105.957,-17.09,-83.984,956.205,383
125,1686197551.312,-25.391,-188.965,1.953,-23.438,956.208,382
126,1686197551.316,-3.906,-133.789,13.184,-26.855,956.212,382
127,1686197551.319,-56.152,-38.086,12.207,-79.59,956.216,382
128,1686197551.323,-90.82,-396.973,-42.48,-85.938,956.22,381
129,1686197551.327,-62.988,-574.219,107.91,-43.945,956.224,381
130,1686197551.331,-24.414,208.008,164.062,-39.062,956.228,381
131,1686197551.335,-57.129,418.457,0.488,-80.078,956.232,381
132,1686197551.338,-109.375,-359.375,-54.688,-86.914,956.237,381
133,1686197551.342,-88.379,-889.648,64.453,-41.016,956.241,379
134,1686197551.346,-22.461,59.57,208.496,-8.789,956.245,379
135,1686197551.35,-32.715,525.879,15.137,-42.969,956.249,379
136,1686197551.354,-100.586,160.156,-19.043,-83.984,956.253,378
137,1686197551.358,-98.633,29.785,22.949,-57.617,956.257,378
138,1686197551.362,-27.832,217.285,56.152,-25.879,956.261,378
139,1686197551.365,-13.672,440.918,-13.672,-45.898,956.265,376
140,1686197551.369,-80.078,-345.703,-3.418,-77.637,956.269,376
141,1686197551.373,-91.309,-294.922,219.727,-64.453,956.273,376
142,1686197551.377,-25.879,567.383,113.77,-24.902,956.276,376
143,1686197551.381,-2.93,353.027,-11.23,-27.344,956.28,375
144,1686197551.413,-64.453,109.375,18.066,-77.637,956.312,375
145,1686197551.417,-104.004,228.516,12.695,-87.891,956.316,375
146,1686197551.421,-47.363,148.926,20.02,-41.016,956.32,374
147,1686197551.425,-6.836,-85.938,-10.742,-18.066,956.324,374
148,1686197551.428,-14.16,334.961,48.34,-42.48,956.325,374
149,1686197551.429,-51.27,-170.41,-52.734,-62.5,956.328,374
150,1686197551.432,-79.102,518.555,2.93,-95.215,956.328,374
151,1686197551.433,-102.051,-81.055,-5.371,-99.609,956.332,374
152,1686197551.436,-109.375,360.84,-3.418,-93.75,956.332,374
153,1686197551.437,-71.289,-82.52,44.922,-68.359,956.336,374
154,1686197551.44,-4.883,-164.062,-1.953,-31.25,956.34,374
155,1686197551.44,-61.035,208.984,22.461,-47.363,956.336,374
156,1686197551.444,-20.996,-911.133,-81.055,-46.387,956.343,374
157,1686197551.444,-24.902,163.086,16.602,-33.691,956.34,374
158,1686197551.448,-68.848,25.391,-4.883,-75.684,956.344,374
159,1686197551.448,-76.66,-617.676,120.117,-87.402,956.347,374
160,1686197551.452,-70.801,408.203,116.699,-70.801,956.351,373
161,1686197551.452,-107.422,-125.488,6.836,-92.285,956.348,373
162,1686197551.455,-62.5,-75.684,83.496,-41.504,956.352,373
163,1686197551.456,-17.09,319.336,0.488,-23.438,956.355,373
164,1686197551.459,-3.418,248.047,69.336,-13.184,956.356,373
165,1686197551.463,-21.973,417.969,-17.09,-57.617,956.36,372
166,1686197551.467,-81.543,104.98,-23.438,-91.797,956.364,372
167,1686197551.471,-73.73,-166.992,90.332,-55.664,956.367,372
168,1686197551.472,-13.672,199.707,115.723,-19.531,956.369,372
169,1686197551.476,-28.809,377.441,9.766,-54.199,956.373,371
170,1686197551.48,-99.121,39.062,-79.102,-102.539,956.377,371
171,1686197551.484,-106.934,-747.07,-26.855,-73.73,956.381,371
172,1686197551.488,-43.945,-413.086,166.504,-31.25,956.385,371
173,1686197551.492,-23.926,200.195,32.715,-48.828,956.389,370
174,1686197551.496,-84.961,-239.746,-62.012,-85.449,956.393,370
175,1686197551.499,-116.211,-1000.0,-60.547,-77.637,956.396,370
176,1686197551.503,-39.551,-531.25,159.18,-22.461,956.4,370
177,1686197551.507,7.812,541.016,95.215,-19.043,956.404,370
178,1686197551.511,-73.73,197.754,-5.859,-85.938,956.408,370
179,1686197551.515,-121.094,44.434,110.352,-102.051,956.412,368
180,1686197551.532,-60.059,481.934,51.27,-42.969,956.428,368
181,1686197551.536,-11.719,512.695,-14.648,-10.742,956.432,368
182,1686197551.54,-41.016,234.863,-15.625,-47.852,956.436,368
183,1686197551.544,-92.285,210.449,28.809,-82.52,956.44,367
184,1686197551.548,-77.148,292.969,47.363,-51.27,956.444,367
185,1686197551.552,-6.836,197.754,2.441,0.977,956.448,367
186,1686197551.556,-20.02,-470.215,-2.93,-15.625,956.452,367
187,1686197551.559,-99.609,-438.477,120.605,-77.148,956.456,367
188,1686197551.562,-96.68,326.66,24.414,-89.844,956.473,367
189,1686197551.563,-88.379,364.746,69.336,-67.871,956.46,367
190,1686197551.566,-43.457,81.543,-8.789,-35.156,956.477,367
191,1686197551.567,-16.602,230.469,-31.738,-7.812,956.464,367
192,1686197551.57,-4.395,-145.02,-0.977,-15.625,956.481,367
193,1686197551.571,-3.418,-43.945,39.551,-17.578,956.468,367
194,1686197551.574,-49.316,168.945,52.246,-72.266,956.484,366
195,1686197551.575,-59.082,135.742,69.336,-77.148,956.471,366
196,1686197551.578,-87.402,295.898,10.742,-89.844,956.488,366
197,1686197551.582,-59.57,-155.273,-52.246,-40.039,956.492,366
198,1686197551.586,-5.371,-480.469,-13.672,-12.695,956.496,365
199,1686197551.589,-20.508,-210.449,59.57,-41.504,956.5,365
200,1686197551.593,-81.055,193.848,50.293,-81.055,956.504,365
201,1686197551.597,-71.289,-94.727,-27.344,-61.035,956.508,363
202,1686197551.601,-21.484,-874.512,61.523,-10.254,956.512,363
203,1686197551.605,-2.441,-157.715,198.73,-29.297,956.516,363
204,1686197551.609,-51.758,325.684,-0.977,-77.637,956.519,363
205,1686197551.613,-79.102,-218.75,50.781,-62.5,956.523,362
206,1686197551.617,-12.695,43.945,218.262,-2.93,956.527,362
207,1686197551.621,12.207,577.637,74.219,-3.906,956.531,362
208,1686197551.625,-44.434,428.223,-20.508,-59.082,956.535,361
209,1686197551.629,-93.262,-68.359,11.719,-73.73,956.539,361
210,1686197551.633,-48.828,-5.859,99.121,-25.391,956.542,361
211,1686197551.636,9.277,492.188,88.867,-1.953,956.546,361
212,1686197551.64,-29.785,386.23,-18.066,-35.156,956.55,361
213,1686197551.644,-83.984,-288.574,68.359,-53.223,956.554,361
214,1686197551.648,-54.688,-59.57,212.402,-34.668,956.558,361
215,1686197551.652,6.836,574.219,91.309,-1.953,956.562,361
216,1686197551.667,-4.883,245.117,-18.066,-15.625,956.564,359
217,1686197551.671,-67.871,5.859,28.809,-71.777,956.568,359
218,1686197551.675,-62.5,200.195,49.805,-67.383,956.572,359
219,1686197551.679,8.301,155.762,28.809,-32.715,956.576,359
220,1686197551.683,12.695,-175.781,-38.086,-44.922,956.58,359
221,1686197551.687,-51.758,-546.387,0.0,-79.59,956.584,359
222,1686197551.691,-48.34,-245.605,92.285,-64.941,956.588,359
223,1686197551.694,11.23,110.352,46.387,-6.348,956.591,359
224,1686197551.698,11.719,-117.676,-9.277,-11.719,956.595,358
225,1686197551.702,-53.711,-710.449,39.062,-62.5,956.599,358
226,1686197551.706,-84.961,-28.32,171.387,-79.59,956.603,358
227,1686197551.71,-28.809,614.258,50.781,-21.484,956.607,358
228,1686197551.712,5.371,332.52,22.949,12.207,956.609,358
229,1686197551.716,-42.48,347.168,71.289,-34.18,956.613,358
230,1686197551.72,-89.844,472.168,55.176,-66.406,956.617,358
231,1686197551.724,-71.289,432.617,29.297,-27.344,956.621,357
232,1686197551.728,-13.672,221.68,10.742,17.09,956.625,357
233,1686197551.732,-24.414,26.855,22.461,-15.137,956.629,357
234,1686197551.736,-83.984,-38.086,36.621,-65.918,956.633,356
235,1686197551.739,-86.426,136.23,62.988,-50.781,956.636,356
236,1686197551.743,-37.598,-364.746,4.395,15.137,956.64,356
237,1686197551.747,-20.02,-539.551,76.66,5.859,956.644,356
238,1686197551.751,-61.035,440.918,117.188,-49.805,956.648,355
239,1686197551.755,-84.961,423.828,19.531,-39.062,956.652,355
240,1686197551.758,-34.668,281.25,48.828,10.742,956.654,355
241,1686197551.762,-11.23,547.852,67.383,6.836,956.658,355
242,1686197551.766,-66.406,504.883,23.438,-45.898,956.662,355
243,1686197551.77,-101.074,186.035,17.09,-54.688,956.666,355
244,1686197551.774,-52.734,148.926,42.969,7.324,956.67,355
245,1686197551.778,-4.883,239.258,32.715,33.203,956.674,355
246,1686197551.782,-34.18,74.219,20.02,-21.484,956.678,355
247,1686197551.785,-95.703,-217.285,-6.836,-53.223,956.682,355
248,1686197551.789,-97.168,-976.562,-19.531,-14.648,956.686,355
249,1686197551.793,-25.391,-534.668,168.457,18.066,956.69,355
250,1686197551.797,-16.113,557.617,124.512,-8.789,956.694,355
251,1686197551.801,-82.031,371.094,-9.277,-51.27,956.697,355
252,1686197551.802,-90.82,254.395,71.777,-42.969,956.699,355
253,1686197551.806,-32.227,593.75,74.219,5.859,956.703,354
254,1686197551.81,-12.207,565.43,-6.836,4.883,956.707,354
255,1686197551.814,-75.684,233.887,-0.977,-46.387,956.711,354
256,1686197551.818,-96.68,191.406,39.551,-44.922,956.715,354
257,1686197551.822,-42.48,85.449,4.883,-2.93,956.718,354
258,1686197551.826,-12.207,123.047,9.766,-8.789,956.722,354
259,1686197551.829,-56.641,-354.004,18.066,-50.781,956.726,354
260,1686197551.833,-93.262,-326.172,131.836,-70.312,956.73,354
261,1686197551.837,-46.875,549.316,83.984,-31.738,956.734,353
262,1686197551.841,-5.859,405.762,-30.273,-5.371,956.738,353
263,1686197551.845,-28.809,71.777,16.602,-44.922,956.742,353
264,1686197551.848,-85.449,267.578,69.336,-84.961,956.745,353
265,1686197551.852,-74.707,492.676,48.828,-59.57,956.748,353
266,1686197551.856,-17.09,241.699,-22.949,-9.277,956.752,353
267,1686197551.86,-21.973,-3.906,-25.879,-29.297,956.756,353
268,1686197551.864,-80.566,239.258,8.789,-80.566,956.76,353
269,1686197551.868,-84.473,125.0,5.859,-53.711,956.764,353
270,1686197551.872,-24.414,-190.918,-18.555,1.465,956.768,353
271,1686197551.875,-4.395,-854.004,-26.367,2.93,956.772,354
272,1686197551.879,-50.781,-373.535,130.371,-53.223,956.776,354
273,1686197551.883,-81.055,517.09,46.875,-75.684,956.78,354
274,1686197551.887,-36.621,253.906,20.508,-21.973,956.784,354
275,1686197551.891,12.207,312.012,74.707,6.348,956.788,356
276,1686197551.894,-30.273,515.137,11.23,-35.645,956.792,356
277,1686197551.898,-93.262,206.055,-18.066,-67.383,956.796,356
278,1686197551.902,-69.824,-232.91,73.73,-30.273,956.8,355
279,1686197551.906,-9.277,56.152,163.574,0.0,956.803,355
280,1686197551.91,-7.324,428.223,4.883,-31.25,956.807,355
281,1686197551.914,-68.359,100.098,-42.969,-68.848,956.811,355
282,1686197551.918,-84.961,-541.992,49.805,-52.246,956.815,356
283,1686197551.921,-20.996,-255.371,165.527,-10.742,956.819,356
284,1686197551.925,-2.441,609.863,70.801,-22.461,956.823,356
285,1686197551.929,-71.289,376.465,-38.574,-90.332,956.827,357
286,1686197551.933,-94.727,97.168,37.109,-74.219,956.831,357
287,1686197551.937,-28.32,356.445,72.266,-9.277,956.835,357
288,1686197551.937,19.043,551.758,23.438,-15.625,956.863,357
289,1686197551.941,-34.668,197.266,-31.738,-57.129,956.867,358
290,1686197551.945,-73.242,-38.574,4.883,-61.523,956.871,358
291,1686197551.949,-21.973,192.383,33.691,-29.785,956.875,358
292,1686197551.953,14.648,134.766,8.301,-2.93,956.879,358
293,1686197551.957,-24.414,-176.758,-33.691,-34.18,956.883,358
294,1686197551.961,-88.867,-944.336,-70.312,-61.035,956.887,358
295,1686197551.964,-62.5,-621.094,176.27,-34.18,956.891,358
296,1686197551.968,11.23,461.914,139.16,-2.93,956.895,358
297,1686197551.972,-6.836,236.816,29.297,-15.137,956.898,359
298,1686197551.976,-69.336,89.844,115.723,-52.246,956.902,359
299,1686197551.98,-60.059,489.746,58.105,-41.016,956.906,359
300,1686197551.997,3.418,509.277,6.836,4.395,956.895,360
301,1686197552.001,11.23,218.75,9.766,-5.859,956.899,360
302,1686197552.005,-61.035,182.617,42.969,-64.941,956.902,360
303,1686197552.009,-85.449,356.445,28.32,-74.219,956.906,360
304,1686197552.013,-24.902,350.586,7.812,-18.066,956.91,360
305,1686197552.017,7.812,-27.344,-12.695,-0.977,956.914,360
306,1686197552.021,-37.109,-276.367,22.461,-52.246,956.918,360
307,1686197552.024,-81.055,10.254,53.223,-79.102,956.922,360
308,1686197552.028,-38.574,291.504,9.766,-34.668,956.926,360
309,1686197552.032,17.09,-198.73,35.645,13.672,956.93,360
310,1686197552.036,-9.766,-174.316,103.027,-33.203,956.934,360
311,1686197552.04,-63.965,370.117,30.762,-88.379,956.938,360
312,1686197552.042,-53.223,228.027,-26.855,-59.57,956.939,360
313,1686197552.046,2.441,-347.168,38.086,-15.625,956.943,360
314,1686197552.05,4.395,-56.152,134.277,-43.457,956.947,360
315,1686197552.054,-50.781,428.223,42.48,-84.961,956.951,360
316,1686197552.058,-67.871,96.191,12.695,-66.895,956.955,360
317,1686197552.062,-7.812,-91.797,35.156,-18.066,956.959,360
318,1686197552.066,16.113,35.645,40.527,-27.344,956.963,360
319,1686197552.069,-47.852,29.785,29.297,-82.031,956.967,360
320,1686197552.073,-73.73,-225.098,4.883,-74.219,956.971,360
321,1686197552.077,-33.203,-972.656,-25.879,-16.113,956.975,360
322,1686197552.081,13.672,-538.086,104.004,-8.301,956.978,359
323,1686197552.085,-4.883,491.211,53.711,-53.223,956.982,359
324,1686197552.087,-53.223,309.57,-2.441,-75.195,956.985,359
325,1686197552.091,-25.391,302.246,85.938,-35.645,956.988,359
326,1686197552.095,25.391,581.055,47.363,-5.859,956.992,358
327,1686197552.099,-7.812,484.375,-20.508,-44.922,956.996,358
328,1686197552.103,-85.449,108.398,-27.832,-82.52,957.0,358
329,1686197552.107,-73.73,-98.633,26.855,-50.781,957.004,358
330,1686197552.111,-3.418,166.504,72.754,-11.23,957.008,359
331,1686197552.114,-8.301,433.594,0.977,-45.898,957.012,359
332,1686197552.118,-77.148,-341.309,-4.395,-84.473,957.016,359
333,1686197552.122,-74.219,-318.848,153.32,-59.082,957.02,360
334,1686197552.126,2.441,561.523,81.543,-8.789,957.024,360
335,1686197552.13,13.184,313.477,-28.32,-10.254,957.028,360
336,1686197552.132,-40.527,-34.18,15.137,-56.641,957.03,360
337,1686197552.136,-65.43,197.266,66.895,-68.359,957.034,360
338,1686197552.14,-24.902,475.098,50.781,-21.484,957.038,359
339,1686197552.144,10.742,166.504,-19.043,5.859,957.042,359
340,1686197552.148,-37.598,-157.227,-38.574,-43.457,957.045,359
341,1686197552.152,-94.727,-135.254,-5.859,-82.52,957.049,360
342,1686197552.156,-62.988,-116.211,62.988,-47.852,957.053,360
343,1686197552.159,0.0,-187.012,-22.461,-6.348,957.057,360
344,1686197552.163,-24.414,-844.727,-27.344,-29.297,957.061,360
345,1686197552.167,-69.824,-334.961,195.312,-72.754,957.065,360
346,1686197552.171,-44.922,485.352,83.008,-54.688,957.069,360
347,1686197552.175,7.812,286.133,23.926,-7.812,957.073,360
348,1686197552.178,16.113,311.523,70.801,-16.113,957.077,360
349,1686197552.182,-41.992,390.625,28.809,-58.105,957.081,361
350,1686197552.186,-77.148,116.699,12.695,-57.617,957.085,361
351,1686197552.19,-30.762,-193.359,91.797,-11.23,957.089,361
352,1686197552.194,11.23,43.945,114.258,-5.859,957.093,361
353,1686197552.198,-39.551,104.492,9.766,-61.035,957.097,361
354,1686197552.202,-88.379,-96.191,20.996,-82.52,957.101,361
355,1686197552.205,-57.617,-477.051,69.336,-30.273,957.105,362
356,1686197552.209,-5.859,-282.715,175.293,-0.977,957.109,362
357,1686197552.213,-23.438,490.234,87.402,-43.945,957.113,362
358,1686197552.217,-80.566,262.207,-18.066,-78.613,957.117,362
359,1686197552.221,-56.641,54.199,50.781,-36.621,957.12,362
360,1686197552.222,4.395,369.629,91.797,-3.906,957.126,362
361,1686197552.226,-3.906,508.301,18.555,-39.062,957.13,362
362,1686197552.23,-70.312,91.797,-24.414,-82.52,957.134,362
363,1686197552.234,-69.824,-90.332,20.508,-68.848,957.138,361
364,1686197552.238,-1.465,189.941,44.922,-7.812,957.142,361
365,1686197552.242,0.977,63.965,16.602,-16.113,957.146,361
366,1686197552.246,-67.871,-296.875,-23.438,-69.824,957.15,361
367,1686197552.249,-101.562,-982.422,-35.156,-56.152,957.154,361
368,1686197552.253,-44.434,-558.105,188.477,-9.277,957.158,361
369,1686197552.257,7.812,481.445,137.207,-13.672,957.162,361
370,1686197552.261,-40.039,191.406,31.738,-61.035,957.166,361
371,1686197552.265,-81.055,82.52,145.02,-73.73,957.169,361
372,1686197552.267,-28.32,498.047,78.613,-23.926,957.178,361
373,1686197552.271,12.695,454.59,6.836,-0.488,957.182,361
374,1686197552.275,-20.508,131.348,33.203,-44.922,957.186,359
375,1686197552.279,-68.359,145.996,57.617,-71.777,957.19,359
376,1686197552.283,-54.199,325.195,34.668,-32.715,957.194,359
377,1686197552.287,-5.371,200.195,0.488,0.0,957.198,357
378,1686197552.291,-22.461,-477.051,17.578,-23.438,957.202,357
379,1686197552.294,-81.055,-630.371,152.832,-59.082,957.205,357
380,1686197552.298,-65.43,192.383,144.043,-52.734,957.209,357
381,1686197552.302,4.395,414.062,21.973,-11.719,957.213,356
382,1686197552.306,8.789,-1.465,62.988,-10.254,957.217,356
383,1686197552.31,-51.758,39.062,105.957,-63.477,957.221,356
384,1686197552.312,-76.172,319.336,48.34,-73.242,957.224,356
385,1686197552.316,-28.809,187.012,16.602,-30.273,957.227,353
386,1686197552.32,7.324,82.031,-1.465,-10.742,957.231,353
387,1686197552.324,-26.367,255.859,21.973,-39.551,957.235,353
388,1686197552.328,-72.754,282.715,30.762,-66.895,957.239,353
389,1686197552.332,-49.805,-163.574,-29.297,-22.949,957.243,352
390,1686197552.336,-2.93,-496.582,-25.879,8.789,957.247,352
391,1686197552.339,-25.391,-167.48,63.965,-38.574,957.251,352
392,1686197552.343,-81.055,218.75,69.824,-69.336,957.255,350
393,1686197552.347,-68.359,-104.004,-30.762,-42.48,957.259,350
394,1686197552.351,-16.113,-878.906,45.41,2.93,957.263,350
395,1686197552.355,-2.441,-181.152,208.984,-17.578,957.266,350
396,1686197552.372,-48.34,431.152,46.875,-72.754,957.269,350
397,1686197552.376,-68.359,151.367,14.16,-54.199,957.273,350
398,1686197552.38,-8.301,230.469,70.312,0.488,957.277,350
399,1686197552.384,20.996,447.754,42.969,-11.719,957.281,350
400,1686197552.388,-32.715,315.43,-10.254,-60.547,957.285,350
401,1686197552.392,-67.383,-162.598,2.441,-47.852,957.289,350
402,1686197552.396,-20.508,-116.699,87.891,-1.953,957.293,350
403,1686197552.399,20.508,378.906,65.43,7.324,957.296,350
404,1686197552.403,-17.578,275.879,-14.648,-34.18,957.3,350
405,1686197552.407,-75.195,-374.512,54.688,-49.805,957.304,350
406,1686197552.411,-48.828,-153.32,163.574,-19.043,957.308,350
407,1686197552.415,19.043,426.758,53.223,0.977,957.312,349
408,1686197552.417,-5.859,50.781,-29.297,-26.855,957.314,349
409,1686197552.421,-69.824,-235.84,38.574,-70.801,957.318,349
410,1686197552.425,-54.199,132.812,92.285,-47.852,957.322,351
411,1686197552.429,12.207,375.0,44.434,-3.418,957.326,351
412,1686197552.433,2.93,19.043,-26.855,-31.738,957.33,351
413,1686197552.437,-67.383,-401.855,-3.418,-70.312,957.334,351
414,1686197552.441,-79.102,-282.715,61.523,-64.941,957.338,351
415,1686197552.444,-22.949,-78.125,65.43,-25.391,957.341,351
416,1686197552.448,1.953,-246.582,-25.391,-19.043,957.345,351
417,1686197552.452,-62.012,-910.645,-1.953,-64.941,957.349,351
418,1686197552.456,-92.773,-316.895,220.703,-77.148,957.353,352
419,1686197552.46,-27.344,490.723,98.633,-26.367,957.357,352
420,1686197552.462,15.137,242.676,-0.977,-10.742,957.359,352
421,1686197552.466,-28.32,216.797,53.223,-54.688,957.363,355
422,1686197552.47,-77.637,347.168,16.113,-69.336,957.367,355
423,1686197552.474,-56.152,158.691,20.508,-25.391,957.371,355
424,1686197552.478,-0.488,-125.0,62.5,9.766,957.375,355
425,1686197552.482,-13.184,-241.699,47.363,-24.414,957.379,357
426,1686197552.486,-71.289,-0.977,64.941,-67.871,957.383,357
427,1686197552.489,-67.871,266.602,42.969,-41.016,957.387,357
428,1686197552.493,-17.578,-323.73,32.715,18.066,957.391,357
429,1686197552.497,-8.301,-276.855,143.066,0.488,957.395,358
430,1686197552.501,-56.641,441.406,58.105,-49.316,957.399,358
431,1686197552.505,-79.102,196.289,-7.812,-46.387,957.402,358
432,1686197552.507,-29.297,45.898,41.016,-7.812,957.404,360
433,1686197552.511,2.441,321.289,57.129,-3.418,957.408,360
434,1686197552.515,-41.016,330.078,21.484,-44.434,957.412,360
435,1686197552.519,-90.332,-7.324,-6.836,-66.406,957.416,360
436,1686197552.523,-55.176,-205.078,20.02,-33.203,957.42,363
437,1686197552.527,0.977,-114.746,40.039,-10.742,957.423,363
438,1686197552.531,-29.785,-123.047,33.203,-45.898,957.427,363
439,1686197552.534,-79.59,-403.32,-18.555,-72.754,957.431,363
440,1686197552.538,-73.73,-1000.0,-28.32,-34.18,957.435,365
441,1686197552.542,-17.578,-578.613,191.895,-5.371,957.439,365
442,1686197552.546,-16.113,407.715,141.113,-37.598,957.443,365
443,1686197552.55,-87.402,218.262,12.695,-71.289,957.447,367
444,1686197552.552,-88.867,183.105,116.699,-64.941,957.45,367
445,1686197552.556,-12.695,551.758,82.031,-10.254,957.454,367
446,1686197552.56,3.418,437.5,-4.883,-6.348,957.457,367
447,1686197552.564,-66.406,62.988,26.855,-67.383,957.461,368
448,1686197552.568,-83.984,85.938,58.105,-71.289,957.465,368
449,1686197552.572,-26.855,64.453,26.855,-12.207,957.469,368
450,1686197552.576,6.836,37.109,20.508,-7.812,957.473,371
451,1686197552.579,-41.016,-440.43,8.301,-55.176,957.477,371
452,1686197552.583,-84.473,-595.215,116.699,-65.918,957.481,371
453,1686197552.587,-38.086,286.133,131.836,-35.156,957.485,371
454,1686197552.591,21.973,414.062,10.742,-0.488,957.489,372
455,1686197552.595,-3.906,-43.945,51.27,-28.809,957.493,372
456,1686197552.597,-61.523,94.238,124.512,-67.871,957.495,372
457,1686197552.601,-41.504,435.547,74.707,-38.574,957.498,372
458,1686197552.605,15.137,263.184,31.25,10.742,957.502,374
459,1686197552.609,-0.488,119.629,20.508,-13.184,957.506,374
460,1686197552.613,-56.152,216.797,10.742,-59.082,957.51,374
461,1686197552.617,-71.777,-7.812,25.391,-43.457,957.514,374
462,1686197552.621,-19.531,-250.488,0.0,6.348,957.518,374
463,1686197552.624,-0.488,-870.117,-16.602,8.301,957.522,374
464,1686197552.628,-52.246,-483.398,153.809,-48.828,957.526,374
465,1686197552.632,-69.824,369.141,76.66,-56.152,957.53,374
466,1686197552.636,-26.855,103.516,1.465,-11.23,957.534,375
467,1686197552.64,12.695,27.344,60.059,0.488,957.538,375
468,1686197552.643,-24.902,355.957,60.059,-43.945,957.553,375
469,1686197552.647,-80.566,346.68,-0.488,-69.824,957.557,375
470,1686197552.651,-57.617,-148.926,68.848,-25.391,957.561,375
471,1686197552.655,2.93,-85.449,197.754,5.371,957.565,375
472,1686197552.659,-1.465,324.707,56.641,-29.297,957.569,374
473,1686197552.663,-61.523,25.879,-23.926,-73.73,957.573,374
474,1686197552.667,-64.453,-608.887,56.641,-48.34,957.577,374
475,1686197552.67,-3.418,-429.199,178.711,6.348,957.581,374
476,1686197552.674,11.23,330.078,94.727,-5.859,957.585,372
477,1686197552.678,-53.711,130.859,-12.207,-51.27,957.589,372
478,1686197552.682,-78.613,-54.199,65.918,-58.105,957.592,372
479,1686197552.686,-3.906,248.535,93.262,-16.113,957.596,372
480,1686197552.688,32.715,388.672,21.973,-13.184,957.612,368
481,1686197552.692,-37.598,-75.684,-30.273,-70.801,957.616,368
482,1686197552.696,-76.66,-369.141,11.719,-89.355,957.62,368
483,1686197552.7,-21.484,60.547,74.219,-40.527,957.624,363
484,1686197552.704,22.949,260.254,19.531,-11.719,957.628,363
485,1686197552.708,-17.578,-276.855,-65.918,-39.551,957.632,363
486,1686197552.712,-74.219,-822.266,17.578,-66.895,957.636,363
487,1686197552.715,-43.457,-408.691,146.973,-46.387,957.64,363
488,1686197552.719,24.902,242.188,90.332,-2.93,957.643,357
489,1686197552.723,8.301,-149.902,-36.133,-18.066,957.647,357
490,1686197552.727,-68.848,-797.363,72.754,-64.941,957.651,352
491,1686197552.731,-75.195,-34.668,208.496,-58.105,957.655,352
492,1686197552.752,-6.348,444.824,49.805,-2.441,957.647,350
493,1686197552.756,10.254,135.254,20.508,-7.324,957.651,350
494,1686197552.76,-54.199,76.172,58.594,-53.711,957.655,350
495,1686197552.764,-74.707,159.668,27.344,-46.875,957.659,350
496,1686197552.768,-10.742,102.051,16.113,0.0,957.662,352
497,1686197552.772,14.16,-520.996,-19.043,9.277,957.666,352
498,1686197552.776,-36.621,-691.895,68.848,-47.852,957.67,352
499,1686197552.779,-64.453,171.387,97.656,-75.684,957.674,352
500,1686197552.783,-30.273,223.145,-8.301,-27.832,957.678,355
501,1686197552.787,11.23,-7.812,34.668,-1.465,957.682,355
502,1686197552.791,0.488,125.0,51.758,-35.156,957.686,355
503,1686197552.795,-41.992,253.906,23.926,-63.477,957.69,355
504,1686197552.807,-44.922,38.086,-2.93,-41.016,957.703,359
505,1686197552.811,-4.883,-150.879,18.066,-11.719,957.707,364
506,1686197552.815,1.465,123.535,70.312,-36.621,957.711,364
507,1686197552.819,-51.27,189.941,25.391,-80.566,957.715,364
508,1686197552.823,-59.082,-97.656,0.0,-59.082,957.719,364
509,1686197552.827,-0.977,-347.656,11.23,-1.953,957.723,368
510,1686197552.831,7.324,-276.367,23.438,-15.625,957.727,368
511,1686197552.834,-57.129,-186.523,25.879,-68.848,957.731,368
512,1686197552.837,-96.68,-334.961,-45.41,-73.242,957.733,368
513,1686197552.838,-93.75,-561.523,-15.625,-69.336,957.735,371
514,1686197552.841,-52.734,-720.215,143.555,-26.367,957.737,371
515,1686197552.842,-46.875,-670.41,136.23,-14.16,957.739,371
516,1686197552.845,16.113,195.312,202.148,-2.93,957.741,371
517,1686197552.846,-2.93,71.289,183.105,-9.277,957.742,371
518,1686197552.849,-9.766,313.965,-8.301,-42.48,957.745,371
519,1686197552.85,-46.875,399.902,8.301,-61.035,957.746,372
520,1686197552.853,-67.871,-69.824,4.395,-83.496,957.749,372
521,1686197552.857,-53.711,-215.82,45.898,-62.988,957.753,372
522,1686197552.861,9.766,33.691,80.078,-17.578,957.756,372
523,1686197552.864,10.254,205.078,20.996,-30.273,957.76,372
524,1686197552.868,-58.594,-220.215,10.742,-73.73,957.764,374
525,1686197552.872,-68.848,-314.941,104.004,-59.082,957.768,374
526,1686197552.876,5.371,132.812,113.77,-6.836,957.772,374
527,1686197552.88,24.414,278.32,32.715,-20.02,957.776,374
528,1686197552.882,-57.129,-646.973,-21.484,-67.383,957.778,374
529,1686197552.886,-96.68,-669.922,123.047,-73.242,957.782,374
530,1686197552.89,-32.227,350.098,135.742,-23.438,957.786,374
531,1686197552.894,16.113,216.309,0.0,5.371,957.79,373
532,1686197552.898,-30.273,-79.59,-22.949,-42.48,957.794,373
533,1686197552.902,-82.031,-117.676,5.859,-68.848,957.798,373
534,1686197552.906,-49.805,-159.668,57.129,-27.832,957.802,373
535,1686197552.909,-8.301,-275.879,-0.977,5.371,957.806,372
536,1686197552.913,-40.039,-900.879,-14.648,-26.367,957.81,372
537,1686197552.917,-90.82,-434.082,144.531,-69.824,957.814,372
538,1686197552.921,-75.684,360.352,64.941,-52.734,957.818,371
539,1686197552.925,-19.531,63.477,4.883,-5.859,957.821,371
540,1686197552.927,-18.555,-66.895,71.777,-18.066,957.824,371
541,1686197552.931,-74.219,155.762,50.293,-69.824,957.828,371
542,1686197552.935,-85.938,187.012,-3.418,-67.383,957.831,368
543,1686197552.939,-36.133,-220.215,36.621,-9.277,957.835,368
544,1686197552.943,-18.066,-348.633,114.258,-15.137,957.839,368
545,1686197552.947,-66.895,-215.332,26.367,-76.66,957.843,368
546,1686197552.951,-93.262,-199.219,14.648,-78.613,957.847,366
547,1686197552.954,-57.129,-555.176,41.504,-28.809,957.851,366
548,1686197552.958,-22.461,-452.148,111.328,-17.578,957.855,366
549,1686197552.962,-46.387,271.973,50.293,-65.918,957.859,365
550,1686197552.966,-93.262,86.914,-14.16,-89.355,957.863,365
551,1686197552.97,-62.012,-82.52,55.664,-47.363,957.867,365
552,1686197552.973,0.977,185.059,79.102,-8.789,957.871,365
553,1686197552.977,-11.719,276.367,23.438,-38.574,957.875,362
554,1686197552.981,-75.195,-212.891,-45.898,-80.566,957.879,362
555,1686197552.985,-89.355,-513.184,88.379,-61.035,957.883,362
556,1686197552.989,-25.879,7.324,123.047,-16.113,957.887,363
557,1686197552.993,-14.648,-13.672,-4.395,-25.879,957.891,363
558,1686197552.997,-81.055,-528.809,-33.691,-73.73,957.895,363
559,1686197553.0,-104.492,-1000.0,-20.996,-73.73,957.898,363
560,1686197553.004,-34.668,-422.363,261.719,-31.738,957.902,362
561,1686197553.008,12.207,375.977,121.582,-12.695,957.906,362
562,1686197553.012,-47.363,-11.719,-10.742,-51.27,957.91,362
563,1686197553.016,-95.215,-152.344,103.516,-72.266,957.914,362
564,1686197553.017,-57.129,179.688,76.172,-24.414,957.928,362
565,1686197553.021,-10.254,218.75,11.23,-2.93,957.932,361
566,1686197553.025,-38.086,-116.211,12.207,-45.41,957.936,361
567,1686197553.029,-78.613,-141.602,59.57,-71.289,957.94,361
568,1686197553.033,-54.688,1.465,25.391,-39.551,957.944,359
569,1686197553.037,-4.395,-140.625,26.855,-4.883,957.948,359
570,1686197553.041,-20.996,-700.195,-17.09,-22.461,957.952,359
571,1686197553.044,-81.543,-749.023,140.625,-61.035,957.956,358
572,1686197553.048,-67.383,81.055,193.359,-56.152,957.96,358
573,1686197553.052,-2.441,162.109,12.207,-20.996,957.964,358
574,1686197553.056,10.742,-17.578,40.527,-31.25,957.968,358
575,1686197553.06,-41.016,98.633,60.059,-68.848,957.971,358
576,1686197553.062,-65.43,208.008,39.551,-58.594,957.973,358
577,1686197553.066,-27.344,30.273,-1.953,-8.789,957.977,358
578,1686197553.07,0.0,-146.484,4.395,4.395,957.981,358
579,1686197553.074,-27.344,51.27,43.457,-33.691,957.985,358
580,1686197553.078,-67.383,52.246,17.09,-64.453,957.989,358
581,1686197553.082,-45.41,-380.371,-41.992,-31.25,957.993,358
582,1686197553.086,0.488,-780.273,19.043,12.695,957.997,356
583,1686197553.089,-13.672,-503.418,69.336,-12.207,958.001,356
584,1686197553.093,-67.383,-99.121,39.551,-56.641,958.004,356
585,1686197553.097,-62.988,-221.191,8.301,-34.18,958.008,356
586,1686197553.101,-10.742,-977.051,-11.23,19.043,958.012,357
587,1686197553.105,-11.23,-504.883,109.863,-6.836,958.016,357
588,1686197553.122,-66.406,280.762,41.504,-58.594,958.019,355
589,1686197553.126,-70.312,80.078,24.902,-48.34,958.023,357
590,1686197553.13,-6.836,177.246,93.262,-2.93,958.027,357
591,1686197553.134,21.973,384.277,30.762,-3.418,958.031,357
592,1686197553.138,-34.668,183.105,-2.93,-49.805,958.034,357
593,1686197553.142,-80.078,-267.09,10.742,-59.082,958.038,360
594,1686197553.146,-24.414,-209.473,78.125,-15.137,958.042,360
595,1686197553.149,16.113,258.301,71.289,-2.441,958.046,360
596,1686197553.153,-36.133,184.082,-19.043,-53.711,958.05,360
597,1686197553.157,-86.426,-463.867,29.297,-74.219,958.054,363
598,1686197553.161,-52.246,-512.695,121.094,-36.133,958.058,363
599,1686197553.165,10.742,138.672,77.148,-9.766,958.062,363
600,1686197553.167,-5.371,128.418,-25.879,-45.41,958.064,363
601,1686197553.171,-65.918,-333.984,11.23,-84.473,958.068,367
602,1686197553.175,-43.457,-34.668,114.258,-50.293,958.072,367
603,1686197553.179,20.508,376.953,69.336,-3.906,958.076,367
604,1686197553.183,10.742,98.633,-14.16,-13.184,958.08,370
605,1686197553.187,-54.199,-375.0,-21.484,-53.711,958.084,370
606,1686197553.191,-74.707,-356.934,33.203,-47.852,958.087,370
607,1686197553.194,-19.043,-132.812,50.293,5.371,958.091,370
608,1686197553.198,12.207,-260.254,-27.832,12.695,958.095,377
609,1686197553.202,-47.363,-904.297,-3.906,-35.156,958.099,377
610,1686197553.206,-77.637,-373.047,215.332,-57.617,958.103,377
611,1686197553.21,-19.531,458.984,89.355,-20.02,958.107,377
612,1686197553.212,11.23,103.516,-18.066,-2.441,958.108,384
613,1686197553.216,-34.18,-38.086,36.133,-43.945,958.112,384
614,1686197553.22,-76.172,258.301,41.992,-66.895,958.116,384
615,1686197553.224,-50.781,308.105,9.277,-27.832,958.12,391
616,1686197553.228,1.953,-111.328,10.742,12.695,958.124,391
617,1686197553.232,-7.812,-365.234,58.594,-15.137,958.128,391
618,1686197553.236,-64.453,-123.047,52.734,-64.453,958.132,399
619,1686197553.239,-53.711,204.102,40.039,-43.457,958.136,399
620,1686197553.243,-4.883,-249.023,32.227,1.953,958.14,399
621,1686197553.247,-2.93,-311.523,141.602,-12.207,958.144,399
622,1686197553.251,-46.387,387.695,64.453,-57.129,958.147,399
623,1686197553.255,-62.012,183.594,4.883,-55.664,958.151,406
624,1686197553.257,-8.301,56.641,48.34,-9.277,958.154,406
625,1686197553.261,24.902,379.395,39.062,-0.488,958.158,406
626,1686197553.265,-20.508,375.977,-6.836,-44.434,958.162,412
627,1686197553.269,-68.848,-158.203,-18.555,-60.547,958.166,412
628,1686197553.273,-40.527,-402.832,25.879,-22.949,958.169,412
629,1686197553.277,-1.465,-78.613,28.809,-9.277,958.173,418
630,1686197553.281,-29.297,-47.363,6.836,-46.875,958.177,418
631,1686197553.284,-65.918,-343.262,-20.02,-55.176,958.181,418
632,1686197553.288,-48.828,-934.082,32.715,-15.625,958.185,418
633,1686197553.292,3.906,-275.391,200.195,0.488,958.189,418
634,1686197553.296,-2.93,553.711,29.785,-29.785,958.193,424
635,1686197553.3,-65.43,176.27,-25.879,-67.871,958.197,424
636,1686197553.302,-57.129,129.883,81.543,-49.805,958.199,424
637,1686197553.306,11.23,489.258,42.48,-4.395,958.202,429
638,1686197553.31,16.602,426.758,-28.809,-15.137,958.206,429
639,1686197553.314,-51.27,66.895,-5.371,-59.082,958.21,429
640,1686197553.318,-75.195,49.316,35.156,-57.129,958.214,429
641,1686197553.322,-16.113,61.035,5.859,-4.883,958.218,431
642,1686197553.326,9.766,41.016,16.602,-4.883,958.222,431
643,1686197553.329,-60.547,-566.895,-46.387,-58.594,958.226,431
644,1686197553.333,-97.656,-663.086,122.559,-76.172,958.23,431
645,1686197553.337,-34.18,388.184,170.898,-36.621,958.234,436
646,1686197553.341,12.695,432.617,-17.09,-3.418,958.238,436
647,1686197553.345,-24.902,163.574,-3.906,-33.203,958.242,436
648,1686197553.347,-72.754,276.367,17.578,-66.895,958.244,436
649,1686197553.351,-51.27,428.711,29.785,-45.41,958.248,436
650,1686197553.355,-2.93,208.008,-21.484,-2.441,958.252,436
651,1686197553.359,-8.789,-16.113,-34.18,-16.113,958.255,436
652,1686197553.363,-64.941,11.719,-16.113,-62.012,958.259,438
653,1686197553.367,-78.613,-118.164,17.09,-60.547,958.263,438
654,1686197553.371,-25.391,-223.145,-36.133,-16.602,958.267,438
655,1686197553.374,-19.043,-837.891,-71.777,-10.254,958.271,438
656,1686197553.378,-75.684,-653.32,95.703,-59.082,958.275,439
657,1686197553.382,-92.285,250.0,54.688,-76.66,958.279,439
658,1686197553.386,-41.504,70.312,7.324,-21.973,958.283,439
659,1686197553.39,-11.719,-62.012,54.199,-5.859,958.287,438
660,1686197553.408,-51.27,390.137,17.09,-55.664,958.305,437
661,1686197553.412,-95.703,324.219,-23.438,-77.637,958.309,437
662,1686197553.416,-59.57,136.23,5.371,-41.504,958.313,437
663,1686197553.42,8.301,285.645,45.41,-5.859,958.317,437
664,1686197553.424,-15.137,338.379,-26.855,-34.18,958.32,437
665,1686197553.428,-84.961,0.0,-36.621,-71.289,958.324,434
666,1686197553.432,-77.637,-592.285,22.949,-44.434,958.328,434
667,1686197553.435,-3.418,-357.422,107.91,-7.324,958.332,434
668,1686197553.439,12.207,457.031,31.25,-29.785,958.336,434
669,1686197553.443,-53.223,258.301,-32.715,-71.777,958.34,434
670,1686197553.447,-72.266,-43.945,25.391,-57.129,958.344,434
671,1686197553.451,-17.578,49.316,49.805,-6.348,958.348,434
672,1686197553.453,9.766,343.262,34.18,-12.207,958.363,434
673,1686197553.457,-42.969,125.977,-56.152,-54.199,958.366,431
674,1686197553.461,-74.707,-262.695,4.395,-56.641,958.37,431
675,1686197553.465,-21.484,113.281,82.52,-10.742,958.374,431
676,1686197553.469,19.043,356.934,-5.859,18.066,958.378,431
677,1686197553.473,-23.438,-206.543,-88.379,-21.484,958.382,429
678,1686197553.477,-76.172,-756.348,9.766,-52.734,958.386,429
679,1686197553.48,-41.504,-235.84,116.211,-15.625,958.39,429
680,1686197553.484,15.625,410.156,47.852,7.324,958.394,429
681,1686197553.484,18.066,557.129,61.035,3.418,958.393,429
682,1686197553.488,-13.672,67.383,-40.039,-27.344,958.398,425
683,1686197553.488,13.184,217.285,-41.992,-13.184,958.397,425
684,1686197553.492,-83.008,-961.426,-56.152,-59.082,958.402,425
685,1686197553.492,-54.199,26.367,7.324,-72.754,958.401,425
686,1686197553.496,-65.918,350.586,34.668,-65.43,958.405,425
687,1686197553.496,-57.129,-458.008,120.117,-42.48,958.406,425
688,1686197553.5,-11.719,531.738,1.953,-14.16,958.409,423
689,1686197553.504,-4.395,-247.07,-46.875,-7.812,958.413,423
690,1686197553.508,-50.293,-546.387,70.801,-52.734,958.417,423
691,1686197553.511,-69.824,299.805,85.449,-70.801,958.421,423
692,1686197553.515,-34.668,433.105,-14.648,-20.02,958.424,421
693,1686197553.519,0.488,-197.266,50.781,15.625,958.428,421
694,1686197553.523,-30.762,-185.059,146.973,-29.297,958.432,421
695,1686197553.527,-73.73,379.395,39.062,-74.219,958.436,419
696,1686197553.542,-52.246,251.953,-19.531,-35.645,958.439,415
697,1686197553.546,-1.953,-38.574,22.949,-1.465,958.443,415
698,1686197553.55,-10.254,194.824,56.152,-41.992,958.447,415
699,1686197553.554,-68.359,329.102,5.371,-80.078,958.451,415
700,1686197553.558,-68.359,-153.32,-41.016,-49.805,958.455,412
701,1686197553.562,-9.766,-522.461,0.977,-5.371,958.459,412
702,1686197553.566,1.465,-180.176,58.594,-26.367,958.463,412
703,1686197553.569,-39.062,65.43,18.555,-59.57,958.466,410
704,1686197553.573,-56.152,-229.492,-33.691,-54.688,958.47,410
705,1686197553.577,-40.527,-706.543,53.223,-26.855,958.474,410
706,1686197553.581,-15.137,-60.547,193.848,-32.227,958.478,406
707,1686197553.585,-46.387,532.715,25.391,-77.148,958.482,406
708,1686197553.587,-96.68,237.793,19.043,-94.238,958.497,406
709,1686197553.591,-76.172,310.059,93.262,-60.059,958.501,406
710,1686197553.595,-26.367,607.91,38.574,-37.109,958.505,402
711,1686197553.599,-49.805,475.098,-5.371,-75.684,958.509,402
712,1686197553.603,-111.328,103.516,-14.16,-108.398,958.513,402
713,1686197553.607,-88.867,-78.613,28.809,-70.801,958.517,402
714,1686197553.611,-12.695,1.465,37.109,-25.879,958.52,398
715,1686197553.614,-23.438,170.41,10.254,-51.758,958.524,398
716,1686197553.618,-91.797,-502.93,-28.809,-83.496,958.528,398
717,1686197553.622,-83.496,-642.578,151.367,-61.523,958.532,392
718,1686197553.626,-11.719,434.57,176.758,-16.602,958.536,392
719,1686197553.63,4.395,398.926,-30.273,-11.23,958.54,392
720,1686197553.632,-57.129,61.523,13.184,-58.105,958.532,392
721,1686197553.636,-81.543,266.113,74.707,-64.941,958.536,384
722,1686197553.64,-27.832,508.789,52.734,-23.438,958.54,384
723,1686197553.644,0.0,220.215,3.906,-6.348,958.544,384
724,1686197553.648,-46.387,-62.988,-15.625,-52.734,958.548,384
725,1686197553.652,-89.355,-39.551,16.602,-93.262,958.552,375
726,1686197553.656,-52.734,-27.344,55.664,-46.875,958.556,375
727,1686197553.659,-7.324,-217.285,-27.832,2.93,958.56,375
728,1686197553.663,-37.109,-610.84,26.367,-34.668,958.564,375
729,1686197553.667,-84.961,-267.09,120.605,-75.684,958.567,363
730,1686197553.671,-65.918,307.129,74.219,-40.527,958.571,363
731,1686197553.675,-2.93,41.016,-8.789,2.93,958.575,363
732,1686197553.677,-9.766,-779.785,55.664,-13.672,958.574,350
733,1686197553.681,-64.453,-149.902,212.891,-59.57,958.578,350
734,1686197553.685,-60.547,470.703,72.754,-51.27,958.582,350
735,1686197553.689,3.906,329.59,62.012,1.953,958.585,337
736,1686197553.693,22.949,336.914,47.852,3.418,958.589,337
737,1686197553.697,-41.504,84.961,-15.137,-50.781,958.593,337
738,1686197553.701,-78.613,-1.953,36.133,-61.035,958.597,337
739,1686197553.704,-35.645,-371.582,67.871,-8.301,958.601,337
740,1686197553.708,5.371,-274.902,185.547,7.324,958.605,325
741,1686197553.712,-23.438,483.398,90.332,-42.969,958.609,325
742,1686197553.716,-73.242,302.734,-10.254,-63.965,958.613,325
743,1686197553.72,-47.852,-7.812,48.34,-18.555,958.617,314
744,1686197553.724,-0.488,159.18,80.078,2.441,958.623,314
745,1686197553.728,-11.23,455.078,42.48,-43.457,958.627,314
746,1686197553.732,-65.43,104.492,-51.27,-77.637,958.631,304
747,1686197553.736,-68.359,-283.203,107.91,-46.875,958.635,304
748,1686197553.74,0.488,197.754,166.504,-1.953,958.638,304
749,1686197553.744,16.602,246.582,23.438,-14.16,958.642,304
750,1686197553.748,-41.504,-257.812,-23.438,-59.57,958.646,297
751,1686197553.751,-82.52,-927.734,-18.066,-51.758,958.65,297
752,1686197553.755,-26.855,-376.953,263.184,-6.836,958.654,297
753,1686197553.759,15.137,537.109,146.973,-1.465,958.658,297
754,1686197553.763,-48.828,181.152,21.973,-51.27,958.662,291
755,1686197553.767,-89.844,81.543,143.555,-69.336,958.666,291
756,1686197553.783,-29.785,474.609,101.562,-13.184,958.683,287
757,1686197553.787,15.625,469.727,7.324,1.953,958.687,287
758,1686197553.791,-27.832,-116.699,14.16,-40.527,958.691,285
759,1686197553.795,-71.289,-138.672,121.094,-73.242,958.695,285
760,1686197553.799,-41.016,108.887,55.176,-40.527,958.698,285
761,1686197553.803,14.16,28.32,34.18,9.277,958.702,285
762,1686197553.807,-13.672,-529.297,-12.207,-16.113,958.706,285
763,1686197553.81,-83.008,-697.266,125.0,-62.988,958.71,285
764,1686197553.812,-69.824,336.426,59.082,-68.359,958.724,285
765,1686197553.814,-71.777,270.02,211.426,-51.27,958.714,285
766,1686197553.816,-19.043,218.262,2.441,-11.719,958.728,285
767,1686197553.818,0.0,432.129,19.043,-7.324,958.718,285
768,1686197553.82,16.602,85.449,-0.977,-3.906,958.732,285
769,1686197553.822,10.742,229.004,33.203,-19.531,958.722,285
770,1686197553.824,-26.855,243.652,33.691,-50.293,958.735,285
771,1686197553.826,-52.246,257.324,76.172,-74.707,958.726,285
772,1686197553.828,-70.801,209.473,26.855,-69.824,958.739,285
773,1686197553.832,-28.32,-93.75,16.113,-20.996,958.743,287
774,1686197553.836,11.719,-235.352,11.23,6.348,958.747,287
775,1686197553.839,-25.391,-185.059,17.09,-33.691,958.751,287
776,1686197553.843,-72.266,-178.711,30.762,-66.895,958.755,289
777,1686197553.847,-49.316,-325.684,18.066,-25.879,958.759,289
778,1686197553.851,-1.465,-985.84,-22.949,27.832,958.763,289
779,1686197553.855,-3.418,-591.797,98.633,-3.418,958.767,289
780,1686197553.872,-54.199,354.004,84.473,-59.57,958.769,295
781,1686197553.876,-62.988,216.309,21.973,-46.875,958.773,295
782,1686197553.88,5.371,278.809,74.707,-0.977,958.777,295
783,1686197553.884,23.926,541.016,43.457,-11.23,958.78,299
784,1686197553.888,-37.598,347.656,-13.672,-61.523,958.784,299
785,1686197553.892,-74.219,-147.949,12.207,-67.383,958.788,299
786,1686197553.896,-35.645,-43.945,96.68,-21.973,958.792,299
787,1686197553.899,8.301,223.145,43.457,-0.488,958.796,302
788,1686197553.903,-24.902,60.059,6.836,-38.086,958.8,302
789,1686197553.907,-76.66,-599.609,0.0,-59.57,958.804,302
790,1686197553.911,-40.527,-500.977,169.434,-15.625,958.808,306
791,1686197553.915,23.438,484.375,159.668,12.207,958.812,306
792,1686197553.918,-15.137,268.066,-27.344,-27.832,958.815,306
793,1686197553.922,-75.684,-17.578,20.02,-65.43,958.818,306
794,1686197553.926,-52.246,273.926,91.797,-28.809,958.822,310
795,1686197553.93,11.23,495.605,62.5,17.09,958.826,310
796,1686197553.934,6.836,180.664,-9.766,-13.672,958.83,310
797,1686197553.938,-56.641,-283.203,-5.859,-56.152,958.834,310
798,1686197553.942,-68.359,-219.238,51.758,-43.457,958.838,314
799,1686197553.945,-13.672,18.555,79.59,0.977,958.842,314
800,1686197553.949,12.695,-145.508,-27.344,-2.441,958.846,314
801,1686197553.953,-56.152,-874.023,-36.133,-44.922,958.85,318
802,1686197553.957,-91.309,-532.715,202.637,-57.617,958.854,318
803,1686197553.961,-33.691,469.238,141.113,-15.625,958.858,318
804,1686197553.962,7.324,134.277,21.484,15.137,958.859,318
805,1686197553.966,-33.691,-76.66,124.023,-31.25,958.863,320
806,1686197553.97,-80.566,374.023,83.496,-57.617,958.867,320
807,1686197553.974,-41.992,403.809,32.227,-19.531,958.871,320
808,1686197553.978,14.16,271.484,-1.953,5.371,958.875,320
809,1686197553.982,-14.16,-28.32,15.137,-29.297,958.878,324
810,1686197553.986,-69.824,-36.133,70.312,-65.43,958.882,324
811,1686197553.989,-59.57,266.113,32.227,-43.457,958.886,324
812,1686197553.993,-4.883,-363.281,-11.719,-8.301,958.89,327
813,1686197553.997,-5.371,-476.074,74.707,-20.996,958.894,327
814,1686197554.001,-66.406,232.422,75.684,-77.637,958.898,327
815,1686197554.005,-75.684,114.258,24.414,-67.383,958.902,327
816,1686197554.008,-8.301,-62.012,12.695,1.465,958.905,327
817,1686197554.012,10.254,60.059,40.527,-10.254,958.909,331
818,1686197554.016,-56.641,331.543,42.48,-73.73,958.913,331
819,1686197554.02,-91.309,50.781,-39.062,-83.496,958.916,331
820,1686197554.024,-38.574,-298.34,41.016,-33.691,958.92,333
821,1686197554.028,10.254,-79.59,84.961,-10.254,958.924,333
822,1686197554.032,-34.668,-1.465,17.09,-56.641,958.928,333
823,1686197554.035,-92.285,-273.438,-28.809,-81.055,958.932,335
824,1686197554.039,-71.777,-910.156,9.277,-32.715,958.936,335
825,1686197554.043,-9.277,-314.453,199.219,5.859,958.94,335
826,1686197554.047,-10.254,524.902,71.777,-29.785,958.944,335
827,1686197554.051,-74.707,155.762,22.461,-77.637,958.948,338
828,1686197554.067,-75.684,160.645,102.051,-59.57,958.964,341
829,1686197554.071,-9.766,508.789,53.223,-17.578,958.968,341
830,1686197554.075,-3.418,418.457,-17.09,-25.879,958.972,344
831,1686197554.079,-70.801,-72.754,37.109,-74.707,958.976,344
832,1686197554.083,-81.055,-45.41,96.68,-78.125,958.98,344
833,1686197554.087,-22.949,139.16,29.297,-22.949,958.984,344
834,1686197554.091,1.465,92.773,6.836,-18.066,958.988,349
835,1686197554.094,-49.805,-524.414,-29.297,-68.359,958.991,349
836,1686197554.097,-74.707,146.973,48.34,-72.754,958.994,349
837,1686197554.098,-90.332,-640.625,145.02,-81.543,958.995,349
838,1686197554.101,-53.223,340.332,67.383,-41.504,958.998,349
839,1686197554.102,-36.133,377.93,178.223,-34.18,958.999,349
840,1686197554.105,4.395,171.387,29.785,5.859,959.002,357
841,1686197554.106,14.648,412.109,8.301,-7.324,959.003,357
842,1686197554.109,-4.883,-9.766,9.277,-18.555,959.006,357
843,1686197554.11,-21.484,80.566,19.043,-45.41,959.007,357
844,1686197554.113,-58.594,97.656,17.578,-56.641,959.01,357
845,1686197554.117,-59.082,-90.82,5.859,-36.133,959.014,367
846,1686197554.121,-11.719,-312.5,-2.93,-4.395,959.018,367
847,1686197554.124,-3.418,-425.293,-24.902,-5.859,959.022,367
848,1686197554.128,-51.27,-168.457,46.387,-48.828,959.025,367
849,1686197554.132,-74.219,219.238,55.664,-59.082,959.029,377
850,1686197554.136,-22.461,-40.039,-18.555,-14.16,959.033,377
851,1686197554.14,5.371,-974.609,-42.48,8.789,959.037,377
852,1686197554.142,-32.227,-628.418,80.566,-37.598,959.068,377
853,1686197554.146,-57.129,291.016,80.566,-63.477,959.072,387
854,1686197554.15,-19.043,198.73,31.738,-28.809,959.076,387
855,1686197554.154,31.25,283.691,72.266,-2.441,959.08,387
856,1686197554.158,1.465,441.406,4.883,-27.832,959.084,387
857,1686197554.162,-58.105,151.855,-30.273,-66.406,959.088,396
858,1686197554.166,-54.688,-555.664,19.043,-27.832,959.092,396
859,1686197554.169,-1.465,-422.363,109.863,15.625,959.095,396
860,1686197554.173,7.812,223.633,52.246,-13.672,959.099,401
861,1686197554.177,-48.828,-48.828,-26.367,-57.617,959.103,401
862,1686197554.181,-64.941,-220.703,95.703,-51.758,959.107,401
863,1686197554.185,-2.441,181.641,144.531,-7.812,959.111,405
864,1686197554.188,22.949,489.746,19.043,-4.395,959.098,405
865,1686197554.192,-40.527,116.211,-22.949,-47.363,959.102,405
866,1686197554.196,-68.848,-64.453,21.484,-58.105,959.106,405
867,1686197554.2,-14.16,281.738,60.059,-10.742,959.11,405
868,1686197554.204,26.855,281.25,9.766,3.906,959.114,405
869,1686197554.208,-18.555,-342.773,-59.57,-37.109,959.118,405
870,1686197554.212,-76.172,-797.852,14.16,-62.012,959.122,405
871,1686197554.215,-39.551,-225.098,155.273,-32.715,959.126,405
872,1686197554.219,20.508,413.574,57.129,-6.836,959.129,405
873,1686197554.223,-14.16,-8.789,-7.324,-31.25,959.133,405
874,1686197554.227,-73.242,-294.434,49.805,-64.453,959.137,404
875,1686197554.231,-52.734,3.418,61.035,-41.016,959.141,404
876,1686197554.234,4.883,319.824,68.359,5.859,959.143,404
877,1686197554.238,0.488,-110.352,-62.5,-5.859,959.147,404
878,1686197554.242,-73.242,-1000.0,-0.977,-46.387,959.151,404
879,1686197554.246,-66.895,-331.055,264.648,-41.504,959.155,402
880,1686197554.25,13.672,495.117,127.441,1.465,959.159,402
881,1686197554.254,27.832,117.676,-15.137,2.441,959.163,402
882,1686197554.258,-32.715,-68.848,65.918,-48.34,959.167,401
883,1686197554.261,-64.453,317.871,64.453,-61.035,959.171,401
884,1686197554.265,-18.555,358.887,0.0,-12.207,959.175,401
885,1686197554.269,9.277,-215.82,37.109,0.0,959.179,397
886,1686197554.273,-28.32,-131.836,110.84,-46.387,959.183,397
887,1686197554.277,-73.242,371.582,30.762,-76.66,959.186,397
888,1686197554.293,-52.246,226.562,9.766,-33.691,959.19,393
889,1686197554.297,-3.906,-54.199,11.719,11.719,959.194,390
890,1686197554.301,-17.578,7.812,17.578,-27.344,959.198,390
891,1686197554.305,-67.383,271.484,38.574,-71.777,959.201,390
892,1686197554.309,-59.082,49.805,-19.531,-39.062,959.205,390
893,1686197554.313,1.465,-500.488,-12.207,14.16,959.209,386
894,1686197554.317,2.93,-321.289,80.566,-11.719,959.213,386
895,1686197554.32,-60.059,-59.57,45.898,-65.918,959.217,386
896,1686197554.324,-82.031,-323.242,-44.922,-52.734,959.221,386
897,1686197554.328,-31.738,-756.348,47.852,12.207,959.225,383
898,1686197554.332,4.395,-103.027,208.008,10.742,959.229,383
899,1686197554.336,-39.551,417.48,13.672,-51.27,959.233,383
900,1686197554.337,-74.219,60.547,12.207,-68.359,959.234,383
901,1686197554.341,-27.344,152.832,97.168,-24.902,959.238,380
902,1686197554.345,19.043,461.426,26.367,-0.488,959.242,380
903,1686197554.349,-19.531,307.617,-31.25,-43.457,959.246,380
904,1686197554.353,-82.52,-197.266,-9.766,-74.219,959.25,380
905,1686197554.357,-62.012,-339.355,39.551,-32.227,959.254,375
906,1686197554.361,3.906,42.48,51.27,10.254,959.258,375
907,1686197554.364,-4.883,262.207,-15.137,-21.484,959.262,375
908,1686197554.368,-81.055,-540.039,-61.035,-59.082,959.266,370
909,1686197554.372,-76.66,-643.066,164.062,-31.25,959.269,370
910,1686197554.376,10.254,364.746,148.438,15.625,959.273,370
911,1686197554.38,9.766,301.758,-26.855,-4.395,959.277,365
912,1686197554.383,-66.406,-39.551,18.066,-68.848,959.279,365
913,1686197554.387,-78.125,88.867,64.941,-66.406,959.283,365
914,1686197554.391,-11.23,316.895,62.5,-0.977,959.287,365
915,1686197554.395,20.996,155.762,9.277,14.16,959.291,360
916,1686197554.399,-31.738,-125.977,-39.062,-46.387,959.295,360
917,1686197554.403,-79.59,-221.68,-3.418,-74.219,959.299,360
918,1686197554.407,-39.551,-178.711,51.27,-28.32,959.303,356
919,1686197554.41,19.043,-210.449,-20.508,3.906,959.307,356
920,1686197554.414,-26.855,-946.289,-84.473,-27.344,959.311,356
921,1686197554.418,-88.379,-673.828,149.414,-75.684,959.315,356
922,1686197554.422,-56.641,131.348,169.434,-49.316,959.319,352
923,1686197554.426,0.977,55.176,46.875,3.418,959.322,352
924,1686197554.427,-1.465,225.098,76.172,-21.484,959.324,352
925,1686197554.431,-67.871,427.734,23.438,-69.336,959.328,352
926,1686197554.435,-81.055,349.609,4.395,-64.453,959.332,352
927,1686197554.439,-18.066,192.383,22.949,-20.02,959.336,349
928,1686197554.443,0.0,185.547,19.043,-22.461,959.34,349
929,1686197554.447,-58.594,-8.301,-19.531,-63.965,959.344,349
930,1686197554.451,-85.449,-109.863,-5.859,-69.824,959.348,346
931,1686197554.454,-34.668,-478.516,35.645,-24.902,959.352,346
932,1686197554.458,2.93,-384.766,141.602,-12.207,959.356,346
933,1686197554.462,-37.109,126.953,41.992,-59.082,959.36,344
934,1686197554.466,-83.496,-107.91,-12.207,-69.824,959.364,344
935,1686197554.47,-58.594,-182.617,120.605,-31.738,959.367,344
936,1686197554.472,-2.93,162.109,129.883,-4.395,959.369,344
937,1686197554.476,-20.996,399.414,2.441,-43.945,959.373,344
938,1686197554.48,-84.473,65.918,-11.23,-85.938,959.377,343
939,1686197554.484,-63.965,-19.043,48.34,-56.152,959.381,343
940,1686197554.488,3.906,296.387,34.18,-12.207,959.385,343
941,1686197554.492,-0.488,89.844,-24.902,-29.297,959.389,342
942,1686197554.496,-60.059,-378.906,-40.527,-72.266,959.393,342
943,1686197554.499,-80.566,-973.145,-25.879,-54.688,959.397,342
944,1686197554.503,-16.113,-378.906,254.883,-9.277,959.401,342
945,1686197554.507,18.555,508.789,131.836,-19.043,959.404,342
946,1686197554.511,-40.039,128.906,2.93,-64.453,959.408,342
947,1686197554.515,-78.125,-26.367,95.703,-70.801,959.412,342
948,1686197554.518,-27.832,134.766,75.684,-18.555,959.414,342
949,1686197554.522,14.648,332.031,41.016,2.93,959.418,342
950,1686197554.526,-44.922,-119.629,10.742,-43.945,959.422,342
951,1686197554.53,-97.656,-238.77,177.734,-81.055,959.426,342
952,1686197554.534,-57.129,263.184,88.379,-41.016,959.43,342
953,1686197554.538,-6.348,183.594,-18.066,-0.977,959.434,342
954,1686197554.542,-30.273,-483.887,-3.418,-31.738,959.437,342
955,1686197554.545,-93.262,-514.16,92.773,-67.871,959.441,342
956,1686197554.549,-73.242,334.473,72.266,-44.434,959.445,343
957,1686197554.553,-7.324,332.52,-17.09,-0.488,959.449,343
958,1686197554.557,-9.766,122.559,40.527,-14.16,959.453,343
959,1686197554.561,-68.848,194.336,44.434,-59.57,959.457,345
960,1686197554.562,-82.031,291.504,24.902,-56.641,959.488,345
961,1686197554.566,-26.367,152.832,10.742,-12.207,959.492,345
962,1686197554.57,-2.93,-179.688,-21.484,-11.719,959.496,345
963,1686197554.574,-56.641,-137.695,12.207,-66.895,959.5,346
964,1686197554.578,-89.844,149.414,27.832,-78.613,959.504,346
965,1686197554.582,-44.434,-26.855,-45.41,-25.391,959.507,346
966,1686197554.586,-10.742,-849.609,-68.359,1.953,959.511,346
967,1686197554.589,-39.062,-703.613,110.84,-37.598,959.515,348
968,1686197554.593,-72.266,252.93,88.867,-76.172,959.519,348
969,1686197554.597,-53.223,6.836,-17.09,-34.18,959.523,348
970,1686197554.601,2.441,-156.25,43.945,9.766,959.527,349
971,1686197554.605,-6.348,337.891,46.387,-29.785,959.531,349
972,1686197554.622,-79.102,280.273,-6.836,-79.59,959.519,350
973,1686197554.626,-85.449,40.039,30.273,-60.547,959.523,350
974,1686197554.63,-17.578,139.648,86.426,-13.672,959.527,352
975,1686197554.634,-9.277,348.145,8.789,-40.039,959.531,352
976,1686197554.638,-71.289,6.348,-26.855,-93.75,959.534,352
977,1686197554.642,-92.773,-357.422,44.434,-78.125,959.538,354
978,1686197554.646,-39.062,-247.559,73.73,-24.414,959.542,354
979,1686197554.649,-0.977,114.746,40.527,-19.531,959.546,354
980,1686197554.653,-50.781,151.367,-5.371,-67.383,959.55,354
981,1686197554.657,-104.004,-215.82,59.57,-86.426,959.554,355
982,1686197554.661,-55.176,34.668,117.188,-41.016,959.558,355
983,1686197554.665,2.93,398.438,36.621,-13.184,959.562,355
984,1686197554.667,-28.32,214.844,-44.922,-51.758,959.592,355
985,1686197554.671,-85.938,-605.957,-13.672,-75.684,959.596,356
986,1686197554.675,-58.594,-463.867,248.535,-43.945,959.6,356
987,1686197554.679,13.184,418.945,171.875,-6.836,959.604,356
988,1686197554.683,1.953,168.457,-45.898,-17.09,959.608,358
989,1686197554.687,-66.406,-291.504,-21.973,-59.082,959.612,358
990,1686197554.691,-69.336,-244.629,58.105,-48.828,959.615,358
991,1686197554.694,-9.277,-16.602,60.547,-5.371,959.619,358
992,1686197554.698,0.0,-195.801,-52.246,-8.789,959.623,358
993,1686197554.702,-62.988,-845.215,6.836,-52.734,959.627,358
994,1686197554.706,-83.008,-271.973,232.91,-64.941,959.631,358
995,1686197554.71,-9.277,616.699,83.984,-17.09,959.635,360
996,1686197554.742,25.879,-42.48,-68.359,0.0,959.639,362
997,1686197554.746,-31.25,-513.672,53.711,-53.711,959.643,362
998,1686197554.75,-65.43,241.211,108.398,-83.008,959.647,362
999,1686197554.754,-27.344,472.656,27.832,-31.738,959.651,363
1000,1686197554.758,11.719,170.41,-5.371,-3.418,959.655,363
1001,1686197554.758,-10.254,6.348,107.91,-8.301,959.654,363
1002,1686197554.762,-19.531,-143.555,-23.926,-40.527,959.658,363
1003,1686197554.762,16.113,265.625,105.957,2.93,959.658,363
1004,1686197554.766,-64.941,-74.219,43.945,-65.918,959.662,364
1005,1686197554.766,-41.016,400.879,8.301,-53.711,959.662,364
1006,1686197554.769,-48.34,258.789,19.043,-39.062,959.666,364
1007,1686197554.77,-75.195,86.914,-29.297,-59.082,959.666,364
1008,1686197554.773,3.418,-315.918,-10.254,0.488,959.67,364
1009,1686197554.774,-30.762,-327.148,74.707,2.441,959.67,364
1010,1686197554.777,2.93,-429.688,84.961,-20.508,959.674,364
1011,1686197554.778,10.254,-134.277,138.672,11.23,959.674,364
1012,1686197554.781,-54.688,123.047,29.297,-71.777,959.678,364
1013,1686197554.782,-27.832,-1.953,-12.695,-37.598,959.678,364
1014,1686197554.785,-74.219,29.297,-1.953,-65.918,959.682,364
1015,1686197554.785,-82.031,-375.488,-19.043,-63.965,959.682,364
1016,1686197554.789,-49.316,-229.004,51.758,-29.785,959.686,364
1017,1686197554.793,20.996,436.523,83.984,2.93,959.689,365
1018,1686197554.797,-5.371,498.047,-19.043,-36.133,959.693,365
1019,1686197554.801,-80.078,-102.051,19.043,-81.055,959.697,365
1020,1686197554.804,-68.359,-306.641,143.555,-51.27,959.703,366
1021,1686197554.808,9.277,63.477,86.426,-2.93,959.707,366
1022,1686197554.812,20.02,292.969,13.184,-22.461,959.711,366
1023,1686197554.816,-50.781,-270.508,-47.363,-59.082,959.715,366
1024,1686197554.82,-69.336,-1000.0,13.184,-41.016,959.719,366
1025,1686197554.824,-1.953,-538.086,132.812,1.465,959.723,367
1026,1686197554.828,29.785,186.035,68.359,7.812,959.727,367
1027,1686197554.831,-30.273,-368.164,-7.812,-33.203,959.731,367
1028,1686197554.835,-70.801,-377.441,217.773,-54.199,959.735,367
1029,1686197554.839,-12.695,556.641,156.25,-10.742,959.738,367
1030,1686197554.843,24.902,411.621,-40.527,10.254,959.742,367
1031,1686197554.847,-17.09,128.906,20.02,-32.227,959.746,367
1032,1686197554.847,-59.082,302.246,61.035,-53.223,959.744,367
1033,1686197554.851,-29.785,492.188,46.875,-18.555,959.748,368
1034,1686197554.855,17.578,298.34,-27.832,12.207,959.752,368
1035,1686197554.859,2.93,-116.211,-23.438,-17.09,959.755,368
1036,1686197554.863,-57.129,-3.906,20.508,-67.871,959.759,369
1037,1686197554.867,-59.57,33.691,20.508,-49.805,959.763,369
1038,1686197554.871,-4.395,-142.578,-22.461,3.418,959.767,369
1039,1686197554.874,-7.324,-822.266,-101.562,-8.301,959.771,369
1040,1686197554.878,-59.082,-718.262,133.301,-53.223,959.775,369
1041,1686197554.882,-62.988,302.734,158.203,-57.129,959.779,369
1042,1686197554.886,-16.602,319.824,51.758,-12.207,959.783,369
1043,1686197554.89,7.812,279.785,77.148,-6.348,959.787,370
1044,1686197554.892,-40.039,428.711,23.926,-55.176,959.791,370
1045,1686197554.896,-77.148,313.477,5.859,-60.547,959.794,370
1046,1686197554.9,-32.227,120.117,22.949,-18.066,959.798,370
1047,1686197554.904,7.812,220.215,64.941,-20.508,959.802,371
1048,1686197554.908,-26.367,276.367,-30.762,-61.523,959.806,371
1049,1686197554.912,-76.66,-0.488,-33.203,-76.172,959.81,371
1050,1686197554.916,-65.43,-623.047,0.488,-30.273,959.814,371
1051,1686197554.919,-3.906,-595.215,119.141,-5.371,959.818,371
1052,1686197554.923,-0.488,326.66,125.977,-53.711,959.822,371
1053,1686197554.927,-68.359,258.789,-34.18,-88.379,959.826,371
1054,1686197554.931,-76.172,-56.152,76.66,-60.059,959.83,371
1055,1686197554.935,-10.742,246.582,114.746,-5.859,959.833,371
1056,1686197554.937,10.254,481.934,-1.953,-9.766,959.848,371
1057,1686197554.941,-52.246,116.699,-31.738,-58.594,959.852,371
1058,1686197554.945,-78.613,-147.949,-0.977,-69.336,959.856,372
1059,1686197554.949,-25.391,179.199,64.941,-30.273,959.86,372
1060,1686197554.953,9.766,345.703,5.859,-15.625,959.864,372
1061,1686197554.957,-33.203,-202.637,-120.605,-53.711,959.868,373
1062,1686197554.961,-84.961,-817.383,-14.648,-63.965,959.872,373
1063,1686197554.964,-42.969,-311.035,142.09,-15.137,959.876,373
1064,1686197554.968,17.09,240.234,55.664,13.672,959.879,373
1065,1686197554.972,-18.555,-255.371,-79.59,-15.137,959.883,373
1066,1686197554.976,-83.008,-711.426,31.25,-54.688,959.887,373
1067,1686197554.98,-56.152,47.852,190.43,-33.691,959.891,373
1068,1686197554.997,15.137,528.32,25.391,10.254,959.894,374
1069,1686197555.001,8.301,170.898,3.906,-10.254,959.898,373
1070,1686197555.005,-62.988,110.352,62.5,-66.895,959.902,373
1071,1686197555.009,-66.895,324.219,45.41,-60.547,959.906,373
1072,1686197555.013,7.324,406.738,2.93,-3.418,959.91,374
1073,1686197555.017,14.16,-36.133,-10.254,-2.93,959.914,374
1074,1686197555.021,-46.875,-246.582,47.852,-54.199,959.918,374
1075,1686197555.024,-68.359,173.34,42.48,-51.27,959.921,374
1076,1686197555.028,-22.461,278.809,7.324,-7.324,959.925,374
1077,1686197555.032,15.625,-213.867,58.105,4.395,959.929,374
1078,1686197555.036,-25.879,-239.746,79.59,-35.156,959.933,374
1079,1686197555.04,-70.801,44.922,35.156,-66.895,959.937,374
1080,1686197555.057,-24.902,41.992,44.434,-15.625,959.96,375
1081,1686197555.061,33.691,-86.426,45.41,30.273,959.964,375
1082,1686197555.065,15.137,88.867,78.613,-2.93,959.968,375
1083,1686197555.069,-48.34,287.109,38.574,-48.34,959.972,375
1084,1686197555.073,-46.875,-3.418,-5.371,-30.762,959.976,375
1085,1686197555.077,3.906,-220.215,-11.23,15.137,959.979,375
1086,1686197555.081,-2.441,-145.02,21.973,-3.418,959.983,375
1087,1686197555.084,-63.965,-149.414,13.184,-59.57,959.987,375
1088,1686197555.088,-69.336,-320.801,-32.715,-51.758,959.991,375
1089,1686197555.089,-58.105,147.949,-27.832,-50.293,959.987,375
1090,1686197555.092,-12.695,-891.602,-1.465,6.348,959.995,375
1091,1686197555.093,-20.996,31.738,49.805,-18.555,959.991,375
1092,1686197555.096,17.578,-322.266,234.375,4.883,959.999,375
1093,1686197555.097,12.207,229.98,43.457,-0.977,959.995,375
1094,1686197555.1,-18.066,463.867,83.496,-41.016,960.003,375
1095,1686197555.101,-25.879,386.719,-23.438,-35.645,959.999,375
1096,1686197555.105,-73.242,-97.656,5.859,-52.734,960.003,375
1097,1686197555.109,-40.039,-351.562,112.305,-11.23,960.007,376
1098,1686197555.113,25.391,83.984,63.965,17.578,960.011,376
1099,1686197555.116,5.371,311.035,-13.672,-12.695,960.015,376
1100,1686197555.12,-58.105,-177.246,-6.836,-47.852,960.018,376
1101,1686197555.124,-50.293,-83.496,124.512,-23.926,960.022,376
1102,1686197555.128,18.555,482.91,58.594,29.785,960.026,376
1103,1686197555.132,29.297,335.449,-62.988,16.602,960.03,376
1104,1686197555.132,-42.48,-416.016,33.691,-28.809,960.029,376
1105,1686197555.136,-61.035,-268.066,212.891,-31.25,960.033,376
1106,1686197555.14,9.277,473.633,83.008,13.672,960.037,376
1107,1686197555.144,32.715,243.164,-41.016,20.996,960.041,376
1108,1686197555.148,-20.508,-202.637,-28.32,-29.785,960.044,376
1109,1686197555.152,-51.758,-240.234,27.344,-41.016,960.048,376
1110,1686197555.156,-12.695,-104.492,41.504,3.906,960.052,376
1111,1686197555.159,34.18,-142.578,-19.043,36.621,960.056,376
1112,1686197555.163,-8.789,-866.211,-101.074,2.441,960.06,376
1113,1686197555.167,-62.5,-686.035,153.809,-40.527,960.064,375
1114,1686197555.171,-16.602,389.648,208.496,-4.395,960.068,375
1115,1686197555.175,38.574,400.391,57.129,45.898,960.072,375
1116,1686197555.177,21.973,282.715,62.988,18.066,960.074,376
1117,1686197555.181,-34.18,395.996,24.902,-26.855,960.078,376
1118,1686197555.185,-36.133,359.863,27.832,-19.531,960.082,376
1119,1686197555.189,20.996,256.836,50.293,26.855,960.086,376
1120,1686197555.193,40.039,268.555,36.621,30.762,960.09,375
1121,1686197555.197,-7.812,31.25,-21.484,-4.883,960.094,375
1122,1686197555.201,-35.645,-96.191,17.578,-2.93,960.098,375
1123,1686197555.204,10.254,-513.184,-20.02,49.805,960.102,375
1124,1686197555.208,44.922,-595.703,116.211,65.43,960.106,376
1125,1686197555.212,18.066,334.961,133.789,13.672,960.109,376
1126,1686197555.216,-25.391,286.621,-35.156,-13.184,960.113,376
1127,1686197555.22,0.977,-128.906,146.484,30.273,960.117,375
1128,1686197555.222,57.617,175.781,198.242,51.758,960.133,375
1129,1686197555.226,29.785,433.105,9.766,7.324,960.137,375
1130,1686197555.23,-32.227,62.012,-36.621,-17.578,960.141,375
1131,1686197555.234,-7.812,-71.777,9.277,23.438,960.145,375
1132,1686197555.238,54.199,195.312,-4.883,64.941,960.148,375
1133,1686197555.242,48.828,3.418,-30.273,48.34,960.152,375
1134,1686197555.246,-12.695,-383.789,-72.754,15.625,960.156,375
1135,1686197555.249,-22.949,-954.102,-62.988,38.086,960.16,375
1136,1686197555.253,53.711,-445.312,160.156,75.684,960.164,375
1137,1686197555.257,89.844,389.648,60.059,65.43,960.168,375
1138,1686197555.261,22.461,-245.605,-49.316,20.508,960.172,375
1139,1686197555.265,-11.719,-332.52,88.867,5.371,960.176,375
1140,1686197555.269,41.504,403.32,87.891,44.434,960.166,375
1141,1686197555.273,77.637,457.031,-13.184,57.129,960.17,375
1142,1686197555.277,43.945,90.332,15.625,23.926,960.174,375
1143,1686197555.281,8.789,106.445,73.242,6.836,960.178,375
1144,1686197555.285,40.039,329.102,15.137,42.48,960.182,375
1145,1686197555.289,87.402,123.535,-49.805,78.613,960.186,376
1146,1686197555.293,63.965,-548.34,-12.695,49.805,960.19,376
1147,1686197555.296,10.254,-473.145,140.625,8.789,960.194,376
1148,1686197555.3,25.879,339.844,86.426,31.25,960.198,375
1149,1686197555.304,87.891,348.633,-42.969,77.148,960.202,375
1150,1686197555.308,83.984,-95.215,45.41,62.988,960.206,375
1151,1686197555.312,26.855,-96.191,53.711,19.043,960.209,375
1152,1686197555.314,19.531,76.172,12.207,33.691,960.223,375
1153,1686197555.318,72.754,43.945,20.02,88.379,960.227,375
1154,1686197555.322,104.492,-71.777,68.359,92.773,960.23,375
1155,1686197555.326,66.895,86.914,88.379,46.875,960.234,375
1156,1686197555.33,29.785,146.484,-24.902,40.039,960.238,375
1157,1686197555.334,71.289,-108.398,-63.477,98.145,960.242,375
1158,1686197555.338,109.863,-840.82,-72.266,123.535,960.246,375
1159,1686197555.341,78.613,-699.707,104.004,67.871,960.25,375
1160,1686197555.345,49.316,303.223,78.125,46.387,960.254,375
1161,1686197555.349,70.312,3.906,-30.273,98.145,960.258,375
1162,1686197555.353,112.305,-181.641,42.969,121.582,960.262,375
1163,1686197555.357,104.004,373.535,20.02,84.473,960.266,375
1164,1686197555.372,44.922,330.078,-38.086,53.223,960.27,375
1165,1686197555.376,57.129,83.008,14.648,83.496,960.274,375
1166,1686197555.38,125.488,-7.812,30.762,127.441,960.277,375
1167,1686197555.384,125.488,112.305,19.531,113.77,960.281,375
1168,1686197555.388,70.312,294.922,-12.695,63.965,960.285,375
1169,1686197555.392,50.293,-437.012,-80.566,80.566,960.289,375
1170,1686197555.396,100.586,-676.27,117.188,130.859,960.293,375
1171,1686197555.399,149.414,303.711,145.996,126.953,960.297,374
1172,1686197555.403,105.469,311.035,-53.223,88.379,960.301,374
1173,1686197555.407,63.965,-83.984,22.461,74.219,960.305,374
1174,1686197555.411,111.816,146.973,95.215,113.281,960.309,374
1175,1686197555.415,160.645,415.039,30.762,143.066,960.313,374
1176,1686197555.417,125.488,115.234,-42.969,104.98,960.314,374
1177,1686197555.421,66.406,-143.555,-5.859,67.383,960.318,374
1178,1686197555.425,92.773,109.863,64.941,102.051,960.322,374
1179,1686197555.429,161.133,363.281,21.973,145.02,960.326,374
1180,1686197555.433,142.09,61.523,-40.527,118.164,960.33,374
1181,1686197555.437,76.172,-404.297,-30.273,78.125,960.334,374
1182,1686197555.441,87.402,-343.75,21.973,108.398,960.338,374
1183,1686197555.444,144.531,-131.836,42.969,153.809,960.342,374
1184,1686197555.448,145.02,-255.859,-36.133,141.602,960.346,374
1185,1686197555.452,82.031,-975.586,-78.613,108.887,960.35,374
1186,1686197555.456,72.754,-659.18,192.383,104.98,960.353,374
1187,1686197555.46,143.066,361.816,197.266,145.996,960.357,374
1188,1686197555.463,165.527,279.785,17.578,151.367,960.359,374
1189,1686197555.467,111.816,123.535,56.152,100.098,960.363,374
1190,1686197555.471,73.242,256.836,26.855,83.496,960.367,373
1191,1686197555.475,108.887,319.824,-3.418,125.0,960.371,373
1192,1686197555.479,160.645,146.484,-48.34,161.621,960.375,373
1193,1686197555.483,122.07,-201.172,-35.156,120.605,960.379,372
1194,1686197555.487,72.266,-156.738,16.602,80.078,960.383,372
1195,1686197555.49,105.957,156.738,12.207,117.188,960.387,372
1196,1686197555.494,146.973,-476.562,-45.898,158.691,960.391,372
1197,1686197555.498,137.207,-711.426,106.445,132.324,960.395,372
1198,1686197555.502,94.238,205.078,145.996,82.031,960.398,372
1199,1686197555.506,93.75,203.125,-20.996,100.586,960.402,372
1200,1686197555.507,141.113,45.41,28.32,145.02,960.404,372
1201,1686197555.511,145.996,298.828,34.18,134.277,960.408,372
1202,1686197555.515,87.891,295.898,-9.766,84.961,960.412,372
1203,1686197555.519,64.941,-4.395,-10.742,88.379,960.416,372
1204,1686197555.523,113.281,-127.441,-24.414,133.789,960.42,372
1205,1686197555.527,143.555,-70.801,-12.695,144.531,960.424,372
1206,1686197555.531,89.844,-169.922,17.09,100.098,960.428,372
1207,1686197555.534,48.828,-413.086,-58.594,82.031,960.432,372
1208,1686197555.538,76.66,-979.98,-49.316,127.441,960.436,371
1209,1686197555.542,120.605,-449.219,171.875,148.926,960.439,371
1210,1686197555.546,115.723,165.527,41.504,111.328,960.443,371
1211,1686197555.55,63.965,-353.027,-12.207,77.637,960.447,371
1212,1686197555.552,80.566,-158.203,153.809,108.398,960.45,371
1213,1686197555.556,151.855,430.664,76.172,150.879,960.453,371
1214,1686197555.56,146.973,380.371,-58.594,133.789,960.457,371
1215,1686197555.564,72.754,-260.254,13.672,85.449,960.461,371
1216,1686197555.568,62.988,-326.172,152.344,92.285,960.465,371
1217,1686197555.572,127.441,-1.465,34.668,145.508,960.469,371
1218,1686197555.576,145.02,-31.738,-15.137,141.602,960.473,371
1219,1686197555.579,75.195,-545.898,-13.184,94.727,960.477,371
1220,1686197555.583,43.457,-544.434,172.363,89.844,960.481,371
1221,1686197555.587,106.934,334.473,146.973,132.812,960.485,371
1222,1686197555.591,157.227,287.598,-41.992,150.391,960.489,371
1223,1686197555.595,112.305,8.789,16.602,105.469,960.493,371
1224,1686197555.599,50.293,2.93,11.23,83.008,960.496,371
1225,1686197555.603,83.008,8.789,20.02,126.953,960.5,370
1226,1686197555.607,140.137,13.672,15.137,153.32,960.504,370
1227,1686197555.611,124.023,-236.328,7.324,111.816,960.508,370
1228,1686197555.615,62.5,-106.445,32.227,76.66,960.512,370
1229,1686197555.619,58.594,-79.102,-1.953,103.516,960.516,370
1230,1686197555.623,117.188,-279.297,-49.805,143.555,960.52,370
1231,1686197555.626,125.0,-868.652,-99.609,140.625,960.524,370
1232,1686197555.63,68.359,-581.543,95.703,85.449,960.528,370
1233,1686197555.634,61.035,266.113,33.691,86.426,960.532,370
1234,1686197555.638,121.582,109.863,14.648,138.184,960.536,370
1235,1686197555.642,155.273,133.301,81.055,143.555,960.539,370
1236,1686197555.642,99.121,290.039,-9.277,93.262,960.554,370
1237,1686197555.646,46.387,164.062,-19.531,64.941,960.558,370
1238,1686197555.65,88.867,-2.441,9.766,114.258,960.562,370
1239,1686197555.654,141.602,-88.867,36.133,147.461,960.566,370
1240,1686197555.658,117.188,-111.816,-20.996,112.305,960.569,370
1241,1686197555.662,59.082,-129.395,-17.578,73.242,960.573,370
1242,1686197555.666,73.242,-633.301,-36.133,112.305,960.577,370
1243,1686197555.669,134.277,-748.535,93.262,152.344,960.581,370
1244,1686197555.673,129.395,117.676,142.578,110.352,960.585,370
1245,1686197555.677,51.758,188.965,-38.574,64.941,960.589,370
1246,1686197555.681,47.363,-114.258,37.109,78.125,960.593,370
1247,1686197555.685,123.047,141.602,66.895,131.348,960.597,370
1248,1686197555.702,136.719,320.312,-8.789,123.535,960.6,370
1249,1686197555.706,69.336,-11.23,-39.062,65.918,960.604,370
1250,1686197555.71,48.34,-198.242,-0.488,64.941,960.608,370
1251,1686197555.714,105.469,139.16,39.551,109.375,960.611,370
1252,1686197555.718,129.883,261.23,-36.621,117.676,960.615,370
1253,1686197555.722,66.895,-345.215,-113.281,64.941,960.619,370
1254,1686197555.726,10.254,-767.09,32.227,47.852,960.623,370
1255,1686197555.729,44.922,-370.117,119.629,88.379,960.627,370
1256,1686197555.733,102.051,-104.004,4.395,115.234,960.631,369
1257,1686197555.737,76.66,-323.73,-57.129,84.473,960.635,369
1258,1686197555.741,1.953,-1000.0,-79.59,55.664,960.639,369
1259,1686197555.745,34.668,-570.801,161.621,82.52,960.643,370
1260,1686197555.747,114.746,369.141,112.305,111.816,960.657,370
1261,1686197555.751,95.703,150.879,-9.766,83.496,960.661,370
1262,1686197555.755,30.762,11.719,49.316,39.062,960.665,369
1263,1686197555.759,37.598,213.379,9.766,53.223,960.669,369
1264,1686197555.763,96.68,297.852,-6.836,105.469,960.673,369
1265,1686197555.767,106.445,-92.285,-19.043,102.051,960.677,369
1266,1686197555.771,55.176,-246.094,27.832,52.734,960.681,370
1267,1686197555.774,31.738,109.863,31.25,52.246,960.684,370
1268,1686197555.778,77.637,180.664,7.812,97.656,960.688,370
1269,1686197555.782,93.75,-552.246,-42.48,112.793,960.692,370
1270,1686197555.786,34.18,-724.609,95.703,52.734,960.696,369
1271,1686197555.79,14.16,146.973,129.883,20.996,960.7,369
1272,1686197555.807,47.852,134.766,-29.297,58.105,960.704,369
1273,1686197555.811,82.52,-54.688,-6.836,80.078,960.708,369
1274,1686197555.815,56.641,123.535,6.836,35.156,960.712,368
1275,1686197555.819,1.953,171.387,-15.137,-12.207,960.716,368
1276,1686197555.823,9.277,-13.184,-34.18,23.438,960.72,368
1277,1686197555.827,63.477,-287.598,-38.574,65.918,960.724,368
1278,1686197555.831,65.918,-286.133,-13.184,37.109,960.728,368
1279,1686197555.834,0.977,-225.098,-9.277,-7.812,960.732,368
1280,1686197555.837,-15.137,-561.035,-58.594,10.742,960.734,368
1281,1686197555.838,-10.254,-486.328,-59.082,17.09,960.736,368
1282,1686197555.841,27.832,-650.391,105.469,50.781,960.738,369
1283,1686197555.842,46.387,-559.082,81.543,69.824,960.74,369
1284,1686197555.845,66.895,140.137,132.812,53.223,960.742,369
1285,1686197555.846,72.266,66.406,120.117,68.359,960.743,369
1286,1686197555.849,21.973,355.469,-54.688,2.441,960.746,369
1287,1686197555.85,22.461,93.75,-45.898,20.996,960.747,369
1288,1686197555.853,-32.715,-388.672,-61.523,-11.23,960.75,368
1289,1686197555.857,-6.836,-772.461,18.066,27.344,960.753,368
1290,1686197555.861,41.992,0.0,41.992,41.504,960.757,368
1291,1686197555.864,21.973,284.668,-54.688,8.789,960.761,368
1292,1686197555.868,-42.969,-132.812,-29.785,-35.156,960.765,368
1293,1686197555.872,-38.086,1.953,33.691,-16.602,960.769,368
1294,1686197555.876,38.086,449.219,2.441,31.25,960.773,368
1295,1686197555.88,31.25,284.18,-84.473,3.418,960.777,368
