,timestamps,TP9,AF7,AF8,TP10,Secondary Timestamp,emg_signal
0,1686015761.44,-84.473,972.168,82.031,-44.922,117525.86,313.10050171670264
1,1686015761.44,-85.449,971.68,98.633,-36.133,117525.864,309.027953467795
2,1686015761.45,-49.316,971.68,67.383,-10.254,117525.868,303.31026089613846
3,1686015761.45,-19.043,971.68,69.336,3.906,117525.871,310.88451734948217
4,1686015761.45,-56.152,971.68,113.77,-35.645,117525.875,315.32122853351166
5,1686015761.46,-94.727,971.68,77.637,-62.012,117525.879,311.96742408950746
6,1686015761.46,-83.008,971.68,66.406,-43.945,117525.883,307.6924335043475
7,1686015761.46,-70.312,971.68,59.082,-29.785,117525.887,311.24381556613474
8,1686015761.47,-82.031,971.68,109.863,-27.344,117525.891,312.1364132932398
9,1686015761.47,-85.938,971.68,127.93,-28.32,117525.895,303.97267320737757
10,1686015761.48,-80.078,971.68,67.383,-27.344,117525.899,308.75302458623804
11,1686015761.48,-69.336,971.68,51.27,-18.066,117525.903,303.74814967038026
12,1686015761.48,-70.801,971.68,86.426,-22.461,117525.903,308.44910214101907
13,1686015761.48,-79.102,971.68,98.145,-22.461,117525.907,300.6029095873791
14,1686015761.49,-69.824,971.68,77.148,-4.883,117525.911,309.53316555277246
15,1686015761.49,-59.082,971.68,88.379,9.277,117525.915,312.1232695185177
16,1686015761.5,-56.152,971.68,89.355,11.719,117525.919,307.01092926561006
17,1686015761.5,-52.734,971.68,73.242,4.883,117525.922,317.77670114356
18,1686015761.5,-55.176,971.68,81.543,7.324,117525.926,308.61561732530856
19,1686015761.51,-48.828,971.68,36.133,23.438,117525.93,318.4432875188568
20,1686015761.51,-41.504,971.68,93.262,30.762,117525.934,307.56714804586136
21,1686015761.52,-45.898,971.68,158.691,26.855,117525.938,309.92742380244283
22,1686015761.52,-46.387,971.68,97.168,28.32,117525.942,300.0218532478607
23,1686015761.52,-37.598,971.68,123.047,34.18,117525.946,315.79442768950435
24,1686015761.53,-30.273,971.68,146.484,35.645,117525.961,305.02523919863387
25,1686015761.53,-32.227,972.168,98.145,32.715,117525.965,314.6193513700212
26,1686015761.54,-41.992,971.68,62.5,23.438,117525.969,305.3604925057468
27,1686015761.54,-53.223,971.68,132.324,14.648,117525.973,310.1567763999877
28,1686015761.54,-50.781,971.68,127.441,19.043,117525.977,310.4160182645966
29,1686015761.55,-39.551,971.68,59.082,25.391,117525.981,312.31972760602395
30,1686015761.55,-51.758,972.168,41.016,12.695,117525.985,310.019179004756
31,1686015761.56,-57.617,971.68,102.051,7.812,117525.989,313.26285687219416
32,1686015761.56,-44.434,971.68,188.965,15.625,117525.993,304.76546759178336
33,1686015761.56,-36.133,971.68,128.418,17.578,117525.996,299.7332090622192
34,1686015761.57,-39.551,971.68,41.992,15.137,117526.0,309.3810113520633
35,1686015761.57,-44.922,971.68,111.816,9.766,117526.004,303.98515392732725
36,1686015761.57,-36.621,971.68,152.832,15.137,117526.006,310.7618393643787
37,1686015761.58,-31.738,972.168,92.773,13.184,117526.01,301.01059720695605
38,1686015761.58,-38.574,971.68,60.059,2.441,117526.014,307.2734149578643
39,1686015761.58,-33.691,971.68,82.031,3.906,117526.018,313.97152223767915
40,1686015761.59,-29.297,971.68,82.031,1.465,117526.022,314.29589511704563
41,1686015761.59,-32.227,971.68,58.594,-0.977,117526.026,312.0614078809291
42,1686015761.6,-36.621,971.68,13.184,5.371,117526.03,316.8535830865268
43,1686015761.6,-41.016,972.168,139.648,-0.488,117526.034,312.8953932347107
44,1686015761.6,-37.109,972.168,166.992,-2.441,117526.037,306.51686709247446
45,1686015761.61,-36.621,972.168,58.594,10.254,117526.041,309.84202909429143
46,1686015761.61,-41.992,971.68,85.449,7.324,117526.045,312.0917480266408
47,1686015761.62,-41.992,971.68,103.027,-7.812,117526.049,308.8495599137979
48,1686015761.63,-39.551,971.68,77.637,-13.672,117526.053,313.77646624100595
49,1686015761.64,-35.156,971.68,75.684,-1.953,117526.057,306.91837075578877
50,1686015761.64,-33.203,971.68,125.488,13.672,117526.061,309.62241442354167
51,1686015761.64,-36.133,972.168,125.0,-0.488,117526.065,313.3642350234718
52,1686015761.65,-39.062,972.168,58.594,-11.719,117526.069,315.7065727578178
53,1686015761.65,-31.738,971.68,43.945,-0.977,117526.073,311.6038471523544
54,1686015761.66,-20.02,971.68,136.23,5.859,117526.077,327.842436630964
55,1686015761.66,-30.762,971.68,113.281,-4.883,117526.081,309.4683015906615
56,1686015761.66,-49.805,971.68,36.621,-18.066,117526.085,310.5451570624532
57,1686015761.67,-45.898,971.68,44.434,-12.695,117526.088,320.29734657417373
58,1686015761.67,-34.668,971.68,102.539,-9.277,117526.092,318.3688959207575
59,1686015761.67,-40.039,971.68,94.727,-19.531,117526.096,318.96973913611856
60,1686015761.68,-42.48,971.68,25.391,-21.973,117526.098,317.98842290294135
61,1686015761.68,-34.668,971.68,14.648,-20.508,117526.102,322.95395939398446
62,1686015761.68,-29.785,971.68,91.309,-20.996,117526.106,316.5600012767385
63,1686015761.69,-38.086,971.68,85.938,-21.484,117526.11,312.6894044922444
64,1686015761.69,-47.852,971.68,2.441,-20.996,117526.114,319.551987894417
65,1686015761.7,-55.176,971.68,-14.16,-19.531,117526.117,314.5305065038737
66,1686015761.7,-45.41,971.68,105.469,-17.578,117526.121,321.17343577257145
67,1686015761.7,-38.086,971.68,132.812,-19.043,117526.125,317.53516877579455
68,1686015761.71,-41.992,971.68,36.621,-29.297,117526.129,309.98234499976655
69,1686015761.71,-45.41,971.68,11.23,-35.645,117526.133,324.07907776376913
70,1686015761.72,-46.387,972.168,126.465,-33.203,117526.137,314.724942409724
71,1686015761.72,-41.016,971.68,98.145,-21.973,117526.141,319.1679770983393
72,1686015761.72,-44.922,971.68,32.715,-20.996,117526.144,317.6248614203254
73,1686015761.73,-46.875,972.168,71.289,-34.668,117526.148,318.5068554636647
74,1686015761.73,-43.945,971.68,73.73,-30.273,117526.152,319.795404823053
75,1686015761.74,-40.527,971.68,41.016,-18.555,117526.156,319.4713330069049
76,1686015761.74,-37.598,971.68,41.992,-22.461,117526.16,321.3555919113597
77,1686015761.74,-33.691,971.68,66.895,-29.785,117526.164,328.08118989262806
78,1686015761.75,-35.156,971.68,93.75,-32.227,117526.168,330.2343468423304
79,1686015761.75,-27.832,971.68,77.637,-20.996,117526.172,325.0306936863994
80,1686015761.75,-21.973,972.168,29.785,-14.16,117526.176,332.9241508761726
81,1686015761.76,-32.227,972.168,116.211,-29.785,117526.18,330.84732043439647
82,1686015761.76,-41.016,971.68,115.723,-46.387,117526.184,321.205505761131
83,1686015761.77,-38.086,971.68,50.293,-42.48,117526.187,327.5166438656422
84,1686015761.77,-25.391,971.68,24.414,-32.715,117526.188,326.40096577654134
85,1686015761.77,-23.438,971.68,43.457,-39.062,117526.191,328.8176456626806
86,1686015761.77,-30.762,972.168,55.176,-49.316,117526.195,328.9304820287789
87,1686015761.78,-24.414,971.68,34.668,-38.574,117526.199,327.59885748465643
88,1686015761.78,-15.137,971.68,20.02,-25.879,117526.203,323.6176576428785
89,1686015761.79,-12.695,971.68,19.043,-22.461,117526.207,334.1812408801507
90,1686015761.79,-19.043,971.68,29.297,-30.273,117526.211,325.8303851739313
91,1686015761.79,-14.648,972.168,48.34,-28.809,117526.215,334.2553901881103
92,1686015761.8,-6.348,972.168,16.602,-10.254,117526.219,335.2589722572434
93,1686015761.8,-20.02,971.68,50.293,-21.973,117526.223,334.52400497586643
94,1686015761.8,-29.297,971.68,103.027,-40.039,117526.227,330.8695904878659
95,1686015761.81,-28.809,971.68,49.316,-32.715,117526.231,337.971564711197
96,1686015761.81,-26.367,971.68,73.242,-27.832,117526.234,341.969419258963
97,1686015761.82,-28.809,971.68,86.426,-27.344,117526.238,336.3591879942004
98,1686015761.82,-38.574,971.68,23.438,-32.227,117526.242,328.7084547284726
99,1686015761.82,-36.621,971.68,12.695,-42.969,117526.246,343.0641068887631
100,1686015761.83,-31.25,972.168,61.523,-43.945,117526.25,342.2089333333515
101,1686015761.83,-27.344,971.68,33.203,-40.527,117526.254,346.7613425898542
102,1686015761.84,-31.738,971.68,47.363,-42.969,117526.258,339.5753909694385
103,1686015761.84,-34.668,971.68,5.859,-42.969,117526.262,344.96239151189485
104,1686015761.84,-28.32,971.68,83.496,-30.762,117526.266,334.0038450153033
105,1686015761.85,-21.484,971.68,157.715,-24.902,117526.27,342.131037259333
106,1686015761.85,-28.32,972.168,42.969,-29.785,117526.273,339.11880200199323
107,1686015761.86,-36.133,971.68,-15.625,-38.574,117526.277,336.71789772914747
108,1686015761.86,-31.738,971.68,71.777,-30.762,117526.278,343.1835678595172
109,1686015761.86,-24.414,971.68,99.121,-19.043,117526.281,338.2491335050789
110,1686015761.86,-22.949,971.68,26.367,-28.32,117526.285,334.7519646777331
111,1686015761.87,-25.391,971.68,-0.488,-33.203,117526.289,337.5862933105177
112,1686015761.87,-29.785,971.68,31.738,-34.668,117526.293,343.0952573113542
113,1686015761.88,-33.203,971.68,33.691,-39.551,117526.297,337.664757580915
114,1686015761.88,-33.691,971.68,20.508,-43.457,117526.301,335.9300935229903
115,1686015761.88,-40.527,971.68,-19.531,-43.457,117526.305,343.5535822414423
116,1686015761.89,-46.875,972.168,93.75,-38.574,117526.309,345.435540002784
117,1686015761.89,-38.574,971.68,118.652,-40.527,117526.313,348.85174224403545
118,1686015761.9,-28.32,971.68,4.883,-29.297,117526.317,345.7153206570686
119,1686015761.9,-34.18,971.68,21.484,-28.809,117526.321,345.8525835417092
120,1686015761.9,-42.48,971.68,57.129,-40.039,117526.336,343.8877751705861
121,1686015761.91,-41.992,971.68,55.176,-32.715,117526.339,342.9715429481539
122,1686015761.91,-41.992,972.168,21.484,-20.996,117526.343,341.60832660851366
123,1686015761.92,-45.41,971.68,57.129,-22.949,117526.347,349.88472800476256
124,1686015761.92,-45.41,971.68,64.453,-34.18,117526.351,343.3792295762425
125,1686015761.92,-38.086,971.68,36.133,-27.344,117526.355,343.110067645612
126,1686015761.93,-30.273,971.68,40.039,-12.207,117526.359,337.82570902556046
127,1686015761.93,-27.344,972.168,83.008,-8.789,117526.363,348.1314731043345
128,1686015761.93,-34.668,971.68,81.543,-25.879,117526.367,347.6277421521919
129,1686015761.94,-37.109,971.68,24.414,-33.691,117526.371,346.5891414076516
130,1686015761.94,-30.273,971.68,27.344,-21.484,117526.375,338.0240792384734
131,1686015761.95,-26.855,971.68,48.34,-13.672,117526.379,345.09786881018783
132,1686015761.95,-32.715,971.68,42.969,-25.391,117526.37,341.9894876443544
133,1686015761.95,-45.41,971.68,7.812,-33.691,117526.374,346.5276248922256
134,1686015761.96,-36.621,972.168,-22.461,-19.043,117526.378,343.1546737263225
135,1686015761.96,-28.809,972.168,70.801,-16.602,117526.382,347.88332583918884
136,1686015761.96,-24.902,971.68,60.059,-24.414,117526.385,349.4056390197859
137,1686015761.97,-24.902,971.68,-1.465,-33.691,117526.389,344.52027049086706
138,1686015761.97,-20.02,971.68,-4.395,-20.508,117526.393,346.27191478719607
139,1686015761.97,-2.441,971.68,130.371,-0.977,117526.397,344.78256789298626
140,1686015761.98,-24.902,971.68,114.746,-24.414,117526.401,342.53266997577146
141,1686015761.98,-61.035,971.68,-0.488,-44.434,117526.405,341.2872515293176
142,1686015761.99,-53.223,971.68,73.242,-21.973,117526.409,348.744014551482
143,1686015761.99,-38.086,971.68,103.516,0.977,117526.413,346.1029679424751
144,1686015762.01,-41.016,971.68,48.34,-4.883,117526.428,344.68722786584055
145,1686015762.01,-46.387,971.68,11.719,-17.09,117526.432,340.5935315104585
146,1686015762.02,-44.922,971.68,46.387,-12.207,117526.436,350.762665328451
147,1686015762.02,-42.48,971.68,62.5,-7.812,117526.439,339.44255422956644
148,1686015762.02,-41.504,971.68,54.688,-19.043,117526.443,341.48496836746773
149,1686015762.03,-46.875,971.68,20.508,-31.25,117526.447,342.3876795160941
150,1686015762.03,-58.594,972.168,28.809,-30.273,117526.451,344.890465278713
151,1686015762.03,-54.199,972.168,130.859,-26.367,117526.455,338.04426262045223
152,1686015762.04,-45.898,971.68,72.754,-21.973,117526.459,339.13467459148717
153,1686015762.04,-48.34,971.68,2.441,-22.461,117526.463,336.9009114152913
154,1686015762.05,-58.594,971.68,31.25,-33.203,117526.467,341.1067917443948
155,1686015762.05,-60.547,971.68,49.316,-32.715,117526.471,342.919235827738
156,1686015762.05,-50.781,971.68,43.945,-20.996,117526.485,342.963816063709
157,1686015762.06,-48.828,971.68,0.977,-23.926,117526.489,354.9321429881435
158,1686015762.06,-53.711,971.68,20.508,-30.762,117526.493,343.91796882128585
159,1686015762.06,-53.711,971.68,51.758,-24.414,117526.497,340.56035845133067
160,1686015762.07,-50.293,971.68,29.297,-15.137,117526.501,345.9306638025788
161,1686015762.07,-47.363,971.68,-19.043,-12.207,117526.505,340.94918399133115
162,1686015762.08,-43.945,971.68,28.32,-24.414,117526.509,346.63417960878064
163,1686015762.08,-46.387,971.68,41.016,-39.062,117526.513,345.7791497036597
164,1686015762.08,-46.387,971.68,27.344,-39.062,117526.517,347.60738555303317
165,1686015762.09,-49.805,971.68,0.977,-23.926,117526.521,349.0773421455427
166,1686015762.09,-57.129,971.68,103.516,-17.578,117526.524,341.09366186481697
167,1686015762.09,-65.43,971.68,92.285,-36.621,117526.528,341.52542599584797
168,1686015762.1,-65.43,971.68,11.23,-41.016,117526.523,340.05290180156027
169,1686015762.1,-54.199,972.168,69.336,-21.484,117526.527,340.8428016869848
170,1686015762.11,-51.758,971.68,55.664,-14.648,117526.531,342.4141132109695
171,1686015762.11,-55.176,971.68,20.996,-27.344,117526.534,340.0379509080628
172,1686015762.11,-54.688,971.68,19.043,-31.25,117526.538,332.2491067116591
173,1686015762.12,-46.875,971.68,34.668,-25.879,117526.542,340.1963855903815
174,1686015762.12,-45.41,971.68,72.754,-24.902,117526.546,339.0889144655623
175,1686015762.12,-50.781,971.68,45.41,-22.461,117526.55,346.8250300823691
176,1686015762.13,-55.664,971.68,-8.301,-12.207,117526.554,345.05557768752345
177,1686015762.13,-58.594,971.68,87.891,-14.16,117526.558,336.3596056168031
178,1686015762.14,-52.246,971.68,124.512,-25.879,117526.562,337.41003322263083
179,1686015762.14,-49.805,971.68,24.414,-30.762,117526.566,339.70562282391484
180,1686015762.14,-56.152,971.68,-26.855,-23.438,117526.563,340.1194347636543
181,1686015762.14,-58.594,972.168,96.68,-11.23,117526.567,342.495861811953
182,1686015762.15,-53.711,971.68,108.887,-8.301,117526.571,341.9566373924602
183,1686015762.15,-58.594,971.68,17.578,-12.695,117526.575,337.17993939396655
184,1686015762.16,-63.477,971.68,8.301,-14.16,117526.579,342.5541667407359
185,1686015762.16,-66.406,971.68,29.297,-16.113,117526.583,338.6526535101928
186,1686015762.16,-67.871,971.68,39.551,-8.789,117526.587,342.3190836281571
187,1686015762.17,-70.312,971.68,23.438,-7.812,117526.591,329.6085433862726
188,1686015762.17,-77.637,971.68,-20.996,-18.066,117526.594,345.6122230086709
189,1686015762.18,-80.566,971.68,104.98,-19.043,117526.598,341.07565832120025
190,1686015762.18,-70.312,971.68,122.07,-16.602,117526.602,334.8668947479448
191,1686015762.18,-60.547,972.168,8.301,-10.742,117526.606,336.0867167696462
192,1686015762.19,-56.641,971.68,28.32,-18.066,117526.609,339.18523545545946
193,1686015762.19,-51.758,971.68,58.105,-17.578,117526.613,339.3487405598782
194,1686015762.2,-52.246,971.68,52.246,-9.277,117526.617,339.5638081718509
195,1686015762.2,-52.246,971.68,22.461,-16.602,117526.621,341.1631311255347
196,1686015762.2,-62.012,972.168,49.805,-25.391,117526.625,343.1807795681912
197,1686015762.21,-65.918,971.68,29.785,-30.762,117526.629,345.82291388668403
198,1686015762.21,-53.711,971.68,61.035,-30.762,117526.632,344.28923833169915
199,1686015762.22,-42.48,971.68,44.434,-18.066,117526.636,348.9273949287271
200,1686015762.22,-51.758,971.68,9.766,-15.625,117526.64,344.79175430796914
201,1686015762.22,-68.848,971.68,84.473,-29.785,117526.644,353.73554178252505
202,1686015762.23,-73.73,971.68,47.852,-30.273,117526.648,353.6112921133083
203,1686015762.23,-70.801,971.68,6.348,-23.926,117526.652,347.800233398274
204,1686015762.25,-73.242,971.68,34.18,-30.762,117526.667,346.5922834282068
205,1686015762.25,-83.008,971.68,22.949,-41.016,117526.671,349.44449261213083
206,1686015762.25,-93.262,971.68,6.348,-42.48,117526.675,353.44448162788825
207,1686015762.26,-87.891,971.68,-7.324,-30.273,117526.679,346.5522035883299
208,1686015762.26,-74.707,971.68,25.391,-25.879,117526.682,352.7808160305193
209,1686015762.27,-70.801,971.68,21.484,-32.715,117526.686,347.9356204831123
210,1686015762.27,-75.195,971.68,2.93,-41.504,117526.69,350.96492414731404
211,1686015762.27,-75.195,971.68,-31.25,-41.992,117526.694,349.41460538152893
212,1686015762.28,-67.871,971.68,73.73,-31.25,117526.698,350.69851271812144
213,1686015762.28,-62.012,971.68,64.941,-31.738,117526.699,336.1157062090419
214,1686015762.28,-69.824,971.68,86.914,-35.156,117526.702,341.2983846120403
215,1686015762.28,-67.871,971.68,16.602,-31.25,117526.703,351.2476864060949
216,1686015762.28,-77.637,971.68,-12.207,-42.48,117526.706,343.7035155684506
217,1686015762.29,-73.242,972.168,-22.949,-36.133,117526.707,348.1348135884806
218,1686015762.29,-66.895,971.68,43.457,-40.039,117526.71,348.7949162748685
219,1686015762.29,-83.496,972.168,42.969,-37.598,117526.711,352.1897568406527
220,1686015762.29,-73.242,971.68,47.852,-34.18,117526.714,350.8001351652738
221,1686015762.3,-66.895,972.168,-4.883,-39.062,117526.718,346.8958275977738
222,1686015762.3,-77.148,971.68,9.277,-49.316,117526.722,344.985176327435
223,1686015762.3,-73.242,971.68,80.566,-45.41,117526.726,349.87215409633626
224,1686015762.31,-64.453,971.68,72.266,-30.762,117526.73,355.3623898930551
225,1686015762.31,-62.012,971.68,19.531,-27.344,117526.734,341.5126878275426
226,1686015762.32,-67.383,972.168,-38.086,-36.621,117526.738,349.18513221320745
227,1686015762.32,-71.289,971.68,21.973,-37.598,117526.742,350.59951143396086
228,1686015762.32,-67.383,971.68,116.211,-39.551,117526.756,346.35582741934076
229,1686015762.32,-63.477,971.68,33.203,-34.668,117526.76,350.4712881308194
230,1686015762.33,-71.289,971.68,-22.461,-35.156,117526.764,343.5999485649251
231,1686015762.33,-79.102,971.68,6.836,-39.062,117526.768,347.424681589979
232,1686015762.34,-70.801,971.68,-0.977,-35.156,117526.771,344.8957364432591
233,1686015762.34,-64.941,971.68,-5.371,-29.297,117526.775,336.9295285933309
234,1686015762.34,-62.988,971.68,-37.598,-17.09,117526.779,349.79350942554146
235,1686015762.35,-67.871,972.168,49.805,-20.02,117526.783,352.4431944241446
236,1686015762.35,-77.637,972.168,106.934,-36.133,117526.787,342.12206023202765
237,1686015762.36,-70.312,971.68,33.691,-29.297,117526.791,351.6943883495588
238,1686015762.36,-55.664,971.68,45.41,-19.531,117526.795,338.486931555889
239,1686015762.36,-60.059,971.68,59.57,-25.391,117526.799,343.13842063114237
240,1686015762.38,-62.012,971.68,36.133,-29.297,117526.816,340.9591214352664
241,1686015762.38,-56.152,971.68,30.273,-22.949,117526.82,354.74576871189794
242,1686015762.39,-56.641,971.68,46.875,-19.043,117526.824,342.7654152614066
243,1686015762.39,-53.223,971.68,40.527,-20.996,117526.827,333.16330165561806
244,1686015762.4,-51.758,971.68,4.395,-23.438,117526.831,344.8919104549292
245,1686015762.4,-53.711,971.68,25.391,-20.02,117526.835,345.46940322478383
246,1686015762.4,-58.105,971.68,71.289,-9.766,117526.839,333.04517170276233
247,1686015762.41,-62.988,971.68,62.012,-13.672,117526.843,337.54878153368816
248,1686015762.41,-65.43,971.68,5.859,-24.414,117526.847,332.2709421918333
249,1686015762.42,-60.059,971.68,-9.277,-21.484,117526.851,335.43252755597285
250,1686015762.42,-48.34,971.68,61.035,-14.648,117526.855,323.1676652211618
251,1686015762.42,-46.387,971.68,62.988,-16.113,117526.859,332.9033101740837
252,1686015762.43,-57.617,971.68,-10.742,-20.02,117526.848,337.8509256049835
253,1686015762.43,-62.988,972.168,-22.949,-16.602,117526.852,331.6804742905252
254,1686015762.44,-61.035,971.68,70.801,-15.137,117526.856,332.4853869957486
255,1686015762.44,-56.152,971.68,66.895,-17.09,117526.86,326.09585208445793
256,1686015762.44,-55.664,972.168,-10.742,-25.391,117526.864,327.7173902526684
257,1686015762.45,-59.57,971.68,-34.668,-26.367,117526.867,323.03595294057686
258,1686015762.45,-56.641,971.68,39.551,-22.949,117526.871,321.17467456526373
259,1686015762.45,-47.852,972.168,69.336,-20.02,117526.875,318.46945578221516
260,1686015762.46,-51.758,971.68,3.906,-24.902,117526.879,322.23726084743714
261,1686015762.46,-62.5,972.168,-5.371,-23.926,117526.883,319.5616803067919
262,1686015762.47,-54.199,971.68,92.285,-14.648,117526.887,314.674305632093
263,1686015762.47,-42.48,971.68,69.336,-12.207,117526.891,323.0087604899039
264,1686015762.47,-46.875,971.68,-16.602,-24.902,117526.895,323.00392523221564
265,1686015762.48,-49.316,971.68,41.504,-29.785,117526.899,309.96485916001706
266,1686015762.48,-44.922,971.68,88.379,-25.391,117526.903,318.02464599414327
267,1686015762.48,-34.668,971.68,30.273,-16.602,117526.907,323.6309489537286
268,1686015762.49,-30.273,971.68,1.953,-19.531,117526.91,309.14718873820453
269,1686015762.49,-39.551,971.68,2.93,-35.156,117526.914,315.68482584083813
270,1686015762.5,-46.387,971.68,34.18,-34.668,117526.918,309.7999099653662
271,1686015762.5,-44.434,971.68,37.598,-22.949,117526.922,307.0623639369509
272,1686015762.5,-39.062,971.68,-10.254,-24.414,117526.926,308.5253048982727
273,1686015762.51,-35.156,971.68,64.453,-31.25,117526.93,310.3871972307118
274,1686015762.51,-36.621,971.68,82.52,-36.133,117526.934,307.15367764115524
275,1686015762.52,-30.762,971.68,32.715,-28.32,117526.938,321.92015286928296
276,1686015762.52,-28.32,971.68,12.695,-21.484,117526.937,315.1602491259028
277,1686015762.52,-38.086,971.68,21.484,-28.809,117526.941,310.6520980722369
278,1686015762.52,-43.457,971.68,24.414,-31.738,117526.945,303.0728583021317
279,1686015762.53,-51.758,971.68,-9.766,-35.156,117526.949,307.5678402842453
280,1686015762.53,-57.617,971.68,-48.34,-31.738,117526.953,316.1329162828246
281,1686015762.54,-63.477,971.68,-3.906,-34.668,117526.957,308.45147732630454
282,1686015762.54,-67.383,971.68,11.719,-36.621,117526.961,307.51272553542503
283,1686015762.54,-60.547,971.68,-7.324,-26.855,117526.965,315.2264323099982
284,1686015762.55,-55.176,971.68,-28.32,-8.301,117526.969,305.9080210672839
285,1686015762.55,-52.734,971.68,81.055,-17.578,117526.973,310.68070704099136
286,1686015762.56,-55.664,971.68,85.449,-35.645,117526.976,315.47224353745236
287,1686015762.56,-53.711,971.68,-14.648,-28.32,117526.98,314.6664584434828
288,1686015762.56,-45.41,971.68,30.273,-15.137,117526.984,308.9129102843821
289,1686015762.57,-37.109,971.68,33.203,-9.766,117526.988,304.43921256935573
290,1686015762.57,-32.227,971.68,-8.301,-12.695,117526.992,306.4482461168686
291,1686015762.58,-38.086,971.68,-20.508,-25.879,117526.996,302.8312325503856
292,1686015762.58,-36.133,971.68,28.809,-31.25,117526.999,303.3915383599112
293,1686015762.58,-33.691,971.68,16.113,-22.949,117527.003,300.70025112221316
294,1686015762.59,-41.992,971.68,5.859,-20.996,117527.007,310.89524944667943
295,1686015762.59,-46.387,971.68,-16.113,-23.438,117527.011,315.4966983625191
296,1686015762.59,-39.551,971.68,16.602,-13.184,117527.015,309.6050177716313
297,1686015762.6,-32.227,971.68,105.957,-4.883,117527.019,309.630806750854
298,1686015762.6,-37.109,971.68,19.043,-15.137,117527.023,313.0507776740129
299,1686015762.61,-46.387,972.168,-34.668,-28.32,117527.027,303.71626939699615
300,1686015762.61,-43.457,972.168,27.832,-26.367,117527.027,308.487889467695
301,1686015762.61,-35.156,972.168,41.992,-17.09,117527.031,304.4074643043986
302,1686015762.61,-29.297,971.68,6.836,-14.16,117527.035,318.0512744780086
303,1686015762.62,-37.598,971.68,-13.184,-25.879,117527.039,301.574136109874
304,1686015762.62,-43.945,971.68,5.371,-29.785,117527.043,301.7488421540074
305,1686015762.63,-46.387,971.68,33.691,-17.578,117527.047,310.5878192765778
306,1686015762.63,-52.246,971.68,22.949,-15.137,117527.051,316.0905936892085
307,1686015762.63,-60.059,971.68,-46.875,-12.695,117527.055,312.99888120536514
308,1686015762.64,-70.801,971.68,37.109,-18.555,117527.059,305.73966193335775
309,1686015762.64,-67.383,971.68,104.98,-30.762,117527.063,309.8004921325235
310,1686015762.64,-62.988,971.68,10.742,-30.762,117527.067,312.9488579572198
311,1686015762.65,-62.988,971.68,37.598,-32.715,117527.07,313.0506580914593
312,1686015762.65,-63.965,971.68,64.453,-40.527,117527.074,317.7016052247811
313,1686015762.66,-59.57,971.68,24.902,-37.109,117527.078,309.83270044662106
314,1686015762.66,-48.34,971.68,14.16,-25.879,117527.082,318.14005207758964
315,1686015762.66,-43.945,971.68,31.25,-17.578,117527.086,319.047497038731
316,1686015762.67,-47.363,971.68,17.578,-17.09,117527.09,322.4386080603771
317,1686015762.67,-60.547,971.68,-10.742,-31.25,117527.094,321.5611385593368
318,1686015762.68,-73.242,971.68,6.348,-43.457,117527.098,310.0778487973406
319,1686015762.68,-68.359,972.168,70.312,-28.32,117527.102,321.61470764006344
320,1686015762.68,-62.012,972.168,73.242,-31.738,117527.106,314.6518119310676
321,1686015762.69,-63.965,971.68,3.418,-43.457,117527.11,311.47270652686683
322,1686015762.69,-50.293,971.68,-23.438,-29.785,117527.113,314.4434361301
323,1686015762.7,-46.387,971.68,-8.301,-21.973,117527.117,316.0760706545944
324,1686015762.7,-61.035,971.68,34.668,-27.832,117527.118,312.9827441782534
325,1686015762.7,-62.012,971.68,-0.488,-30.273,117527.122,317.884166779286
326,1686015762.7,-51.758,971.68,-41.504,-18.066,117527.126,315.9484490689193
327,1686015762.71,-41.016,971.68,60.059,-7.812,117527.13,313.6853372122669
328,1686015762.71,-44.922,971.68,29.785,-19.043,117527.134,315.6535086884368
329,1686015762.72,-47.363,971.68,-33.203,-25.391,117527.138,316.9005062092261
330,1686015762.72,-41.992,971.68,-31.25,-7.324,117527.142,317.06250773893044
331,1686015762.72,-31.738,971.68,81.055,-1.953,117527.146,322.62734588764107
332,1686015762.73,-36.133,971.68,92.285,-19.043,117527.15,316.31216001319433
333,1686015762.73,-44.922,971.68,-7.324,-27.832,117527.154,318.1602102563753
334,1686015762.74,-40.039,971.68,44.434,-30.273,117527.158,321.30211163373554
335,1686015762.74,-32.227,971.68,44.922,-28.32,117527.161,313.0884555103113
336,1686015762.76,-32.715,971.68,-8.301,-29.297,117527.178,317.37716454362516
337,1686015762.76,-42.969,971.68,-28.809,-32.715,117527.182,320.3365480363914
338,1686015762.76,-54.199,971.68,20.508,-27.832,117527.186,316.38607925421377
339,1686015762.77,-52.246,971.68,45.41,-16.113,117527.19,314.38344758520844
340,1686015762.77,-48.828,971.68,5.371,-15.625,117527.194,316.5319196471476
341,1686015762.78,-44.434,971.68,-46.875,-17.09,117527.198,325.92229881564
342,1686015762.78,-50.781,971.68,17.09,-17.578,117527.202,321.69318316540097
343,1686015762.78,-51.27,971.68,96.68,-25.391,117527.206,330.58753567597404
344,1686015762.79,-40.039,971.68,21.484,-10.742,117527.21,314.7035880938813
345,1686015762.79,-41.016,971.68,-16.113,-11.23,117527.213,314.442478731934
346,1686015762.8,-44.434,971.68,12.695,-29.297,117527.217,309.1184454380899
347,1686015762.8,-42.969,971.68,18.555,-23.438,117527.221,314.68071187813854
348,1686015762.8,-36.133,971.68,7.812,-10.254,117527.235,319.90157893570745
349,1686015762.8,-36.133,971.68,-39.062,-14.648,117527.239,324.561771523448
350,1686015762.81,-42.48,971.68,-35.645,-32.227,117527.243,309.1795614275374
351,1686015762.81,-38.086,972.168,2.93,-32.715,117527.247,320.7059449344381
352,1686015762.82,-28.32,971.68,-37.598,-20.02,117527.251,310.33385804585936
353,1686015762.82,-25.391,971.68,-69.824,-12.695,117527.255,318.4010630271483
354,1686015762.82,-39.062,971.68,9.277,-24.902,117527.259,317.12903902283387
355,1686015762.83,-43.457,971.68,20.508,-36.133,117527.263,322.072828874841
356,1686015762.83,-34.668,972.168,-16.602,-30.273,117527.266,310.3148657673713
357,1686015762.84,-33.691,971.68,-20.508,-16.113,117527.27,309.27041701707265
358,1686015762.84,-42.48,971.68,64.453,-16.602,117527.274,314.6350287219414
359,1686015762.84,-43.945,971.68,15.137,-25.879,117527.278,314.8014224247097
360,1686015762.85,-36.621,971.68,-35.645,-26.855,117527.269,313.5054810434468
361,1686015762.85,-24.414,971.68,7.324,-19.043,117527.273,312.64052102947034
362,1686015762.86,-24.902,971.68,-3.906,-15.625,117527.277,315.0922469407489
363,1686015762.86,-38.574,971.68,-32.715,-26.367,117527.281,316.49746469629906
364,1686015762.86,-39.062,972.168,-50.293,-32.227,117527.285,313.09650752822745
365,1686015762.87,-29.785,971.68,-9.766,-21.973,117527.289,325.9438582372079
366,1686015762.87,-30.273,971.68,15.625,-22.949,117527.293,311.99948118387886
367,1686015762.88,-43.945,971.68,-24.902,-37.598,117527.296,309.13972407404304
368,1686015762.88,-51.27,971.68,-43.945,-29.785,117527.3,304.40211060800857
369,1686015762.88,-39.062,971.68,47.852,-10.742,117527.304,312.07827023176253
370,1686015762.89,-32.227,971.68,53.711,-14.16,117527.308,314.57181943283706
371,1686015762.89,-41.016,971.68,-39.062,-21.973,117527.312,307.0037940057147
372,1686015762.89,-40.039,971.68,-63.477,-16.113,117527.325,305.0669364408596
373,1686015762.9,-31.25,971.68,20.996,-3.418,117527.329,305.7043179370394
374,1686015762.9,-31.25,971.68,25.879,3.418,117527.332,306.2720925309084
375,1686015762.9,-37.598,971.68,-33.691,-0.977,117527.336,309.9260183238925
376,1686015762.91,-43.457,972.168,-36.621,2.441,117527.34,309.01434497954176
377,1686015762.91,-41.504,972.168,1.465,14.16,117527.344,303.9551019418671
378,1686015762.92,-47.852,971.68,4.883,17.578,117527.348,312.4213342884898
379,1686015762.92,-54.688,971.68,-26.855,10.254,117527.352,304.89913929107183
380,1686015762.92,-56.641,971.68,-74.219,10.254,117527.356,319.20647541131933
381,1686015762.93,-50.781,971.68,22.949,13.672,117527.36,317.43188466816594
382,1686015762.93,-40.039,972.168,78.125,15.137,117527.364,322.24819353927813
383,1686015762.93,-43.457,971.68,-35.645,14.648,117527.368,307.87271295099936
384,1686015762.95,-50.293,971.68,21.484,3.906,117527.372,311.2384066722157
385,1686015762.96,-51.27,971.68,31.738,-6.836,117527.376,313.66283112642776
386,1686015762.96,-50.293,971.68,-12.695,0.977,117527.38,315.616540072964
387,1686015762.96,-45.898,972.168,-18.066,5.371,117527.384,310.6893386567787
388,1686015762.97,-47.363,971.68,-12.695,2.441,117527.388,308.9578482058389
389,1686015762.97,-47.852,972.168,-7.324,-3.418,117527.392,312.8208837090174
390,1686015762.98,-39.062,972.168,-17.09,-7.812,117527.396,300.2166743885086
391,1686015762.98,-34.668,972.168,-21.973,6.836,117527.4,303.057083918818
392,1686015762.98,-28.809,971.68,31.738,19.531,117527.404,314.0108452051153
393,1686015762.99,-25.879,971.68,24.902,10.254,117527.407,313.5568203756994
394,1686015762.99,-31.738,971.68,-16.113,4.883,117527.411,314.27258765969896
395,1686015762.99,-21.484,971.68,-43.457,21.973,117527.415,299.92505218021745
396,1686015763.0,-20.508,971.68,-37.109,8.301,117527.417,306.0568477856927
397,1686015763.0,-37.109,971.68,-0.488,-20.996,117527.421,316.86668779765733
398,1686015763.0,-41.504,971.68,-19.043,-23.926,117527.425,310.09950028790615
399,1686015763.01,-41.992,971.68,-60.059,-16.113,117527.429,314.04740200538134
400,1686015763.01,-36.621,971.68,-39.062,-12.207,117527.433,316.53770500610096
401,1686015763.02,-36.133,971.68,-24.414,-16.602,117527.437,322.915686474949
402,1686015763.02,-41.016,971.68,-34.668,-19.043,117527.441,310.3438289874237
403,1686015763.02,-28.32,972.168,-36.621,0.977,117527.445,322.54125224708196
404,1686015763.03,-23.438,971.68,48.828,8.301,117527.449,312.3702173340097
405,1686015763.03,-37.598,972.168,42.969,-12.695,117527.461,313.86367546403244
406,1686015763.03,-31.25,971.68,15.625,-12.695,117527.452,314.65478789535376
407,1686015763.03,-32.715,972.168,-8.301,-7.812,117527.464,321.08023879910826
408,1686015763.04,-41.016,971.68,-65.918,-25.391,117527.456,320.1544671434019
409,1686015763.04,-39.551,971.68,-55.176,-27.344,117527.468,308.11303899783223
410,1686015763.04,-45.41,971.68,-28.32,-26.855,117527.46,317.4060585182547
411,1686015763.04,-36.133,971.68,9.277,-24.902,117527.472,325.30305835461047
412,1686015763.04,-21.484,971.68,1.953,-12.207,117527.476,309.4798688171688
413,1686015763.05,-25.879,971.68,-50.781,-19.043,117527.48,315.82840526561336
414,1686015763.05,-44.434,971.68,-40.527,-28.809,117527.484,310.0223176727776
415,1686015763.06,-44.922,971.68,31.25,-26.855,117527.488,321.2618795175398
416,1686015763.06,-32.227,971.68,5.371,-19.531,117527.492,317.96391414520554
417,1686015763.06,-29.785,972.168,-41.504,-18.066,117527.496,313.10657345268135
418,1686015763.07,-34.668,971.68,-62.012,-21.973,117527.5,322.4745711881142
419,1686015763.07,-42.969,971.68,36.621,-28.809,117527.504,314.40386825147135
420,1686015763.07,-43.457,971.68,45.898,-30.762,117527.506,307.16322051829906
421,1686015763.08,-31.25,971.68,-41.016,-29.785,117527.51,313.8123431604937
422,1686015763.08,-34.668,971.68,-47.363,-34.668,117527.514,321.36346240483425
423,1686015763.08,-41.992,971.68,-27.832,-33.691,117527.518,324.42789825038415
424,1686015763.09,-36.133,971.68,-36.621,-32.227,117527.522,321.6306468011187
425,1686015763.09,-23.926,971.68,-43.945,-32.227,117527.525,328.4000277849148
426,1686015763.1,-17.578,971.68,-80.078,-19.043,117527.529,326.17436222823056
427,1686015763.1,-29.785,971.68,30.762,-24.902,117527.533,323.92016951448704
428,1686015763.1,-28.32,971.68,58.594,-35.645,117527.537,315.9795928480143
429,1686015763.11,-18.555,971.68,-48.34,-10.742,117527.541,322.4759308737154
430,1686015763.11,-22.461,971.68,-31.738,-5.859,117527.545,326.5861833791714
431,1686015763.11,-33.203,972.168,15.137,-31.25,117527.549,323.04769643000884
432,1686015763.13,-28.32,972.168,-24.902,-32.715,117527.553,322.4136131196764
433,1686015763.14,-15.625,971.68,-40.039,-18.555,117527.556,322.5923838533163
434,1686015763.14,-13.184,971.68,-4.883,-17.578,117527.56,328.55799694792336
435,1686015763.14,-14.648,971.68,3.418,-20.508,117527.564,330.7402203725766
436,1686015763.15,-19.531,971.68,-21.973,-26.855,117527.568,324.0431662119982
437,1686015763.15,-24.414,971.68,-18.555,-26.367,117527.572,326.4949722192289
438,1686015763.16,-26.367,971.68,71.777,-18.066,117527.576,320.24743161142607
439,1686015763.16,-37.109,971.68,28.32,-21.973,117527.58,320.33850769473423
440,1686015763.16,-43.457,971.68,-60.059,-31.738,117527.584,319.94313543059235
441,1686015763.17,-33.691,971.68,-16.113,-30.273,117527.588,327.6149455883026
442,1686015763.17,-24.414,971.68,63.477,-23.926,117527.592,338.27379813802594
443,1686015763.17,-26.367,971.68,18.066,-38.086,117527.596,328.25352233754256
444,1686015763.18,-33.203,971.68,-36.133,-46.387,117527.597,324.5289956861502
445,1686015763.18,-32.227,971.68,-30.273,-40.527,117527.601,334.8064032134115
446,1686015763.18,-32.715,971.68,-2.441,-34.18,117527.605,326.36376137826426
447,1686015763.19,-43.945,971.68,1.465,-32.227,117527.609,328.7441462169081
448,1686015763.19,-45.898,971.68,-59.57,-38.086,117527.613,331.6903219111203
449,1686015763.2,-41.504,971.68,-70.312,-37.109,117527.617,335.38495463478705
450,1686015763.2,-38.086,971.68,23.438,-32.715,117527.621,325.52678562669024
451,1686015763.2,-29.785,971.68,27.832,-30.273,117527.625,329.52803918683327
452,1686015763.21,-32.227,971.68,-36.133,-35.645,117527.628,326.70537938649124
453,1686015763.21,-39.062,971.68,-30.762,-30.762,117527.632,337.0109673999057
454,1686015763.22,-29.297,971.68,41.992,-11.23,117527.636,331.20538701810875
455,1686015763.22,-23.926,972.168,18.555,-8.301,117527.64,336.0431433180615
456,1686015763.24,-32.227,971.68,-35.645,-21.973,117527.66,336.8492096527089
457,1686015763.24,-33.203,971.68,43.945,-26.367,117527.664,342.78161474581043
458,1686015763.25,-30.273,971.68,33.203,-19.043,117527.667,332.3856169311851
459,1686015763.25,-20.02,971.68,-8.301,-14.648,117527.671,340.54435285083673
460,1686015763.25,-14.16,971.68,-32.227,-16.602,117527.675,330.7649835158504
461,1686015763.26,-18.066,972.168,-44.922,-24.902,117527.679,336.9164567956162
462,1686015763.26,-16.113,971.68,19.043,-30.762,117527.683,337.54885484446487
463,1686015763.26,-19.531,971.68,9.766,-28.32,117527.687,334.06380771813485
464,1686015763.27,-14.16,971.68,-43.945,-25.879,117527.688,334.69690769980025
465,1686015763.27,-19.531,971.68,-36.621,-23.438,117527.691,340.09242499787064
466,1686015763.27,-17.09,972.168,-27.832,-36.133,117527.692,328.6826322806824
467,1686015763.27,-23.926,972.168,44.434,-25.879,117527.695,337.14666267834525
468,1686015763.28,-29.297,972.168,4.883,-43.457,117527.696,329.9482119704326
469,1686015763.28,-33.691,971.68,41.016,-35.156,117527.699,334.2241818494018
470,1686015763.28,-23.438,971.68,-16.113,-32.227,117527.7,337.91525757748343
471,1686015763.28,-28.32,972.168,-20.508,-32.227,117527.703,330.1049320206456
472,1686015763.28,-13.672,971.68,-67.871,-20.996,117527.704,333.0702185228466
473,1686015763.29,-18.066,971.68,-20.508,-18.066,117527.708,332.81828600169877
474,1686015763.29,-21.973,971.68,6.836,-23.438,117527.712,335.46491939943724
475,1686015763.29,-21.973,971.68,-26.367,-28.809,117527.715,328.2469195859303
476,1686015763.3,-15.625,971.68,32.227,-29.297,117527.719,333.48341197937816
477,1686015763.3,-7.324,971.68,43.945,-16.113,117527.723,336.8998682595518
478,1686015763.31,-20.996,971.68,-0.977,-25.391,117527.727,337.74930517035966
479,1686015763.31,-35.156,971.68,-36.621,-39.551,117527.731,342.6452636790495
480,1686015763.31,-18.066,972.168,-43.945,-13.672,117527.734,334.70090851895577
481,1686015763.32,-9.766,972.168,81.055,-1.465,117527.738,334.98888141081414
482,1686015763.32,-21.973,971.68,32.227,-18.555,117527.742,334.0060121874892
483,1686015763.32,-27.344,972.168,-39.062,-21.973,117527.746,338.1613342567934
484,1686015763.33,-20.996,971.68,34.18,-15.137,117527.75,345.6398022510295
485,1686015763.33,-8.301,971.68,14.16,-7.324,117527.754,342.48595621304617
486,1686015763.34,-2.93,971.68,10.742,-11.719,117527.758,340.51736155253064
487,1686015763.34,-10.742,972.168,-22.949,-24.902,117527.761,340.83320979427884
488,1686015763.34,-12.695,971.68,5.859,-20.996,117527.765,334.54907606417356
489,1686015763.35,-11.719,971.191,75.195,-19.043,117527.769,341.8687717780128
490,1686015763.35,-11.23,971.68,-9.766,-21.484,117527.773,338.5955563131151
491,1686015763.36,-11.719,971.68,-45.41,-28.809,117527.777,336.8233453698629
492,1686015763.36,-18.066,971.68,1.465,-41.504,117527.778,336.83367239184105
493,1686015763.36,-5.371,971.68,19.043,-40.527,117527.782,333.4021104898867
494,1686015763.36,7.812,972.168,-27.344,-32.715,117527.786,338.1273619614773
495,1686015763.37,0.488,972.168,-45.41,-32.715,117527.789,339.07123109233936
496,1686015763.37,-0.977,971.68,-22.949,-41.504,117527.793,336.89117427547967
497,1686015763.38,8.789,971.68,-10.254,-33.691,117527.797,337.1259073796337
498,1686015763.38,8.789,972.168,-2.93,-23.926,117527.801,333.0488190796457
499,1686015763.38,-1.465,971.68,-59.57,-26.367,117527.805,339.1941089005661
500,1686015763.39,-8.789,971.68,-12.695,-24.414,117527.809,328.8083557260055
501,1686015763.39,-8.301,971.68,65.918,-16.602,117527.813,336.547914575505
502,1686015763.4,-3.418,971.68,3.906,-4.883,117527.817,336.9615525062184
503,1686015763.4,-4.883,971.68,9.277,-11.719,117527.821,330.70115246174163
504,1686015763.4,-11.719,971.68,8.301,-30.762,117527.836,333.3293591593721
505,1686015763.41,-14.16,971.68,-7.812,-28.809,117527.84,344.63936572361183
506,1686015763.41,-5.859,972.168,-21.973,-21.973,117527.844,339.42534909855254
507,1686015763.42,-7.324,971.68,3.906,-20.996,117527.848,340.9359583992422
508,1686015763.42,-12.207,971.68,-9.766,-23.438,117527.852,334.08627670825246
509,1686015763.42,-7.324,971.68,-30.273,-27.344,117527.856,334.6132495476934
510,1686015763.43,2.441,971.68,-1.465,-17.578,117527.859,337.21212701016054
511,1686015763.43,2.441,971.68,42.969,-13.672,117527.863,334.9397570723416
512,1686015763.43,-9.766,971.68,28.32,-25.391,117527.867,334.84667306485744
513,1686015763.44,-8.301,971.68,-4.883,-24.414,117527.871,334.867392463205
514,1686015763.44,-0.977,971.68,0.977,-14.16,117527.875,336.88886271645515
515,1686015763.45,5.859,971.68,34.668,-5.371,117527.879,327.57977588004917
516,1686015763.45,1.465,971.68,6.836,-9.277,117527.881,330.6267014551422
517,1686015763.45,-7.324,971.68,-32.715,-23.926,117527.885,325.05535499266057
518,1686015763.46,1.465,972.168,-20.02,-16.113,117527.889,331.440120669689
519,1686015763.46,7.812,972.168,10.742,0.0,117527.893,337.9208246738134
520,1686015763.46,-0.488,972.168,-9.766,-9.766,117527.897,331.59858704169807
521,1686015763.47,-7.324,971.68,-41.992,-16.602,117527.901,340.6467745416501
522,1686015763.47,-3.418,971.68,-54.688,-5.859,117527.905,339.0953232195087
523,1686015763.47,1.465,971.68,78.613,-1.465,117527.909,338.58167377781905
524,1686015763.48,6.348,971.68,54.199,-8.789,117527.912,345.20250137940883
525,1686015763.48,10.254,972.168,-47.363,-12.207,117527.916,344.1726762358082
526,1686015763.49,7.812,971.68,45.898,-12.695,117527.92,343.2753176075837
527,1686015763.49,15.137,971.68,42.48,-5.859,117527.924,348.3290642562254
528,1686015763.5,25.391,971.68,-1.953,-11.23,117527.962,344.78593022438
529,1686015763.5,19.043,971.68,-34.18,-25.879,117527.966,346.86964590847015
530,1686015763.5,10.254,971.68,49.316,-27.832,117527.97,346.56500419740297
531,1686015763.51,13.672,971.68,50.781,-10.254,117527.974,337.13717601724323
532,1686015763.51,14.16,971.68,-13.672,-4.395,117527.978,335.19546730238017
533,1686015763.52,10.254,972.168,-24.414,-9.766,117527.982,345.1879605862492
534,1686015763.52,0.488,972.168,50.781,-13.672,117527.985,337.37070744627306
535,1686015763.52,-2.93,972.168,59.082,-14.648,117527.989,339.5277435925875
536,1686015763.53,-2.93,971.68,-29.297,-9.766,117527.993,332.7235210406213
537,1686015763.53,0.488,971.68,-26.367,-10.742,117527.997,334.3331594116379
538,1686015763.53,1.465,972.168,20.02,-12.207,117528.001,342.73325716133184
539,1686015763.54,-4.395,971.68,-0.488,-10.254,117528.005,339.55535446936915
540,1686015763.54,3.906,972.168,-6.836,-9.277,117527.972,342.5481839788769
541,1686015763.55,11.23,972.168,-33.203,-14.16,117527.976,339.85134147824124
542,1686015763.55,11.719,971.68,-31.25,-24.902,117527.98,340.49662843580717
543,1686015763.55,12.695,971.68,8.301,-27.832,117527.984,336.4867651950871
544,1686015763.56,20.996,972.168,-24.414,-20.996,117527.988,343.3391457974272
545,1686015763.56,27.344,972.168,-87.891,-10.742,117527.992,347.8740615799013
546,1686015763.57,10.742,971.68,15.625,-13.672,117527.996,345.6923855342122
547,1686015763.57,4.883,972.168,62.988,-25.879,117528.0,348.165197385247
548,1686015763.57,17.578,971.68,-24.902,-16.113,117528.003,345.04927071953426
549,1686015763.58,16.602,971.68,-37.109,-3.906,117528.007,355.7153651750361
550,1686015763.58,4.883,972.168,32.227,-12.695,117528.011,341.0514209791022
551,1686015763.58,0.977,972.168,-1.465,-24.414,117528.015,350.64937003297666
552,1686015763.6,4.883,971.68,-39.062,-10.254,117528.02,340.63459864892036
553,1686015763.6,13.184,971.68,36.133,4.883,117528.024,335.2058597518846
554,1686015763.61,12.695,971.68,17.09,-5.371,117528.028,335.8122874245003
555,1686015763.61,3.906,972.168,-22.949,-17.578,117528.032,346.70333321669875
556,1686015763.61,-3.418,971.68,-47.363,-13.184,117528.036,334.2189161729011
557,1686015763.62,4.883,971.68,-18.555,0.0,117528.04,345.95431381180424
558,1686015763.62,10.742,971.68,47.852,0.488,117528.044,328.3577750810788
559,1686015763.62,-1.953,971.68,3.418,-3.418,117528.047,338.6039051579413
560,1686015763.63,7.812,971.68,-27.832,9.766,117528.051,344.32773157227757
561,1686015763.63,31.738,972.168,62.988,22.949,117528.055,347.22525721351667
562,1686015763.64,16.602,971.68,56.152,-0.977,117528.059,334.20095235052224
563,1686015763.64,-11.23,971.68,-21.484,-23.438,117528.063,340.8903479800474
564,1686015763.64,-15.137,971.68,-39.551,-26.855,117528.063,334.92939425727974
565,1686015763.65,-13.184,971.68,-17.578,-22.949,117528.067,336.67741570127265
566,1686015763.65,-34.668,971.68,-23.438,-24.902,117528.071,341.83551621993183
567,1686015763.65,-29.297,972.168,-35.156,-17.09,117528.075,345.75138637843764
568,1686015763.66,-23.438,971.68,-51.758,-25.879,117528.078,327.8385030737806
569,1686015763.66,-35.156,971.68,-29.297,-42.48,117528.082,335.2931282453807
570,1686015763.67,-29.785,971.68,10.254,-20.508,117528.086,321.80736009238325
571,1686015763.67,-20.508,971.68,-3.906,-3.906,117528.09,332.31800928525576
572,1686015763.67,-28.809,971.68,-66.895,-2.441,117528.094,323.1474678744489
573,1686015763.68,-31.738,971.68,-14.16,7.812,117528.098,327.0699887671557
574,1686015763.68,-7.324,971.68,70.312,13.672,117528.102,328.8123437249004
575,1686015763.68,3.418,971.68,-5.371,16.113,117528.106,320.8623476599579
576,1686015763.7,3.418,971.68,-6.348,17.578,117528.125,307.03304785072453
577,1686015763.71,2.441,971.68,20.996,12.207,117528.129,311.31240934321727
578,1686015763.71,5.371,971.68,0.977,13.184,117528.133,315.0497760835642
579,1686015763.72,20.02,972.168,-15.625,33.691,117528.137,308.627140483565
580,1686015763.72,15.137,971.68,-2.93,37.109,117528.141,311.73776157037014
581,1686015763.72,3.418,971.68,-9.277,25.879,117528.145,306.62191318742595
582,1686015763.73,11.23,971.68,25.879,26.855,117528.149,298.49650021920115
583,1686015763.73,13.672,971.68,-7.812,32.227,117528.153,303.7356591309001
584,1686015763.73,19.531,971.68,29.785,29.785,117528.153,307.82523180686036
585,1686015763.73,8.301,972.168,30.762,31.738,117528.156,301.66177330885756
586,1686015763.74,23.438,971.68,18.555,28.32,117528.157,300.88055848456753
587,1686015763.74,4.395,972.168,36.621,12.695,117528.16,291.746346516872
588,1686015763.74,21.973,971.68,-12.695,30.762,117528.16,285.06559935606435
589,1686015763.74,8.789,971.68,-15.625,16.113,117528.164,292.07253677117245
590,1686015763.74,17.578,971.68,-20.508,26.855,117528.164,286.15723354839895
591,1686015763.75,15.625,971.68,0.0,33.203,117528.168,292.60390518229616
592,1686015763.75,14.16,972.168,-6.836,26.855,117528.168,294.5981182273874
593,1686015763.75,0.977,972.168,-10.742,17.09,117528.172,292.68329638003183
594,1686015763.76,-1.465,971.68,-16.602,15.137,117528.176,284.03648864788073
595,1686015763.76,12.695,971.68,19.043,23.926,117528.18,277.2686159752118
596,1686015763.76,17.578,971.68,26.367,21.973,117528.184,282.50509633404425
597,1686015763.77,9.277,971.68,12.695,11.23,117528.188,291.00160727534796
598,1686015763.77,0.977,971.68,-24.414,0.977,117528.192,277.4836463402796
599,1686015763.77,0.488,971.68,-45.898,12.695,117528.196,259.64941463828194
600,1686015763.78,13.184,971.68,82.52,28.809,117528.202,267.72706492333765
601,1686015763.78,13.184,971.68,52.734,18.555,117528.206,265.3640699962666
602,1686015763.79,7.324,972.168,-53.711,17.578,117528.21,259.3645781668637
603,1686015763.79,8.301,972.168,45.41,20.508,117528.214,259.88344714674133
604,1686015763.8,13.672,972.168,31.25,17.09,117528.218,261.30586965037736
605,1686015763.8,17.09,971.68,-21.973,14.648,117528.222,260.36619720869027
606,1686015763.8,14.16,971.68,-27.832,16.602,117528.226,257.14494379388304
607,1686015763.81,10.254,971.68,27.344,18.555,117528.23,253.54837354143825
608,1686015763.81,12.695,971.68,67.871,16.113,117528.234,251.16519988099319
609,1686015763.82,24.902,971.68,-18.066,27.344,117528.237,256.88998339584134
610,1686015763.82,21.484,972.168,-34.668,18.555,117528.241,252.6143601212405
611,1686015763.82,5.371,972.168,18.555,9.766,117528.255,255.4336455890827
612,1686015763.82,5.859,972.168,-4.883,-3.906,117528.245,251.46219706677698
613,1686015763.82,12.695,971.68,0.977,16.602,117528.259,247.60399617734046
614,1686015763.83,14.16,971.68,-37.109,-0.977,117528.263,250.2396200348313
615,1686015763.83,10.254,972.168,-10.742,-5.371,117528.267,245.1011176688044
616,1686015763.84,15.625,972.168,-17.09,0.488,117528.271,244.54011809874658
617,1686015763.84,20.996,971.68,-26.855,11.719,117528.275,236.77697524352268
618,1686015763.84,20.996,971.68,-73.73,21.973,117528.279,239.65112542489456
619,1686015763.85,11.23,971.68,-17.09,20.02,117528.283,244.1900318216447
620,1686015763.85,6.348,971.68,48.828,6.836,117528.287,243.1364046522945
621,1686015763.86,20.02,971.68,4.883,7.324,117528.29,252.80702514230393
622,1686015763.86,16.113,972.168,29.297,8.301,117528.294,237.52502778623622
623,1686015763.86,7.812,971.68,12.695,-0.488,117528.298,242.53209442135946
624,1686015763.88,9.277,972.168,-14.648,-8.789,117528.316,237.53872991361067
625,1686015763.89,9.277,972.168,-13.672,-6.836,117528.32,242.6317833385473
626,1686015763.89,10.742,971.68,17.09,8.301,117528.324,247.852806221928
627,1686015763.89,8.301,971.68,0.0,14.16,117528.328,245.12097184421114
628,1686015763.9,0.977,971.68,-31.738,1.953,117528.332,241.037755997891
629,1686015763.9,4.395,972.168,-23.438,6.348,117528.336,245.36232697358216
630,1686015763.91,9.766,972.168,40.039,19.043,117528.34,245.860926900755
631,1686015763.91,0.977,972.168,48.34,7.812,117528.344,248.11583343772216
632,1686015763.91,-0.977,971.68,-23.926,-1.953,117528.348,248.3443478613755
633,1686015763.92,-3.418,971.68,-25.391,5.859,117528.352,246.1144643473649
634,1686015763.92,-4.883,971.68,76.172,19.043,117528.356,242.16939132535202
635,1686015763.92,-4.395,971.68,35.645,21.484,117528.359,247.88550285920073
636,1686015763.93,-17.578,971.68,-29.785,14.16,117528.348,233.15647829332104
637,1686015763.93,-12.695,971.68,-16.602,13.672,117528.352,235.02344032532872
638,1686015763.93,0.488,971.68,-0.977,19.043,117528.356,249.2574614722796
639,1686015763.94,3.906,971.68,9.277,13.672,117528.36,242.56868791440942
640,1686015763.94,4.395,972.168,-29.785,0.488,117528.363,242.15340293219938
641,1686015763.95,5.371,972.168,-73.73,9.277,117528.367,250.7544793243631
642,1686015763.95,6.836,972.168,-10.742,14.648,117528.371,253.34192923479256
643,1686015763.95,4.395,971.68,31.738,8.789,117528.375,254.65164246055488
644,1686015763.96,6.348,971.68,-29.297,9.277,117528.379,251.38055742769944
645,1686015763.96,6.348,972.168,-38.086,8.789,117528.383,259.0491510853864
646,1686015763.96,-4.395,971.68,46.387,6.348,117528.387,254.16859359806733
647,1686015763.97,-0.488,971.68,33.203,4.395,117528.391,254.8433376890979
648,1686015763.97,7.324,971.68,-47.363,7.812,117528.395,249.53511659557063
649,1686015763.98,5.371,971.68,-51.758,8.789,117528.399,252.4299898860646
650,1686015763.98,1.465,971.68,49.316,1.953,117528.403,252.32569436635504
651,1686015763.98,5.371,971.68,10.254,4.883,117528.407,249.18879233008096
652,1686015763.99,12.207,971.68,-50.781,11.23,117528.41,248.36467321645813
653,1686015763.99,10.254,971.68,-26.367,1.953,117528.414,247.05628856263095
654,1686015764.0,2.93,972.168,10.254,-3.418,117528.418,249.32560092547115
655,1686015764.0,10.254,972.168,7.324,2.441,117528.422,257.967478240265
656,1686015764.0,15.625,972.168,-35.156,8.301,117528.426,259.62587228163335
657,1686015764.01,11.719,971.68,27.344,13.672,117528.43,254.16988404498338
658,1686015764.01,6.836,972.168,32.715,11.719,117528.434,250.68869691823568
659,1686015764.02,4.395,971.68,6.348,7.324,117528.438,264.56746383170463
660,1686015764.02,8.789,971.68,-25.879,6.348,117528.437,257.3279380944205
661,1686015764.02,8.301,971.191,-7.812,6.348,117528.441,263.52519765905566
662,1686015764.02,-0.977,971.68,2.93,-8.301,117528.445,257.39243894862585
663,1686015764.03,1.953,972.168,-22.949,-21.973,117528.449,258.76885954774093
664,1686015764.03,11.23,971.68,-34.18,-20.996,117528.453,269.95187844808356
665,1686015764.04,19.531,971.68,-26.855,-15.625,117528.457,267.338556394909
666,1686015764.04,9.766,971.68,-12.207,-23.438,117528.461,269.0344868077054
667,1686015764.04,-1.465,971.68,-19.531,-22.461,117528.465,274.69782655130797
668,1686015764.05,8.301,971.68,-49.316,0.977,117528.469,275.6235062427903
669,1686015764.05,9.277,971.68,44.434,5.859,117528.473,273.66160575088037
670,1686015764.06,4.395,971.68,29.297,-1.953,117528.476,267.1086727112364
671,1686015764.06,2.441,971.68,-40.039,-0.977,117528.48,275.14885220162176
672,1686015764.06,-13.184,971.68,12.695,-5.859,117528.487,275.7315794870653
673,1686015764.07,-30.762,971.68,2.441,-18.066,117528.491,276.37373167376796
674,1686015764.07,-34.18,971.68,-36.621,-23.438,117528.495,284.499750721348
675,1686015764.08,-27.344,971.68,-41.504,-17.578,117528.499,271.4682157164628
676,1686015764.08,-22.949,971.68,21.484,-8.789,117528.503,277.83040976158816
677,1686015764.08,-9.766,972.168,0.977,-6.836,117528.507,277.76656465920604
678,1686015764.09,-5.859,971.68,-23.438,-17.578,117528.511,275.13528579479686
679,1686015764.09,-7.812,971.68,-31.25,-23.438,117528.514,286.9541665726708
680,1686015764.1,0.488,971.68,40.039,-14.16,117528.518,285.72206440326426
681,1686015764.1,7.812,971.68,68.359,-7.812,117528.522,296.13047256627135
682,1686015764.1,5.859,971.68,-24.902,-5.371,117528.526,295.4719593630032
683,1686015764.11,-16.602,971.68,-12.695,-16.113,117528.527,291.4602043034014
684,1686015764.11,-11.23,971.68,-55.664,-15.137,117528.53,290.2003852223922
685,1686015764.11,-1.465,971.68,4.395,0.0,117528.531,297.20694673941205
686,1686015764.11,-5.371,971.68,-29.297,3.418,117528.535,294.52493873910595
687,1686015764.12,-14.648,971.68,-61.523,-4.883,117528.539,296.0741028024726
688,1686015764.12,-12.695,972.168,-40.039,-9.277,117528.543,299.3757106364745
689,1686015764.13,-7.812,971.68,-4.883,-4.395,117528.547,298.02328503292694
690,1686015764.13,-5.371,971.68,-0.977,-3.418,117528.551,299.2964079453218
691,1686015764.13,-2.93,971.68,-64.453,0.488,117528.555,304.785023711466
692,1686015764.14,-13.184,971.68,-26.855,-4.395,117528.559,292.164143245681
693,1686015764.14,-13.184,972.168,71.289,-14.648,117528.563,305.48206192177685
694,1686015764.14,2.93,971.68,2.441,-6.836,117528.566,307.79408729268397
695,1686015764.15,-4.395,971.68,4.395,-4.395,117528.57,298.8627710444753
696,1686015764.15,-8.789,971.68,19.531,-7.812,117528.574,298.5689547140101
697,1686015764.16,-2.93,971.68,-17.09,-5.371,117528.578,300.69228334169514
698,1686015764.16,-1.465,971.68,-26.367,7.324,117528.582,296.19185063559513
699,1686015764.16,-13.184,972.168,0.977,3.418,117528.586,307.0694077244209
700,1686015764.17,-23.926,971.68,-21.973,-10.254,117528.59,299.8870882258709
701,1686015764.17,-24.414,971.68,-26.367,-10.742,117528.594,301.10991788465225
702,1686015764.18,-19.043,971.68,-9.277,-2.441,117528.598,295.7199567725937
703,1686015764.18,-15.625,971.68,-4.883,2.93,117528.602,304.93456343691736
704,1686015764.18,-21.484,971.68,37.109,-1.953,117528.606,302.5826017927143
705,1686015764.19,-24.414,971.68,-10.254,-7.812,117528.609,307.9199369000899
706,1686015764.19,-18.555,971.68,-24.902,-9.766,117528.613,310.34606770113896
707,1686015764.2,-12.207,971.68,10.742,-9.766,117528.617,313.24320988210746
708,1686015764.2,-18.555,971.68,0.488,-13.672,117528.631,313.48719625492777
709,1686015764.2,-23.438,972.168,-15.625,-27.832,117528.635,312.8540554315661
710,1686015764.2,-18.066,971.68,-36.133,-25.879,117528.638,310.8951994880948
711,1686015764.21,-12.695,971.68,-13.672,-6.836,117528.642,312.3080289909141
712,1686015764.21,-22.461,972.168,-27.832,-10.254,117528.646,315.69160673049225
713,1686015764.22,-35.645,971.68,-42.48,-24.902,117528.65,312.78991740552186
714,1686015764.22,-34.18,971.68,-68.848,-20.508,117528.654,302.89185690712475
715,1686015764.22,-27.344,971.68,27.344,-3.906,117528.658,308.71150120146746
716,1686015764.23,-26.367,971.68,47.852,-14.648,117528.662,308.8737279675045
717,1686015764.23,-34.18,971.68,-48.34,-28.809,117528.666,305.8942283044077
718,1686015764.24,-35.156,971.68,17.09,-27.344,117528.67,309.76598978516256
719,1686015764.24,-24.414,971.68,47.363,-22.949,117528.674,311.587186760115
720,1686015764.26,-26.367,972.168,-21.973,-25.879,117528.678,314.8698405084955
721,1686015764.26,-30.762,971.68,-40.527,-29.785,117528.682,308.20137544627573
722,1686015764.26,-32.227,972.168,0.0,-22.461,117528.685,324.9818448995789
723,1686015764.27,-28.32,971.68,2.93,-13.672,117528.689,317.6244266143145
724,1686015764.27,-21.973,971.68,-21.484,-4.883,117528.693,315.84663918928106
725,1686015764.28,-25.391,971.68,-43.945,-9.277,117528.697,313.5153447458558
726,1686015764.28,-39.551,971.68,50.293,-23.926,117528.701,323.85373205157407
727,1686015764.28,-41.992,971.68,48.828,-29.785,117528.705,316.20142473358874
728,1686015764.29,-30.273,971.68,-44.434,-20.996,117528.709,322.2706566949461
729,1686015764.29,-32.715,971.68,10.254,-24.902,117528.737,310.8013597073829
730,1686015764.29,-25.879,971.68,-19.043,-22.949,117528.713,329.0126555344412
731,1686015764.29,-20.996,971.68,-23.438,-14.648,117528.741,316.416224554842
732,1686015764.3,-30.762,971.68,8.789,-31.738,117528.717,317.9549227716802
733,1686015764.3,-28.809,971.68,17.09,-20.996,117528.745,321.41840545701984
734,1686015764.3,-35.645,971.68,-9.277,-31.738,117528.721,321.7345272812653
735,1686015764.3,-34.668,971.68,13.184,-33.203,117528.749,315.3833361393757
736,1686015764.3,-24.902,971.68,-39.062,-22.949,117528.753,322.5541101248184
737,1686015764.31,-20.02,971.68,-28.32,-11.23,117528.756,315.4744259945442
738,1686015764.31,-24.902,971.68,17.09,-15.137,117528.76,310.46917383181903
739,1686015764.32,-27.832,972.168,35.645,-17.578,117528.764,310.8184986465886
740,1686015764.32,-21.973,972.168,-6.836,-10.254,117528.768,327.02751065197344
741,1686015764.32,-16.602,972.168,-29.297,4.395,117528.772,323.5136504757149
742,1686015764.33,-23.438,972.168,52.734,-2.93,117528.776,316.9658818446729
743,1686015764.33,-36.133,972.168,15.625,-19.531,117528.78,313.3381341049168
744,1686015764.35,-37.109,971.68,-28.32,-21.484,117528.77,314.59004503585356
745,1686015764.35,-29.297,971.68,7.324,-13.672,117528.774,315.7274306222568
746,1686015764.36,-28.32,971.68,-6.836,-10.742,117528.778,322.16635498416144
747,1686015764.36,-30.273,972.168,-18.066,-21.973,117528.782,323.1065116284908
748,1686015764.36,-30.762,971.191,-47.852,-18.555,117528.786,319.7329399903519
749,1686015764.37,-23.926,970.703,32.227,-4.395,117528.79,318.2317825372276
750,1686015764.37,-18.066,971.68,65.43,-6.836,117528.794,312.4893369639063
751,1686015764.38,-20.996,971.68,-16.113,-11.23,117528.797,311.99351147210035
752,1686015764.38,-23.438,971.68,-22.461,-11.719,117528.801,313.1613078391553
753,1686015764.38,-17.09,971.68,40.039,-4.883,117528.805,321.0431208084123
754,1686015764.39,-1.465,971.68,22.949,20.02,117528.809,308.46722525309315
755,1686015764.39,-39.551,971.68,-57.617,-17.578,117528.811,304.3542885760562
756,1686015764.39,-9.277,971.68,-31.25,9.766,117528.813,309.64197478661924
757,1686015764.4,-42.969,971.68,32.715,-16.602,117528.815,321.44187709890014
758,1686015764.4,-21.973,971.68,33.203,-7.324,117528.819,309.54872417960274
759,1686015764.4,-6.836,971.68,-42.48,6.836,117528.823,313.6248934285376
760,1686015764.41,-30.273,972.168,-73.242,-7.324,117528.827,305.8350224339213
761,1686015764.41,-40.527,971.68,-5.859,-7.324,117528.831,316.02070532987494
762,1686015764.42,-24.902,971.68,20.508,10.742,117528.835,318.18688403780084
763,1686015764.42,-26.367,971.68,-11.719,11.23,117528.839,314.3178263723988
764,1686015764.42,-30.273,971.68,-62.5,6.348,117528.843,315.84398796659724
765,1686015764.43,-30.762,971.68,-4.883,0.977,117528.847,318.78552215376743
766,1686015764.43,-23.926,971.68,70.312,3.418,117528.851,322.7402536983286
767,1686015764.43,-14.648,971.68,12.695,14.648,117528.854,311.00367399721074
768,1686015764.44,-24.902,971.68,6.348,0.0,117528.86,304.0367600717281
769,1686015764.44,-29.785,972.168,11.719,-10.254,117528.864,311.1055689754753
770,1686015764.45,-21.484,971.68,2.441,-6.836,117528.868,317.35319548806433
771,1686015764.45,-16.113,971.68,-9.277,-5.371,117528.871,324.04973974902396
772,1686015764.45,-27.344,971.68,4.883,-12.695,117528.875,327.0740297754474
773,1686015764.46,-35.645,971.68,-9.277,-21.973,117528.879,308.61347759135765
774,1686015764.46,-27.832,971.68,-11.23,-20.508,117528.883,309.6227079259666
775,1686015764.46,-21.484,971.68,-16.113,-12.695,117528.887,318.1153603965143
776,1686015764.47,-15.625,971.68,-7.324,-6.836,117528.891,311.97135656252794
777,1686015764.47,-24.414,971.68,44.922,-18.066,117528.895,319.76516290567326
778,1686015764.48,-30.273,971.68,6.348,-20.508,117528.899,318.58771383765566
779,1686015764.48,-21.484,971.68,-26.367,-9.277,117528.903,314.28285277936124
780,1686015764.48,-25.391,971.68,7.812,-9.277,117528.903,315.33342645233927
781,1686015764.49,-31.25,971.68,0.977,-19.531,117528.907,316.3386668362738
782,1686015764.49,-28.809,971.68,-37.598,-33.691,117528.911,314.10075458427946
783,1686015764.49,-23.438,971.68,-20.996,-27.832,117528.915,320.41699257573697
784,1686015764.5,-19.043,971.68,-8.301,-22.461,117528.919,318.05386232862753
785,1686015764.5,-19.531,972.168,-19.043,-22.949,117528.923,323.084200727697
786,1686015764.51,-23.926,971.191,-16.602,-25.879,117528.926,325.9189829580843
787,1686015764.51,-22.461,970.215,-42.48,-20.02,117528.93,316.3553811681087
788,1686015764.51,-16.113,971.68,51.27,-7.324,117528.934,323.4395149053405
789,1686015764.52,-16.113,971.68,52.734,-20.02,117528.938,311.6423190577723
790,1686015764.52,-16.113,971.68,-41.016,-24.902,117528.942,324.5646615483513
791,1686015764.52,-13.672,971.68,33.691,-18.066,117528.946,324.04150189577865
792,1686015764.53,-5.371,971.68,67.383,-14.648,117528.961,323.11508204410984
793,1686015764.53,0.0,971.68,-0.977,-17.578,117528.965,321.8078373330092
794,1686015764.54,-11.23,971.68,-20.02,-29.297,117528.969,327.1510315381324
795,1686015764.54,-22.461,971.68,27.344,-36.133,117528.973,323.5296293166903
796,1686015764.54,-15.625,971.68,26.367,-36.133,117528.977,329.970985065434
797,1686015764.55,-7.812,972.656,-5.859,-36.133,117528.981,322.58226008693345
798,1686015764.55,-14.16,968.262,-34.668,-40.039,117528.985,317.2656743427147
799,1686015764.56,-20.508,967.285,29.297,-41.992,117528.989,321.16503056186866
800,1686015764.56,-17.09,972.656,75.195,-33.203,117528.993,328.50835030263005
801,1686015764.56,-10.254,971.68,-2.93,-30.762,117528.997,321.4063428084869
802,1686015764.57,-13.672,971.68,-23.438,-34.668,117529.0,327.84830767075016
803,1686015764.57,-21.973,971.68,6.836,-37.109,117529.004,319.2281509151187
804,1686015764.57,-18.066,971.68,6.836,-32.715,117528.996,330.6051237857552
805,1686015764.58,-11.719,971.68,5.371,-25.391,117529.0,324.8456615971002
806,1686015764.58,-17.578,970.703,-33.691,-30.273,117529.004,325.5148255966854
807,1686015764.58,-27.832,971.191,25.391,-41.016,117529.007,333.5673806792033
808,1686015764.59,-25.879,970.703,21.973,-38.086,117529.011,335.5726929549509
809,1686015764.59,-25.391,974.609,-14.16,-30.762,117529.015,323.4333890269176
810,1686015764.6,-24.902,959.473,-56.641,-31.25,117529.019,330.1409570549459
811,1686015764.6,-27.344,954.102,70.312,-32.227,117529.023,336.917999010239
812,1686015764.6,-28.32,974.609,89.355,-39.062,117529.027,328.0479661027384
813,1686015764.61,-26.367,969.727,-17.09,-35.645,117529.031,327.5871748996241
814,1686015764.61,-23.438,966.797,33.203,-27.344,117529.035,326.34597243158714
815,1686015764.62,-27.832,972.168,43.945,-41.504,117529.039,317.6950588992771
816,1686015764.64,-32.227,971.68,-8.789,-42.48,117529.066,326.23118401482594
817,1686015764.64,-27.832,971.68,1.953,-28.32,117529.07,326.2385077827467
818,1686015764.64,-28.809,972.656,17.09,-32.227,117529.074,330.1907169706342
819,1686015764.65,-32.715,968.75,-2.441,-37.109,117529.078,339.85884344046985
820,1686015764.65,-32.715,976.562,11.23,-48.828,117529.082,333.4048174860699
821,1686015764.66,-30.762,964.355,0.488,-50.293,117529.086,329.1073207294551
822,1686015764.66,-31.25,910.156,3.418,-38.574,117529.09,322.82127420217563
823,1686015764.66,-38.086,948.73,74.707,-43.457,117529.093,329.5561283906938
824,1686015764.67,-45.41,979.98,28.809,-51.758,117529.097,332.0832609076947
825,1686015764.67,-44.434,967.285,-15.137,-49.805,117529.101,329.53451993098884
826,1686015764.68,-34.668,971.68,43.457,-39.551,117529.105,328.05474897331754
827,1686015764.68,-44.434,971.68,-17.578,-39.062,117529.098,334.15541376214753
828,1686015764.68,-33.691,971.68,24.902,-33.691,117529.109,340.22483446907336
829,1686015764.68,-49.805,971.68,-10.742,-48.34,117529.102,337.10394136523087
830,1686015764.68,-39.062,971.191,29.785,-41.504,117529.106,336.5470909696517
831,1686015764.69,-34.18,972.168,23.926,-30.273,117529.11,326.6297848371396
832,1686015764.69,-44.922,973.145,-31.738,-40.039,117529.114,334.6395617581557
833,1686015764.7,-53.223,956.543,-48.34,-41.992,117529.118,328.5408411995119
834,1686015764.7,-39.551,956.055,24.414,-30.762,117529.122,324.7594207015563
835,1686015764.7,-36.133,980.957,34.18,-31.738,117529.126,327.50275444418804
836,1686015764.71,-48.34,970.215,-9.766,-37.109,117529.13,330.0469433298187
837,1686015764.71,-45.898,816.895,-24.414,-40.527,117529.134,324.64273289795136
838,1686015764.72,-36.133,882.812,89.355,-44.434,117529.137,328.00535403886937
839,1686015764.72,-32.227,-992.676,94.238,-33.691,117529.141,341.0941144103707
840,1686015764.72,-38.574,942.871,-20.508,-32.227,117529.145,334.6268256544573
841,1686015764.73,-45.41,888.184,-6.348,-44.434,117529.149,329.57695192955595
842,1686015764.73,-48.34,958.496,71.777,-45.898,117529.153,337.7484488776587
843,1686015764.74,-45.898,980.469,46.387,-46.875,117529.157,343.03005553591976
844,1686015764.74,-44.922,966.309,-9.277,-45.41,117529.161,339.7437356977019
845,1686015764.74,-55.664,975.098,-5.859,-52.734,117529.165,332.5097721316123
846,1686015764.75,-56.152,960.938,41.992,-55.176,117529.168,330.54855962973136
847,1686015764.75,-48.34,988.281,36.621,-44.434,117529.172,334.61411742964606
848,1686015764.75,-43.945,944.824,-21.484,-40.039,117529.176,335.4462675398657
849,1686015764.76,-46.387,746.094,-7.324,-36.133,117529.18,331.13249503310874
850,1686015764.76,-56.152,885.254,82.52,-45.898,117529.184,327.1792728726114
851,1686015764.77,-51.27,-999.023,40.039,-47.852,117529.188,327.68708260130455
852,1686015764.77,-37.109,958.496,11.23,-34.668,117529.188,342.6667644518669
853,1686015764.77,-44.434,974.121,40.527,-38.086,117529.192,330.72138577625117
854,1686015764.78,-51.758,971.68,10.742,-49.805,117529.196,320.4431943442059
855,1686015764.78,-46.875,971.68,7.812,-44.922,117529.199,326.5636671579331
856,1686015764.78,-40.527,972.656,7.812,-32.227,117529.203,331.6698201707479
857,1686015764.79,-41.504,969.727,17.578,-26.367,117529.207,334.9889751646917
858,1686015764.79,-50.781,962.891,4.883,-37.598,117529.211,328.37321060642967
859,1686015764.79,-61.523,994.629,3.906,-51.758,117529.215,322.6172691821716
860,1686015764.8,-62.988,782.227,-20.508,-39.551,117529.219,327.07233823665166
861,1686015764.8,-56.641,726.074,64.941,-29.785,117529.223,328.0877422839229
862,1686015764.81,-51.758,989.746,64.941,-37.598,117529.227,327.7986349633955
863,1686015764.81,-53.711,957.031,-7.812,-47.852,117529.231,331.572778086111
864,1686015764.81,-48.828,905.762,72.754,-41.504,117529.235,334.293243322342
865,1686015764.82,-35.645,968.75,81.543,-30.273,117529.239,325.48574304736536
866,1686015764.82,-38.574,976.074,1.953,-40.039,117529.243,331.73035529279707
867,1686015764.82,-45.898,967.773,-1.953,-41.504,117529.247,340.98405102527516
868,1686015764.83,-43.945,975.586,52.246,-31.738,117529.251,321.03218767811524
869,1686015764.83,-40.039,956.055,37.109,-21.973,117529.254,334.3012436827699
870,1686015764.84,-49.805,-996.582,42.48,-27.344,117529.258,323.9584179480439
871,1686015764.84,-55.176,901.367,-9.277,-30.762,117529.262,328.5293023791371
872,1686015764.84,-53.223,745.605,45.41,-32.227,117529.266,327.739462343655
873,1686015764.85,-51.27,951.172,106.934,-34.668,117529.27,328.34897924298656
874,1686015764.85,-42.969,990.234,26.855,-20.996,117529.274,330.2866519844945
875,1686015764.86,-43.457,956.543,0.488,-30.273,117529.278,327.13610878110524
876,1686015764.86,-42.48,970.703,7.812,-35.645,117529.28,329.15783715447793
877,1686015764.86,-33.691,969.727,22.461,-28.809,117529.284,324.6497915286731
878,1686015764.86,-28.32,980.469,23.926,-21.973,117529.287,322.9504373749366
879,1686015764.87,-35.156,917.969,-27.832,-22.461,117529.291,323.1343388333863
880,1686015764.87,-42.48,923.34,17.578,-36.621,117529.295,322.9966743450388
881,1686015764.88,-31.25,965.332,36.133,-28.32,117529.299,336.70749580429907
882,1686015764.88,-30.762,-990.723,0.977,-18.066,117529.303,328.86753358646644
883,1686015764.88,-43.457,708.984,-55.176,-20.02,117529.307,320.01948805136044
884,1686015764.89,-51.27,529.785,49.805,-26.855,117529.311,324.1048402714302
885,1686015764.89,-44.922,946.777,94.238,-33.691,117529.315,326.5485799785549
886,1686015764.9,-31.738,993.164,7.324,-22.461,117529.319,320.41329274633915
887,1686015764.9,-31.738,951.172,43.945,-19.531,117529.323,328.60729773031045
888,1686015764.9,-39.062,976.074,25.391,-27.344,117529.339,324.48840082261756
889,1686015764.91,-38.574,972.168,6.348,-24.902,117529.343,324.6893634716516
890,1686015764.91,-34.18,971.68,24.414,-19.531,117529.347,325.4467609873909
891,1686015764.92,-36.621,976.074,28.32,-11.719,117529.351,326.70231522412416
892,1686015764.92,-44.434,950.195,11.23,-16.602,117529.355,338.22241828884546
893,1686015764.92,-56.152,997.559,18.555,-32.715,117529.359,325.4526950082789
894,1686015764.93,-57.617,924.805,15.137,-26.855,117529.363,326.304558182011
895,1686015764.93,-46.387,559.57,0.0,-11.23,117529.367,322.0897156386021
896,1686015764.93,-51.27,814.453,59.57,-23.926,117529.371,322.1029499629817
897,1686015764.94,-58.594,-971.191,16.113,-36.133,117529.375,328.24693283843357
898,1686015764.94,-49.316,937.012,-12.207,-22.949,117529.379,321.6412809484106
899,1686015764.95,-32.227,966.309,29.297,-10.254,117529.382,311.14670360783816
900,1686015764.95,-29.297,974.121,4.395,-11.719,117529.38,320.06817432789563
901,1686015764.95,-37.598,971.191,-15.625,-20.996,117529.384,314.13650130845946
902,1686015764.95,-32.715,972.656,-8.789,-20.508,117529.388,315.94189093220183
903,1686015764.96,-23.926,970.703,38.574,-6.836,117529.392,324.4297528001447
904,1686015764.96,-26.367,951.66,15.625,-7.812,117529.396,308.63269221978874
905,1686015764.97,-35.645,-978.516,-17.09,-16.602,117529.4,318.67926691069215
906,1686015764.97,-37.109,641.113,-36.621,-15.137,117529.403,318.68400136015885
907,1686015764.97,-26.367,462.402,65.43,-4.883,117529.407,327.9240223260681
908,1686015764.98,-23.438,980.469,92.285,-15.625,117529.411,320.9914722845693
909,1686015764.98,-42.48,969.238,-14.648,-36.621,117529.415,319.3180991635069
910,1686015764.98,-45.898,627.93,-5.859,-33.203,117529.419,325.1827780735347
911,1686015764.99,-38.574,842.285,81.055,-21.973,117529.423,313.4420540448079
912,1686015765.01,-39.551,-979.492,19.043,-17.578,117529.429,307.84812796675334
913,1686015765.01,-38.086,948.73,-31.738,-18.555,117529.433,320.4875661142793
914,1686015765.02,-44.434,979.004,22.461,-29.785,117529.437,313.73133721842254
915,1686015765.02,-47.852,953.613,21.973,-29.785,117529.441,312.17466133617916
916,1686015765.02,-46.875,-992.188,4.395,-31.25,117529.445,319.7420949508929
917,1686015765.03,-51.27,892.09,-18.555,-35.645,117529.449,316.1395466779389
918,1686015765.03,-54.199,708.496,53.711,-27.832,117529.453,322.28282645627365
919,1686015765.04,-48.34,931.641,81.543,-25.391,117529.456,312.451360615101
920,1686015765.04,-37.109,-975.586,8.789,-19.531,117529.46,311.136057253331
921,1686015765.04,-37.598,864.258,-4.395,-13.184,117529.464,308.5651595604489
922,1686015765.05,-47.852,805.176,58.105,-16.113,117529.468,309.8211247651426
923,1686015765.05,-46.875,981.445,65.43,-22.949,117529.472,307.1487772602492
924,1686015765.05,-41.992,975.098,16.113,-13.184,117529.472,313.4169322700773
925,1686015765.06,-41.504,964.844,-18.066,-8.301,117529.476,312.7422317923545
926,1686015765.06,-45.41,970.215,-5.371,-20.996,117529.48,311.629900965346
927,1686015765.06,-38.574,974.609,10.254,-17.09,117529.484,315.70458602165405
928,1686015765.07,-33.691,965.82,-6.836,-1.953,117529.488,314.8873015726739
929,1686015765.07,-32.715,931.641,-9.277,0.0,117529.492,318.51550745654407
930,1686015765.08,-39.062,944.336,14.16,-6.836,117529.496,318.2937104509085
931,1686015765.08,-56.641,957.52,25.879,-18.066,117529.5,309.37003268351947
932,1686015765.08,-51.27,-983.398,16.113,-12.207,117529.503,314.6313276771178
933,1686015765.09,-39.062,532.227,-31.738,4.395,117529.507,318.2369406403092
934,1686015765.09,-52.246,346.68,58.105,-14.648,117529.511,313.4518038889414
935,1686015765.09,-55.176,962.891,46.387,-37.109,117529.515,316.6122850157927
936,1686015765.1,-50.781,944.824,-23.438,-34.18,117529.519,316.8923062269882
937,1686015765.1,-52.246,794.434,55.176,-31.738,117529.523,310.68345769782843
938,1686015765.11,-51.758,960.449,57.617,-43.945,117529.527,312.3690038357792
939,1686015765.11,-57.617,985.352,-14.648,-59.082,117529.531,309.4945177753511
940,1686015765.11,-53.711,956.543,-18.066,-55.176,117529.535,306.6333427733535
941,1686015765.12,-39.062,964.355,15.625,-35.156,117529.538,308.7060628404578
942,1686015765.12,-38.086,937.012,50.293,-29.785,117529.542,310.74864407535097
943,1686015765.12,-47.852,-970.215,18.066,-42.969,117529.546,305.62181088952684
944,1686015765.13,-51.758,829.102,-43.945,-55.176,117529.55,308.76186696945297
945,1686015765.13,-47.363,480.957,53.223,-49.805,117529.554,310.33090081335666
946,1686015765.14,-41.016,894.531,78.125,-37.109,117529.558,317.7630338895799
947,1686015765.14,-37.109,-980.469,-4.883,-36.133,117529.562,315.8234365501097
948,1686015765.14,-46.875,916.992,-20.508,-44.922,117529.575,319.24922186979484
949,1686015765.15,-51.27,948.73,0.977,-41.504,117529.579,315.01739933720694
950,1686015765.15,-40.527,969.727,14.16,-27.832,117529.583,321.37905959598027
951,1686015765.15,-42.969,993.652,4.395,-37.598,117529.587,310.79378461014625
952,1686015765.16,-52.246,745.117,-64.453,-42.48,117529.591,309.68243692093114
953,1686015765.16,-49.805,741.699,-3.418,-27.832,117529.595,315.1871522028926
954,1686015765.17,-43.457,952.637,38.086,-20.996,117529.599,309.7115816808931
955,1686015765.17,-36.621,-971.68,1.953,-22.949,117529.603,312.6995633205007
956,1686015765.17,-42.48,457.031,-46.387,-27.344,117529.607,311.15907606480613
957,1686015765.18,-49.316,100.586,45.898,-29.297,117529.61,322.5018889951391
958,1686015765.18,-40.039,878.906,94.238,-31.25,117529.614,319.2955138248728
959,1686015765.18,-39.551,-990.234,-10.742,-32.227,117529.618,309.2400169072191
960,1686015765.22,-45.898,912.598,10.254,-42.969,117529.639,314.4548418556036
961,1686015765.22,-46.875,979.492,34.18,-55.176,117529.643,313.8896582967668
962,1686015765.22,-43.945,971.68,6.836,-42.48,117529.647,310.09615337449947
963,1686015765.23,-40.039,971.68,-14.648,-32.227,117529.651,318.45577591401485
964,1686015765.23,-40.039,933.594,33.203,-27.344,117529.653,316.3087921446297
965,1686015765.23,-44.922,970.215,-10.742,-43.457,117529.655,314.6280899337347
966,1686015765.24,-50.293,981.445,4.395,-40.039,117529.657,301.84225356783594
967,1686015765.24,-45.41,916.504,-7.812,-53.711,117529.659,308.2180561556034
968,1686015765.24,-59.082,966.797,-17.578,-52.246,117529.66,312.4468812585972
969,1686015765.24,-35.645,998.535,10.742,-40.527,117529.662,313.4614513044252
970,1686015765.24,-49.316,950.684,-9.277,-34.668,117529.664,319.0011678291094
971,1686015765.24,-28.32,900.391,-1.953,-22.949,117529.666,309.1349931702471
972,1686015765.25,-40.527,943.359,-7.324,-26.367,117529.668,304.78562788832016
973,1686015765.25,-39.551,313.965,-13.672,-26.855,117529.67,306.13444515510594
974,1686015765.25,-42.969,978.027,9.277,-31.738,117529.672,311.90231227352416
975,1686015765.25,-47.852,699.219,66.895,-40.039,117529.674,310.6091440767699
976,1686015765.26,-40.039,876.465,-13.672,-33.691,117529.676,302.94063757122865
977,1686015765.26,-43.945,-932.617,25.391,-45.41,117529.678,314.7930469362261
978,1686015765.26,-32.715,602.539,-21.484,-18.555,117529.68,307.40314617840806
979,1686015765.26,-42.48,890.137,-20.02,-37.109,117529.682,308.6693940121081
980,1686015765.26,-32.227,832.52,47.363,-11.719,117529.684,304.37866895094663
981,1686015765.27,-32.227,-958.008,24.902,-15.137,117529.688,313.6734157053415
982,1686015765.27,-36.133,901.855,-22.949,-20.996,117529.692,320.6332667728441
983,1686015765.27,-32.715,756.348,45.41,-17.578,117529.696,304.27697520647257
984,1686015765.28,-29.297,903.809,73.242,-8.301,117529.699,323.57561413560654
985,1686015765.28,-35.156,999.512,1.465,-21.973,117529.703,310.29244072728113
986,1686015765.29,-38.574,976.562,-44.434,-38.574,117529.707,309.1916071330149
987,1686015765.29,-40.039,193.359,-36.133,-32.715,117529.711,309.603957831974
988,1686015765.29,-38.574,87.891,89.844,-25.391,117529.715,319.71202311878284
989,1686015765.3,-37.109,998.047,57.617,-26.367,117529.719,314.2545963910739
990,1686015765.3,-39.062,888.672,-27.344,-27.832,117529.723,314.8566652887485
991,1686015765.3,-43.945,405.762,36.133,-26.367,117529.727,309.1707483604807
992,1686015765.31,-41.016,835.449,76.66,-23.438,117529.731,307.52618094933376
993,1686015765.31,-32.227,-952.637,-0.488,-18.555,117529.735,312.1832392189525
994,1686015765.32,-34.18,877.93,-18.555,-25.391,117529.739,314.3920626195047
995,1686015765.32,-39.551,911.133,44.922,-41.504,117529.742,311.5044847745242
996,1686015765.32,-38.574,982.91,44.922,-37.598,117529.756,307.52591578511584
997,1686015765.32,-36.621,989.258,-3.906,-32.227,117529.76,311.4108663687072
998,1686015765.33,-42.969,801.27,-38.086,-35.645,117529.764,306.8044998630349
999,1686015765.33,-53.711,840.82,30.762,-51.27,117529.768,306.35387657416857
1000,1686015765.34,-54.199,964.844,8.789,-51.27,117529.772,302.546024858725
1001,1686015765.34,-47.852,-968.262,-16.113,-37.598,117529.776,312.60515918043035
1002,1686015765.34,-48.34,566.406,-51.27,-42.48,117529.78,304.3979653503341
1003,1686015765.35,-64.453,65.918,23.926,-54.688,117529.783,319.4285369490748
1004,1686015765.35,-76.66,826.172,65.918,-57.129,117529.787,309.79764288073966
1005,1686015765.36,-58.105,-975.098,-15.625,-37.598,117529.791,300.62274755442013
1006,1686015765.36,-48.828,895.996,39.551,-31.738,117529.795,314.0233761692772
1007,1686015765.36,-51.27,970.703,21.973,-46.387,117529.799,315.76419756075234
1008,1686015765.38,-43.457,986.328,-27.344,-52.246,117529.804,320.22549508299653
1009,1686015765.39,-36.621,907.715,2.93,-41.504,117529.808,316.4533520792101
1010,1686015765.39,-40.039,804.688,62.988,-33.203,117529.812,308.00623079396127
1011,1686015765.39,-40.039,933.594,55.176,-31.738,117529.816,319.7964465272914
1012,1686015765.4,-41.504,-977.539,-9.766,-34.18,117529.82,311.0217899529158
1013,1686015765.4,-41.992,865.234,-27.344,-28.809,117529.823,310.2330378679034
1014,1686015765.41,-36.133,645.508,63.965,-22.461,117529.827,309.56288291880765
1015,1686015765.41,-40.039,925.781,55.664,-33.203,117529.831,315.55271856050297
1016,1686015765.41,-42.969,-992.188,-21.973,-41.016,117529.835,307.43655078133673
1017,1686015765.42,-46.875,907.227,-15.625,-47.852,117529.839,306.2950789245602
1018,1686015765.42,-41.016,928.223,35.645,-38.086,117529.843,298.96449044378465
1019,1686015765.42,-32.227,981.445,21.484,-27.832,117529.847,305.32280619322387
1020,1686015765.43,-38.574,971.191,-23.926,-34.668,117529.848,305.7252983706442
1021,1686015765.43,-48.34,932.617,-30.762,-40.527,117529.852,310.59269845225845
1022,1686015765.44,-48.34,943.359,-15.137,-40.039,117529.856,301.6100439241123
1023,1686015765.44,-47.852,949.707,-1.465,-45.41,117529.86,316.05599365223975
1024,1686015765.44,-49.805,-963.867,-13.672,-54.199,117529.864,307.93427588522246
1025,1686015765.45,-52.734,560.547,-78.613,-52.734,117529.867,309.1310940473874
1026,1686015765.45,-43.945,233.887,32.715,-39.551,117529.871,311.9409679729814
1027,1686015765.45,-33.691,895.508,80.566,-29.785,117529.875,310.7980257192772
1028,1686015765.46,-33.691,-969.238,-24.902,-38.574,117529.879,315.3194161809519
1029,1686015765.46,-38.086,448.242,-51.27,-41.016,117529.883,305.03321802478433
1030,1686015765.47,-36.621,599.121,72.754,-40.039,117529.887,311.4960375629633
1031,1686015765.47,-24.902,-958.496,52.246,-38.574,117529.891,307.8246634782658
1032,1686015765.47,-25.879,941.895,-22.461,-32.715,117529.894,316.4033866038732
1033,1686015765.48,-42.48,951.66,8.789,-44.922,117529.898,305.0375154691404
1034,1686015765.48,-48.34,969.727,3.418,-44.922,117529.902,305.6170451290274
1035,1686015765.48,-37.598,979.492,-5.371,-24.902,117529.906,311.2778069606502
1036,1686015765.49,-35.645,953.613,-27.344,-16.113,117529.91,300.1166230397468
1037,1686015765.49,-39.551,917.969,-25.879,-15.625,117529.914,296.0715574009346
1038,1686015765.5,-36.621,915.527,-14.16,-21.484,117529.918,316.7839290984771
1039,1686015765.5,-29.785,-989.258,16.113,-23.438,117529.922,300.7087160849985
1040,1686015765.5,-23.438,902.832,-4.883,-9.766,117529.926,310.7898778050665
1041,1686015765.51,-25.879,270.996,-31.25,-5.371,117529.929,306.03946723982966
1042,1686015765.51,-38.574,662.109,46.387,-26.367,117529.933,312.21567574182046
1043,1686015765.52,-42.969,-934.082,17.09,-32.227,117529.937,310.9364525890751
1044,1686015765.52,-34.668,918.945,-31.25,-21.973,117529.938,304.46160725176304
1045,1686015765.52,-34.668,964.844,-2.441,-22.461,117529.942,306.4896165628071
1046,1686015765.52,-41.504,975.098,4.395,-34.18,117529.946,301.3505667871727
1047,1686015765.53,-47.852,970.215,-9.277,-33.203,117529.95,303.76703011515883
1048,1686015765.53,-44.434,960.938,-32.227,-24.902,117529.954,303.3273677186606
1049,1686015765.54,-35.645,958.008,-19.043,-31.738,117529.958,305.665058883475
1050,1686015765.54,-42.969,939.941,-0.488,-34.18,117529.962,302.44894449422196
1051,1686015765.54,-46.875,972.656,-10.254,-23.926,117529.966,303.8167962268957
1052,1686015765.55,-41.504,481.934,-56.641,-17.09,117529.97,312.14072085608797
1053,1686015765.55,-44.922,73.73,-1.953,-14.648,117529.974,303.51665208705896
1054,1686015765.56,-48.34,783.203,62.5,-23.926,117529.978,302.66076646242294
1055,1686015765.56,-48.34,-974.121,-4.395,-29.297,117529.981,305.53428654282834
1056,1686015765.56,-45.898,906.738,16.113,-24.902,117529.985,304.38239389551785
1057,1686015765.57,-41.016,980.957,39.062,-27.344,117529.989,302.840127317054
1058,1686015765.57,-41.992,972.656,-12.207,-30.762,117529.993,298.52215696562297
1059,1686015765.58,-42.969,969.238,-21.973,-27.344,117529.997,300.50569312086174
1060,1686015765.58,-35.645,976.562,12.207,-18.066,117530.001,307.7254267363013
1061,1686015765.58,-28.809,939.941,-7.324,-9.766,117530.004,299.2699715381243
1062,1686015765.59,-36.621,-980.469,-10.742,-17.578,117530.008,301.04618962083737
1063,1686015765.59,-48.34,878.418,-36.133,-31.738,117530.012,303.12283420750236
1064,1686015765.59,-43.945,414.551,-5.371,-26.855,117530.016,307.24322047380645
1065,1686015765.6,-33.691,812.012,68.359,-23.438,117530.02,299.5666496515036
1066,1686015765.6,-29.785,-949.219,-0.977,-24.414,117530.024,305.0728843946885
1067,1686015765.61,-32.715,878.418,-35.645,-31.25,117530.028,313.035509343276
1068,1686015765.64,-37.109,916.016,22.949,-29.785,117530.058,303.69011844786263
1069,1686015765.64,-36.133,982.422,35.645,-17.578,117530.062,304.9299754698757
1070,1686015765.64,-28.809,984.375,-15.625,-15.625,117530.066,301.1563971005026
1071,1686015765.65,-30.762,849.609,-49.805,-22.461,117530.07,302.7087477714194
1072,1686015765.65,-36.133,868.164,10.254,-23.926,117530.073,312.1867503351881
1073,1686015765.66,-25.391,959.961,23.926,-11.23,117530.077,299.8967968609092
1074,1686015765.66,-22.949,-969.238,-8.301,-8.789,117530.081,297.2848013739791
1075,1686015765.66,-34.668,586.914,-75.684,-21.973,117530.085,304.6358066347043
1076,1686015765.67,-41.016,212.402,27.344,-35.645,117530.089,301.6098340022683
1077,1686015765.67,-25.879,970.703,9.277,-26.367,117530.091,302.2947668587812
1078,1686015765.67,-38.574,877.93,81.055,-31.738,117530.093,301.58462002154795
1079,1686015765.67,-30.273,986.328,-41.992,-22.461,117530.095,306.1504501341952
1080,1686015765.68,-30.762,-987.305,-17.09,-22.949,117530.097,304.6131916482237
1081,1686015765.68,-31.25,926.27,-15.137,-9.277,117530.099,303.51702115005014
1082,1686015765.68,-24.414,919.922,18.555,-24.414,117530.101,308.7293415924585
1083,1686015765.68,-33.691,856.934,59.082,-11.719,117530.103,301.1496104935823
1084,1686015765.68,-40.527,967.285,11.719,-34.18,117530.106,305.54701733584244
1085,1686015765.69,-41.016,974.121,-53.223,-31.738,117530.11,306.0850422427346
1086,1686015765.69,-28.32,944.824,0.0,-15.625,117530.114,304.46065895412363
1087,1686015765.7,-24.902,957.52,35.645,-14.648,117530.118,315.89404721152215
1088,1686015765.7,-22.461,964.355,9.766,-1.953,117530.118,307.52569327312
1089,1686015765.7,-28.32,971.68,2.93,-18.066,117530.122,308.7459557994755
1090,1686015765.7,-34.668,-982.422,-34.18,-5.859,117530.122,308.57328449812996
1091,1686015765.7,-22.949,980.957,-21.484,-19.043,117530.126,303.5841037467895
1092,1686015765.7,-35.645,786.133,-53.711,-11.23,117530.126,312.5769320272334
1093,1686015765.71,-22.461,922.852,-17.09,-11.23,117530.13,297.1618850946285
1094,1686015765.71,-32.227,669.922,44.434,-4.395,117530.13,309.4419333445841
1095,1686015765.71,-17.09,923.34,36.133,-2.93,117530.134,296.2619242315585
1096,1686015765.71,-34.18,995.117,31.738,-10.254,117530.134,301.9411192440863
1097,1686015765.72,-44.434,968.75,-50.781,-19.043,117530.138,302.94352097426855
1098,1686015765.72,-40.527,754.883,-62.988,-11.23,117530.141,307.02632361756525
1099,1686015765.72,-34.18,867.188,-0.488,-7.324,117530.145,305.9430998001369
1100,1686015765.73,-35.645,987.305,15.137,-7.324,117530.149,299.0798623939047
1101,1686015765.73,-36.621,-988.77,-27.832,-16.602,117530.153,301.3114430472969
1102,1686015765.74,-39.062,458.008,-53.223,-14.648,117530.157,304.05754341231625
1103,1686015765.74,-39.062,136.23,34.18,-12.207,117530.161,305.0595573886005
1104,1686015765.74,-37.109,872.559,69.824,-21.484,117530.177,305.1615754918899
1105,1686015765.75,-32.227,-984.863,-14.648,-21.973,117530.181,301.60296650833294
1106,1686015765.75,-36.621,935.547,-20.02,-32.227,117530.185,309.50882775522035
1107,1686015765.76,-26.367,950.684,-4.395,-26.855,117530.189,301.58120162864384
1108,1686015765.76,-21.484,-980.469,-7.812,-14.648,117530.193,310.05512280866816
1109,1686015765.76,-33.203,891.602,-52.246,-32.715,117530.196,307.19557216475465
1110,1686015765.77,-40.039,417.969,-14.648,-43.457,117530.2,308.68631268381455
1111,1686015765.77,-41.504,796.387,73.73,-47.852,117530.204,304.6699393950178
1112,1686015765.77,-31.25,-948.242,17.578,-44.922,117530.208,309.2627956146628
1113,1686015765.78,-30.762,896.973,-25.391,-36.133,117530.212,310.5087716023033
1114,1686015765.78,-46.875,922.852,22.461,-40.039,117530.216,313.1934284742295
1115,1686015765.79,-53.223,979.004,13.184,-48.34,117530.22,301.80263502090634
1116,1686015765.8,-39.551,971.191,-27.344,-27.344,117530.223,307.1313931559822
1117,1686015765.8,-40.039,966.309,-39.062,-29.785,117530.227,306.8029406506547
1118,1686015765.81,-48.828,966.797,-9.766,-49.805,117530.231,307.71101948945415
1119,1686015765.81,-42.969,960.449,-19.531,-44.922,117530.235,297.7208716045793
1120,1686015765.82,-34.18,-990.234,-36.133,-37.109,117530.239,307.2355095918003
1121,1686015765.82,-29.785,726.074,-55.176,-21.484,117530.243,294.33572094741106
1122,1686015765.82,-35.156,644.043,2.441,-31.738,117530.246,306.09423405724544
1123,1686015765.83,-47.363,990.234,31.25,-49.316,117530.25,297.9026799371116
1124,1686015765.83,-46.875,980.957,-32.227,-36.133,117530.254,303.5516719293648
1125,1686015765.84,-40.527,583.496,-36.621,-17.09,117530.258,305.2526499083318
1126,1686015765.84,-38.086,726.074,63.477,-26.855,117530.262,306.8897991350729
1127,1686015765.84,-36.133,-967.773,13.184,-41.992,117530.266,320.02425929011565
1128,1686015765.85,-35.156,943.359,-41.992,-35.645,117530.27,312.6614351631405
1129,1686015765.85,-27.832,957.52,9.766,-29.785,117530.274,305.78875977258167
1130,1686015765.86,-27.344,971.191,5.859,-26.367,117530.278,308.1016812994572
1131,1686015765.86,-42.969,976.562,-36.133,-33.691,117530.282,303.51614148906015
1132,1686015765.86,-55.176,958.496,-45.41,-37.109,117530.285,308.2833973933919
1133,1686015765.87,-47.363,942.383,-9.766,-25.879,117530.289,307.7870770305517
1134,1686015765.87,-38.574,935.547,30.273,-27.832,117530.293,310.59780098345703
1135,1686015765.88,-39.551,-972.168,0.977,-32.715,117530.297,311.94121450103694
1136,1686015765.88,-37.109,847.168,-52.734,-14.16,117530.301,304.9525360392224
1137,1686015765.88,-30.762,484.863,33.203,0.0,117530.305,309.0937481920443
1138,1686015765.89,-33.203,879.883,62.012,-1.465,117530.309,300.97857896592296
1139,1686015765.89,-38.086,-969.727,-27.344,-3.906,117530.313,300.18041148308816
1140,1686015765.89,-35.156,844.238,-35.156,-4.395,117530.312,297.5169720843573
1141,1686015765.9,-40.527,882.324,46.387,-2.93,117530.316,302.21157985388425
1142,1686015765.9,-35.645,992.188,29.297,5.371,117530.32,303.58039540705363
1143,1686015765.9,-24.414,968.75,-29.785,11.23,117530.324,297.7977360599246
1144,1686015765.91,-33.203,901.367,-36.621,3.418,117530.328,309.0133256062944
1145,1686015765.91,-41.504,917.969,-17.578,5.371,117530.332,299.6340002809529
1146,1686015765.92,-35.156,939.453,7.324,25.391,117530.336,307.8539871889825
1147,1686015765.92,-25.391,-957.52,-10.742,26.855,117530.34,314.94486992757646
1148,1686015765.92,-26.367,461.426,-78.613,25.391,117530.344,307.8736599691786
1149,1686015765.93,-29.785,45.898,33.203,32.227,117530.348,307.6533498047793
1150,1686015765.93,-16.602,862.793,83.496,32.227,117530.352,312.41425378497786
1151,1686015765.93,-2.93,-986.816,-10.742,40.039,117530.355,307.85601279087143
1152,1686015765.94,-9.766,909.668,11.719,40.527,117530.36,315.0878838730146
1153,1686015765.94,-20.508,967.773,0.977,25.879,117530.364,310.7676975653273
1154,1686015765.95,-20.996,983.398,-33.691,19.043,117530.368,310.193151566071
1155,1686015765.95,-23.438,911.133,-13.184,29.785,117530.372,300.95741413662734
1156,1686015765.95,-31.738,821.289,55.664,27.344,117530.376,314.5972243252649
1157,1686015765.96,-35.156,919.434,30.762,19.531,117530.38,315.32297766544787
1158,1686015765.96,-30.762,-982.422,-12.207,22.461,117530.384,308.79583908718496
1159,1686015765.96,-21.973,866.699,-6.836,28.32,117530.388,305.2349246375697
1160,1686015765.97,-21.973,469.727,13.672,22.949,117530.392,303.12485182169775
1161,1686015765.97,-32.227,842.773,25.879,9.766,117530.395,298.8755034277613
1162,1686015765.98,-31.738,-968.262,-16.602,10.254,117530.399,305.5352902995428
1163,1686015765.98,-16.113,908.203,-21.484,20.996,117530.403,301.6328008035501
1164,1686015765.98,-10.742,948.73,-2.441,24.902,117530.403,304.04309786635076
1165,1686015765.99,-23.438,979.492,-12.695,12.207,117530.407,310.11731765649927
1166,1686015765.99,-35.645,967.773,-28.32,4.395,117530.411,300.7996740418353
1167,1686015765.99,-30.762,932.617,-32.715,9.766,117530.415,302.14183754184285
1168,1686015766.0,-19.531,941.895,-14.16,18.555,117530.419,292.8336610058318
1169,1686015766.0,-21.973,927.246,-7.812,14.648,117530.423,308.23196754960975
1170,1686015766.01,-23.926,-995.605,-20.508,2.93,117530.426,311.6780688183865
1171,1686015766.01,-20.996,456.055,-77.148,4.883,117530.43,308.4439342508338
1172,1686015766.01,-15.137,-123.535,-7.812,24.414,117530.434,295.58637347568816
1173,1686015766.02,-15.137,700.684,68.848,18.066,117530.438,316.70000350285835
1174,1686015766.02,-19.531,-964.844,-2.93,2.93,117530.442,305.1544797751066
1175,1686015766.02,-22.461,876.953,30.273,1.465,117530.446,302.16814498633005
1176,1686015766.03,-18.066,978.516,36.133,5.371,117530.45,318.0273849396873
1177,1686015766.03,-12.695,976.562,-24.902,1.953,117530.454,309.4179612766252
1178,1686015766.04,-19.043,956.543,-18.555,-11.23,117530.458,314.733431260822
1179,1686015766.04,-24.414,958.008,17.578,-17.578,117530.462,305.0153980513431
1180,1686015766.04,-17.09,934.57,4.395,-8.789,117530.466,309.31686473806263
1181,1686015766.05,-13.672,-975.098,-17.578,-6.836,117530.47,306.337966815475
1182,1686015766.05,-18.066,848.633,-49.316,-0.488,117530.474,302.848415326274
1183,1686015766.06,-22.461,246.094,4.395,10.742,117530.478,310.31049542575784
1184,1686015766.06,-16.113,736.816,78.613,12.207,117530.482,303.19703083672596
1185,1686015766.06,-10.254,-919.434,5.859,7.324,117530.486,303.40696560197387
1186,1686015766.07,-16.113,850.098,-21.973,1.465,117530.49,304.6830449151457
1187,1686015766.07,-24.902,869.141,42.48,-3.906,117530.493,307.7125242268089
1188,1686015766.07,-26.855,982.422,26.367,-10.254,117530.493,304.1521322400883
1189,1686015766.08,-20.508,974.121,-18.555,0.488,117530.497,302.663590658043
1190,1686015766.08,-18.555,939.453,-48.828,1.465,117530.501,306.29233319740825
1191,1686015766.08,-24.414,956.543,-31.25,-9.766,117530.505,314.76568480714695
1192,1686015766.09,-25.391,920.41,-23.438,-6.348,117530.509,311.71759937143116
1193,1686015766.09,-16.113,-973.633,-20.508,10.254,117530.513,312.84142034758077
1194,1686015766.1,-13.184,544.922,-76.172,27.832,117530.517,306.49683322283926
1195,1686015766.1,-37.109,-75.684,-7.324,11.719,117530.521,317.6719199825822
1196,1686015766.1,-45.41,775.391,64.453,-12.695,117530.524,311.61320617868205
1197,1686015766.11,-31.25,-972.168,-19.531,-11.23,117530.528,309.4643615614656
1198,1686015766.11,-28.32,780.273,10.742,-5.859,117530.532,303.5195401948189
1199,1686015766.12,-36.133,946.777,4.883,-11.719,117530.536,316.73203311375596
1200,1686015766.13,-42.969,999.023,-27.344,-17.09,117530.554,306.3611700673596
1201,1686015766.14,-39.062,924.316,-30.273,-16.113,117530.557,309.88598862818594
1202,1686015766.14,-34.18,891.602,9.766,-20.02,117530.561,305.4506160175038
1203,1686015766.14,-30.273,937.988,5.371,-21.484,117530.565,310.5632802271711
1204,1686015766.15,-37.598,-974.609,-23.926,-28.809,117530.569,310.02021287904
1205,1686015766.15,-39.062,839.355,-41.504,-20.508,117530.573,305.66789675170986
1206,1686015766.16,-32.227,346.68,2.93,-1.465,117530.577,319.1618813358691
1207,1686015766.16,-35.645,801.27,41.992,-9.277,117530.581,303.45163252577373
1208,1686015766.16,-34.668,-956.543,-30.273,-18.555,117530.585,315.08342276256474
1209,1686015766.16,-34.18,975.098,-35.645,-17.09,117530.61,310.79928566120935
1210,1686015766.17,-29.297,894.531,-26.367,-13.184,117530.589,315.8698648676602
1211,1686015766.17,-36.133,740.234,-38.086,-17.578,117530.614,314.9530198880987
1212,1686015766.17,-23.926,943.848,18.066,-6.836,117530.593,316.67688545750514
1213,1686015766.17,-28.809,735.352,6.348,-8.789,117530.618,312.1430222308916
1214,1686015766.18,-20.508,975.098,-3.906,-5.371,117530.596,310.4067997760315
1215,1686015766.18,-27.344,992.188,11.719,-13.184,117530.622,311.8816673876801
1216,1686015766.18,-25.391,971.191,-55.664,-13.672,117530.626,313.2432990749807
1217,1686015766.18,-17.09,583.008,-74.707,-10.742,117530.63,305.32921469897974
1218,1686015766.19,-12.695,606.934,-15.625,-6.348,117530.634,310.79127643629727
1219,1686015766.19,-12.695,968.75,26.855,-5.371,117530.638,305.2604318372257
1220,1686015766.19,-24.902,-998.047,-30.762,-17.09,117530.642,298.1240571155115
1221,1686015766.2,-35.156,383.301,-65.918,-28.32,117530.646,307.24081244404283
1222,1686015766.2,-30.273,430.664,64.941,-25.879,117530.65,316.5773288830802
1223,1686015766.21,-21.484,-973.633,36.133,-16.602,117530.653,299.7869745307218
1224,1686015766.22,-14.16,943.359,-27.344,-6.836,117530.644,300.38199388321374
1225,1686015766.23,-17.578,932.129,5.859,-13.184,117530.648,311.4719573543058
1226,1686015766.23,-17.578,944.824,-16.113,-15.137,117530.652,301.30867414041336
1227,1686015766.24,-14.16,995.605,-29.297,-1.953,117530.656,311.5801801113594
1228,1686015766.24,-7.324,896.484,-29.785,2.93,117530.66,305.3376794115168
1229,1686015766.24,-16.113,405.762,6.348,1.465,117530.663,314.2812502009258
1230,1686015766.25,-30.762,708.008,35.645,-5.371,117530.667,301.54880040141614
1231,1686015766.25,-20.508,-957.52,-4.395,2.441,117530.671,311.7949710034629
1232,1686015766.25,-7.324,895.996,-13.184,15.625,117530.675,315.0732362817672
1233,1686015766.26,-16.602,898.926,16.602,-1.953,117530.679,314.0811512460873
1234,1686015766.26,-19.531,968.262,0.488,-7.324,117530.683,312.78832021269767
1235,1686015766.27,-9.277,849.609,-19.043,22.461,117530.687,304.91043668034627
1236,1686015766.27,-13.672,993.652,-20.02,10.742,117530.687,311.9726605097054
1237,1686015766.27,-10.742,828.613,19.531,24.902,117530.691,308.34553575112506
1238,1686015766.27,-15.137,989.746,-10.254,16.602,117530.695,296.0166055948023
1239,1686015766.28,-20.996,971.68,-40.039,9.766,117530.699,313.41490629521945
1240,1686015766.28,-17.578,846.68,-43.945,12.207,117530.703,313.6290159007447
1241,1686015766.29,-10.254,828.613,-11.23,12.207,117530.707,302.8181658601113
1242,1686015766.29,-14.16,851.074,-17.578,7.812,117530.71,315.7960258467078
1243,1686015766.29,-13.672,878.418,-27.344,7.324,117530.714,302.3422625843266
1244,1686015766.3,-10.254,396.973,-51.27,17.578,117530.718,312.5534710612938
1245,1686015766.3,-15.137,-212.402,-15.625,20.508,117530.722,308.5283425017578
1246,1686015766.3,-20.02,607.422,49.316,7.324,117530.726,312.5379917353727
1247,1686015766.31,-23.438,-970.215,-7.812,-6.348,117530.73,305.77566594650796
1248,1686015766.33,-25.391,859.375,25.391,-7.324,117530.753,307.52886415896506
1249,1686015766.33,-15.625,973.633,18.066,7.324,117530.757,309.0490440330824
1250,1686015766.33,-11.719,979.004,-35.645,6.836,117530.761,314.1087006496836
1251,1686015766.34,-19.531,940.43,-36.133,-2.93,117530.765,314.6069745941768
1252,1686015766.34,-12.207,928.711,-9.766,-1.953,117530.769,311.875195998783
1253,1686015766.35,-9.277,912.109,-6.836,-0.488,117530.773,307.56217245638754
1254,1686015766.35,-7.812,-986.816,1.465,3.418,117530.777,311.1022751028975
1255,1686015766.35,-1.465,734.375,-54.688,12.695,117530.78,309.4755922100032
1256,1686015766.36,-12.695,101.562,0.977,11.23,117530.784,314.82328495360775
1257,1686015766.36,-14.648,704.59,79.102,-5.371,117530.788,305.0264278776099
1258,1686015766.36,-4.883,-910.156,-21.973,-9.766,117530.792,308.306010921859
1259,1686015766.37,-8.789,791.016,-42.969,-13.184,117530.796,305.3842264183433
1260,1686015766.37,-13.184,758.789,19.043,-15.625,117530.793,299.7091318843387
1261,1686015766.38,-9.277,972.168,12.695,-1.465,117530.797,300.9404940984966
1262,1686015766.38,-0.977,969.727,-19.043,5.371,117530.801,303.12527414386824
1263,1686015766.38,-3.418,866.699,-55.176,-7.812,117530.805,308.75777022516814
1264,1686015766.39,-16.602,864.258,-44.434,-20.996,117530.809,306.566929079035
1265,1686015766.39,-10.254,810.547,-18.066,-10.742,117530.812,311.2605277555751
1266,1686015766.4,2.441,928.711,-19.531,7.324,117530.816,308.2980645316388
1267,1686015766.4,-10.254,517.09,-69.824,0.488,117530.82,316.40534019487063
1268,1686015766.4,-24.414,357.91,-0.977,-19.043,117530.824,305.33106152653187
1269,1686015766.4,-9.277,258.301,52.734,0.977,117530.836,312.6463401905923
1270,1686015766.41,-17.09,942.383,32.227,-17.09,117530.828,321.3908693595317
1271,1686015766.41,-6.348,983.398,11.23,-10.254,117530.84,313.25211838950855
1272,1686015766.41,-9.277,-980.469,-26.855,-0.488,117530.832,310.87457060328023
1273,1686015766.41,-1.953,959.473,-40.527,-7.812,117530.844,309.45573699001216
1274,1686015766.41,-5.859,272.949,-32.715,8.301,117530.836,313.8751459632271
1275,1686015766.42,-4.883,918.945,2.441,-3.906,117530.848,313.67670091717014
1276,1686015766.42,-7.324,974.609,-2.93,-14.16,117530.852,316.71547326451997
1277,1686015766.42,-9.277,891.602,-20.996,-15.137,117530.856,322.77281982128017
1278,1686015766.43,-4.883,791.992,2.93,-9.766,117530.859,311.961413811869
1279,1686015766.43,-1.465,875.977,12.695,-5.859,117530.863,306.1583505244408
1280,1686015766.43,-10.742,943.359,-14.16,-8.301,117530.867,319.82832207891084
1281,1686015766.44,-21.484,-970.703,-35.156,-14.16,117530.871,308.882229373109
1282,1686015766.44,-17.578,774.902,-45.898,-6.836,117530.875,308.28032580399736
1283,1686015766.45,-17.578,374.023,45.41,-2.441,117530.879,316.4959416845614
1284,1686015766.45,-22.461,878.906,28.809,-9.277,117530.87,311.62941538777324
1285,1686015766.45,-22.949,-985.84,-66.895,-25.879,117530.874,312.3435760311982
1286,1686015766.46,-20.508,634.766,-51.758,-33.203,117530.878,311.6556488464631
1287,1686015766.46,-15.137,782.227,22.461,-15.625,117530.882,301.38307277644543
1288,1686015766.46,-13.672,983.887,-11.23,-10.742,117530.886,313.4131222015372
1289,1686015766.47,-15.137,804.199,-64.941,-13.672,117530.89,308.2131154315448
1290,1686015766.47,-10.254,177.734,-93.75,-4.395,117530.894,314.2591630003234
1291,1686015766.47,-7.812,-58.594,34.668,-6.836,117530.898,306.69457999184016
1292,1686015766.48,-11.23,882.812,63.477,-11.719,117530.902,316.65200510854646
1293,1686015766.48,-9.277,971.191,-46.387,-13.672,117530.905,315.58413271814385
1294,1686015766.49,-9.766,613.77,2.441,-21.973,117530.909,307.60846588974897
1295,1686015766.49,-3.906,879.395,32.227,-7.324,117530.913,311.6315405349781
