,timestamps,TP9,AF7,AF8,TP10,Secondary Timestamp,emg_signal
0,1686879738.56,-12.207,-991.699,10.742,-37.109,966.476,412.74903424463565
1,1686879738.57,-58.105,935.547,-35.156,-107.91,966.48,408.18341048515146
2,1686879738.57,-55.176,908.691,5.371,-66.406,966.484,409.78363393106156
3,1686879738.58,-23.926,951.172,40.039,15.137,966.487,401.65265660100584
4,1686879738.58,-23.926,941.895,-9.277,-13.672,966.491,407.9430340514781
5,1686879738.58,-49.805,909.668,-35.156,-100.586,966.495,411.2740616996998
6,1686879738.59,-55.176,54.688,-46.387,-73.242,966.499,413.7939583328455
7,1686879738.59,-24.902,104.004,42.48,12.207,966.503,402.3835675099199
8,1686879738.6,-6.348,-944.824,50.781,8.301,966.507,400.34859574893284
9,1686879738.6,-38.086,905.762,-40.527,-67.383,966.511,415.0269683802151
10,1686879738.6,-65.918,852.539,-39.551,-98.633,966.515,406.3198839653236
11,1686879738.61,-36.621,949.707,14.648,-23.438,966.519,409.55187356875575
12,1686879738.61,-9.277,-965.82,32.715,17.09,966.521,413.48658538710066
13,1686879738.62,-36.133,722.168,-40.527,-58.594,966.525,410.6027635378683
14,1686879738.62,-63.965,595.215,-12.207,-111.816,966.529,404.37006110450835
15,1686879738.63,-45.41,971.68,38.574,-48.828,966.533,412.05728265491973
16,1686879738.63,-13.184,-959.961,-7.812,24.902,966.537,402.2932276348218
17,1686879738.63,-29.297,628.906,-39.062,-15.625,966.541,419.4036202568827
18,1686879738.64,-57.617,533.691,21.973,-96.191,966.545,409.62038351428015
19,1686879738.64,-46.387,992.188,25.879,-69.824,966.548,417.2284907219575
20,1686879738.64,-15.137,-994.629,-17.578,17.09,966.552,421.31086248204195
21,1686879738.65,-18.066,721.191,-1.953,3.418,966.556,416.7750109454427
22,1686879738.65,-55.176,747.07,42.48,-86.914,966.56,417.9098510987724
23,1686879738.66,-62.988,-991.699,24.414,-89.844,966.564,423.7843940246087
24,1686879738.67,-37.109,946.289,-2.441,1.953,966.569,421.0501094531432
25,1686879738.68,-29.785,802.734,-12.207,20.508,966.573,417.13522933886594
26,1686879738.68,-59.57,834.961,1.465,-63.965,966.576,421.19261296248413
27,1686879738.68,-76.66,958.496,-13.672,-111.328,966.58,416.11798447902476
28,1686879738.69,-40.039,984.375,-27.832,-20.996,966.584,408.54191685833916
29,1686879738.69,-18.066,124.023,-51.758,44.922,966.588,420.49662678464114
30,1686879738.69,-57.617,-176.758,4.883,-46.387,966.592,420.31282232697697
31,1686879738.7,-91.309,873.535,49.805,-126.465,966.596,425.041501806769
32,1686879738.7,-79.59,910.156,-43.945,-65.43,966.6,419.46699005533503
33,1686879738.71,-46.387,598.633,-25.879,5.859,966.604,424.0861419553935
34,1686879738.71,-47.363,906.738,36.621,-39.551,966.608,411.4187361839625
35,1686879738.71,-81.543,-973.633,-25.879,-116.699,966.612,422.75529520354354
36,1686879738.72,-87.402,791.504,-22.949,-101.074,966.626,424.3620361440742
37,1686879738.72,-47.852,814.941,22.461,-8.789,966.63,419.4725289473763
38,1686879738.72,-26.855,978.027,6.836,4.395,966.634,407.84378556614973
39,1686879738.73,-60.059,-993.652,-34.18,-74.707,966.638,420.8852054163046
40,1686879738.73,-81.543,677.734,-28.809,-83.984,966.642,414.0016144264399
41,1686879738.74,-50.781,478.516,22.949,2.441,966.646,422.2456262555435
42,1686879738.74,-31.25,808.105,33.203,20.996,966.65,421.3373691412686
43,1686879738.74,-60.059,-897.949,-7.812,-68.848,966.654,427.1429171823555
44,1686879738.75,-87.891,350.098,-63.965,-104.004,966.658,428.9156917616997
45,1686879738.75,-60.059,-13.672,19.531,-29.785,966.662,426.2097443208766
46,1686879738.76,-30.762,951.66,61.035,18.555,966.666,430.4601472071301
47,1686879738.76,-54.688,969.727,-19.531,-38.574,966.669,421.5328881591621
48,1686879738.76,-87.402,782.227,-28.32,-99.121,966.657,428.8491627589637
49,1686879738.76,-78.125,908.691,7.812,-56.152,966.661,415.6627341789404
50,1686879738.77,-43.457,991.699,3.906,11.719,966.665,422.6841126380672
51,1686879738.77,-45.898,929.688,-50.293,-20.508,966.669,425.69401701138554
52,1686879738.78,-89.844,623.047,-49.805,-101.074,966.672,428.1697291521402
53,1686879738.78,-85.938,493.164,-7.324,-83.496,966.676,425.0233913108395
54,1686879738.78,-41.504,643.555,2.441,5.859,966.68,429.49433154934337
55,1686879738.79,-35.156,766.602,-34.668,2.93,966.684,434.0273578170863
56,1686879738.79,-63.477,-91.797,-72.754,-75.195,966.688,428.0087033616941
57,1686879738.8,-80.078,-168.457,28.809,-104.98,966.692,424.6173001615056
58,1686879738.8,-54.688,989.746,50.781,-33.203,966.696,435.87634470926014
59,1686879738.8,-32.715,829.59,-60.547,22.461,966.7,429.9957718116098
60,1686879738.81,-59.082,347.168,-35.645,-48.828,966.708,424.0127781416568
61,1686879738.81,-78.613,797.852,52.734,-110.352,966.712,425.896271396936
62,1686879738.82,-51.758,-969.727,-1.465,-51.758,966.716,432.5819719152997
63,1686879738.82,-21.484,809.082,-8.301,14.648,966.72,423.6427810851055
64,1686879738.82,-38.086,866.211,2.441,-29.785,966.724,437.26002210895336
65,1686879738.83,-76.172,747.07,-32.715,-99.609,966.728,420.8223323016629
66,1686879738.83,-69.336,726.562,-5.371,-70.801,966.732,422.2201221764115
67,1686879738.84,-32.715,402.832,-11.719,11.23,966.736,424.2545183343996
68,1686879738.84,-41.992,289.062,11.23,-4.883,966.739,425.47735833174863
69,1686879738.84,-81.055,854.004,30.762,-94.727,966.743,422.54721948456756
70,1686879738.85,-76.172,873.047,-6.348,-91.797,966.747,425.07692295507286
71,1686879738.85,-41.992,820.312,8.789,-5.859,966.751,425.0407503582599
72,1686879738.85,-34.18,880.859,25.879,3.906,966.761,419.8739119958215
73,1686879738.86,-62.5,-992.676,-5.859,-80.566,966.765,426.8176652719222
74,1686879738.86,-82.031,895.508,-33.691,-103.516,966.769,427.68153438956483
75,1686879738.86,-57.129,713.867,-11.23,-28.32,966.773,419.28067473789054
76,1686879738.87,-19.043,789.062,19.531,22.949,966.777,423.59647283397976
77,1686879738.87,-38.574,760.254,-6.348,-37.598,966.781,439.36610159654714
78,1686879738.87,-76.172,636.23,-37.598,-102.051,966.785,437.02320899193904
79,1686879738.88,-56.152,-127.93,-60.059,-42.48,966.789,425.6433433654495
80,1686879738.88,-22.461,-234.863,54.199,31.738,966.793,425.3517229257667
81,1686879738.89,-28.809,855.957,81.055,-21.484,966.796,429.5355370400703
82,1686879738.89,-65.43,870.605,-28.32,-98.633,966.8,433.1040687208737
83,1686879738.89,-72.266,716.309,-24.414,-76.172,966.804,416.9061971361626
84,1686879738.91,-42.48,923.828,11.23,-4.395,966.82,427.3027251487901
85,1686879738.92,-38.086,-954.102,5.859,-14.648,966.824,423.54193816964846
86,1686879738.92,-64.941,621.582,-37.109,-94.238,966.828,433.1576016394429
87,1686879738.92,-72.754,436.035,8.301,-105.469,966.832,429.8578791266775
88,1686879738.93,-42.48,964.355,20.02,-30.762,966.836,430.3268188310158
89,1686879738.93,-32.715,926.27,-29.297,-13.672,966.84,425.3608453795892
90,1686879738.94,-62.5,348.145,-24.902,-90.332,966.843,431.7971876454543
91,1686879738.94,-81.543,380.371,34.668,-123.047,966.847,419.90591675047574
92,1686879738.94,-78.125,989.746,30.273,-92.773,966.852,433.45726578621395
93,1686879738.94,-59.57,970.703,40.527,-54.688,966.851,435.5967084555817
94,1686879738.94,-48.34,922.363,-19.043,-14.16,966.855,436.21134843395447
95,1686879738.95,-36.133,-954.102,-26.855,-4.395,966.855,435.49112911945014
96,1686879738.95,-63.965,572.754,-30.273,-49.316,966.859,428.9271996149333
97,1686879738.95,-60.547,447.266,-32.227,-62.012,966.859,434.18577413800915
98,1686879738.95,-98.145,659.18,-4.883,-127.441,966.863,434.3867239128041
99,1686879738.96,-108.398,728.027,-23.926,-111.816,966.867,433.0779260399194
100,1686879738.96,-92.285,330.566,40.039,-131.836,966.863,435.83212967924993
101,1686879738.96,-77.637,491.211,-32.715,-27.832,966.871,432.4632016235996
102,1686879738.96,-60.547,379.395,-10.254,-29.297,966.875,430.059695466246
103,1686879738.97,-87.891,654.297,15.137,-122.07,966.879,426.78290609408776
104,1686879738.97,-99.609,963.379,13.184,-130.859,966.883,437.50592242920857
105,1686879738.98,-69.336,863.281,-31.25,-47.363,966.887,434.1040355140045
106,1686879738.98,-51.27,-168.457,-81.055,-8.789,966.891,429.04124981074295
107,1686879738.98,-66.895,-577.637,39.062,-83.008,966.895,428.84688856191025
108,1686879738.99,-92.773,579.59,77.148,-142.578,966.912,431.2352031283014
109,1686879738.99,-81.543,798.828,-0.488,-65.918,966.916,433.59628751494944
110,1686879739.0,-58.105,684.57,22.949,-2.441,966.92,425.277732841837
111,1686879739.0,-83.984,989.258,8.789,-73.242,966.924,430.30518417052406
112,1686879739.0,-122.07,946.777,-28.809,-147.949,966.928,427.97350402296007
113,1686879739.01,-101.074,551.758,-27.344,-92.773,966.931,429.7418370386365
114,1686879739.01,-66.895,395.996,8.789,-13.672,966.935,432.0834804660242
115,1686879739.01,-72.754,729.492,11.719,-51.27,966.939,435.11120229382146
116,1686879739.02,-94.238,-943.359,-17.578,-120.605,966.943,427.3435384053872
117,1686879739.02,-105.469,247.07,-62.012,-102.539,966.947,433.4971669354813
118,1686879739.03,-79.59,-114.746,11.719,-25.391,966.951,416.4223769494636
119,1686879739.03,-74.219,923.34,33.691,-27.344,966.955,431.38223771133755
120,1686879739.05,-112.793,937.988,-41.992,-117.188,966.945,433.5977664454025
121,1686879739.05,-117.676,631.836,-19.531,-143.066,966.949,432.4787114265668
122,1686879739.05,-69.824,787.598,14.648,-59.082,966.953,434.42662579347916
123,1686879739.06,-48.34,995.605,-8.301,-11.23,966.957,431.55828997797914
124,1686879739.06,-73.242,748.535,-58.105,-79.102,966.961,431.27558887735535
125,1686879739.07,-95.215,-129.883,-26.855,-120.117,966.965,434.40882950580044
126,1686879739.07,-75.684,-25.391,62.5,-55.176,966.969,425.43139968695635
127,1686879739.07,-40.527,774.902,31.738,2.441,966.973,434.1186533556893
128,1686879739.08,-62.988,583.496,-43.945,-46.875,966.977,432.8123637890891
129,1686879739.08,-97.168,418.457,-21.484,-122.07,966.98,426.19491164218914
130,1686879739.08,-86.426,796.875,24.414,-91.309,966.984,427.5921206594568
131,1686879739.09,-49.805,-946.777,10.254,-8.301,966.988,429.6637097761544
132,1686879739.09,-50.293,685.547,-66.895,-24.414,966.989,433.21908391111793
133,1686879739.1,-85.449,-117.676,-29.297,-112.305,966.993,431.05950501905824
134,1686879739.1,-92.285,396.484,70.312,-115.723,966.997,419.58071990852045
135,1686879739.1,-52.734,-964.355,3.906,-27.832,967.001,421.67296576608265
136,1686879739.11,-45.898,698.73,-29.785,-15.625,967.005,436.05773594650935
137,1686879739.11,-88.867,408.203,-25.391,-96.191,967.009,429.2107687008546
138,1686879739.12,-109.375,456.543,4.883,-129.883,967.013,425.87701530271653
139,1686879739.12,-75.195,860.352,5.371,-57.617,967.017,433.8895573275326
140,1686879739.12,-38.574,384.277,-48.34,-0.977,967.02,429.19252000905885
141,1686879739.13,-65.43,-27.832,-10.254,-76.66,967.024,436.4479177613994
142,1686879739.13,-106.445,545.41,14.648,-154.785,967.028,434.31487481525767
143,1686879739.14,-94.238,723.145,-10.742,-87.891,967.032,431.88252059652234
144,1686879739.14,-60.547,563.477,0.0,-14.16,967.032,426.73456788387733
145,1686879739.14,-66.895,656.738,27.832,-65.918,967.036,431.04861567280193
146,1686879739.14,-93.262,923.828,-3.418,-138.184,967.04,429.7546013878367
147,1686879739.15,-90.332,740.234,-37.109,-111.328,967.044,422.39878710680154
148,1686879739.15,-65.918,498.047,-24.414,-30.762,967.048,432.8152987360307
149,1686879739.16,-56.152,438.477,-10.254,-44.434,967.052,419.7152651904399
150,1686879739.16,-87.891,423.828,-22.949,-128.906,967.055,433.98124809112244
151,1686879739.16,-112.305,439.941,-34.668,-134.766,967.059,426.05830773817513
152,1686879739.17,-78.613,-287.109,-63.477,-42.969,967.063,428.38309626121287
153,1686879739.17,-50.781,-158.203,17.578,-16.602,967.067,428.79815407213624
154,1686879739.17,-71.777,956.055,20.02,-105.469,967.071,421.354591133298
155,1686879739.18,-94.727,713.867,-38.086,-137.207,967.075,438.74688324378513
156,1686879739.18,-70.312,462.402,-12.695,-53.223,967.082,424.93008844299374
157,1686879739.19,-47.363,727.051,11.719,-6.836,967.086,418.8088205929243
158,1686879739.19,-67.383,-980.957,-17.578,-80.566,967.09,430.68521964494704
159,1686879739.2,-91.309,484.375,-53.711,-133.789,967.094,431.84613610377016
160,1686879739.2,-82.52,186.523,3.906,-77.148,967.098,428.5999498901834
161,1686879739.2,-54.688,566.406,-8.789,-9.277,967.102,425.0508072257402
162,1686879739.21,-55.664,598.145,-23.438,-44.434,967.106,426.1899130172739
163,1686879739.21,-89.355,25.391,-44.922,-122.07,967.11,428.8165171248883
164,1686879739.21,-88.379,-128.906,5.859,-96.191,967.114,427.0245449022386
165,1686879739.22,-50.293,839.844,45.898,-18.066,967.118,427.7648572241244
166,1686879739.22,-52.246,958.496,-27.344,-33.691,967.122,431.4489139370368
167,1686879739.23,-76.66,649.414,-38.086,-120.605,967.125,428.76854168766516
168,1686879739.23,-79.102,667.969,-5.859,-133.301,967.122,435.04761578173486
169,1686879739.23,-61.035,887.695,-5.371,-55.664,967.126,424.27887922309736
170,1686879739.23,-48.828,794.434,-36.133,-31.738,967.13,413.3177720864114
171,1686879739.24,-64.941,361.816,-35.156,-103.516,967.134,419.4124265034417
172,1686879739.24,-91.797,177.246,-11.719,-144.531,967.137,429.5174962306366
173,1686879739.25,-76.172,263.184,-9.766,-74.219,967.141,428.92799526186246
174,1686879739.25,-37.598,463.867,-29.297,-17.578,967.145,425.44832866003736
175,1686879739.25,-65.43,-327.148,-78.613,-75.684,967.149,432.73992638649474
176,1686879739.26,-104.492,-750.488,8.789,-136.23,967.153,419.5425842226663
177,1686879739.26,-73.242,497.559,55.176,-83.984,967.157,421.547854760316
178,1686879739.26,-33.203,806.152,-25.391,-3.418,967.161,426.9103455745563
179,1686879739.27,-61.523,636.719,-15.137,-45.41,967.165,428.5728957609621
180,1686879739.27,-99.609,837.891,6.348,-131.836,967.169,422.9538800703691
181,1686879739.28,-98.633,848.145,-28.32,-105.469,967.173,426.38193266830825
182,1686879739.28,-47.852,610.352,-14.648,-10.254,967.177,428.3920973656188
183,1686879739.28,-35.645,601.074,23.926,-12.695,967.181,425.69027434686893
184,1686879739.29,-90.332,714.844,-39.551,-106.934,967.185,422.19757239115665
185,1686879739.29,-90.332,451.66,-44.922,-120.117,967.189,432.5779535936699
186,1686879739.3,-44.922,-95.703,-43.945,-23.438,967.192,428.70169839859847
187,1686879739.3,-26.855,-405.762,8.789,20.996,967.196,421.5572438165184
188,1686879739.3,-50.293,455.078,60.059,-41.992,967.2,429.6849398737192
189,1686879739.31,-62.012,749.512,-25.879,-81.055,967.204,430.0091201643749
190,1686879739.31,-25.391,459.961,-0.488,-9.277,967.208,419.9091666354934
191,1686879739.32,3.906,685.547,34.668,62.5,967.212,425.17740724840667
192,1686879739.32,-7.812,894.531,-6.348,18.066,967.226,427.272497629042
193,1686879739.32,-33.203,608.887,-39.551,-60.059,967.23,428.93452006369444
194,1686879739.32,-26.855,309.082,-6.348,-26.367,967.233,416.41489952137266
195,1686879739.33,2.93,522.461,15.625,54.688,967.237,423.8692218659625
196,1686879739.33,1.465,444.336,-24.414,22.461,967.241,417.9876533209787
197,1686879739.34,-34.668,163.086,-44.434,-71.289,967.245,418.3579137329618
198,1686879739.34,-45.898,-629.395,-53.223,-56.152,967.249,422.9410230779534
199,1686879739.34,-9.766,-561.035,41.504,28.32,967.253,426.9707844508917
200,1686879739.35,7.812,555.176,43.945,32.227,967.257,433.13591596764627
201,1686879739.35,-26.367,291.992,-58.594,-42.48,967.261,432.15803020723627
202,1686879739.36,-47.852,138.184,-18.555,-66.895,967.265,423.8560178447514
203,1686879739.36,-16.602,693.359,34.668,3.906,967.269,413.0048471053275
204,1686879739.36,17.578,896.973,-8.789,37.598,967.271,415.2452575342269
205,1686879739.37,-17.578,423.828,-31.25,-40.527,967.275,436.1055648387794
206,1686879739.37,-58.594,145.02,-7.812,-101.562,967.279,421.4003543426147
207,1686879739.38,-34.18,513.672,13.184,-44.434,967.283,411.8868371974117
208,1686879739.38,-10.254,732.422,-27.832,24.414,967.287,417.67819453050106
209,1686879739.38,-29.297,46.875,-52.246,-24.414,967.29,416.3433379648859
210,1686879739.39,-60.547,-257.324,39.062,-94.727,967.294,421.7316940284497
211,1686879739.39,-66.406,448.242,31.25,-67.871,967.298,418.67132606250846
212,1686879739.39,-40.039,663.574,-31.25,9.277,967.302,428.37587127828397
213,1686879739.4,-29.297,193.359,-11.719,5.371,967.306,423.5661782694157
214,1686879739.4,-68.359,52.734,12.207,-83.984,967.31,425.74764962288447
215,1686879739.41,-78.613,185.547,-26.367,-87.891,967.314,432.75596358401015
216,1686879739.42,-31.25,139.16,-15.137,10.254,967.317,417.9386688553732
217,1686879739.42,-13.184,72.754,9.766,32.715,967.321,415.7864038258191
218,1686879739.43,-47.852,165.039,11.23,-51.758,967.325,421.984767900693
219,1686879739.43,-66.406,432.129,-10.742,-98.633,967.329,420.6646916979998
220,1686879739.44,-37.109,376.465,-33.203,-29.785,967.333,425.03850320705857
221,1686879739.44,-20.02,-464.355,-58.594,41.016,967.337,421.6883178259212
222,1686879739.44,-42.969,-624.512,9.277,-29.297,967.34,416.6104714149851
223,1686879739.45,-59.082,449.707,32.227,-107.91,967.344,423.71618211182977
224,1686879739.45,-52.246,384.766,-48.828,-51.758,967.348,421.4049485240255
225,1686879739.46,-23.438,94.727,-21.484,22.461,967.352,423.6639925529658
226,1686879739.46,-34.18,531.25,14.16,-24.902,967.356,423.3205395073311
227,1686879739.46,-70.312,651.855,-38.086,-117.676,967.36,417.6211885082939
228,1686879739.47,-69.336,286.621,-43.945,-90.332,967.368,425.4095795082968
229,1686879739.47,-31.25,99.609,-8.789,9.277,967.372,419.2461169072181
230,1686879739.48,-20.02,313.477,3.906,7.812,967.375,409.1851689302319
231,1686879739.48,-59.082,532.715,-31.25,-81.055,967.379,419.11013117305407
232,1686879739.48,-76.172,36.133,-41.504,-82.52,967.383,420.9580952048507
233,1686879739.49,-47.852,-387.207,7.812,-2.93,967.387,420.9005373579414
234,1686879739.49,-21.973,153.809,16.113,7.812,967.391,419.47643422485567
235,1686879739.49,-46.387,597.168,-30.273,-73.73,967.395,418.18474549641115
236,1686879739.5,-88.867,-190.918,-68.359,-112.793,967.399,415.6993868128452
237,1686879739.5,-68.359,-520.996,15.137,-36.621,967.403,423.76689925083775
238,1686879739.51,-28.32,452.148,38.574,11.23,967.407,419.68971426578935
239,1686879739.51,-48.828,500.977,-41.992,-54.688,967.411,409.7621640727561
240,1686879739.51,-83.984,48.34,-30.762,-123.047,967.407,424.3298952620028
241,1686879739.51,-77.148,126.953,21.484,-83.496,967.411,413.05726981926495
242,1686879739.52,-39.551,549.805,7.324,-2.93,967.415,410.4399427833005
243,1686879739.52,-42.969,428.711,-49.805,-28.809,967.419,421.65044756942723
244,1686879739.53,-81.055,-125.977,-48.828,-119.629,967.422,415.8327757124551
245,1686879739.53,-82.52,-209.473,-3.906,-111.328,967.426,420.56297751182973
246,1686879739.53,-37.598,13.672,-0.488,-17.578,967.43,414.9227986198528
247,1686879739.54,-21.484,123.047,-24.902,-9.277,967.434,412.6163270561472
248,1686879739.54,-58.594,-638.184,-80.078,-83.008,967.438,418.3216060641314
249,1686879739.54,-77.148,-714.844,9.766,-106.934,967.442,414.34660047651175
250,1686879739.55,-43.457,445.801,44.434,-40.527,967.446,413.04122103313813
251,1686879739.55,-25.391,480.957,-39.062,-2.441,967.45,417.9167106306625
252,1686879739.56,-54.688,269.531,-41.016,-81.543,967.455,412.84966218543417
253,1686879739.56,-82.52,439.453,-17.09,-140.625,967.459,416.16859014797626
254,1686879739.57,-65.918,495.605,-22.461,-75.195,967.463,411.77392792519777
255,1686879739.57,-31.25,313.477,-12.207,-0.488,967.467,415.20982845829496
256,1686879739.57,-34.668,215.82,-13.184,-43.457,967.471,418.0872382750126
257,1686879739.58,-79.102,4.883,-66.406,-124.512,967.475,407.43198721907436
258,1686879739.58,-85.449,-89.844,-19.531,-95.703,967.478,414.8858929092923
259,1686879739.58,-42.48,-363.77,-38.086,-5.371,967.482,419.3657209127386
260,1686879739.59,-36.133,-717.285,-1.465,-23.438,967.486,413.2028608557354
261,1686879739.59,-70.801,98.633,44.922,-115.723,967.49,409.97621314653554
262,1686879739.6,-75.195,395.508,-39.551,-116.699,967.494,409.4572597340899
263,1686879739.6,-38.574,167.969,-20.02,-36.133,967.498,406.0689238867675
264,1686879739.6,-17.09,382.812,-0.488,-23.926,967.497,409.8175682045035
265,1686879739.6,-42.48,512.695,-39.062,-104.98,967.501,409.4357185044058
266,1686879739.61,-64.941,272.461,-44.922,-130.859,967.505,414.597346153221
267,1686879739.61,-31.738,60.547,-22.461,-47.852,967.509,417.8049214543899
268,1686879739.62,-1.465,51.27,-18.066,0.488,967.512,412.7133285606251
269,1686879739.62,-41.504,-35.645,-37.598,-66.406,967.516,413.34805017440044
270,1686879739.62,-75.195,-90.332,-45.898,-118.164,967.52,410.8331712270506
271,1686879739.63,-51.758,-731.445,-80.078,-52.246,967.524,408.2682137857069
272,1686879739.63,-22.949,-720.703,0.488,13.184,967.528,400.89733149591154
273,1686879739.64,-33.691,218.262,26.855,-34.668,967.532,412.0431266381348
274,1686879739.64,-73.242,5.371,-79.102,-113.77,967.536,406.2065774098298
275,1686879739.64,-76.172,-201.66,-47.363,-91.309,967.54,412.8856026825475
276,1686879739.65,-35.156,438.477,21.484,0.488,967.544,404.8185411679682
277,1686879739.65,-29.297,658.691,-34.668,-12.207,967.548,411.82269264720543
278,1686879739.66,-61.523,202.637,-38.086,-112.793,967.552,404.88160564968786
279,1686879739.66,-63.965,132.812,12.207,-130.371,967.556,419.02336353682864
280,1686879739.66,-31.25,411.133,-17.578,-46.387,967.56,419.9427210383254
281,1686879739.67,-19.043,297.852,-55.664,-25.879,967.564,413.5041424605456
282,1686879739.67,-59.57,-439.453,-68.359,-105.957,967.568,425.23635786696235
283,1686879739.67,-83.984,-646.484,-8.789,-138.672,967.571,411.64164991003327
284,1686879739.68,-50.293,285.645,24.414,-63.477,967.575,407.3411507788745
285,1686879739.68,-29.297,462.402,-43.457,-11.719,967.579,414.15049183450463
286,1686879739.69,-54.688,161.621,-39.062,-84.473,967.583,419.613268106082
287,1686879739.69,-86.426,99.121,-40.039,-144.043,967.587,419.954413199473
288,1686879739.69,-76.172,95.215,-39.551,-86.426,967.59,412.31592969365425
289,1686879739.7,-41.016,175.781,-34.18,-17.09,967.594,410.3495660038705
290,1686879739.7,-45.898,-54.688,-25.879,-49.805,967.598,422.20510271920296
291,1686879739.7,-73.242,-14.16,2.93,-119.629,967.602,421.2395630761804
292,1686879739.71,-72.754,62.012,-35.645,-102.539,967.606,418.26535122633373
293,1686879739.71,-39.551,-32.715,-31.25,-20.508,967.61,407.70759076763153
294,1686879739.71,-30.762,-631.348,-61.035,-11.719,967.614,415.74620114990626
295,1686879739.72,-51.758,-682.617,-8.301,-100.586,967.618,411.2889430058866
296,1686879739.72,-62.988,287.598,15.137,-130.859,967.622,417.1893129310801
297,1686879739.73,-41.504,142.09,-50.781,-44.922,967.626,430.16297108326535
298,1686879739.73,-15.137,96.191,-34.18,-15.625,967.629,410.79085101655323
299,1686879739.73,-46.875,429.199,-23.926,-101.562,967.633,422.55433644222893
300,1686879739.75,-69.336,402.344,-35.645,-138.672,967.647,422.65237401735493
301,1686879739.76,-47.363,135.742,-23.438,-62.5,967.651,429.35547839199705
302,1686879739.76,-20.996,-76.172,-7.812,3.418,967.655,427.5921858423697
303,1686879739.76,-27.344,140.625,-5.859,-55.664,967.659,417.06351504419416
304,1686879739.77,-64.941,342.773,-24.414,-140.625,967.663,415.3914807818078
305,1686879739.77,-70.312,-308.105,-83.496,-99.121,967.667,415.8247182413476
306,1686879739.77,-37.598,-853.516,7.324,-7.324,967.671,426.12529444090944
307,1686879739.78,-32.715,20.02,63.477,-44.922,967.675,423.4950318094555
308,1686879739.78,-69.824,401.855,-38.574,-139.648,967.679,434.61894834008217
309,1686879739.79,-77.637,79.102,-29.297,-126.465,967.682,427.92489999549986
310,1686879739.79,-41.016,269.043,5.371,-31.25,967.686,424.10741165985763
311,1686879739.79,-26.367,458.008,-18.555,-29.297,967.69,410.7290425403849
312,1686879739.8,-55.176,209.473,-53.223,-120.605,967.692,423.90170376939733
313,1686879739.8,-72.266,-40.527,-37.598,-141.602,967.696,417.7824456563817
314,1686879739.8,-31.25,135.254,0.488,-52.734,967.7,427.4867126448272
315,1686879739.81,-3.906,385.742,-23.438,-11.23,967.704,429.18755818469685
316,1686879739.81,-42.969,63.965,-58.594,-85.449,967.708,422.4214880791819
317,1686879739.82,-77.148,-626.953,-19.531,-134.277,967.712,417.8036288087756
318,1686879739.82,-54.688,-503.906,15.625,-82.031,967.716,430.85627790224896
319,1686879739.82,-26.367,-17.09,-10.254,-26.367,967.719,425.7703488201446
320,1686879739.83,-50.781,10.254,-68.848,-80.078,967.723,424.27728275888705
321,1686879739.83,-85.449,-693.359,-65.43,-154.297,967.727,420.38468077993826
322,1686879739.84,-70.312,-540.039,38.574,-117.188,967.731,428.83489381223075
323,1686879739.84,-26.367,389.16,0.0,-35.156,967.735,422.98115628740123
324,1686879739.84,-28.809,283.203,-40.039,-48.828,967.752,422.00474561734
325,1686879739.85,-70.312,105.957,-30.762,-139.16,967.756,427.59146924847266
326,1686879739.85,-80.078,317.383,-20.508,-145.996,967.76,416.6506475611211
327,1686879739.85,-44.922,476.562,-20.02,-57.617,967.764,426.4375374756459
328,1686879739.86,-22.949,251.953,-37.109,-41.504,967.768,421.078551837198
329,1686879739.86,-53.223,-182.129,-34.668,-130.859,967.772,427.7301903200804
330,1686879739.86,-68.848,-83.984,-28.809,-152.832,967.775,431.29495806786576
331,1686879739.87,-46.875,290.039,-27.344,-62.5,967.779,419.7850421596899
332,1686879739.87,-24.414,-271.973,-62.012,-14.648,967.783,424.14844097365113
333,1686879739.88,-39.062,-757.324,-0.977,-86.426,967.787,421.19349104239575
334,1686879739.88,-64.941,116.699,39.551,-158.691,967.791,417.1237828114852
335,1686879739.88,-54.688,377.441,-40.039,-99.121,967.795,424.072019119648
336,1686879739.89,-22.949,164.062,-27.344,-21.484,967.782,429.22124482496116
337,1686879739.89,-28.32,327.148,-10.742,-59.57,967.786,428.51979028685645
338,1686879739.89,-78.613,397.461,-38.086,-136.23,967.79,418.1815816747263
339,1686879739.9,-73.242,229.004,-47.363,-112.793,967.793,427.4147951894042
340,1686879739.9,-29.297,-84.473,-41.992,-24.902,967.797,433.6561825672989
341,1686879739.91,-30.762,-119.141,-31.738,-35.645,967.801,426.55884026942744
342,1686879739.91,-59.57,-54.199,-32.227,-128.906,967.805,428.6506809877153
343,1686879739.91,-67.871,-127.441,-59.57,-141.113,967.809,438.28408682666776
344,1686879739.92,-38.574,-672.852,-28.32,-39.551,967.813,428.08370397785507
345,1686879739.92,-22.949,-352.051,52.246,-12.207,967.817,425.4097594696525
346,1686879739.92,-42.969,312.5,-5.371,-106.445,967.821,416.6357744412113
347,1686879739.93,-64.453,-114.746,-83.496,-141.113,967.825,436.75104112579487
348,1686879739.93,-45.898,-643.066,-20.02,-60.547,967.829,427.1049263368453
349,1686879739.94,-18.555,18.555,72.754,-8.789,967.833,426.3753235274438
350,1686879739.94,-31.738,617.676,-24.902,-70.801,967.837,438.11833978629295
351,1686879739.94,-57.129,177.246,-20.02,-134.277,967.841,419.88847575818494
352,1686879739.95,-46.875,149.902,24.414,-84.961,967.845,428.94658863193223
353,1686879739.95,-5.859,190.43,-22.461,0.488,967.849,424.475087598678
354,1686879739.96,-1.953,187.5,-21.973,-35.645,967.853,418.3721888568763
355,1686879739.96,-56.152,-382.324,-53.711,-128.906,967.857,416.75133851797654
356,1686879739.96,-74.219,-602.051,-3.906,-114.258,967.861,435.24569123912926
357,1686879739.97,-36.133,400.391,34.18,-29.785,967.865,424.1465944151845
358,1686879739.97,-27.344,535.645,-42.969,-28.32,967.868,423.0166228597534
359,1686879739.98,-62.5,225.098,-34.668,-112.793,967.872,425.0995307837273
360,1686879739.98,-88.867,153.32,-16.113,-136.23,967.875,418.42621577738356
361,1686879739.98,-56.152,215.332,-6.348,-55.664,967.879,425.29311590613406
362,1686879739.98,-31.738,295.41,-27.344,-21.484,967.883,422.8902315753896
363,1686879739.99,-51.758,-18.066,-38.574,-91.797,967.887,425.2632255415094
364,1686879739.99,-77.148,-215.332,-15.137,-134.766,967.891,430.90841418946974
365,1686879740.0,-61.035,-100.586,-22.949,-63.965,967.895,423.25246410864474
366,1686879740.0,-22.949,56.641,-28.809,-5.859,967.898,419.5467076512286
367,1686879740.0,-35.156,-632.812,-82.52,-48.828,967.902,434.2748809186668
368,1686879740.01,-76.172,-701.66,-6.348,-117.188,967.906,418.79194525268286
369,1686879740.01,-64.941,349.609,28.32,-91.309,967.91,417.99746588992065
370,1686879740.02,-17.578,312.5,-42.48,-13.184,967.914,425.3686290725238
371,1686879740.02,-31.25,143.555,-26.855,-47.852,967.918,420.85054942919265
372,1686879740.02,-77.637,364.258,-13.672,-140.625,967.92,408.4455110274894
373,1686879740.03,-68.848,410.156,-39.551,-122.559,967.923,415.777735351474
374,1686879740.03,-27.344,186.035,-23.926,-16.113,967.927,411.9871499439414
375,1686879740.03,-21.484,-12.695,-10.254,1.953,967.931,422.42539835913095
376,1686879740.04,-52.246,28.809,-47.852,-82.031,967.935,417.8677465807894
377,1686879740.04,-71.289,-2.441,-41.504,-115.723,967.939,420.54901392481344
378,1686879740.04,-47.852,-462.891,-58.105,-26.855,967.943,411.38841197132615
379,1686879740.05,-26.367,-821.777,-7.324,22.461,967.947,419.8369261778579
380,1686879740.05,-41.992,6.348,42.969,-62.5,967.951,420.71092018535535
381,1686879740.06,-66.895,393.066,-38.086,-112.793,967.955,412.0417742211765
382,1686879740.06,-54.199,88.379,-26.855,-51.758,967.959,413.35312269374066
383,1686879740.06,-20.02,260.742,11.23,7.812,967.963,424.44294379776875
384,1686879740.08,-32.715,447.266,-19.531,-52.734,967.977,407.6277471423122
385,1686879740.08,-62.5,185.547,-41.992,-125.977,967.981,405.0711933210387
386,1686879740.09,-63.965,-41.504,-16.113,-82.031,967.985,408.84879763779134
387,1686879740.09,-31.25,242.676,-3.906,2.441,967.989,407.0679470753233
388,1686879740.1,-22.461,141.113,-48.828,-14.648,967.993,399.40237912198126
389,1686879740.1,-62.012,-265.625,-49.805,-97.168,967.996,404.99651015494936
390,1686879740.1,-82.031,-799.805,-63.477,-84.961,968.0,403.1422299928254
391,1686879740.11,-48.828,-755.859,14.648,-9.277,968.004,404.5994829221279
392,1686879740.11,-24.414,280.273,62.012,-1.953,968.008,390.3117284628537
393,1686879740.11,-16.113,493.164,-18.066,22.461,968.021,400.093021649682
394,1686879740.12,-59.082,174.316,-60.547,-77.637,968.012,399.61054036170594
395,1686879740.12,-49.805,111.328,-31.25,-47.363,968.025,400.5248684665824
396,1686879740.12,-86.914,-364.746,-48.828,-107.422,968.016,388.49164944225953
397,1686879740.12,-78.613,-85.449,-12.695,-105.469,968.029,384.11469224826726
398,1686879740.12,-46.875,164.062,30.762,-23.926,968.02,383.3265788301987
399,1686879740.12,-54.688,162.109,-25.391,-51.27,968.033,398.8338113148619
400,1686879740.13,-22.461,269.531,-46.387,20.02,968.037,393.48419380877345
401,1686879740.13,-27.832,-93.75,-60.059,-14.648,968.041,394.7923847022091
402,1686879740.14,-58.105,-228.516,-15.137,-97.168,968.045,397.1135079613134
403,1686879740.14,-53.711,136.719,-4.883,-75.195,968.049,390.5027910775465
404,1686879740.14,-19.531,213.867,-30.273,9.766,968.053,391.2488977232797
405,1686879740.15,-29.297,-468.75,-68.359,4.883,968.056,383.4608862580536
406,1686879740.15,-71.777,-806.641,-5.371,-80.566,968.06,382.24490030518274
407,1686879740.16,-81.543,8.789,39.062,-93.75,968.064,394.2180478221116
408,1686879740.17,-46.875,213.867,-41.504,-4.395,968.067,377.95825596868025
409,1686879740.18,-24.414,-19.531,-35.645,16.602,968.071,371.1625638899459
410,1686879740.18,-43.457,102.051,-17.578,-65.918,968.075,381.5415860934854
411,1686879740.18,-67.871,176.758,-33.203,-110.352,968.079,381.77217640156505
412,1686879740.19,-48.828,-30.762,-54.688,-32.227,968.083,367.74116536546677
413,1686879740.19,-19.531,-589.844,-33.203,26.367,968.087,377.98342290260786
414,1686879740.19,-32.715,-614.746,11.719,-45.41,968.091,373.7730270800812
415,1686879740.2,-56.152,47.852,-12.695,-119.141,968.094,370.33819284250023
416,1686879740.2,-47.852,25.391,-75.684,-62.5,968.098,376.31025343962335
417,1686879740.21,-18.066,-377.93,-31.25,26.855,968.102,375.9872787848272
418,1686879740.21,-19.043,-12.207,12.695,-12.695,968.106,380.1041951569485
419,1686879740.21,-57.129,55.664,-41.504,-107.422,968.11,378.3762371329299
420,1686879740.22,-49.805,-412.109,-56.641,-85.938,968.114,375.335764447172
421,1686879740.22,-6.836,-363.281,-25.391,10.254,968.118,374.0785797368019
422,1686879740.22,5.859,229.004,11.23,4.395,968.122,381.9795804632574
423,1686879740.23,-30.762,270.508,-40.527,-78.613,968.126,383.8697562564011
424,1686879740.23,-46.875,-93.75,-38.086,-93.75,968.13,390.3833940736676
425,1686879740.24,-10.254,-286.621,-18.555,-14.648,968.133,385.4100546981538
426,1686879740.24,0.977,-111.816,-1.465,13.672,968.137,380.3797952442466
427,1686879740.24,-23.926,212.891,-21.484,-60.059,968.141,391.20798294443046
428,1686879740.25,-48.34,-439.941,-73.242,-96.191,968.145,384.5301741002749
429,1686879740.25,-37.598,-686.523,20.508,-28.809,968.149,380.10111105218846
430,1686879740.26,-11.719,180.176,3.418,33.691,968.153,378.09032429100307
431,1686879740.26,-24.414,-0.488,-74.707,-30.762,968.157,381.3293938303284
432,1686879740.26,-52.734,-226.074,-25.879,-106.445,968.161,382.43027534824176
433,1686879740.26,-48.34,-160.645,-41.504,-54.688,968.165,379.00156893135926
434,1686879740.27,-18.066,-40.039,-22.461,17.09,968.169,385.91036306740176
435,1686879740.27,-17.09,128.418,-34.18,-15.137,968.173,399.3898947195132
436,1686879740.28,-52.734,-475.586,-42.969,-95.703,968.177,382.3682791778619
437,1686879740.28,-63.477,-698.73,4.395,-89.355,968.181,386.07275137821347
438,1686879740.28,-23.926,-288.086,-13.184,-9.766,968.185,392.2364999347246
439,1686879740.29,-11.719,-96.68,-52.734,0.0,968.189,397.6398938295853
440,1686879740.29,-44.434,-721.68,-79.59,-66.895,968.193,390.4431253520539
441,1686879740.3,-60.059,-616.699,20.508,-92.285,968.197,385.20762766571283
442,1686879740.3,-21.484,314.453,10.254,-23.926,968.2,395.9206954517629
443,1686879740.3,1.953,121.582,-69.336,21.973,968.204,392.22210248447095
444,1686879740.31,-26.855,-51.27,-54.688,-52.246,968.205,399.90924929487244
445,1686879740.31,-47.852,165.527,-32.227,-105.957,968.209,407.48402187242147
446,1686879740.32,-32.227,233.398,-41.992,-39.551,968.212,395.8688461765625
447,1686879740.32,1.465,11.23,-28.809,28.32,968.216,400.4274954490716
448,1686879740.32,-3.906,-273.926,-17.09,-24.902,968.22,396.27049013070524
449,1686879740.33,-44.922,-369.629,-47.852,-104.98,968.224,406.3344057569791
450,1686879740.33,-48.828,-272.949,-35.645,-68.848,968.228,400.1043607217182
451,1686879740.33,-10.254,-531.738,-63.477,12.695,968.232,396.70863277733923
452,1686879740.34,-16.602,-859.375,-15.625,-7.812,968.236,408.84424100686937
453,1686879740.34,-51.758,-122.07,28.809,-101.074,968.24,402.5156695671375
454,1686879740.35,-52.246,168.945,-52.246,-100.586,968.244,403.3682401638292
455,1686879740.35,-18.555,4.395,-19.531,-2.93,968.248,403.4535996956308
456,1686879740.36,-3.418,168.945,-1.465,20.02,968.262,405.03971204545394
457,1686879740.37,-36.621,211.426,-41.504,-62.988,968.266,398.5235208832389
458,1686879740.37,-64.941,-35.156,-52.734,-105.469,968.27,405.12766579810136
459,1686879740.38,-26.855,-162.598,-31.738,-17.09,968.274,415.4203137627099
460,1686879740.38,1.465,-160.645,-26.367,32.227,968.278,400.4816593095498
461,1686879740.38,-22.949,-328.125,-39.551,-52.734,968.281,399.26306290152723
462,1686879740.39,-48.828,-422.363,-38.086,-107.91,968.285,409.68089465155623
463,1686879740.39,-37.598,-832.031,-71.289,-37.598,968.289,409.19930825472875
464,1686879740.4,-3.418,-907.715,17.09,41.016,968.293,403.8100848524985
465,1686879740.4,-16.113,213.867,0.0,5.859,968.294,406.337216823621
466,1686879740.4,-5.371,7.812,55.664,-16.602,968.297,406.4550751971721
467,1686879740.4,-8.301,342.285,-40.039,-1.953,968.298,415.6011629493215
468,1686879740.4,-49.805,70.801,-50.293,-100.098,968.301,409.196465857291
469,1686879740.4,-43.945,-104.004,-38.086,-90.332,968.302,403.8061572535632
470,1686879740.41,-57.129,-195.801,-32.227,-72.754,968.305,405.7595850201531
471,1686879740.41,-50.781,-279.297,8.301,-108.887,968.306,416.36680457824457
472,1686879740.41,-17.09,82.031,-8.301,-19.043,968.309,397.6349549518828
473,1686879740.42,-0.488,-94.727,-52.734,18.066,968.313,398.22074677853476
474,1686879740.42,-30.273,-445.312,-39.062,-60.547,968.317,401.06516004764535
475,1686879740.42,-48.828,-246.094,8.301,-101.562,968.321,411.9711326634875
476,1686879740.43,-17.09,62.5,-8.301,-29.297,968.325,397.4725297422407
477,1686879740.43,-0.977,23.926,-38.574,23.438,968.329,398.5950107017161
478,1686879740.44,-22.949,-603.027,-64.941,-32.227,968.333,399.8327570798622
479,1686879740.44,-53.223,-841.309,-11.719,-97.168,968.337,399.09829074155107
480,1686879740.47,-46.387,-39.062,30.762,-47.363,968.371,395.75760407929874
481,1686879740.48,-8.789,154.785,-32.227,35.645,968.374,400.5302267014269
482,1686879740.48,-14.16,-126.465,-35.156,-9.766,968.378,385.9363830856163
483,1686879740.49,-49.316,-47.852,-32.715,-100.098,968.382,385.01144811576876
484,1686879740.49,-45.41,-59.082,-58.105,-89.844,968.395,397.4277025655538
485,1686879740.49,-48.34,-179.199,-41.504,-77.637,968.386,390.22403825937096
486,1686879740.49,-32.715,-446.777,-53.223,-20.02,968.399,390.761302663004
487,1686879740.49,-11.719,-270.996,-27.344,21.484,968.39,389.2214416392586
488,1686879740.5,1.953,-391.113,-27.344,39.551,968.403,388.74723673756546
489,1686879740.5,-9.277,-738.281,-64.941,27.832,968.394,384.60882734748225
490,1686879740.5,-9.766,182.129,-7.812,-23.926,968.407,395.2953198084826
491,1686879740.5,-46.387,-755.859,5.371,-57.617,968.398,392.208014414015
492,1686879740.5,-42.48,118.164,-63.477,-104.004,968.411,394.32810273644964
493,1686879740.5,-47.363,99.609,36.621,-78.125,968.402,386.3740586986633
494,1686879740.51,-28.809,-523.926,-33.203,-59.082,968.415,382.9492516781813
495,1686879740.51,-22.949,37.109,-43.945,-20.02,968.406,391.04604623085794
496,1686879740.51,6.836,-494.629,43.945,24.902,968.419,381.07431591512443
497,1686879740.51,-15.625,-52.734,-33.203,3.906,968.41,388.1984258027453
498,1686879740.52,5.859,138.184,5.859,-3.906,968.423,387.44141980379374
499,1686879740.52,-28.809,158.691,-41.992,-51.758,968.414,388.5855096431265
500,1686879740.52,-35.156,123.047,-56.152,-85.449,968.427,391.645269311217
501,1686879740.52,-37.598,-386.719,-33.691,-69.824,968.43,388.65806722880797
502,1686879740.53,0.488,-250.977,18.066,9.766,968.434,390.4113466377205
503,1686879740.53,16.602,198.242,-11.23,12.695,968.438,386.2635851976294
504,1686879740.55,-17.578,138.672,-52.734,-70.312,968.442,393.67169044357956
505,1686879740.55,-47.852,-562.5,-69.824,-93.262,968.446,394.49796626371864
506,1686879740.55,-18.555,-841.797,9.277,-9.766,968.45,399.42499035788427
507,1686879740.56,10.254,-138.672,6.348,32.227,968.454,384.75859844853125
508,1686879740.56,-18.066,-53.711,-61.035,-47.363,968.458,383.2690702963601
509,1686879740.57,-54.199,-760.742,-63.965,-107.91,968.462,389.31331076025594
510,1686879740.57,-34.668,-884.766,26.855,-43.945,968.465,390.76171726159583
511,1686879740.57,2.441,65.43,62.5,27.344,968.469,383.91454169435997
512,1686879740.58,-13.672,195.801,-46.875,-15.625,968.473,395.8405138789428
513,1686879740.58,-50.293,-188.477,-65.918,-96.68,968.477,392.9480771778685
514,1686879740.58,-35.645,106.445,-12.695,-74.707,968.481,395.4154945017628
515,1686879740.59,9.766,340.82,-25.391,13.184,968.485,392.9395170433469
516,1686879740.59,-2.93,64.941,-45.898,-5.859,968.489,397.9250302473191
517,1686879740.6,-48.34,-134.277,-25.391,-96.191,968.493,388.6466201563905
518,1686879740.6,-50.293,103.516,-4.395,-86.914,968.497,399.6810863502067
519,1686879740.6,-14.648,258.301,-26.855,-2.93,968.501,399.9885768365228
520,1686879740.61,0.488,-43.457,-41.016,13.184,968.505,407.2092643660925
521,1686879740.61,-27.832,-401.855,-31.738,-69.824,968.509,394.4289523205914
522,1686879740.62,-41.504,-418.945,-41.016,-92.285,968.513,396.5824059867951
523,1686879740.62,-17.09,-249.512,-24.902,-6.836,968.516,393.2987081884972
524,1686879740.62,2.93,-516.113,-52.246,29.785,968.52,397.87130568964903
525,1686879740.63,-11.719,-864.746,-10.254,-39.062,968.524,400.05294622000815
526,1686879740.63,-39.551,-121.582,31.738,-101.074,968.528,406.77902150816
527,1686879740.64,-34.668,173.828,-40.039,-56.641,968.532,415.81659500805324
528,1686879740.64,0.977,8.301,-33.691,8.301,968.532,415.18492148480084
529,1686879740.64,-11.23,119.141,-20.996,-33.691,968.536,403.31234696632646
530,1686879740.64,-48.828,166.992,-35.156,-109.375,968.54,411.2994450905037
531,1686879740.65,-46.387,24.902,-48.34,-76.66,968.544,414.6108716074731
532,1686879740.65,-20.508,-234.375,-21.973,13.672,968.548,425.042616855618
533,1686879740.66,-18.066,-304.199,-11.719,5.859,968.552,412.6920087633835
534,1686879740.66,-54.199,-223.633,-26.367,-83.496,968.555,425.4242241230661
535,1686879740.66,-65.43,-138.184,-41.016,-90.82,968.559,420.8039536005628
536,1686879740.67,-24.414,-747.07,-83.984,6.348,968.563,413.77193698638075
537,1686879740.67,-7.812,-873.535,29.785,23.926,968.567,417.6954550019129
538,1686879740.68,-38.574,-24.414,31.738,-64.453,968.571,412.17096536478215
539,1686879740.68,-57.617,-127.441,-70.312,-96.191,968.575,423.3051449060063
540,1686879740.68,-43.457,-150.879,-26.855,-26.367,968.579,423.244498592575
541,1686879740.69,-11.23,387.207,-5.859,20.02,968.583,430.79192373313396
542,1686879740.69,-27.344,454.102,-56.152,-36.621,968.587,433.67266298409703
543,1686879740.69,-68.848,36.133,-41.016,-103.027,968.591,428.78461068970523
544,1686879740.7,-48.828,-120.605,-10.254,-48.828,968.595,434.08393194767905
545,1686879740.7,-1.953,-75.684,-48.34,37.109,968.599,435.246069956448
546,1686879740.7,-9.766,-40.039,-37.598,-4.395,968.603,430.4753192080771
547,1686879740.71,-52.734,-506.348,-77.637,-92.773,968.607,439.7005957312967
548,1686879740.71,-51.758,-671.387,-25.879,-81.543,968.61,444.64719626779447
549,1686879740.72,-14.648,175.293,16.113,12.695,968.614,438.0909985645011
550,1686879740.72,-10.254,150.391,-59.082,18.555,968.618,443.06277842182413
551,1686879740.72,-48.828,-403.809,-38.086,-81.543,968.622,440.90875178010714
552,1686879740.74,-67.871,-231.934,11.719,-105.957,968.637,449.64797611880033
553,1686879740.74,-22.949,322.266,-6.348,-7.812,968.641,456.09978805084563
554,1686879740.75,3.418,264.16,-36.621,38.086,968.645,446.4434844920724
555,1686879740.75,-27.344,-132.812,-25.391,-47.852,968.649,448.6877967009537
556,1686879740.76,-55.664,-278.32,-23.438,-98.145,968.652,437.8263489550547
557,1686879740.76,-27.344,-232.422,-25.391,-24.902,968.656,447.03320853978084
558,1686879740.76,8.789,-48.828,-21.973,41.016,968.66,453.84847401050877
559,1686879740.77,-18.066,-634.277,-69.336,-1.465,968.664,447.9266558790091
560,1686879740.77,-47.363,-710.449,-1.953,-78.613,968.668,452.9357262058252
561,1686879740.77,-63.477,275.879,-29.785,-78.125,968.672,454.7142872910001
562,1686879740.78,-35.645,290.039,21.484,-46.875,968.672,456.403825636881
563,1686879740.78,-67.383,82.52,-55.664,-69.336,968.676,459.7472275986063
564,1686879740.78,-14.648,237.793,-53.711,39.551,968.676,465.74612366089144
565,1686879740.78,-36.621,-283.691,-58.105,21.484,968.68,456.22064032676536
566,1686879740.78,-29.785,102.539,-41.016,11.23,968.68,464.41120949363795
567,1686879740.78,-26.855,-180.664,-15.137,23.926,968.684,464.01591345222835
568,1686879740.79,-48.34,252.441,-26.367,-69.824,968.688,451.5141209286432
569,1686879740.79,-64.941,-7.324,-75.684,-84.473,968.692,456.6181719487018
570,1686879740.8,-38.574,-511.719,-51.758,1.465,968.695,469.0917074987018
571,1686879740.8,-13.184,-331.543,8.301,40.039,968.699,462.3493963621483
572,1686879740.8,-19.531,334.961,-7.812,-28.809,968.703,465.6975760468522
573,1686879740.81,-49.805,364.746,-66.406,-88.379,968.707,464.18120055351955
574,1686879740.81,-53.711,-446.289,-77.148,-23.926,968.711,464.6140852510836
575,1686879740.82,-15.625,334.473,9.766,-8.301,968.726,461.5036422358498
576,1686879740.82,-9.277,-590.332,1.953,56.152,968.715,469.577007845339
577,1686879740.82,-53.711,251.953,-60.547,-99.121,968.729,467.75576781496875
578,1686879740.82,-39.551,-19.531,-33.691,-68.848,968.733,464.0127300551902
579,1686879740.83,3.906,93.75,-0.488,18.066,968.737,467.71464285015674
580,1686879740.83,-0.977,22.949,-30.762,15.137,968.741,468.16962707393685
581,1686879740.84,-36.133,-112.305,-42.48,-65.918,968.745,466.80655025063953
582,1686879740.84,-41.016,-672.852,-62.012,-67.871,968.749,465.0653431304341
583,1686879740.84,-14.16,-954.59,29.785,15.137,968.753,471.32668324042095
584,1686879740.85,0.488,71.289,66.406,28.32,968.757,461.8230766010821
585,1686879740.85,-25.391,337.402,-57.617,-54.199,968.761,473.64544748892996
586,1686879740.85,-51.27,72.754,-49.805,-94.727,968.765,472.2663630796345
587,1686879740.86,-32.227,437.5,0.977,-19.043,968.768,475.785547389527
588,1686879740.88,-1.953,577.637,-23.438,34.668,968.776,471.37768202461086
589,1686879740.88,-19.043,219.727,-47.852,-26.855,968.779,480.67993838457556
590,1686879740.88,-36.133,39.062,-24.414,-82.52,968.783,471.3584205039147
591,1686879740.89,-23.926,308.105,-11.719,-39.062,968.787,468.079012759145
592,1686879740.89,-10.742,455.078,-32.227,9.277,968.791,464.27029381611646
593,1686879740.9,-36.621,-249.023,-62.988,-34.18,968.795,462.60950681008774
594,1686879740.9,-89.844,-792.969,-16.113,-117.188,968.799,472.74163566077897
595,1686879740.9,-92.285,-188.965,37.109,-98.633,968.803,470.0699576903771
596,1686879740.91,-56.641,354.004,6.348,-8.301,968.807,474.2723680258595
597,1686879740.91,-58.105,-157.715,-42.48,-15.137,968.811,469.1638884988707
598,1686879740.92,-90.332,-437.5,12.695,-106.445,968.815,474.20932077474106
599,1686879740.92,-100.098,289.062,26.855,-131.348,968.819,467.7347312926304
600,1686879740.92,-52.734,371.094,-25.879,-36.621,968.817,464.6640310166344
601,1686879740.92,-18.555,224.121,-32.227,4.883,968.821,459.0199345288987
602,1686879740.93,-45.898,263.184,-17.09,-81.543,968.825,470.4327955395469
603,1686879740.93,-67.383,316.895,-18.066,-127.93,968.828,465.2484123934272
604,1686879740.94,-41.016,162.598,-32.227,-44.922,968.832,474.10400250342883
605,1686879740.94,-19.043,-393.066,-17.09,27.344,968.836,468.5167509479355
606,1686879740.94,-34.668,-436.523,15.625,-36.133,968.84,472.365431890938
607,1686879740.95,-68.359,124.512,18.555,-111.328,968.844,460.7004209064966
608,1686879740.95,-63.477,156.738,-46.387,-61.035,968.848,462.47496224626667
609,1686879740.96,-24.414,-713.379,-53.223,21.973,968.852,459.1309620762957
610,1686879740.96,-26.855,-495.117,45.41,-9.766,968.856,461.49275316637744
611,1686879740.96,-53.223,400.879,-0.488,-93.262,968.86,463.375768636514
612,1686879740.97,-54.688,87.891,-45.41,-79.102,968.865,462.83263987380457
613,1686879740.97,-32.227,52.246,1.953,4.883,968.869,465.85733590433074
614,1686879740.98,-24.414,457.52,-1.953,0.977,968.872,461.1666730025084
615,1686879740.98,-52.734,422.852,-48.34,-86.914,968.876,449.2981630874812
616,1686879740.98,-71.289,27.832,-43.945,-100.586,968.88,447.47384200312405
617,1686879740.99,-46.387,-276.855,-30.762,-5.859,968.884,454.7233765458242
618,1686879740.99,-19.043,20.508,-8.789,31.25,968.888,451.6432425039148
619,1686879740.99,-36.621,444.336,-21.973,-53.711,968.892,446.2738611050858
620,1686879741.0,-66.406,-310.059,-73.73,-104.492,968.896,446.4951600531989
621,1686879741.0,-47.363,-644.531,7.812,-39.551,968.9,449.095573066405
622,1686879741.01,-10.742,327.148,25.391,17.578,968.904,436.41578415994724
623,1686879741.01,-21.484,247.07,-53.223,-30.762,968.908,441.1888390208472
624,1686879741.01,-56.152,-306.641,-20.02,-97.168,968.907,448.6743545867607
625,1686879741.02,-42.969,-55.176,24.414,-52.734,968.911,443.1577653911541
626,1686879741.02,0.977,476.562,0.977,30.273,968.915,443.83533066848634
627,1686879741.02,-1.953,323.242,-36.621,-2.93,968.919,439.3667491622988
628,1686879741.03,-30.273,-114.258,-30.273,-88.379,968.923,437.2078199644565
629,1686879741.03,-44.434,-206.543,-13.672,-78.125,968.926,424.3205629310293
630,1686879741.03,-25.879,-77.637,-1.465,17.578,968.93,432.7754331545563
631,1686879741.04,-5.371,101.074,-26.855,31.25,968.934,434.64773164996933
632,1686879741.04,-39.551,-610.352,-79.59,-57.129,968.938,422.4182726036757
633,1686879741.05,-59.082,-677.246,16.113,-87.891,968.942,412.98226208951
634,1686879741.05,-22.461,433.105,37.109,-8.301,968.946,421.31659798601
635,1686879741.05,0.0,377.441,-36.133,39.062,968.95,412.51003493524695
636,1686879741.06,-28.809,178.711,-31.738,-38.574,968.958,402.93640817651453
637,1686879741.06,-49.805,304.199,-31.25,-100.098,968.962,411.3731741592124
638,1686879741.07,-31.738,161.133,-43.945,-34.18,968.965,400.29097228569594
639,1686879741.07,-2.441,-180.176,-41.504,37.598,968.969,408.57551781940447
640,1686879741.07,-15.625,-203.125,-8.789,-14.16,968.973,396.0136752265762
641,1686879741.08,-58.105,-29.297,-23.438,-99.609,968.977,393.1726054210093
642,1686879741.08,-58.105,19.531,-29.297,-75.684,968.981,404.6860421842691
643,1686879741.08,-19.043,-297.363,-60.547,17.09,968.985,384.4892288533042
644,1686879741.09,-12.207,-463.379,-23.438,4.883,968.989,381.83605855906416
645,1686879741.09,-53.711,352.051,17.09,-93.75,968.993,385.17405955648536
646,1686879741.1,-69.824,376.953,-49.316,-94.238,968.997,384.05603305456196
647,1686879741.1,-11.719,356.445,1.465,16.113,968.997,368.28510750474067
648,1686879741.1,-31.25,143.066,-20.02,-3.906,969.001,373.5256612823031
649,1686879741.1,-37.109,487.305,-35.645,-62.012,969.001,364.39883636983694
650,1686879741.11,-53.223,277.832,-38.086,-91.309,969.005,363.0704615704475
651,1686879741.11,-27.344,88.867,-10.742,-14.648,969.009,363.740432190193
652,1686879741.12,-4.883,97.168,-19.043,38.086,969.012,362.876674484019
653,1686879741.12,-26.367,-47.852,-30.762,-26.367,969.016,369.16140190147814
654,1686879741.12,-56.152,-136.719,-29.297,-90.82,969.02,347.4144059879381
655,1686879741.13,-48.34,-701.172,-68.359,-32.227,969.024,336.94536226721215
656,1686879741.13,-13.672,-924.316,29.785,45.41,969.028,349.93371776571564
657,1686879741.14,-20.02,130.371,64.941,-5.859,969.032,346.5539616106622
658,1686879741.14,-59.082,300.293,-55.176,-93.262,969.036,337.1430055398525
659,1686879741.14,-54.199,44.922,-32.227,-62.012,969.04,330.0325636531101
660,1686879741.15,-7.324,448.242,13.672,30.762,969.044,332.9151335951589
661,1686879741.15,3.906,523.926,-14.648,24.414,969.048,336.89734791149635
662,1686879741.16,-41.016,126.465,-20.02,-64.941,969.052,331.99188625940513
663,1686879741.16,-60.547,54.199,13.184,-87.891,969.056,326.1404735687114
664,1686879741.16,-24.414,358.398,-4.395,-4.883,969.06,324.176284835627
665,1686879741.17,-10.742,271.484,-32.715,23.926,969.064,323.21920651273285
666,1686879741.17,-45.41,-412.109,-73.242,-58.105,969.068,321.7486233796274
667,1686879741.17,-71.777,-774.902,-12.695,-102.051,969.072,322.5451852358321
668,1686879741.18,-41.016,105.957,64.453,-35.645,969.075,323.6073709497476
669,1686879741.18,-4.395,538.574,-22.949,24.902,969.079,313.8103518029877
670,1686879741.19,-16.113,176.27,-37.598,-31.738,969.083,319.35138240834243
671,1686879741.19,-51.758,71.289,-3.906,-96.191,969.087,323.05273995567643
672,1686879741.19,-45.898,328.613,-9.277,-44.434,969.1,317.38593933921203
673,1686879741.2,-20.996,349.609,-43.945,42.48,969.104,313.34959478899066
674,1686879741.2,-32.227,156.738,-45.898,4.395,969.108,312.2012464467675
675,1686879741.2,-57.129,140.137,-27.344,-80.566,969.112,315.73287729598087
676,1686879741.21,-51.758,-22.949,-45.898,-56.152,969.116,317.1550720550292
677,1686879741.21,-22.949,-87.402,-45.898,22.949,969.119,318.54035598125677
678,1686879741.21,-17.578,-625.977,-61.035,27.832,969.123,312.6136771225306
679,1686879741.22,-55.664,-741.211,5.859,-64.453,969.127,320.00259897677756
680,1686879741.22,-71.777,222.168,26.367,-87.402,969.131,314.60257036054816
681,1686879741.23,-30.273,146.973,-62.988,2.441,969.135,326.4111605750951
682,1686879741.23,-6.348,-64.941,-54.688,29.297,969.139,307.722739281479
683,1686879741.23,-25.391,270.02,-29.297,-49.316,969.143,315.9576272549754
684,1686879741.25,-58.105,395.02,-45.41,-96.68,969.147,322.79373275056184
685,1686879741.26,-40.527,-48.828,-70.312,-27.832,969.151,316.7013095064946
686,1686879741.26,-2.93,-208.496,-31.25,41.504,969.155,327.2504196639732
687,1686879741.26,-18.066,333.496,-2.93,-20.508,969.159,324.9468057764887
688,1686879741.27,-52.246,365.234,-57.129,-93.262,969.162,333.00204369676135
689,1686879741.27,-44.434,-396.484,-83.984,-41.504,969.166,319.59100616577564
690,1686879741.27,-11.23,-679.199,-8.301,38.574,969.17,324.875622508078
691,1686879741.28,-15.625,194.336,30.273,0.0,969.174,327.6652170369071
692,1686879741.28,-48.828,352.539,-45.41,-79.59,969.178,332.6070822298332
693,1686879741.29,-54.688,-59.57,-34.668,-61.523,969.182,329.0630002751382
694,1686879741.29,-25.879,48.34,3.906,9.766,969.186,326.7623972332
695,1686879741.29,-8.301,363.281,-29.297,27.344,969.19,333.9523830124012
696,1686879741.3,-32.715,53.711,-59.082,-46.875,969.192,330.0310831723708
697,1686879741.3,-58.105,-444.336,-28.809,-91.797,969.196,329.6990684690448
698,1686879741.3,-36.133,-165.039,16.602,-15.137,969.2,340.2755220333846
699,1686879741.31,-3.906,352.539,-17.09,23.438,969.204,348.95604251391006
700,1686879741.31,-19.531,52.246,-53.223,-42.969,969.207,338.4118342910667
701,1686879741.32,-45.898,-621.582,-20.02,-78.125,969.211,341.8193569636213
702,1686879741.32,-29.297,-604.98,24.414,-17.578,969.215,338.4579281815192
703,1686879741.32,3.906,56.152,20.508,39.551,969.219,350.46538745405576
704,1686879741.33,-4.883,158.691,-52.246,-6.348,969.223,343.32097279135036
705,1686879741.33,-43.945,-586.426,-41.504,-75.684,969.227,349.91168852901444
706,1686879741.34,-44.922,-333.984,47.852,-41.992,969.231,351.709520367177
707,1686879741.34,-4.395,392.09,-4.883,44.434,969.235,362.1926194714293
708,1686879741.34,-2.441,125.0,-52.246,28.809,969.238,358.39981655006346
709,1686879741.34,-43.945,-90.82,-39.062,-60.547,969.242,377.36169780607963
710,1686879741.35,-54.688,-40.527,-39.062,-65.43,969.246,360.33271023058586
711,1686879741.35,-16.113,47.852,-18.066,27.344,969.25,369.1439260138664
712,1686879741.36,-1.465,-127.441,-33.691,46.387,969.254,368.59320247675606
713,1686879741.36,-39.062,-580.078,-41.992,-39.062,969.258,378.3248733478677
714,1686879741.36,-66.406,-274.414,-4.395,-67.383,969.261,379.4556349780691
715,1686879741.37,-37.598,209.473,-15.625,-1.465,969.265,371.5174195143297
716,1686879741.37,-3.906,-322.754,-57.129,47.363,969.269,367.2485785703065
717,1686879741.38,-33.203,-690.918,-21.973,-23.926,969.273,382.133976980033
718,1686879741.38,-64.453,103.516,-0.488,-90.332,969.277,384.2589928713537
719,1686879741.38,-48.34,134.766,-45.41,-34.668,969.281,381.6019217780964
720,1686879741.39,-12.695,-84.961,-24.414,35.645,969.296,386.56271161215494
721,1686879741.39,-13.184,91.309,-3.906,5.859,969.3,383.86119141403026
722,1686879741.39,-50.781,202.637,-18.555,-64.941,969.304,392.85851006485433
723,1686879741.4,-43.945,64.941,-49.316,-28.809,969.308,387.47901728473363
724,1686879741.4,-5.371,-288.574,-44.434,59.082,969.312,392.6347472489906
725,1686879741.41,-1.953,-354.492,-16.113,45.41,969.315,392.19552781122576
726,1686879741.41,-35.156,-302.246,-42.969,-42.969,969.319,379.30722984717534
727,1686879741.41,-59.082,-344.238,-52.734,-62.012,969.323,384.6423667826868
728,1686879741.42,-36.133,-801.27,-67.871,25.879,969.327,401.57627756072566
729,1686879741.42,-11.23,-792.48,0.488,49.316,969.331,392.58927513404257
730,1686879741.42,-32.715,82.031,27.344,-31.25,969.335,394.324088770441
731,1686879741.43,-57.129,-13.184,-59.57,-65.43,969.339,392.0438074317205
732,1686879741.46,-30.762,-154.297,-42.48,4.883,969.357,402.2466220763009
733,1686879741.46,-3.418,265.625,-16.602,52.734,969.361,399.17502144090105
734,1686879741.47,-12.207,281.738,-49.316,-5.859,969.365,391.23897439672504
735,1686879741.47,-48.34,-99.609,-34.668,-76.172,969.369,401.4756697164506
736,1686879741.48,-53.223,-690.918,0.0,-83.008,969.372,397.85107922756305
737,1686879741.48,-49.316,-136.719,-6.348,-39.062,969.373,387.0054134399314
738,1686879741.48,-30.273,207.52,21.484,-9.277,969.376,392.7647262406947
739,1686879741.48,-0.488,-28.809,-30.273,52.734,969.377,404.1719980619482
740,1686879741.48,-15.625,310.059,-44.922,37.598,969.379,402.8462371427422
741,1686879741.48,-3.418,-83.496,-34.668,22.949,969.38,401.26959888310853
742,1686879741.49,-37.598,7.324,-39.551,-31.25,969.383,400.68790429034846
743,1686879741.49,-48.34,-553.711,-75.684,-64.453,969.384,399.0159651079215
744,1686879741.49,-62.012,-199.707,-37.109,-93.75,969.387,395.7344539610538
745,1686879741.49,-56.152,-761.23,-15.625,-53.711,969.388,397.3162655052751
746,1686879741.5,-34.18,-226.562,-40.039,-25.879,969.391,405.73904049677844
747,1686879741.5,-9.766,62.012,48.34,20.996,969.392,396.24144693773735
748,1686879741.5,-0.488,-189.941,-51.27,51.27,969.395,398.76469780164166
749,1686879741.5,3.906,419.922,-30.273,26.855,969.396,403.6509566293635
750,1686879741.5,-16.602,-270.508,-39.062,-7.324,969.399,396.57162778563134
751,1686879741.5,-34.668,-394.531,-74.707,-53.223,969.4,400.6945175565921
752,1686879741.51,-48.34,-21.484,-0.488,-82.031,969.403,404.1243193212359
753,1686879741.51,-51.758,243.164,-18.066,-41.504,969.407,399.35945274325735
754,1686879741.51,-20.996,14.16,-72.266,43.457,969.411,397.12686839304115
755,1686879741.52,-28.32,-636.719,-45.898,17.09,969.415,397.59562832723924
756,1686879741.52,-61.035,-318.359,33.691,-74.707,969.419,406.23630778477985
757,1686879741.53,-53.711,305.176,-0.488,-68.848,969.423,398.7305378776962
758,1686879741.53,-16.113,-80.078,-70.801,21.973,969.427,393.7576670504915
759,1686879741.53,-16.602,-807.617,-37.109,32.715,969.431,403.08383394018847
760,1686879741.54,-53.223,-312.5,29.785,-57.617,969.435,400.84999041437817
761,1686879741.54,-55.176,40.527,-46.387,-85.449,969.439,396.2868115753058
762,1686879741.54,-24.414,-588.379,-79.59,-7.324,969.443,393.8772903730125
763,1686879741.55,-4.883,-641.113,-22.461,41.992,969.446,402.76110393478484
764,1686879741.55,-13.672,158.203,18.555,-28.809,969.45,403.75605812049895
765,1686879741.56,-40.039,233.887,-49.805,-85.449,969.454,397.5987274512347
766,1686879741.56,-41.016,-17.09,-26.367,-29.785,969.458,402.3666687313986
767,1686879741.56,-15.137,172.363,17.09,34.668,969.462,389.42640914152594
768,1686879741.57,-17.578,286.133,-29.297,-5.859,969.465,395.536209735209
769,1686879741.57,-55.176,-92.773,-60.547,-86.426,969.469,397.43731775984486
770,1686879741.57,-56.152,-409.668,1.465,-55.176,969.473,404.5877468463611
771,1686879741.58,-6.348,-41.504,16.602,39.062,969.477,406.7803235264405
772,1686879741.58,2.93,71.777,-46.875,26.367,969.481,397.044234052912
773,1686879741.59,-34.18,-246.094,-53.223,-70.801,969.485,404.65369370456625
774,1686879741.59,-44.922,-781.738,-52.246,-67.383,969.488,399.43676583884536
775,1686879741.59,-8.301,-699.707,20.996,24.414,969.492,398.9543722447126
776,1686879741.6,6.836,302.246,28.809,44.922,969.496,393.17103794772913
777,1686879741.6,-25.879,173.34,-76.172,-39.062,969.5,390.6428946285781
778,1686879741.6,-58.594,-155.273,-64.941,-93.75,969.504,398.6855571990916
779,1686879741.61,-39.062,193.359,-13.672,-24.414,969.508,393.36672187745137
780,1686879741.61,-8.789,414.551,-29.785,27.832,969.521,395.97593855968927
781,1686879741.62,-29.785,103.027,-46.875,-41.992,969.525,403.30145310878527
782,1686879741.62,-52.734,-109.863,-31.738,-98.633,969.529,391.6823901688058
783,1686879741.62,-35.156,-3.906,-36.621,-41.504,969.533,391.5919254185848
784,1686879741.63,0.488,-30.273,-30.762,37.109,969.537,393.3955588670878
785,1686879741.63,-8.301,-463.379,-53.711,0.488,969.54,390.0736272210703
786,1686879741.64,-49.805,-929.199,-13.672,-84.961,969.544,388.12848694383365
787,1686879741.64,-38.086,-247.07,44.922,-67.383,969.548,388.7676847872522
788,1686879741.64,-1.953,273.926,-27.344,20.02,969.552,390.8256449186506
789,1686879741.65,-4.883,76.172,-25.879,10.742,969.556,398.5035961189482
790,1686879741.65,-32.227,39.551,-18.066,-73.242,969.56,387.6048891026137
791,1686879741.66,-42.969,205.078,-29.785,-72.754,969.564,397.92420676653336
792,1686879741.67,-9.766,127.93,-41.992,13.672,969.567,384.0706712575882
793,1686879741.68,12.207,-57.617,-42.969,41.992,969.571,389.92780295764385
794,1686879741.68,-23.926,20.02,-19.043,-44.922,969.575,380.8121067844113
795,1686879741.68,-56.152,80.078,-42.48,-95.215,969.579,381.8648392448274
796,1686879741.69,-26.855,-123.047,-64.453,-18.555,969.582,389.7747793518902
797,1686879741.69,-1.953,-655.273,-42.48,42.969,969.586,388.7221587157434
798,1686879741.69,-29.785,-757.812,12.207,-23.926,969.59,376.5922118457582
799,1686879741.7,-56.152,-237.305,21.973,-96.191,969.594,386.6739812885581
800,1686879741.7,-46.875,-53.223,-40.527,-52.246,969.598,381.3645321548968
801,1686879741.71,-15.625,-536.621,-43.457,22.461,969.602,390.1686171878888
802,1686879741.71,-17.09,-290.039,22.949,-15.625,969.606,383.949817428215
803,1686879741.71,-51.758,260.254,-27.344,-95.215,969.61,384.03114170969735
804,1686879741.72,-51.27,-32.715,-60.547,-62.5,969.613,396.748349671136
805,1686879741.72,-3.418,-69.336,-18.555,41.016,969.617,390.95465426322335
806,1686879741.72,-4.395,308.105,-9.766,29.785,969.621,389.9238555450436
807,1686879741.73,-57.617,268.066,-62.988,-76.66,969.625,379.12827988288507
808,1686879741.73,-75.684,-180.176,-53.223,-106.445,969.629,389.0866291121551
809,1686879741.74,-41.504,-441.895,-17.578,-20.996,969.633,385.59156097597173
810,1686879741.74,-15.137,-248.535,-4.883,18.555,969.637,383.68870072661434
811,1686879741.74,-38.086,89.355,-25.391,-52.734,969.641,384.86825813618947
812,1686879741.75,-61.035,-431.641,-97.656,-86.914,969.644,384.89528276307
813,1686879741.75,-43.945,-783.691,-21.484,-14.16,969.648,396.7892289337456
814,1686879741.76,-9.277,146.973,28.809,42.969,969.652,383.8005994896089
815,1686879741.76,-19.531,294.922,-68.848,-18.555,969.656,383.7284700009458
816,1686879741.76,-51.27,-206.543,-56.641,-91.797,969.657,383.7407317717411
817,1686879741.76,-38.574,-137.695,-2.441,-57.617,969.661,386.7323595645702
818,1686879741.77,-7.324,270.996,-20.508,16.113,969.665,386.11023086033543
819,1686879741.77,-15.137,210.449,-68.848,-6.348,969.669,379.683791529022
820,1686879741.78,-54.199,-306.641,-65.918,-81.543,969.673,389.4758762723498
821,1686879741.78,-52.734,-516.113,-34.668,-68.848,969.676,389.07703457366443
822,1686879741.78,-4.883,-274.902,-7.324,11.23,969.68,391.9438130028963
823,1686879741.79,6.348,41.016,-30.273,16.113,969.684,393.27254138118855
824,1686879741.79,-31.738,-635.742,-91.797,-58.105,969.688,382.1927699101056
825,1686879741.8,-47.852,-740.723,3.906,-83.008,969.692,395.6270043850383
826,1686879741.8,-14.16,173.34,21.973,-15.137,969.696,396.75406457566993
827,1686879741.8,6.836,-13.184,-63.965,42.969,969.7,391.47314105475493
828,1686879741.81,-17.09,-237.305,-54.688,-29.297,969.704,393.88157453785595
829,1686879741.81,-45.41,106.934,-20.508,-98.145,969.708,393.6900832194831
830,1686879741.82,-25.879,244.629,-47.363,-32.227,969.712,387.6916382087604
831,1686879741.82,7.324,-85.938,-38.574,36.133,969.716,391.9106612628094
832,1686879741.82,-10.254,-226.074,-16.113,-17.09,969.72,390.48412479431306
833,1686879741.83,-42.969,-189.941,-51.758,-93.75,969.724,386.53192246970895
834,1686879741.83,-39.062,-232.91,-36.133,-61.523,969.728,395.26219710223035
835,1686879741.83,-13.184,-526.367,-60.059,22.949,969.732,391.71457481254896
836,1686879741.84,-11.23,-677.246,-20.02,16.602,969.735,386.54300806193083
837,1686879741.84,-32.715,59.082,16.113,-79.59,969.739,391.40204269772727
838,1686879741.85,-48.34,154.785,-53.223,-88.867,969.743,391.3714529185541
839,1686879741.85,-22.461,-41.504,-29.785,0.0,969.747,386.3864083733455
840,1686879741.86,0.0,120.605,-9.277,16.602,969.755,391.96253659569976
841,1686879741.86,-27.832,185.059,-52.246,-60.059,969.759,389.08678857508784
842,1686879741.86,-52.734,-152.344,-54.688,-92.773,969.763,396.88933296142443
843,1686879741.87,-25.879,-424.316,-15.625,-17.578,969.767,390.7913239328089
844,1686879741.87,4.883,-330.566,-21.484,31.25,969.771,394.66611578085275
845,1686879741.88,-23.438,-246.094,-44.434,-32.715,969.775,391.25553510621853
846,1686879741.88,-56.641,-292.969,-42.969,-97.168,969.779,390.611166214115
847,1686879741.88,-45.41,-787.109,-75.195,-40.039,969.782,402.8048005875084
848,1686879741.89,-8.301,-680.176,-4.883,39.062,969.786,386.68277083709205
849,1686879741.89,-3.906,294.922,14.16,-8.301,969.79,390.95572638654716
850,1686879741.89,-40.039,116.211,-66.406,-88.379,969.794,392.69031063835934
851,1686879741.9,3.418,252.93,-4.883,27.344,969.794,394.92869708844194
852,1686879741.9,-39.551,-160.156,-35.156,-65.43,969.798,400.5092698049126
853,1686879741.9,7.324,399.902,-45.898,27.832,969.798,403.0331841647279
854,1686879741.9,-24.414,-30.762,-53.223,-65.43,969.802,403.4240805708825
855,1686879741.91,-37.598,-173.34,-9.766,-79.59,969.806,394.31842908237184
856,1686879741.91,-5.859,-0.977,-12.695,9.277,969.81,397.7022012436679
857,1686879741.92,14.648,-74.219,-20.02,29.297,969.814,393.13958475348187
858,1686879741.92,-15.625,-505.859,-51.758,-58.105,969.818,397.9391635233714
859,1686879741.92,-47.852,-930.176,3.906,-96.191,969.822,390.3749064622948
860,1686879741.93,-23.438,-197.754,50.293,-20.02,969.826,404.0850262359605
861,1686879741.93,-0.488,334.473,-33.691,34.668,969.829,402.6719842888627
862,1686879741.94,-26.367,49.805,-48.34,-28.809,969.833,398.8541155256646
863,1686879741.94,-62.988,-69.336,-21.973,-104.004,969.837,389.7821440651576
864,1686879741.96,-56.152,210.938,-9.766,-57.129,969.852,395.96198206746766
865,1686879741.96,-7.812,215.332,-35.156,29.297,969.856,394.2244384061905
866,1686879741.96,-9.277,-0.977,-36.621,-2.441,969.86,398.9324500636119
867,1686879741.97,-53.711,79.59,-20.02,-87.891,969.864,410.1388894954555
868,1686879741.97,-50.781,-26.367,-39.062,-75.195,969.868,409.44163098518277
869,1686879741.98,-15.625,-129.883,-40.039,13.672,969.872,405.0806021206496
870,1686879741.98,-12.207,-614.746,-56.152,24.902,969.875,399.0429008586289
871,1686879741.98,-41.504,-866.211,-5.859,-53.223,969.879,406.3450950318249
872,1686879741.99,-42.969,37.109,30.762,-68.359,969.883,407.902326470882
873,1686879741.99,-8.789,160.645,-61.523,7.324,969.887,410.8007424215274
874,1686879741.99,4.395,-184.57,-61.035,23.926,969.891,407.200309848953
875,1686879742.0,-24.902,130.859,5.371,-56.152,969.895,399.78957983345344
876,1686879742.0,-52.246,305.664,-27.344,-92.773,969.897,402.91460988597686
877,1686879742.0,-32.715,13.184,-56.152,-25.879,969.901,405.9972959599341
878,1686879742.01,-1.953,-19.043,-27.832,35.645,969.905,406.8576300347486
879,1686879742.01,-20.02,239.746,-26.367,-22.949,969.909,401.6840794159326
880,1686879742.02,-49.316,96.68,-69.824,-89.355,969.913,413.26956327204266
881,1686879742.02,-33.203,-492.188,-42.48,-24.902,969.917,419.3843361287932
882,1686879742.02,13.184,-483.887,28.32,54.688,969.921,413.9580147998807
883,1686879742.03,10.742,166.016,4.883,25.391,969.925,423.63668332059785
884,1686879742.03,-27.832,238.77,-34.668,-59.57,969.928,408.7599836217665
885,1686879742.04,-31.738,-496.094,-84.473,-49.805,969.932,411.78947440588234
886,1686879742.04,0.0,-866.211,10.742,41.992,969.936,407.7843119102472
887,1686879742.04,11.23,6.348,57.617,35.156,969.94,417.42685099265714
888,1686879742.05,-22.949,217.773,-47.363,-54.199,969.942,411.80548806627064
889,1686879742.05,-48.828,-158.691,-38.086,-78.613,969.946,411.7655726411358
890,1686879742.05,-23.438,-14.16,13.184,1.465,969.95,418.4637951464517
891,1686879742.06,5.371,302.246,-3.418,43.945,969.953,414.92691086663
892,1686879742.06,-22.949,50.293,-50.781,-29.785,969.957,402.5926986571507
893,1686879742.07,-53.223,-619.141,-29.785,-87.402,969.961,410.02665232758835
894,1686879742.07,-29.785,-663.086,20.996,-25.391,969.965,410.34706042397585
895,1686879742.07,4.883,34.18,31.25,44.922,969.969,411.91799838745465
896,1686879742.08,-2.93,175.293,-49.316,1.465,969.973,404.702748759518
897,1686879742.08,-42.48,-580.078,-44.434,-66.406,969.977,407.98427699979175
898,1686879742.08,-43.457,-351.074,59.57,-34.668,969.981,411.0601748800448
899,1686879742.09,5.859,329.102,15.137,45.898,969.985,397.5705254452839
900,1686879742.09,4.395,-133.301,-62.5,44.434,969.989,400.00922904350523
901,1686879742.1,-39.551,-536.133,-58.594,-46.387,969.993,413.6237922584012
902,1686879742.1,-47.852,-37.109,7.324,-62.012,969.997,401.70726282358163
903,1686879742.1,-10.742,266.602,-5.371,30.762,970.0,414.14693817184076
904,1686879742.11,0.977,-19.531,-25.391,47.852,970.004,414.3357159107056
905,1686879742.11,-34.668,-446.289,-33.691,-40.527,970.008,409.2280997426422
906,1686879742.12,-44.922,-326.66,-7.812,-80.566,970.012,405.7921888953977
907,1686879742.12,-5.371,184.57,2.93,0.488,970.016,410.7348923128815
908,1686879742.12,17.578,-293.945,-68.359,62.988,970.02,415.0975880719515
909,1686879742.13,-19.043,-727.539,-20.02,-4.883,970.024,409.01910902456706
910,1686879742.13,-46.875,38.086,30.273,-73.73,970.028,413.97808257935463
911,1686879742.14,-31.738,184.57,-23.926,-17.09,970.032,407.04240865736244
912,1686879742.14,3.418,-14.648,-12.695,58.594,970.032,415.1770932905861
913,1686879742.14,1.465,99.121,3.906,16.113,970.036,408.04800488317693
914,1686879742.14,-32.715,84.961,-43.945,-75.195,970.04,405.6298201449229
915,1686879742.15,-40.039,-223.633,-51.758,-61.035,970.044,414.01463235499784
916,1686879742.15,-6.348,-588.379,-4.883,36.133,970.048,403.293611435881
917,1686879742.16,5.371,-524.414,18.066,39.062,970.052,411.05999958777295
918,1686879742.16,-21.973,-286.133,-9.766,-50.781,970.056,409.9079962278791
919,1686879742.16,-35.156,-251.953,-34.668,-67.383,970.059,404.88119068855366
920,1686879742.17,-7.324,-735.84,-45.41,29.785,970.063,411.77596130923206
921,1686879742.17,13.672,-574.707,32.227,59.082,970.067,400.99169567148783
922,1686879742.18,-14.16,363.281,14.648,-39.551,970.071,409.30507064753556
923,1686879742.18,-37.109,38.086,-55.176,-89.355,970.075,407.9260058525424
924,1686879742.2,-18.555,-151.367,-23.926,-18.555,970.094,409.296126909887
925,1686879742.2,5.859,317.383,7.324,34.18,970.098,413.67113589241205
926,1686879742.2,-14.648,381.836,-42.969,-19.531,970.102,408.98838511619545
927,1686879742.21,-54.688,-44.922,-39.062,-83.984,970.105,412.02884424818023
928,1686879742.21,-46.875,-220.703,0.977,-34.18,970.109,409.4646412442032
929,1686879742.22,-5.859,-116.699,-31.25,62.012,970.113,408.2609772475803
930,1686879742.22,0.0,-115.234,-18.555,35.645,970.117,410.8510970433798
931,1686879742.22,-37.598,-518.066,-60.059,-66.406,970.121,411.1388687756985
932,1686879742.23,-64.453,-34.18,-7.812,-94.727,970.122,412.32398317028776
933,1686879742.23,-48.828,-941.406,-15.625,-64.941,970.125,418.0070054102176
934,1686879742.23,-27.344,212.402,-9.277,-3.906,970.126,415.13327917555625
935,1686879742.23,-11.719,-161.621,83.008,21.484,970.129,416.4252003028777
936,1686879742.23,-0.977,171.387,-34.668,29.297,970.13,423.94882242845506
937,1686879742.24,-2.93,331.055,-16.602,10.742,970.133,411.29441276898996
938,1686879742.24,-29.785,-61.523,-41.504,-62.5,970.133,410.537663706872
939,1686879742.24,-44.922,7.324,-45.41,-85.449,970.137,425.617421237684
940,1686879742.24,-60.059,-223.633,-29.785,-117.676,970.137,404.277610460793
941,1686879742.25,-46.875,-296.875,-35.645,-57.617,970.141,409.0920372647976
942,1686879742.25,-18.555,-230.469,-45.41,4.883,970.145,412.75905846496187
943,1686879742.25,-24.902,-312.012,-33.691,-38.086,970.149,402.4935074129663
944,1686879742.26,-56.641,-263.184,-0.977,-115.234,970.153,404.6435141519742
945,1686879742.26,-52.246,51.27,9.277,-81.543,970.157,405.98560644409895
946,1686879742.26,-11.719,143.066,-43.457,12.207,970.161,404.8766824459545
947,1686879742.27,-14.648,-714.844,-97.656,4.395,970.165,408.14810417227864
948,1686879742.27,-47.363,-881.836,10.254,-83.008,970.169,407.91323587648844
949,1686879742.28,-46.387,25.879,52.734,-85.938,970.173,410.5408983278403
950,1686879742.28,-14.16,81.055,-20.508,7.324,970.177,406.1673117201495
951,1686879742.28,-2.93,76.66,10.742,25.879,970.181,407.77565474699963
952,1686879742.29,-34.18,212.402,-16.113,-58.105,970.185,410.59768564095947
953,1686879742.29,-57.129,-97.168,-48.828,-85.449,970.189,406.8442004615667
954,1686879742.3,-25.879,-562.5,-57.129,-7.324,970.193,420.392076693621
955,1686879742.3,2.441,-615.234,-16.602,42.48,970.196,422.936517300928
956,1686879742.3,-16.113,154.297,27.344,-38.086,970.2,405.85452226580645
957,1686879742.31,-41.016,245.605,-49.805,-114.258,970.204,410.68087842955714
958,1686879742.31,-33.691,-144.043,-49.805,-48.34,970.208,411.80481938687853
959,1686879742.32,1.465,-52.246,5.859,30.762,970.212,405.9185124603548
960,1686879742.32,-5.371,333.008,-4.883,-14.648,970.216,409.9940466215884
961,1686879742.32,-48.34,216.309,-57.129,-92.773,970.219,413.9898689988004
962,1686879742.32,-40.527,-347.168,-29.297,-51.758,970.223,418.2951288000148
963,1686879742.33,-0.488,-166.992,24.414,38.086,970.227,412.09161488805455
964,1686879742.33,-3.418,93.262,-37.109,13.672,970.231,412.88003660362335
965,1686879742.34,-41.504,-183.594,-71.289,-74.219,970.235,421.6371957766605
966,1686879742.34,-56.641,-742.188,-64.941,-75.195,970.239,411.61015002704687
967,1686879742.34,-26.855,-758.301,19.043,10.254,970.243,412.4354164475211
968,1686879742.35,1.465,193.359,37.109,25.879,970.247,409.48039464984436
969,1686879742.35,-31.25,168.457,-49.805,-50.293,970.251,413.87194600125935
970,1686879742.36,-60.059,-160.645,-52.246,-71.777,970.255,406.9482990400398
971,1686879742.36,-25.879,75.684,-19.043,-2.441,970.259,406.72819163528584
972,1686879742.36,5.371,389.16,-20.02,47.363,970.271,411.78485599565147
973,1686879742.37,-13.672,-70.801,-80.566,-11.719,970.275,416.5308097865586
974,1686879742.37,-48.34,-419.434,-53.223,-91.797,970.279,414.5047463698103
975,1686879742.38,-36.133,92.285,4.883,-37.109,970.283,410.9700750548314
976,1686879742.38,5.371,338.379,-26.367,52.246,970.287,406.15071754071823
977,1686879742.38,-4.395,-312.5,-95.703,20.996,970.291,404.2239136367585
978,1686879742.39,-50.781,-954.102,-22.949,-63.965,970.294,400.8205367584222
979,1686879742.39,-44.922,-201.66,55.176,-54.199,970.298,414.71110108455235
980,1686879742.4,-10.254,330.078,-23.926,25.391,970.302,408.9402228175537
981,1686879742.4,-5.859,84.961,-38.086,15.137,970.306,410.9460688843289
982,1686879742.4,-35.156,22.949,-17.578,-72.754,970.31,406.46916199089526
983,1686879742.41,-47.363,207.52,-17.09,-79.59,970.314,414.21873789484766
984,1686879742.42,-19.043,199.707,-44.434,6.348,970.317,407.3632837789608
985,1686879742.42,-4.883,43.945,-32.715,33.691,970.321,413.66943762193216
986,1686879742.43,-25.879,106.934,-24.414,-39.551,970.325,415.66241048924655
987,1686879742.43,-48.34,-20.02,-62.5,-80.078,970.329,414.65449971330145
988,1686879742.44,-24.902,-205.078,-46.387,-5.371,970.333,411.9318687088839
989,1686879742.44,9.766,-644.531,-57.617,69.336,970.337,416.4759410991695
990,1686879742.44,-7.812,-847.168,-18.066,12.695,970.341,414.1425936917051
991,1686879742.45,-42.48,-113.77,20.02,-85.938,970.344,407.92648221537667
992,1686879742.45,-28.809,56.152,-53.711,-52.734,970.348,412.6274838659805
993,1686879742.46,6.836,-333.984,-17.578,34.668,970.352,413.3343656776846
994,1686879742.46,0.0,-18.066,31.738,3.906,970.356,419.1012494834551
995,1686879742.46,-32.715,352.539,-26.855,-80.566,970.36,407.1888315107546
996,1686879742.47,-36.621,-30.273,-47.363,-61.035,970.364,403.4653626145437
997,1686879742.47,-5.371,-118.164,-24.414,26.367,970.367,406.5899901683744
998,1686879742.47,-5.371,288.086,-4.883,23.438,970.371,406.4636586066942
999,1686879742.48,-45.898,319.824,-40.039,-76.66,970.375,411.73085279699893
1000,1686879742.48,-70.801,-66.895,-45.41,-103.027,970.379,408.5113578677989
1001,1686879742.49,-39.551,-350.098,-11.23,-13.672,970.383,410.5985470051919
1002,1686879742.49,-15.137,-196.777,-7.812,10.254,970.387,408.415893609681
1003,1686879742.49,-43.945,-100.098,-30.762,-72.754,970.391,406.724492249318
1004,1686879742.5,-74.707,-564.453,-79.102,-111.328,970.395,396.5657637787982
1005,1686879742.5,-55.176,-864.746,-10.742,-41.504,970.399,420.27250323232096
1006,1686879742.5,-26.855,-56.641,41.992,9.766,970.403,402.7558329493744
1007,1686879742.51,-39.551,275.879,-41.504,-50.781,970.407,411.9313410096847
1008,1686879742.51,-60.547,-33.203,-42.48,-119.629,970.407,407.44062654408435
1009,1686879742.52,-42.969,27.344,-2.93,-74.707,970.411,410.05593677351254
1010,1686879742.52,-2.441,321.777,-12.207,15.625,970.415,421.56790451599824
1011,1686879742.52,-5.371,250.977,-49.316,-3.418,970.419,414.7555873043767
1012,1686879742.53,-46.875,-271.973,-53.223,-90.332,970.423,409.11625083661875
1013,1686879742.53,-54.199,-430.664,-20.02,-82.031,970.427,407.32444975115874
1014,1686879742.53,-13.184,-104.004,4.395,17.578,970.43,405.95602689199006
1015,1686879742.54,1.465,179.688,-34.18,29.785,970.434,407.6478617504836
1016,1686879742.54,-39.062,-590.82,-98.145,-59.082,970.438,405.3206070501434
1017,1686879742.55,-65.918,-777.832,-4.395,-100.586,970.442,408.716724311597
1018,1686879742.55,-24.902,241.699,33.691,-24.902,970.446,408.02255164627894
1019,1686879742.55,6.836,151.367,-65.43,30.762,970.45,409.54237477050526
1020,1686879742.56,-17.09,-285.645,-73.73,-35.156,970.454,405.74655943011425
1021,1686879742.56,-43.457,57.617,-7.324,-91.797,970.458,412.3893242760218
1022,1686879742.56,-25.879,317.383,-32.715,-21.484,970.462,406.1543077527805
1023,1686879742.57,5.859,103.516,-29.297,52.734,970.466,402.7137668737557
1024,1686879742.57,-1.465,28.32,-14.648,-0.977,970.47,404.7346198366832
1025,1686879742.58,-30.762,-89.355,-51.758,-75.195,970.474,404.4362412271453
1026,1686879742.58,-29.785,-258.789,-34.668,-46.875,970.478,416.4153697484126
1027,1686879742.58,-1.953,-543.945,-54.199,37.598,970.482,411.96841320344294
1028,1686879742.59,-1.465,-639.648,-20.02,23.926,970.485,409.53788885928356
1029,1686879742.59,-34.668,55.664,6.348,-70.801,970.489,409.9601185946087
1030,1686879742.6,-53.711,143.066,-56.641,-69.824,970.493,410.82792837351366
1031,1686879742.6,2.93,-79.102,-9.277,31.738,970.497,406.4159718613452
1032,1686879742.6,-21.973,-178.711,-43.945,19.531,970.497,409.57879196590454
1033,1686879742.6,-22.461,223.145,-31.738,-55.664,970.501,418.26563228184745
1034,1686879742.61,-47.363,79.59,-62.5,-82.52,970.505,417.2987781305778
1035,1686879742.61,-22.461,-345.215,-30.273,-1.465,970.509,408.66441638886175
1036,1686879742.62,0.977,-376.465,-8.301,37.598,970.513,413.9002481082278
1037,1686879742.62,-36.133,-220.215,-40.039,-41.992,970.517,412.3059884479027
1038,1686879742.62,-75.195,-269.043,-39.062,-112.305,970.521,416.5204407841045
1039,1686879742.63,-58.594,-772.949,-56.152,-49.316,970.525,407.3644343185668
1040,1686879742.63,-17.578,-725.586,0.0,25.391,970.528,400.7376177873524
1041,1686879742.64,-4.395,225.586,10.254,-27.832,970.532,407.77424301097403
1042,1686879742.64,-42.969,88.379,-64.453,-109.375,970.536,410.1284806329363
1043,1686879742.64,-51.27,-152.832,-20.508,-79.102,970.54,416.80348103631616
1044,1686879742.65,-5.859,229.004,5.371,17.09,970.555,400.886180691502
1045,1686879742.65,3.906,354.004,-36.621,7.324,970.559,416.32027206822517
1046,1686879742.66,-37.109,-307.129,-92.285,-83.984,970.563,406.91332738963047
1047,1686879742.66,-48.828,-595.215,-37.109,-91.797,970.567,404.51244976634
1048,1686879742.66,-9.766,41.992,-5.859,-6.348,970.57,409.47686880053396
1049,1686879742.67,6.836,38.086,-75.195,18.555,970.574,402.9608927757967
1050,1686879742.67,-23.926,-607.422,-90.332,-61.523,970.578,408.8607035687585
1051,1686879742.68,-46.387,-743.652,-24.902,-103.027,970.582,411.70761088740363
1052,1686879742.68,-24.902,19.531,14.16,-41.992,970.586,409.93679028817877
1053,1686879742.68,3.906,277.344,-38.086,17.09,970.59,418.3682027584078
1054,1686879742.69,-9.277,-30.762,-51.758,-31.25,970.594,409.2829621792489
1055,1686879742.69,-30.273,101.562,-16.602,-41.504,970.6,412.95901069177813
1056,1686879742.69,-42.48,-151.855,-31.25,-94.727,970.598,409.85005443576665
1057,1686879742.69,10.254,111.816,-49.805,38.574,970.604,408.0072147617828
1058,1686879742.7,-5.859,-89.355,-43.945,-1.953,970.608,409.5622367916802
1059,1686879742.7,-42.969,-98.633,-43.457,-91.309,970.612,417.72999237254027
1060,1686879742.71,-31.25,-278.809,-54.688,-77.148,970.616,411.21543232799473
1061,1686879742.71,8.789,-324.219,-24.414,10.254,970.62,409.5065453853166
1062,1686879742.71,8.301,-699.707,-70.801,17.09,970.624,402.45062603895207
1063,1686879742.72,-35.645,-931.152,-10.742,-74.219,970.628,417.1794285162021
1064,1686879742.72,-45.898,-215.82,43.945,-104.98,970.632,407.9101666673118
1065,1686879742.72,-2.93,-61.035,-40.039,-2.93,970.635,415.9965916007139
1066,1686879742.73,10.254,-159.18,-43.457,44.922,970.639,406.22677187117836
1067,1686879742.73,-16.602,103.516,-16.113,-41.992,970.643,400.4537571683345
1068,1686879742.74,-37.109,147.461,-38.086,-96.191,970.646,407.56982487025687
1069,1686879742.74,-20.508,-171.387,-45.898,-24.902,970.65,411.50875139571565
1070,1686879742.74,14.16,-206.055,-22.949,41.016,970.654,412.1883346559581
1071,1686879742.75,-2.441,134.277,-23.926,-21.484,970.658,408.07155381530333
1072,1686879742.75,-40.039,107.422,-60.059,-91.797,970.662,416.6177264564597
1073,1686879742.76,-32.715,-530.273,-77.148,-48.828,970.666,409.83040996029814
1074,1686879742.76,7.324,-729.004,-24.414,33.203,970.67,419.02212859228314
1075,1686879742.76,9.277,-257.324,9.277,9.277,970.674,412.7929917555674
1076,1686879742.77,-33.203,-52.246,-26.367,-83.008,970.677,402.47768545388897
1077,1686879742.77,-36.621,-479.004,-67.383,-72.266,970.681,407.89596803143183
1078,1686879742.78,-1.953,-656.25,-6.348,15.137,970.685,400.92558804172074
1079,1686879742.78,0.0,-43.945,2.93,12.695,970.689,413.6282485282687
1080,1686879742.8,-30.762,-19.043,-40.527,-76.66,970.692,406.72757346655425
1081,1686879742.8,-51.758,-264.648,-41.504,-107.91,970.696,406.8657437078273
1082,1686879742.8,-37.598,-90.332,-8.789,-25.879,970.7,402.10760680707085
1083,1686879742.81,-8.301,185.059,-31.738,30.762,970.704,410.0872526464005
1084,1686879742.81,-19.043,-169.922,-75.684,-32.227,970.707,400.12290418111894
1085,1686879742.82,-54.688,-766.113,-52.734,-88.867,970.711,396.91172912694617
1086,1686879742.82,-39.551,-698.242,20.508,-37.598,970.715,405.86223303188893
1087,1686879742.82,-5.859,1.953,19.531,25.879,970.719,404.66792295685724
1088,1686879742.83,-8.789,78.613,-66.406,-19.531,970.723,401.7711294048194
1089,1686879742.83,-45.898,-620.605,-55.664,-97.656,970.727,401.50223494694654
1090,1686879742.83,-49.316,-534.18,24.902,-66.895,970.731,407.3482967088031
1091,1686879742.84,8.789,154.297,14.648,27.344,970.735,405.8982272898417
1092,1686879742.84,28.809,-57.129,-57.129,26.855,970.751,418.4803406273023
1093,1686879742.85,-13.184,-510.742,-67.871,-61.523,970.754,405.68272177884313
1094,1686879742.85,-29.297,-154.297,-7.812,-68.359,970.758,406.69512502391456
1095,1686879742.86,4.883,136.719,-16.602,23.438,970.762,413.51163589932344
1096,1686879742.86,16.113,-101.562,-38.574,51.27,970.766,401.66793047116835
1097,1686879742.86,-16.602,-476.074,-40.527,-17.578,970.77,409.5259926938668
1098,1686879742.87,-41.016,-374.023,-24.414,-54.688,970.774,410.22287028952195
1099,1686879742.87,-15.625,86.914,-18.066,2.93,970.778,404.35801315311636
1100,1686879742.88,9.277,-354.492,-75.684,60.059,970.782,408.29597912070733
1101,1686879742.88,-18.555,-757.812,-42.48,-1.465,970.786,398.96654421595724
1102,1686879742.88,-46.387,-87.891,11.719,-75.195,970.79,406.8376298212064
1103,1686879742.88,0.977,-232.422,-33.203,54.688,970.782,410.47886814668516
1104,1686879742.89,-31.25,20.508,-40.527,-19.043,970.793,404.6854548604185
1105,1686879742.89,-8.301,-120.605,-18.555,2.441,970.786,405.0798408728488
1106,1686879742.89,-44.922,106.934,-47.852,-89.355,970.79,414.3226766118251
1107,1686879742.9,-41.504,-5.859,-72.266,-57.617,970.794,411.819752164653
1108,1686879742.9,-12.695,-577.148,-51.27,41.992,970.798,413.50797222236133
1109,1686879742.9,-4.883,-703.125,13.672,40.039,970.802,407.81571523695317
1110,1686879742.91,-32.715,-333.496,-6.348,-49.805,970.806,408.3030302253207
1111,1686879742.91,-47.363,-233.887,-49.805,-62.988,970.809,409.7783643151773
1112,1686879742.92,-17.09,-620.117,-38.086,29.297,970.813,415.49678956459553
1113,1686879742.92,-5.859,-400.879,27.832,56.152,970.817,412.34131534388376
1114,1686879742.92,-30.762,270.508,-11.719,-25.879,970.821,408.87483179100855
1115,1686879742.93,-49.805,-72.754,-70.801,-62.988,970.825,403.8888511225976
1116,1686879742.93,-23.438,-312.988,-42.969,9.766,970.83,404.65300478296086
1117,1686879742.94,-1.953,114.258,-0.977,62.012,970.834,408.6884904811581
1118,1686879742.94,-23.926,210.449,-51.27,-4.883,970.838,408.90109250024943
1119,1686879742.94,-48.34,-439.941,-83.008,-80.078,970.842,405.75176201731506
1120,1686879742.95,-43.457,-654.785,-26.855,-46.387,970.846,402.50956921934903
1121,1686879742.95,-8.301,-236.816,-15.625,27.344,970.85,413.9331494978644
1122,1686879742.96,-3.906,-170.41,-35.645,3.906,970.854,396.06562142489054
1123,1686879742.96,-38.574,-602.539,-70.801,-71.289,970.858,410.78029704227066
1124,1686879742.96,-46.387,-732.91,-19.043,-53.223,970.862,405.55854593149553
1125,1686879742.97,-10.254,72.266,29.297,24.902,970.865,402.296999498043
1126,1686879742.97,2.93,283.203,-43.457,29.297,970.869,401.0525309017626
1127,1686879742.98,-28.809,-58.105,-53.711,-56.641,970.873,404.56076120796763
1128,1686879742.98,-59.57,-114.746,-23.438,-83.008,970.872,408.39281387815197
1129,1686879742.98,-38.574,191.406,-10.742,11.719,970.876,401.494280958513
1130,1686879742.98,-1.465,201.66,-49.316,58.105,970.88,406.72778675825475
1131,1686879742.99,-21.973,-73.242,-64.453,-16.602,970.884,411.2385136965755
1132,1686879742.99,-48.828,-321.289,-33.691,-73.242,970.888,407.9273133153897
1133,1686879743.0,-28.32,-376.953,-21.484,-13.672,970.892,412.3035693561579
1134,1686879743.0,-0.977,-202.637,-23.926,57.617,970.896,402.4791415641696
1135,1686879743.0,-15.625,-673.34,-79.102,11.23,970.9,406.3447094585869
1136,1686879743.01,-49.805,-989.746,0.977,-64.453,970.903,400.43122542463044
1137,1686879743.01,-39.062,-210.449,57.129,-37.598,970.907,400.4918456730001
1138,1686879743.02,-2.441,44.922,-54.688,43.945,970.911,416.97930653720454
1139,1686879743.02,-4.883,-69.336,-55.664,12.695,970.915,403.47982056525797
1140,1686879743.02,-32.227,132.324,-25.391,-76.66,970.92,404.2016761242372
1141,1686879743.03,-36.621,199.219,-33.203,-68.848,970.924,404.31346747401767
1142,1686879743.03,-6.836,-43.945,-33.691,26.855,970.927,408.8676676120395
1143,1686879743.03,12.695,-89.355,-12.695,45.41,970.931,409.4053018606714
1144,1686879743.04,-17.578,126.465,-34.18,-34.668,970.935,402.41733294550795
1145,1686879743.04,-37.109,-134.277,-58.105,-56.641,970.939,398.0729236914089
1146,1686879743.04,-14.16,-661.621,-57.129,18.555,970.943,403.6076175903353
1147,1686879743.05,7.812,-715.82,-26.855,57.129,970.947,406.1530833882634
1148,1686879743.05,-11.719,-196.289,6.348,-22.461,970.951,403.20507517657126
1149,1686879743.06,-33.203,1.953,-38.086,-78.125,970.955,406.97950443325124
1150,1686879743.06,-11.719,-377.441,-17.578,-6.348,970.959,407.80192963689285
1151,1686879743.06,16.113,-289.551,33.691,65.43,970.963,411.01569322789646
1152,1686879743.07,7.812,232.91,-19.043,8.301,970.976,410.634696987018
1153,1686879743.07,-26.367,50.293,-54.688,-70.801,970.979,414.83881884855805
1154,1686879743.07,-26.367,-165.527,-37.109,-38.574,970.983,405.7701729596201
1155,1686879743.08,14.648,63.965,-4.883,39.551,970.987,413.3158199877751
1156,1686879743.08,9.766,31.25,-41.992,23.926,970.991,404.9997689226867
1157,1686879743.09,-37.598,-290.039,-48.34,-59.57,970.995,404.73332646312815
1158,1686879743.09,-51.758,-784.18,-62.5,-63.965,970.999,408.27108381101124
1159,1686879743.09,-15.625,-754.883,-9.766,15.625,971.003,416.3934816958766
1160,1686879743.1,13.184,151.855,27.832,29.785,971.007,408.1399572620269
1161,1686879743.1,-16.113,124.023,-52.734,-50.293,971.011,409.13434675068964
1162,1686879743.1,-41.504,-381.348,-66.895,-87.891,971.015,404.2070537650736
1163,1686879743.11,-20.508,-220.703,-21.973,-3.418,971.019,412.23991514308636
1164,1686879743.14,7.324,283.203,-13.184,57.129,971.04,402.1627250811268
1165,1686879743.15,-12.207,-35.156,-93.262,-4.883,971.044,404.9415323907138
1166,1686879743.15,-38.574,-541.016,-78.613,-60.059,971.048,407.56940342668014
1167,1686879743.16,-15.625,-84.473,-2.441,-9.766,971.052,401.7256860107632
1168,1686879743.16,9.277,266.113,-32.227,55.176,971.056,413.5819414505597
1169,1686879743.16,-4.883,-379.395,-78.613,13.184,971.059,405.2839113429625
1170,1686879743.17,-35.645,-725.098,-26.855,-72.266,971.063,411.8927560282284
1171,1686879743.17,-28.809,-41.992,14.16,-54.688,971.067,404.3914386190459
1172,1686879743.17,-11.719,67.383,-50.781,9.766,971.081,413.83244364695133
1173,1686879743.17,9.766,168.945,-37.598,26.855,971.071,408.7609571808108
1174,1686879743.17,9.277,-226.562,-52.734,39.062,971.084,403.8037430051743
1175,1686879743.18,7.324,-130.371,-33.691,19.043,971.075,398.4577033976606
1176,1686879743.18,-15.137,-208.984,-21.484,-39.062,971.088,412.371509171637
1177,1686879743.18,-41.992,39.551,-35.156,-81.543,971.092,405.95368417542977
1178,1686879743.18,-27.832,-184.082,-8.789,-59.082,971.079,408.8169409404995
1179,1686879743.19,-39.551,77.637,-24.902,-71.777,971.083,405.1367301093551
1180,1686879743.19,-19.043,-176.758,-56.641,-15.625,971.096,411.24226413839034
1181,1686879743.19,6.836,-569.336,-30.762,43.457,971.1,407.1264936231512
1182,1686879743.19,-26.367,-538.574,-14.16,-28.809,971.104,404.1475788313748
1183,1686879743.2,-69.824,-141.113,-21.484,-105.469,971.108,410.99326600285747
1184,1686879743.2,-50.781,-134.766,-56.641,-41.504,971.112,405.6223174024048
1185,1686879743.2,-0.488,-320.312,-45.41,49.805,971.116,401.40906210613406
1186,1686879743.21,6.348,-117.188,-22.949,8.301,971.12,400.32547253801806
1187,1686879743.21,-33.203,-65.918,-36.133,-79.102,971.124,408.0661779563299
1188,1686879743.23,-41.992,-195.312,-51.27,-71.777,971.128,407.0659821312623
1189,1686879743.24,-11.719,-904.785,-84.473,20.508,971.132,415.7814143264073
1190,1686879743.24,-1.465,-712.402,7.812,33.691,971.136,406.9513433949887
1191,1686879743.24,-23.926,67.871,-5.371,-56.641,971.14,415.7885144551985
1192,1686879743.25,-44.922,-436.523,-83.008,-75.195,971.144,409.172943308869
1193,1686879743.25,-17.578,-786.621,-39.062,7.812,971.148,404.0887546968233
1194,1686879743.25,12.207,-156.25,9.766,43.457,971.152,406.5244640971734
1195,1686879743.26,-14.648,278.809,-37.109,-42.48,971.155,409.3891331184779
1196,1686879743.26,-50.781,-217.773,-49.805,-73.73,971.171,409.051202055227
1197,1686879743.26,-43.945,-431.152,-103.027,-95.215,971.159,403.982772435739
1198,1686879743.26,-37.109,-172.363,-7.812,-37.598,971.175,411.4204736545221
1199,1686879743.27,-26.367,-730.957,-34.668,-22.949,971.163,395.6358820169931
1200,1686879743.27,10.742,259.766,-22.949,41.504,971.179,404.74895599967806
1201,1686879743.27,0.488,132.812,13.672,42.48,971.167,410.7978509046164
1202,1686879743.27,14.648,211.914,-56.641,13.184,971.183,399.42608389008814
1203,1686879743.27,-13.672,245.605,-58.594,-5.859,971.171,412.17295456334637
1204,1686879743.28,-27.344,-242.676,-52.246,-78.613,971.187,408.58961905082225
1205,1686879743.28,-39.551,-495.117,-28.809,-73.242,971.191,404.4904871988973
1206,1686879743.28,-7.324,-337.402,-29.297,14.648,971.194,407.28926808834154
1207,1686879743.29,-1.465,-267.09,-50.293,35.156,971.198,400.882578846228
1208,1686879743.29,-34.18,-528.809,-24.902,-54.688,971.202,411.6601073125502
1209,1686879743.3,-41.992,-258.301,13.184,-83.496,971.206,414.22809011624906
1210,1686879743.3,-15.137,170.898,-10.742,7.324,971.21,398.8658743073513
1211,1686879743.3,9.277,43.945,-56.152,49.805,971.214,411.6117207501054
1212,1686879743.31,-16.113,-787.598,-90.82,-25.879,971.204,407.8460957057181
1213,1686879743.31,-43.945,-749.512,7.324,-80.566,971.208,412.86012705005845
1214,1686879743.32,-19.043,172.363,12.207,-22.949,971.212,401.4659299387315
1215,1686879743.32,12.695,-3.906,-46.387,42.48,971.216,409.8302018851489
1216,1686879743.32,10.254,-190.918,-42.969,-10.742,971.22,409.43283291721474
1217,1686879743.33,-27.832,-199.219,-47.852,-100.098,971.224,405.9951323498017
1218,1686879743.33,-31.25,-113.77,-15.625,-77.637,971.227,406.54899991646715
1219,1686879743.33,5.859,-295.898,-51.27,19.043,971.231,413.84527425197945
1220,1686879743.34,6.836,-662.109,-47.363,12.207,971.235,406.0064578750947
1221,1686879743.34,-13.184,-280.762,0.0,-81.543,971.239,409.2844000464899
1222,1686879743.35,-20.02,70.312,-7.324,-86.426,971.243,407.9733142812105
1223,1686879743.35,-2.441,-410.156,-54.199,5.859,971.247,403.04038435122703
1224,1686879743.35,6.836,-709.961,-9.766,32.227,971.247,408.5550335322537
1225,1686879743.35,-26.855,97.168,22.949,-64.941,971.251,404.51176817357475
1226,1686879743.36,-49.316,106.445,-44.434,-96.191,971.255,404.4175442467547
1227,1686879743.36,-21.484,-73.73,-32.715,-12.207,971.259,411.0357064213573
1228,1686879743.37,8.301,-70.801,-22.949,39.551,971.263,401.4956763251936
1229,1686879743.37,-7.324,-213.867,-50.293,-20.508,971.267,407.1293457816023
1230,1686879743.37,-41.504,-266.113,-38.086,-89.355,971.271,411.92274300746084
1231,1686879743.38,-33.691,-763.672,-48.34,-41.992,971.275,407.34513802993666
1232,1686879743.38,12.207,-701.172,12.207,29.297,971.278,408.02389331643656
1233,1686879743.38,13.672,272.949,27.832,-17.09,971.282,409.758295999913
1234,1686879743.39,-28.32,178.223,-63.477,-94.238,971.286,409.6608929864978
1235,1686879743.39,-29.785,-241.699,-52.246,-71.289,971.29,399.1988030328784
1236,1686879743.4,5.859,26.367,-0.488,19.043,971.295,410.52471562815566
1237,1686879743.4,7.324,488.281,6.836,25.879,971.299,414.3554506652698
1238,1686879743.41,-21.484,32.715,-81.055,-56.641,971.303,410.4529087590161
1239,1686879743.41,-28.32,-439.941,-57.617,-72.266,971.307,410.332689388776
1240,1686879743.41,8.789,70.801,1.465,13.184,971.311,406.80820622305083
1241,1686879743.42,29.297,146.973,-44.922,57.617,971.315,411.2279103563172
1242,1686879743.42,-5.859,-496.094,-72.754,-26.855,971.319,411.180429584492
1243,1686879743.42,-41.016,-705.566,-21.973,-91.309,971.323,404.27089386564126
1244,1686879743.43,-21.973,36.621,32.227,-30.273,971.327,404.0739972306081
1245,1686879743.43,-0.488,282.227,-23.438,24.414,971.33,413.8570884988193
1246,1686879743.44,-25.391,41.992,-29.297,-34.668,971.334,409.8731397363255
1247,1686879743.44,-44.434,10.254,-3.906,-102.539,971.338,411.14144485942836
1248,1686879743.44,-31.25,256.348,-2.93,-51.758,971.351,399.89795623577425
1249,1686879743.44,-5.859,240.723,-33.203,29.785,971.354,410.3651654383085
1250,1686879743.45,-7.324,-114.746,-29.785,-4.883,971.358,410.1853573915519
1251,1686879743.45,-35.645,-60.547,-4.883,-79.59,971.362,411.03160135222197
1252,1686879743.46,-34.18,-58.594,-44.434,-53.711,971.366,408.86523910023203
1253,1686879743.46,-2.93,-190.43,-41.016,32.227,971.37,415.8106393960039
1254,1686879743.46,3.418,-646.484,-65.43,38.574,971.374,406.41149902398934
1255,1686879743.47,-38.574,-896.973,2.93,-54.199,971.378,415.0728478128409
1256,1686879743.47,-52.246,-64.941,45.41,-94.238,971.382,408.31990227770694
1257,1686879743.48,-19.043,133.789,-40.039,-14.648,971.386,404.4271456878156
1258,1686879743.48,-1.953,7.812,-45.898,23.438,971.39,414.61231267605825
1259,1686879743.48,-25.391,223.633,-22.949,-52.734,971.394,399.65702939228896
1260,1686879743.49,-56.152,285.645,-41.016,-105.469,971.397,416.2257068598849
1261,1686879743.49,-42.969,27.344,-62.012,-36.133,971.4,411.7809697779304
1262,1686879743.5,-13.184,-33.203,-29.297,28.809,971.404,409.3004049980601
1263,1686879743.5,-25.879,229.492,-33.203,-27.832,971.408,410.6422918210881
1264,1686879743.5,-62.988,107.422,-62.5,-107.91,971.412,405.9384674546715
1265,1686879743.51,-59.082,-505.859,-79.59,-62.012,971.416,406.338099413903
1266,1686879743.51,-16.113,-785.156,-27.344,32.227,971.42,400.4116391276373
1267,1686879743.51,-12.695,-42.969,33.203,-0.977,971.424,413.10418021139395
1268,1686879743.52,-53.711,280.273,-50.781,-91.309,971.428,407.79039106244153
1269,1686879743.52,-60.059,-368.652,-59.082,-80.566,971.432,409.2075282527033
1270,1686879743.53,-15.625,-321.777,27.344,13.672,971.436,402.7848986530595
1271,1686879743.53,3.418,363.77,-2.93,16.602,971.44,415.2174508130972
1272,1686879743.55,-34.668,250.488,-64.453,-71.289,971.442,409.91933020659917
1273,1686879743.55,-64.941,-139.648,-48.34,-94.238,971.446,413.831647959753
1274,1686879743.55,-31.25,-26.367,-2.93,-15.625,971.45,415.69904178050757
1275,1686879743.56,0.977,291.016,-28.32,37.598,971.453,409.5056336799739
1276,1686879743.56,-24.414,19.043,-78.613,-23.438,971.457,411.6655244767071
1277,1686879743.57,-56.641,-684.57,-52.246,-74.219,971.461,404.5241368772716
1278,1686879743.57,-37.109,-693.848,33.691,-10.254,971.465,397.42610012398336
1279,1686879743.57,-5.371,-158.203,16.113,47.852,971.469,404.2586765864834
1280,1686879743.58,-11.23,-124.023,-55.176,-21.484,971.473,406.87312888113036
1281,1686879743.58,-41.992,-699.219,-40.527,-101.562,971.477,405.0242038388047
1282,1686879743.58,-41.016,-497.559,40.527,-63.477,971.481,410.03499784386406
1283,1686879743.59,-3.418,290.527,9.277,25.879,971.485,410.28515038936257
1284,1686879743.59,-6.836,87.891,-45.898,20.02,971.488,405.0198880308075
1285,1686879743.6,-42.969,-94.727,-45.898,-56.152,971.492,406.96515313799847
1286,1686879743.6,-47.852,136.23,-17.578,-71.289,971.496,409.1506456680169
1287,1686879743.6,-22.949,286.621,-26.855,10.742,971.5,407.51456494856245
1288,1686879743.61,-6.836,10.254,-33.203,31.738,971.504,422.0201439360729
1289,1686879743.61,-24.902,-410.645,-12.207,-53.711,971.508,404.7969910148945
1290,1686879743.61,-33.691,-246.094,-11.719,-88.867,971.512,406.0176600972972
1291,1686879743.62,-10.742,223.633,-15.625,-19.531,971.516,411.3340859498594
1292,1686879743.62,7.324,-258.301,-57.617,36.621,971.519,404.3538266901284
1293,1686879743.63,-7.812,-733.398,-41.504,-21.484,971.523,411.6587615409986
1294,1686879743.63,-35.645,-251.953,-13.672,-83.984,971.527,403.5799566151925
1295,1686879743.63,-30.273,-10.742,-42.969,-36.621,971.531,407.4992933270444
