,timestamps,TP9,AF7,AF8,TP10,Secondary Timestamp,emg_signal
0,1686274397.09,-49.805,22.949,1.953,-53.711,1102.989,347.2567892523151
1,1686274397.1,-18.555,-115.723,12.207,26.367,1102.993,353.28084922678306
2,1686274397.1,20.996,248.535,130.371,24.902,1102.996,339.6667623688129
3,1686274397.1,-11.23,426.27,165.039,-62.988,1103.0,347.48437147481144
4,1686274397.11,-73.73,141.113,24.414,-98.145,1103.004,350.4221302350399
5,1686274397.11,-62.988,-218.262,-83.008,-9.277,1103.008,362.59699200628927
6,1686274397.12,7.812,-3.418,68.359,50.781,1103.012,350.5865140215255
7,1686274397.12,16.113,429.688,192.871,-14.16,1103.016,351.7339446047468
8,1686274397.12,-48.828,34.668,-74.219,-78.613,1103.02,348.88259681774787
9,1686274397.13,-63.965,-574.219,-216.309,-30.762,1103.024,350.15687624226183
10,1686274397.13,6.836,119.629,147.461,37.109,1103.028,355.44835400744614
11,1686274397.14,32.227,504.883,157.715,-0.977,1103.032,350.92180951157104
12,1686274397.14,-36.621,-116.211,-44.922,-71.289,1103.034,352.18217276263505
13,1686274397.14,-74.707,-169.922,17.09,-62.988,1103.037,345.0901298279152
14,1686274397.15,-11.719,346.191,170.41,7.324,1103.041,349.47749500564635
15,1686274397.15,35.156,377.93,159.668,9.766,1103.045,355.9735585614152
16,1686274397.15,-27.344,-35.156,-16.602,-73.242,1103.049,362.7273400347556
17,1686274397.16,-79.59,-298.828,-96.191,-82.52,1103.053,352.88330713546037
18,1686274397.16,-39.062,-199.707,-0.488,-5.859,1103.057,352.5925121278005
19,1686274397.16,21.973,-44.922,63.965,24.902,1103.061,355.99367143593054
20,1686274397.17,-3.418,-498.047,-178.711,-30.762,1103.065,361.3201837279429
21,1686274397.17,-74.707,-839.844,-316.406,-74.707,1103.069,355.04108484030866
22,1686274397.18,-57.129,74.707,108.398,-36.133,1103.073,366.3881448880013
23,1686274397.18,22.949,358.887,137.207,26.855,1103.077,346.5807907914731
24,1686274397.18,22.949,94.238,46.387,-15.625,1103.078,344.28776747277243
25,1686274397.19,-38.086,238.281,135.254,-89.844,1103.082,355.7022878850469
26,1686274397.19,-54.199,357.91,144.043,-67.871,1103.086,345.3967303792809
27,1686274397.2,4.395,48.34,3.906,20.508,1103.09,347.3998850077821
28,1686274397.2,39.551,-244.141,-41.016,15.625,1103.094,359.6466213828466
29,1686274397.2,-28.32,-195.801,1.953,-73.242,1103.098,358.5617019291228
30,1686274397.21,-75.195,56.641,80.566,-80.566,1103.102,363.5725679234188
31,1686274397.21,-24.902,-32.715,-17.578,10.742,1103.106,356.5919188892503
32,1686274397.21,25.879,-505.859,-122.07,42.48,1103.11,343.9587739272659
33,1686274397.22,-12.207,48.34,145.02,-59.082,1103.114,332.6053852480654
34,1686274397.22,-70.801,412.109,143.555,-100.098,1103.117,360.3397947598831
35,1686274397.23,-37.109,82.031,49.316,-6.836,1103.121,356.88722791869645
36,1686274397.23,36.621,102.051,85.938,44.434,1103.123,358.7428005443134
37,1686274397.23,22.949,353.027,161.621,-40.039,1103.127,359.1554660324174
38,1686274397.24,-35.156,261.719,111.816,-89.844,1103.131,362.38984089574444
39,1686274397.24,-35.156,62.5,24.414,-35.645,1103.135,348.0584341182981
40,1686274397.24,29.785,135.254,78.613,26.855,1103.139,346.0846393876988
41,1686274397.25,32.227,37.109,55.176,-7.324,1103.143,352.4676580783356
42,1686274397.25,-42.969,-93.262,26.855,-89.844,1103.147,357.26641782977947
43,1686274397.26,-75.684,-512.207,-187.012,-52.734,1103.151,357.20182292303633
44,1686274397.26,-20.02,-1000.0,-378.418,40.527,1103.155,354.65762815216874
45,1686274397.26,20.02,-226.562,38.086,-8.301,1103.159,355.0018615515888
46,1686274397.27,-26.367,251.953,97.168,-103.027,1103.162,359.1049824824655
47,1686274397.27,-77.637,-1.465,16.113,-104.492,1103.166,353.9565380573337
48,1686274397.27,-34.668,256.836,145.508,-26.367,1103.169,348.2663322423398
49,1686274397.28,26.367,512.207,184.082,-2.93,1103.173,352.87787976391706
50,1686274397.28,-10.742,197.266,36.133,-74.707,1103.177,346.46078398488856
51,1686274397.28,-75.195,-42.48,-20.508,-101.074,1103.18,352.4162971999979
52,1686274397.29,-49.316,210.449,112.793,-37.598,1103.184,350.9340877083811
53,1686274397.29,19.043,129.883,106.934,13.672,1103.188,344.76654703173557
54,1686274397.3,7.324,-254.883,-99.609,-31.25,1103.192,344.46028719519063
55,1686274397.3,-59.57,-623.535,-258.789,-83.008,1103.196,340.1131846534674
56,1686274397.3,-68.848,-287.598,-4.883,-46.875,1103.2,352.29952896986646
57,1686274397.31,6.348,271.484,157.715,19.043,1103.204,359.6385610096081
58,1686274397.31,25.879,-14.648,-43.945,-5.371,1103.208,356.82379166936823
59,1686274397.32,-44.922,-283.203,-97.168,-83.008,1103.212,366.277900560338
60,1686274397.32,-70.801,236.328,165.527,-71.289,1103.213,359.324705035952
61,1686274397.32,-0.488,384.277,151.367,15.625,1103.217,358.94985132319397
62,1686274397.32,33.691,-22.949,24.902,16.113,1103.221,343.4612972636384
63,1686274397.33,-28.32,-96.68,49.805,-77.148,1103.225,345.64409362538413
64,1686274397.33,-76.172,233.398,113.281,-90.332,1103.229,352.1830011953865
65,1686274397.34,-34.18,95.215,77.148,-0.977,1103.233,357.41776110307376
66,1686274397.34,21.484,-541.016,-200.195,40.527,1103.237,345.6029729836442
67,1686274397.34,-5.371,-767.578,-234.863,-22.461,1103.241,347.94861394940216
68,1686274397.35,-50.781,89.844,156.738,-90.82,1103.245,349.68878521083093
69,1686274397.35,-32.715,340.332,113.77,-36.133,1103.249,349.4114203592308
70,1686274397.36,38.574,-152.344,-75.195,36.621,1103.252,343.075929516193
71,1686274397.36,38.574,-128.418,19.043,-11.23,1103.256,346.72662419972505
72,1686274397.36,-33.691,352.539,183.105,-92.285,1103.273,356.56723235105613
73,1686274397.37,-41.016,238.77,62.988,-55.664,1103.276,349.5534504482497
74,1686274397.37,32.715,-113.281,-1.465,32.227,1103.28,350.26310224005846
75,1686274397.37,53.223,145.508,113.281,4.395,1103.284,344.99332940048197
76,1686274397.38,-16.602,377.93,152.832,-86.914,1103.288,346.01426953653834
77,1686274397.38,-64.941,-120.117,-51.27,-65.43,1103.292,348.16761253382555
78,1686274397.39,-9.277,-614.258,-182.129,32.227,1103.296,356.0285210292518
79,1686274397.39,41.992,-23.438,88.379,17.578,1103.3,348.35603019204933
80,1686274397.39,-7.324,438.477,169.922,-78.613,1103.304,343.6770919859494
81,1686274397.4,-65.918,82.031,13.184,-94.727,1103.308,355.04791997755615
82,1686274397.4,-37.598,35.645,27.832,-5.859,1103.312,338.1220828817568
83,1686274397.4,35.645,370.117,156.25,37.109,1103.316,347.23028468138915
84,1686274397.41,20.508,372.07,101.562,-27.344,1103.318,345.4309272121649
85,1686274397.41,-54.688,-160.156,-47.363,-72.754,1103.321,342.5488886784571
86,1686274397.42,-50.293,-191.406,22.461,-28.32,1103.325,354.1116959403054
87,1686274397.42,28.32,353.027,179.199,26.855,1103.329,349.04491097234785
88,1686274397.42,30.762,368.164,146.484,-16.602,1103.333,362.455324621543
89,1686274397.43,-41.504,-351.562,-146.484,-66.895,1103.337,361.624257048158
90,1686274397.43,-57.129,-608.398,-181.641,-29.297,1103.341,355.50717912811774
91,1686274397.44,6.836,-145.02,58.105,37.109,1103.345,357.11770699302065
92,1686274397.44,34.668,211.426,115.723,18.066,1103.349,346.90868436865327
93,1686274397.44,-34.18,-414.551,-194.824,-69.824,1103.353,341.69220278860126
94,1686274397.45,-81.055,-703.125,-206.543,-78.125,1103.357,345.02550394205133
95,1686274397.45,-25.879,263.184,199.707,-6.836,1103.361,351.6430368400101
96,1686274397.47,21.484,300.781,123.535,15.137,1103.364,347.6643011506934
97,1686274397.47,-20.996,58.105,42.969,-67.383,1103.368,353.53638425806537
98,1686274397.48,-67.383,230.957,118.164,-84.473,1103.372,347.00296513098414
99,1686274397.48,-39.551,347.168,162.109,3.418,1103.376,351.15707440107826
100,1686274397.48,17.578,50.293,33.691,46.875,1103.38,349.84085852541983
101,1686274397.49,-1.953,-532.715,-170.41,-8.301,1103.384,347.42606971283493
102,1686274397.49,-64.941,-309.082,-7.812,-70.312,1103.388,346.1990304341562
103,1686274397.5,-49.805,340.82,196.777,-28.32,1103.391,353.37454204071247
104,1686274397.5,20.508,-0.488,-47.852,54.688,1103.395,361.8056111663966
105,1686274397.5,24.414,-476.562,-150.391,11.719,1103.399,342.9910741599476
106,1686274397.51,-37.598,124.512,159.18,-84.961,1103.403,350.09160483753493
107,1686274397.51,-54.688,355.957,127.93,-53.223,1103.407,346.62425025039465
108,1686274397.51,2.93,23.926,57.617,33.691,1103.408,359.38798498081013
109,1686274397.52,29.297,87.402,113.77,26.855,1103.412,364.6137753769757
110,1686274397.52,-28.809,333.984,150.879,-62.988,1103.416,346.7482887575088
111,1686274397.52,-71.777,267.09,111.816,-67.871,1103.42,349.24853870353496
112,1686274397.53,-26.855,40.039,0.488,16.113,1103.424,355.92818390512906
113,1686274397.53,20.02,-173.34,-36.133,36.133,1103.428,352.2602336158579
114,1686274397.54,-8.301,-229.004,-27.344,-40.527,1103.432,360.079653826687
115,1686274397.54,-61.523,-139.648,-22.461,-90.332,1103.436,350.70813564830473
116,1686274397.54,-47.363,-563.965,-219.727,-12.695,1103.44,358.54258662322997
117,1686274397.55,16.602,-1000.0,-326.172,51.27,1103.443,353.9737187634416
118,1686274397.55,9.277,-242.676,41.016,-31.25,1103.447,345.9296104211045
119,1686274397.56,-62.988,195.801,64.941,-103.027,1103.451,354.67970024487283
120,1686274397.56,-71.777,36.621,24.414,-52.246,1103.454,345.7938970295581
121,1686274397.56,3.418,307.129,172.363,16.602,1103.458,351.8987595390199
122,1686274397.57,23.438,494.141,200.195,-22.461,1103.462,351.28287626278245
123,1686274397.57,-39.551,172.852,20.996,-103.027,1103.465,354.97879661221754
124,1686274397.57,-74.707,-60.547,-72.266,-87.402,1103.469,350.8608563449404
125,1686274397.58,-15.625,-5.859,36.133,4.395,1103.473,351.49360194421035
126,1686274397.58,31.738,175.293,150.391,5.371,1103.477,343.0644319637772
127,1686274397.58,-22.461,51.27,-12.207,-82.52,1103.481,348.07618808238306
128,1686274397.59,-82.031,-588.867,-253.418,-92.285,1103.485,351.8613631653649
129,1686274397.59,-43.945,-259.766,36.621,-15.625,1103.489,345.21508595772116
130,1686274397.6,34.668,349.121,187.012,25.879,1103.493,349.99653716235093
131,1686274397.6,25.879,-12.695,-6.348,-14.648,1103.497,342.03973046570474
132,1686274397.6,-59.082,-225.098,-30.273,-71.289,1103.498,354.1551273370766
133,1686274397.61,-71.289,272.949,158.203,-46.387,1103.502,358.30538060315337
134,1686274397.61,0.0,360.352,151.855,12.207,1103.506,349.47291086886753
135,1686274397.62,7.812,64.941,50.781,-13.672,1103.51,335.07277813061614
136,1686274397.62,-58.105,-20.02,9.766,-78.613,1103.514,345.2088239838078
137,1686274397.62,-74.707,-34.18,30.762,-44.434,1103.518,358.02544446658897
138,1686274397.63,-6.348,-20.508,116.699,47.852,1103.522,346.5883673905437
139,1686274397.63,19.043,-452.148,-131.836,41.504,1103.526,360.8617114933535
140,1686274397.63,-40.039,-858.398,-291.992,-43.457,1103.53,344.857404070686
141,1686274397.64,-73.242,47.363,119.141,-62.5,1103.533,361.3406719972895
142,1686274397.64,-13.672,380.371,132.812,38.086,1103.537,372.3603092101876
143,1686274397.65,41.016,64.453,28.32,75.684,1103.541,358.337311021256
144,1686274397.65,0.0,80.078,103.516,-14.648,1103.545,347.1502144983944
145,1686274397.65,-60.059,347.656,169.922,-55.664,1103.549,346.4148080833431
146,1686274397.66,-35.645,241.211,78.613,37.598,1103.553,347.81814939100155
147,1686274397.66,24.414,-159.668,-5.859,88.867,1103.557,351.61600160979214
148,1686274397.66,0.977,74.219,100.586,10.254,1103.561,337.7766033197652
149,1686274397.67,-65.43,87.891,52.734,-51.27,1103.565,364.7139707751829
150,1686274397.67,-54.199,-316.406,-100.098,6.836,1103.569,354.8268637909444
151,1686274397.68,9.277,-562.988,-163.574,80.566,1103.572,354.1602643518546
152,1686274397.68,9.766,-42.969,65.43,25.879,1103.576,362.23121325118814
153,1686274397.68,-55.664,377.441,162.109,-58.594,1103.58,346.3480593395842
154,1686274397.69,-83.984,63.477,55.664,-28.809,1103.584,366.0172186444064
155,1686274397.69,-13.184,62.988,71.777,50.293,1103.588,354.02901394588616
156,1686274397.69,24.902,402.832,169.434,37.598,1103.617,346.6345725073852
157,1686274397.7,-38.086,345.215,115.234,-45.898,1103.621,353.8857428765915
158,1686274397.7,-75.684,-150.879,-23.438,-39.551,1103.625,354.1069197905098
159,1686274397.7,-19.531,-69.824,77.637,48.828,1103.629,362.9745955554645
160,1686274397.71,48.34,290.527,139.648,67.871,1103.633,354.4753701343101
161,1686274397.71,12.207,59.082,68.848,-10.742,1103.637,351.3788507213967
162,1686274397.72,-57.129,-551.758,-227.539,-41.992,1103.64,349.9553861714467
163,1686274397.72,-36.133,-966.309,-353.516,44.922,1103.644,348.7928245447146
164,1686274397.72,43.457,-64.941,127.93,69.824,1103.648,353.45682189607635
165,1686274397.73,42.48,421.875,138.184,-5.859,1103.652,341.43338070025084
166,1686274397.73,-36.133,118.164,57.129,-69.824,1103.656,346.90921424347806
167,1686274397.74,-43.457,208.496,154.785,-36.133,1103.66,350.7830507363198
168,1686274397.74,29.785,446.289,191.406,37.598,1103.648,361.628141178107
169,1686274397.74,41.504,313.477,104.004,16.113,1103.652,354.1230608452263
170,1686274397.75,-25.391,54.688,31.738,-64.453,1103.656,345.9299124720778
171,1686274397.75,-45.898,233.398,125.0,-48.34,1103.66,358.26947473517856
172,1686274397.75,8.789,369.141,156.25,36.133,1103.664,348.8479315868396
173,1686274397.76,29.297,2.93,10.254,42.48,1103.668,361.51787286443295
174,1686274397.76,-29.785,-674.805,-220.703,-19.531,1103.672,345.35044358810353
175,1686274397.76,-65.918,-325.195,-1.465,-58.594,1103.675,358.06819113324275
176,1686274397.77,-13.672,416.016,217.285,3.418,1103.679,344.7391137637631
177,1686274397.77,37.598,30.273,-40.039,51.27,1103.683,342.7312056017286
178,1686274397.78,-0.488,-157.227,-83.496,-23.438,1103.687,343.8271585288584
179,1686274397.78,-58.594,276.367,150.391,-78.613,1103.691,352.004687316544
180,1686274397.8,-31.25,383.789,167.969,-18.555,1103.694,350.04598621827455
181,1686274397.8,33.203,-104.492,-23.438,50.293,1103.698,345.5046717832411
182,1686274397.81,19.043,-290.039,-81.055,-0.488,1103.702,352.04590085231536
183,1686274397.81,-47.852,246.094,166.016,-86.914,1103.706,348.05340914780345
184,1686274397.81,-51.758,250.0,110.84,-45.898,1103.71,341.73665014189316
185,1686274397.82,13.672,-100.098,-20.996,43.457,1103.713,360.14147823680673
186,1686274397.82,31.738,-302.734,-35.645,22.461,1103.717,345.7080905193007
187,1686274397.82,-26.855,-270.508,-18.555,-63.965,1103.721,347.73794154745667
188,1686274397.83,-56.152,-101.562,48.34,-65.918,1103.725,341.7759243128701
189,1686274397.83,-10.254,-510.254,-185.059,24.414,1103.729,348.7910321801574
190,1686274397.84,26.855,-933.594,-295.898,42.969,1103.733,347.51111511768164
191,1686274397.84,-16.113,-107.422,70.801,-62.5,1103.737,346.9146932831165
192,1686274397.84,-75.195,194.336,49.316,-89.355,1103.739,353.53223538954245
193,1686274397.85,-41.504,59.57,42.48,0.0,1103.743,357.89029801647763
194,1686274397.85,25.391,349.609,174.805,35.156,1103.747,342.6236336465124
195,1686274397.85,1.953,468.262,165.039,-32.715,1103.75,352.75066952382497
196,1686274397.86,-67.383,137.207,17.578,-75.195,1103.754,346.28035236230346
197,1686274397.86,-52.246,-229.98,-60.547,-15.625,1103.758,364.57056703659316
198,1686274397.87,28.32,-71.289,86.426,46.387,1103.762,358.5893372687694
199,1686274397.87,25.391,340.82,186.523,-11.719,1103.766,359.13855693845665
200,1686274397.87,-49.805,64.941,-38.574,-81.543,1103.77,350.44421300873114
201,1686274397.88,-62.988,-664.551,-264.648,-28.809,1103.774,354.42379266261327
202,1686274397.88,3.418,-269.531,51.758,42.969,1103.778,359.3384339576271
203,1686274397.88,34.18,398.438,229.98,9.277,1103.782,345.38982319156725
204,1686274397.89,-19.531,-69.824,-32.715,-69.824,1103.784,367.3052797056662
205,1686274397.89,-55.664,-290.039,-88.379,-64.941,1103.788,352.10159832554643
206,1686274397.9,-1.465,305.664,175.781,17.09,1103.791,345.58669052811297
207,1686274397.9,47.363,398.438,174.805,39.062,1103.795,351.7271300802979
208,1686274397.9,12.695,101.074,28.809,-42.969,1103.799,350.94266602544144
209,1686274397.91,-46.875,-164.551,-30.762,-78.125,1103.803,355.58633854941144
210,1686274397.91,-31.738,-132.812,26.367,-4.883,1103.807,362.7242971500277
211,1686274397.91,23.438,44.922,88.379,40.527,1103.811,361.55254336403806
212,1686274397.92,4.395,-440.43,-153.32,-7.812,1103.815,362.89973410784313
213,1686274397.92,-68.848,-846.191,-257.812,-68.359,1103.819,357.71855642072455
214,1686274397.93,-64.453,97.168,140.137,-42.969,1103.823,357.16787481696133
215,1686274397.93,14.648,417.969,168.457,39.062,1103.827,367.3559378169048
216,1686274397.93,21.484,-81.543,27.344,4.395,1103.83,357.60499942492186
217,1686274397.94,-40.527,-21.973,55.664,-82.031,1103.834,360.26188439052066
218,1686274397.94,-63.477,376.465,171.875,-54.688,1103.838,361.438777587915
219,1686274397.94,-7.324,249.023,80.566,37.598,1103.842,373.2262497843122
220,1686274397.95,23.438,-175.293,-37.109,30.273,1103.846,357.9343612744803
221,1686274397.95,-41.016,-156.25,45.898,-71.777,1103.85,356.9900063481782
222,1686274397.96,-80.566,-11.719,85.938,-88.379,1103.853,354.77481279953355
223,1686274397.96,-27.832,-156.25,-54.688,5.371,1103.857,345.34211089742354
224,1686274397.96,25.391,-451.66,-119.629,43.945,1103.861,353.65418941595385
225,1686274397.97,-2.441,16.113,110.352,-49.805,1103.865,361.38412584288295
226,1686274397.97,-62.012,386.23,166.504,-105.469,1103.869,359.09535714973924
227,1686274397.98,-40.527,124.512,80.566,-23.438,1103.873,363.8143680527903
228,1686274397.98,22.461,173.34,100.586,34.18,1103.874,352.4970667707495
229,1686274397.98,11.23,437.988,170.898,-29.297,1103.877,376.10294137362945
230,1686274397.98,-45.41,301.27,112.793,-95.215,1103.881,356.0544934302063
231,1686274397.99,-50.293,-68.359,38.574,-41.504,1103.885,359.457914183673
232,1686274397.99,15.625,44.434,116.699,36.621,1103.889,371.9426774698341
233,1686274398.0,25.879,93.262,85.938,-2.93,1103.893,370.01166242169154
234,1686274398.0,-42.969,-87.891,12.695,-90.82,1103.897,365.6279398167335
235,1686274398.0,-78.613,-592.773,-199.219,-70.801,1103.901,365.9183225907113
236,1686274398.01,-24.902,-770.02,-165.527,20.02,1103.905,374.2316018229766
237,1686274398.01,37.109,190.43,220.703,10.742,1103.909,360.8852150323395
238,1686274398.02,-4.883,423.34,125.488,-74.219,1103.913,361.3808735093736
239,1686274398.02,-70.312,-288.086,-76.66,-93.262,1103.917,360.6597603118194
240,1686274398.02,-34.668,-157.715,76.172,-13.184,1103.918,358.0334404333285
241,1686274398.03,35.645,547.852,239.746,28.809,1103.922,368.10840259033245
242,1686274398.03,3.906,312.988,94.238,-41.504,1103.926,368.42806334126243
243,1686274398.03,-68.848,-15.625,29.785,-90.82,1103.93,370.61979488319986
244,1686274398.04,-49.316,231.445,143.066,-28.809,1103.934,372.0708828552345
245,1686274398.04,26.367,202.148,144.043,44.434,1103.938,360.91167549492536
246,1686274398.05,20.508,-113.281,2.93,1.953,1103.942,369.4240442920668
247,1686274398.05,-55.176,-778.32,-288.086,-57.129,1103.946,360.33321381723414
248,1686274398.05,-70.801,-389.648,-28.809,-28.809,1103.95,371.3089454469031
249,1686274398.06,3.906,459.473,225.586,33.203,1103.954,371.5945131059129
250,1686274398.06,35.645,181.152,55.176,19.043,1103.958,368.61950122314414
251,1686274398.06,-21.484,77.148,61.523,-71.289,1103.961,369.83978381367064
252,1686274398.07,-69.824,337.891,164.551,-89.844,1103.977,373.4852945128153
253,1686274398.07,-20.996,394.531,173.828,0.488,1103.981,366.75417302345204
254,1686274398.08,20.996,137.207,87.402,23.926,1103.985,362.31248665963295
255,1686274398.08,-29.297,89.844,84.961,-64.941,1103.989,364.6778389720776
256,1686274398.08,-77.148,259.766,119.629,-91.797,1103.993,379.40870041457447
257,1686274398.09,-39.551,77.148,64.941,-8.301,1103.996,365.01794101395285
258,1686274398.09,20.508,-567.383,-202.148,51.758,1104.0,376.36979764176834
259,1686274398.09,-4.883,-756.836,-279.785,-14.16,1104.004,369.7973601588932
260,1686274398.1,-71.289,-147.461,28.32,-92.773,1104.008,361.7385702531232
261,1686274398.1,-65.43,95.215,42.969,-33.691,1104.012,367.9313479778215
262,1686274398.11,4.395,-222.168,-46.387,51.27,1104.016,363.3562653018683
263,1686274398.11,9.277,-113.77,79.59,6.348,1104.02,351.2079744110556
264,1686274398.11,-46.387,388.184,159.18,-86.914,1104.023,362.1731959707673
265,1686274398.12,-55.176,188.477,60.547,-53.711,1104.027,366.63082510577135
266,1686274398.12,10.742,78.613,86.426,46.387,1104.031,367.2392589721169
267,1686274398.12,41.016,336.426,174.316,30.273,1104.035,372.23081202262495
268,1686274398.13,-18.555,408.691,155.762,-75.684,1104.039,364.8919271546364
269,1686274398.13,-69.824,-93.262,-31.25,-71.777,1104.043,375.8231849274507
270,1686274398.14,-25.879,-597.656,-180.176,33.691,1104.047,358.41029966372224
271,1686274398.14,30.273,-40.527,78.613,41.504,1104.051,365.2510892451451
272,1686274398.14,-6.836,433.105,197.266,-59.082,1104.055,369.1381136456958
273,1686274398.15,-63.965,39.062,-17.09,-89.844,1104.059,375.7979414362842
274,1686274398.15,-41.992,-143.555,-47.363,-7.324,1104.062,370.42688474277975
275,1686274398.16,21.484,75.195,106.934,44.434,1104.066,372.81957340035507
276,1686274398.16,14.648,318.848,164.062,-12.207,1104.068,372.7148302132243
277,1686274398.16,-56.641,-125.488,-42.48,-70.801,1104.072,364.0638507195227
278,1686274398.17,-69.336,-337.891,-74.707,-27.344,1104.076,359.83015724981396
279,1686274398.17,9.766,313.965,162.109,40.039,1104.079,364.580646804033
280,1686274398.17,35.645,362.793,110.84,-0.977,1104.083,357.3444204742787
281,1686274398.18,-37.598,-138.184,-63.965,-85.449,1104.087,372.9948836765956
282,1686274398.18,-64.941,-385.254,-64.941,-67.383,1104.091,359.29371848775673
283,1686274398.18,0.977,-158.691,58.594,28.32,1104.095,353.6854009848707
284,1686274398.19,34.668,164.551,136.23,26.367,1104.099,365.45485060836467
285,1686274398.19,-23.438,-447.754,-198.242,-49.805,1104.103,373.63168274844327
286,1686274398.2,-80.566,-748.535,-226.074,-68.359,1104.107,358.64979490142855
287,1686274398.2,-34.668,212.402,203.125,-14.648,1104.111,367.9481984597247
288,1686274398.22,30.273,312.5,104.98,30.273,1104.115,357.21113768268975
289,1686274398.22,-5.371,-126.465,-20.996,-36.621,1104.119,361.61836191138474
290,1686274398.23,-65.43,-81.055,47.852,-87.891,1104.123,362.3960359501203
291,1686274398.23,-41.992,326.172,189.453,-26.855,1104.127,365.6170012390542
292,1686274398.23,31.25,232.422,89.844,41.504,1104.131,363.4631216919767
293,1686274398.24,17.578,-521.973,-175.293,-6.348,1104.134,356.67174972157096
294,1686274398.24,-58.105,-376.465,-2.93,-91.309,1104.138,361.2081390592724
295,1686274398.24,-67.383,374.512,212.402,-60.547,1104.142,349.8926952701254
296,1686274398.25,-5.371,56.152,-37.109,24.902,1104.146,364.7597009836807
297,1686274398.25,13.672,-430.664,-140.625,6.836,1104.15,358.7557765721752
298,1686274398.26,-38.574,85.449,128.418,-86.914,1104.154,353.98636445518497
299,1686274398.26,-66.406,331.055,125.488,-75.684,1104.158,365.51964410922034
300,1686274398.26,-10.742,79.102,73.242,22.461,1104.158,368.9175248089104
301,1686274398.27,33.691,101.562,111.328,35.156,1104.162,361.1770651032875
302,1686274398.27,-15.137,312.988,138.672,-62.012,1104.166,355.45224293263885
303,1686274398.27,-72.754,237.305,90.82,-95.215,1104.17,361.72617624919695
304,1686274398.28,-46.875,-131.348,-17.578,-1.465,1104.174,362.35727692358785
305,1686274398.28,14.16,-252.93,-10.742,47.852,1104.178,364.46116066347435
306,1686274398.29,-3.418,-152.832,17.09,-36.621,1104.182,355.3519552146134
307,1686274398.29,-74.219,-109.863,12.695,-101.074,1104.186,352.51324489163034
308,1686274398.29,-68.848,-541.992,-200.195,-19.531,1104.19,360.2000942308134
309,1686274398.3,-0.488,-952.148,-270.508,58.594,1104.194,358.6335573505968
310,1686274398.3,3.906,-52.246,105.957,-10.742,1104.197,363.2299319487283
311,1686274398.3,-62.988,297.363,87.402,-88.867,1104.201,362.9552925874753
312,1686274398.31,-81.543,34.18,42.969,-61.035,1104.204,359.8621078210281
313,1686274398.31,-8.789,272.949,162.109,13.184,1104.208,367.19452776982376
314,1686274398.32,26.367,494.141,198.73,5.371,1104.212,357.95699107776625
315,1686274398.32,-31.738,270.02,81.055,-77.148,1104.216,356.8087311431699
316,1686274398.32,-74.219,-5.859,-8.301,-83.008,1104.219,359.56644910240186
317,1686274398.33,-22.949,-60.059,29.785,7.324,1104.223,360.2036938729869
318,1686274398.33,29.785,-66.406,62.988,39.551,1104.227,362.43245597035457
319,1686274398.34,-14.16,-166.016,-57.617,-41.992,1104.231,350.32103444093656
320,1686274398.34,-88.379,-791.992,-312.988,-70.312,1104.235,355.5839890956978
321,1686274398.34,-58.105,-324.219,30.273,-9.277,1104.239,356.545443635035
322,1686274398.35,16.113,488.281,227.051,30.273,1104.243,359.56640123020554
323,1686274398.35,-1.465,104.98,14.16,-28.809,1104.247,355.80758527664506
324,1686274398.35,-68.359,-46.875,41.504,-94.727,1104.248,359.98997354853327
325,1686274398.36,-61.035,361.816,194.336,-51.27,1104.252,366.69364966395204
326,1686274398.36,20.02,451.172,181.152,19.043,1104.256,360.1844387823928
327,1686274398.36,24.902,147.461,90.82,-9.277,1104.26,350.1910894392639
328,1686274398.37,-39.062,115.723,93.75,-83.008,1104.264,353.90068252813927
329,1686274398.37,-54.199,95.215,73.73,-52.734,1104.268,360.4530495200346
330,1686274398.38,4.883,20.996,103.516,37.598,1104.272,355.9438960570341
331,1686274398.38,33.691,-454.59,-131.836,38.086,1104.276,363.494552214132
332,1686274398.38,-30.762,-865.234,-276.855,-57.129,1104.28,346.50991968940116
333,1686274398.39,-72.266,-235.352,46.387,-87.402,1104.284,357.92088692789844
334,1686274398.39,-19.531,146.973,88.379,-2.441,1104.288,348.0907348998151
335,1686274398.4,37.598,2.441,26.855,26.367,1104.291,355.1784236901572
336,1686274398.4,1.465,98.633,99.121,-53.711,1104.298,356.18468543278124
337,1686274398.4,-58.594,401.855,169.434,-99.121,1104.302,357.23370858331265
338,1686274398.4,-39.551,217.773,89.355,-29.297,1104.306,348.78812115371153
339,1686274398.41,34.18,149.414,107.422,43.457,1104.309,350.94779658442917
340,1686274398.41,34.668,326.66,128.418,-7.812,1104.313,364.4472349038294
341,1686274398.42,-47.363,86.914,43.945,-82.52,1104.317,347.66788223706027
342,1686274398.42,-66.895,-290.039,-49.805,-37.598,1104.321,359.9094998765534
343,1686274398.42,5.859,-540.527,-104.98,36.133,1104.325,351.1451481622187
344,1686274398.43,35.156,15.625,150.879,1.465,1104.329,351.01915868745346
345,1686274398.43,-29.785,466.309,206.055,-82.031,1104.333,353.95922576016716
346,1686274398.44,-62.988,180.664,65.918,-69.336,1104.337,348.10004735696344
347,1686274398.44,-9.277,-3.418,20.508,22.949,1104.341,352.6521186539813
348,1686274398.44,20.508,111.816,104.004,19.531,1104.342,366.1181585702992
349,1686274398.45,-27.832,328.125,152.832,-73.73,1104.346,357.23237085799815
350,1686274398.45,-78.125,-174.805,-68.848,-78.125,1104.35,364.0213819725298
351,1686274398.46,-31.738,-279.785,-15.137,2.441,1104.354,349.2228408676354
352,1686274398.46,41.992,271.484,168.945,26.855,1104.357,358.9945705076297
353,1686274398.46,13.184,150.879,109.375,-47.363,1104.361,352.61641070384957
354,1686274398.47,-56.152,-552.734,-185.547,-76.172,1104.365,351.9422408700647
355,1686274398.47,-46.387,-765.625,-227.539,-6.348,1104.369,359.34346095098687
356,1686274398.47,28.32,152.344,181.641,29.297,1104.373,340.86028471813205
357,1686274398.48,26.855,345.703,118.652,-18.066,1104.377,360.2858894167258
358,1686274398.48,-51.758,18.066,36.133,-83.496,1104.381,362.62430984949566
359,1686274398.49,-66.406,170.41,156.738,-50.293,1104.385,366.1038679931082
360,1686274398.49,2.441,469.238,216.797,36.621,1104.398,356.208408025348
361,1686274398.49,34.18,296.875,121.582,16.113,1104.402,351.3356161286766
362,1686274398.5,-28.32,-196.777,-12.207,-69.824,1104.406,363.9469530463844
363,1686274398.5,-65.43,-21.484,94.727,-64.453,1104.41,352.31700649021434
364,1686274398.5,-7.324,373.535,207.031,15.625,1104.414,346.986494425343
365,1686274398.51,33.203,81.543,51.27,40.039,1104.418,352.6235661228153
366,1686274398.51,-20.996,-777.832,-307.129,-20.02,1104.422,349.65927552138913
367,1686274398.51,-74.219,-478.516,-84.473,-70.312,1104.426,346.01515283474026
368,1686274398.52,-28.32,429.199,242.676,-3.906,1104.429,342.5240388719907
369,1686274398.52,36.133,232.422,68.848,55.664,1104.433,357.67538536163903
370,1686274398.53,12.207,84.961,66.406,-16.602,1104.437,343.6752016649803
371,1686274398.53,-50.293,306.641,166.016,-80.566,1104.441,349.444952159764
372,1686274398.55,-39.062,329.59,129.883,-28.809,1104.444,345.6642014450555
373,1686274398.55,31.25,124.023,103.027,39.062,1104.448,336.3679136704298
374,1686274398.56,30.273,125.977,127.441,-8.301,1104.452,329.1753521502412
375,1686274398.56,-39.551,307.129,160.645,-89.844,1104.456,330.1651376195645
376,1686274398.56,-55.664,246.582,134.766,-60.547,1104.459,336.35841293220733
377,1686274398.57,8.301,-105.469,3.906,39.551,1104.463,325.87647229343014
378,1686274398.57,36.621,-287.109,-34.668,29.785,1104.467,334.1303809972127
379,1686274398.58,-17.09,-213.867,-0.977,-63.477,1104.471,331.7891345387109
380,1686274398.58,-56.641,-145.508,44.922,-62.5,1104.475,327.21321657064635
381,1686274398.58,-17.578,-571.289,-169.434,42.48,1104.479,318.20537786614767
382,1686274398.59,24.414,-941.895,-257.812,63.477,1104.483,331.6346512342294
383,1686274398.59,-4.883,-28.809,134.277,-39.062,1104.487,318.6803659552507
384,1686274398.61,-59.57,312.012,134.277,-82.52,1104.504,318.8412852059216
385,1686274398.61,-49.316,83.008,93.75,-13.184,1104.508,312.4121288065423
386,1686274398.62,15.137,307.129,171.387,38.574,1104.512,306.45307443784867
387,1686274398.62,13.184,492.676,190.918,-27.832,1104.516,314.73037368707514
388,1686274398.62,-57.129,215.82,62.988,-91.309,1104.52,312.5560219327255
389,1686274398.63,-71.289,-228.516,-50.293,-41.016,1104.524,312.0749256750506
390,1686274398.63,-2.441,19.043,101.074,31.738,1104.528,331.92194443912257
391,1686274398.63,11.719,261.23,148.926,-3.418,1104.532,324.1208656640115
392,1686274398.64,-33.203,92.285,46.875,-66.895,1104.534,304.27989267137895
393,1686274398.64,-58.594,-175.781,-84.961,-80.566,1104.536,303.3777807002576
394,1686274398.64,-84.961,56.641,99.609,-91.797,1104.538,306.55752245530164
395,1686274398.64,-93.262,-813.477,-257.324,-43.457,1104.539,319.00715386771947
396,1686274398.64,-40.039,373.535,175.781,0.977,1104.542,305.22247999150636
397,1686274398.65,-27.832,-215.332,92.773,29.297,1104.543,311.64906740521207
398,1686274398.65,20.996,427.246,176.758,34.18,1104.546,317.9845331089007
399,1686274398.65,24.414,491.211,209.473,17.578,1104.547,301.8332275080597
400,1686274398.65,-8.789,96.191,77.148,-45.41,1104.55,310.06981458569146
401,1686274398.66,-75.195,-194.336,7.812,-94.727,1104.553,323.87352247270206
402,1686274398.66,-55.176,-118.652,55.664,-32.715,1104.557,309.95695663822966
403,1686274398.66,12.695,-100.098,66.406,33.691,1104.561,308.3357523064158
404,1686274398.67,5.371,-140.625,41.016,-21.973,1104.565,321.18004080367035
405,1686274398.67,-68.359,30.273,82.52,-106.445,1104.569,308.7041582171145
406,1686274398.68,-79.102,59.57,97.168,-68.359,1104.573,315.4607625633617
407,1686274398.68,12.695,216.309,147.949,16.113,1104.577,309.7608776650433
408,1686274398.68,41.504,-360.84,-143.555,11.719,1104.578,331.4901828480841
409,1686274398.69,-37.598,-1000.0,-313.477,-71.289,1104.582,314.9895093503754
410,1686274398.69,-70.801,-136.23,124.512,-93.262,1104.586,306.3088686578671
411,1686274398.69,-1.953,273.438,150.879,5.371,1104.59,316.0121211420167
412,1686274398.7,48.828,145.02,89.355,29.297,1104.594,310.9551934031201
413,1686274398.7,-18.555,18.066,67.871,-62.988,1104.598,317.5264153422485
414,1686274398.71,-79.102,105.957,120.117,-100.098,1104.602,305.3261108562772
415,1686274398.71,-24.414,62.012,52.246,-5.371,1104.606,319.311898423262
416,1686274398.71,37.109,-437.012,-122.07,48.828,1104.61,321.5544494123985
417,1686274398.72,6.836,54.199,110.84,-48.34,1104.614,309.97317734206047
418,1686274398.72,-48.34,470.215,174.805,-101.074,1104.618,319.7177798918158
419,1686274398.72,-33.203,190.43,89.844,-21.484,1104.621,322.24316207836114
420,1686274398.73,34.668,60.059,72.266,55.176,1104.627,320.3120909577409
421,1686274398.73,26.367,192.383,127.93,-1.953,1104.631,309.97203333146064
422,1686274398.74,-46.387,377.441,170.41,-90.82,1104.635,335.4700603503151
423,1686274398.74,-61.035,-83.008,-3.418,-48.828,1104.638,332.82838880131
424,1686274398.74,11.23,-205.566,6.836,41.016,1104.642,325.6911281566939
425,1686274398.75,46.875,93.75,104.492,20.508,1104.646,333.0083268305355
426,1686274398.75,-18.066,14.16,77.148,-69.336,1104.65,331.63977931893436
427,1686274398.76,-66.895,-519.531,-173.34,-52.246,1104.654,335.5272864646091
428,1686274398.76,-20.02,-850.098,-246.094,39.551,1104.658,335.6813743282276
429,1686274398.76,40.527,79.102,138.672,29.785,1104.662,340.6759765515983
430,1686274398.77,6.836,384.766,112.793,-55.176,1104.666,329.5876246261632
431,1686274398.77,-59.082,48.34,28.809,-72.754,1104.67,342.89713323020356
432,1686274398.77,-32.715,165.527,130.371,10.254,1104.668,333.79781224790474
433,1686274398.78,35.156,515.625,215.82,46.875,1104.672,351.7154719718434
434,1686274398.78,19.043,295.41,104.492,-20.508,1104.676,338.4736669130064
435,1686274398.78,-44.922,-155.273,-23.438,-64.941,1104.68,339.2036531125036
436,1686274398.79,-47.363,32.227,87.891,-18.555,1104.684,347.526464627748
437,1686274398.79,15.625,136.719,133.301,47.852,1104.688,346.2971929931305
438,1686274398.8,34.18,-99.121,-30.273,21.973,1104.692,354.38952385197837
439,1686274398.8,-41.992,-741.211,-318.359,-50.781,1104.696,344.2196146531569
440,1686274398.8,-70.801,-389.16,-26.367,-45.898,1104.7,351.06647759855883
441,1686274398.81,4.395,480.469,250.977,28.809,1104.703,343.162176525089
442,1686274398.81,37.598,217.285,47.852,39.551,1104.707,344.7418315284427
443,1686274398.82,-17.09,59.57,43.457,-57.617,1104.711,353.2584002550811
444,1686274398.83,-58.105,280.762,159.18,-79.102,1104.728,358.40324209383306
445,1686274398.84,-12.695,350.098,156.738,8.789,1104.732,355.8017217390792
446,1686274398.84,46.875,136.719,112.305,34.18,1104.736,347.2748895290851
447,1686274398.84,5.859,111.816,115.723,-54.199,1104.74,344.7981937474616
448,1686274398.85,-53.223,223.145,98.633,-83.984,1104.744,355.6331940214577
449,1686274398.85,-31.25,14.16,40.039,-4.883,1104.748,362.7829206428962
450,1686274398.86,24.414,-528.809,-162.598,58.105,1104.752,336.53343352410434
451,1686274398.86,11.23,-812.5,-229.492,-3.418,1104.756,358.10709433418606
452,1686274398.86,-55.664,-140.625,81.543,-107.91,1104.76,345.52459728648114
453,1686274398.87,-57.129,346.68,145.02,-73.242,1104.764,347.6063405866427
454,1686274398.87,16.602,-336.426,-119.629,35.645,1104.767,343.3331077950849
455,1686274398.88,35.645,-415.039,-39.062,1.465,1104.771,348.96138967890147
456,1686274398.88,-41.504,385.254,196.289,-108.887,1104.817,352.40249385294584
457,1686274398.88,-72.754,225.586,74.707,-79.102,1104.821,349.836071152257
458,1686274398.89,-10.254,42.969,51.758,10.254,1104.825,355.7678945362152
459,1686274398.89,27.832,309.082,154.785,6.348,1104.829,345.19207582979726
460,1686274398.89,-20.02,396.484,155.273,-83.008,1104.833,346.68733315037656
461,1686274398.9,-71.289,-108.887,-47.363,-94.238,1104.837,336.2544571016439
462,1686274398.9,-42.969,-270.996,-64.941,-7.812,1104.841,346.4035959143326
463,1686274398.9,14.648,233.398,127.93,11.719,1104.845,339.2792798698065
464,1686274398.91,-9.766,237.793,116.699,-56.152,1104.849,338.34668026486094
465,1686274398.91,-68.848,-273.438,-134.766,-84.473,1104.853,340.8572855061798
466,1686274398.92,-59.082,-820.801,-283.691,5.371,1104.857,340.7069635149013
467,1686274398.92,10.254,-167.969,85.938,45.41,1104.86,340.10234729078076
468,1686274398.93,7.812,443.359,163.574,-42.969,1104.827,342.2881108416771
469,1686274398.93,-73.73,42.969,23.926,-125.0,1104.831,314.3556969903584
470,1686274398.93,-71.777,44.434,80.078,-70.801,1104.835,344.98496874401394
471,1686274398.94,11.23,397.949,177.246,25.879,1104.839,334.1264022114038
472,1686274398.94,29.297,400.391,127.93,-2.93,1104.843,341.4765605045883
473,1686274398.95,-34.18,-104.98,-34.668,-74.707,1104.847,336.4089229723512
474,1686274398.95,-68.848,-333.008,-56.152,-62.5,1104.85,331.89035858938826
475,1686274398.95,-15.137,-104.492,42.48,26.367,1104.854,338.3894055972349
476,1686274398.96,41.504,251.465,120.117,35.645,1104.858,333.054352880696
477,1686274398.96,-7.324,-333.496,-139.648,-40.527,1104.862,339.48060021098314
478,1686274398.96,-71.777,-668.945,-173.828,-66.895,1104.866,327.31508909768104
479,1686274398.97,41.504,201.172,109.375,37.598,1104.864,335.5007166945266
480,1686274398.97,-31.25,75.684,142.578,-8.301,1104.87,332.676050072807
481,1686274398.97,15.137,-5.371,59.082,-28.32,1104.868,336.61381540176615
482,1686274398.98,-55.176,132.324,95.215,-89.355,1104.871,344.3015757190034
483,1686274398.98,-42.48,370.117,145.996,-33.691,1104.875,349.39508832340084
484,1686274398.98,26.855,203.125,70.312,45.898,1104.879,349.70898006980207
485,1686274398.99,25.879,-260.254,-102.051,12.695,1104.883,338.8358869955078
486,1686274398.99,-48.828,-268.555,-9.766,-80.566,1104.887,347.3674653352239
487,1686274398.99,-67.871,171.875,136.719,-68.359,1104.891,346.3296327711272
488,1686274399.0,3.906,134.277,28.809,25.391,1104.895,342.7888951342719
489,1686274399.0,21.973,-802.246,-364.258,43.457,1104.899,333.4319309757099
490,1686274399.01,-44.434,-852.051,-272.949,-57.129,1104.903,348.3222616568512
491,1686274399.01,-75.684,111.328,122.07,-86.914,1104.907,345.4487977837437
492,1686274399.01,-21.973,236.328,92.285,14.648,1104.913,353.6897974533428
493,1686274399.02,39.062,17.09,22.461,47.852,1104.916,349.9738243240346
494,1686274399.02,-1.465,152.832,77.148,-48.34,1104.92,342.8745499520328
495,1686274399.02,-65.43,387.207,159.18,-96.68,1104.924,364.07468768605764
496,1686274399.03,-40.039,-53.711,20.02,-6.348,1104.928,371.37105594347304
497,1686274399.03,31.25,-378.418,-62.5,50.293,1104.932,368.18061378657035
498,1686274399.04,24.414,-87.402,8.301,-38.574,1104.936,363.79414462485244
499,1686274399.04,-44.922,66.406,59.57,-110.84,1104.94,371.7083676636511
500,1686274399.04,-49.805,-461.914,-166.992,-31.25,1104.944,366.40494830928475
501,1686274399.05,14.648,-802.734,-262.695,46.387,1104.948,363.7003740920784
502,1686274399.05,34.18,113.281,108.887,-15.625,1104.952,388.4764925368014
503,1686274399.06,-24.902,318.359,65.918,-98.145,1104.955,371.7594819523993
504,1686274399.06,-51.27,130.371,44.922,-71.777,1104.954,382.80621950458703
505,1686274399.06,16.602,402.344,180.176,18.555,1104.958,377.52260093481743
506,1686274399.06,56.152,568.359,174.316,12.207,1104.962,388.2889422400361
507,1686274399.07,-4.395,262.695,55.664,-82.52,1104.966,391.5494659970062
508,1686274399.07,-56.641,-144.043,-45.898,-90.332,1104.97,404.7952116821503
509,1686274399.08,-19.531,-95.703,29.785,0.488,1104.973,379.96653453263383
510,1686274399.08,37.598,50.781,91.309,26.367,1104.977,410.9406439426404
511,1686274399.08,8.301,-68.848,-55.176,-53.711,1104.981,417.4965977082464
512,1686274399.09,-66.895,-750.0,-337.891,-77.148,1104.985,408.3057348653023
513,1686274399.09,-46.387,-350.586,-50.293,-12.207,1104.989,413.1453568298175
514,1686274399.1,40.527,495.605,201.66,32.227,1104.993,418.76893629441344
515,1686274399.1,20.508,203.125,51.758,-19.531,1104.997,412.05367933329194
516,1686274399.1,-64.941,82.52,43.945,-100.586,1104.999,423.1784438438403
517,1686274399.11,-68.848,353.027,145.996,-67.383,1105.003,433.9989733667419
518,1686274399.11,13.672,437.012,157.227,20.02,1105.007,423.04275090260785
519,1686274399.11,40.039,199.707,68.848,9.277,1105.011,436.25215574003755
520,1686274399.12,-27.832,61.035,7.324,-77.637,1105.014,432.91968544548433
521,1686274399.12,-64.941,-65.43,-29.297,-72.266,1105.018,451.8150540953131
522,1686274399.13,-5.371,-98.145,33.203,19.043,1105.022,451.71523796629003
523,1686274399.13,39.551,-426.27,-159.668,39.062,1105.026,447.32258724695953
524,1686274399.13,-20.508,-1000.0,-437.5,-39.551,1105.03,459.8537676070355
525,1686274399.14,-69.336,-326.172,-35.645,-90.332,1105.034,453.6506853999855
526,1686274399.14,-29.785,323.242,119.141,-24.414,1105.038,469.2774877632287
527,1686274399.14,32.715,156.25,60.059,22.461,1105.042,473.6230202790108
528,1686274399.15,18.066,318.359,147.461,-48.34,1105.044,475.4415296663824
529,1686274399.15,-51.27,467.285,151.367,-109.863,1105.048,456.9127190125275
530,1686274399.16,-41.504,258.789,69.336,-33.203,1105.052,464.51166331309304
531,1686274399.16,33.203,-32.227,-3.418,51.758,1105.055,463.7187289344281
532,1686274399.16,30.762,187.5,96.191,-17.578,1105.059,479.5946507270121
533,1686274399.17,-45.898,119.629,43.945,-98.633,1105.063,473.8148994691173
534,1686274399.17,-65.918,-244.629,-121.582,-49.805,1105.067,468.2390205983762
535,1686274399.17,1.465,-544.922,-182.617,40.039,1105.071,472.87949334176824
536,1686274399.18,35.645,-60.059,55.664,20.02,1105.075,479.39424743647334
537,1686274399.18,-26.367,271.484,103.516,-77.148,1105.079,471.05692692617936
538,1686274399.19,-73.242,-269.043,-156.25,-72.754,1105.083,486.7799854968097
539,1686274399.19,-17.578,-453.613,-186.523,30.273,1105.087,484.08466970405516
540,1686274399.19,37.598,173.34,130.859,35.156,1105.088,482.14544495435456
541,1686274399.2,-6.348,398.926,119.141,-70.801,1105.092,482.589243638842
542,1686274399.2,-71.777,60.059,-9.277,-105.957,1105.096,476.0264255269006
543,1686274399.2,-46.387,145.02,98.145,-34.18,1105.1,481.81355702553367
544,1686274399.21,18.555,368.652,126.953,7.324,1105.104,476.8413635283542
545,1686274399.21,-8.301,132.324,24.414,-55.176,1105.108,489.75076117841206
546,1686274399.22,-85.938,-576.172,-238.77,-85.938,1105.112,477.56954181581307
547,1686274399.22,-74.707,-756.836,-248.047,-29.785,1105.116,492.9986796812599
548,1686274399.22,13.672,199.219,174.316,14.16,1105.12,491.990345453263
549,1686274399.23,23.926,419.434,127.93,-14.648,1105.123,498.187227836388
550,1686274399.23,-50.293,69.336,9.277,-85.449,1105.127,484.94921588140227
551,1686274399.24,-67.383,179.688,102.051,-58.594,1105.131,499.70305793688726
552,1686274399.24,1.953,259.277,135.254,33.691,1105.146,473.26057555116034
553,1686274399.24,22.949,208.008,95.215,17.09,1105.15,479.9156944808796
554,1686274399.25,-43.945,-62.988,27.344,-75.195,1105.154,481.07836940954985
555,1686274399.25,-82.52,88.379,96.68,-91.797,1105.158,479.34785291863983
556,1686274399.25,-25.879,446.289,173.34,-17.09,1105.162,482.2177379506893
557,1686274399.26,27.344,109.375,-0.488,18.066,1105.166,469.2610437065985
558,1686274399.26,-12.207,-546.875,-195.801,-47.363,1105.17,470.8566144984685
559,1686274399.26,-70.801,-129.395,52.734,-102.051,1105.174,477.3250559056821
560,1686274399.27,-44.434,472.168,185.059,-28.32,1105.177,461.43548905900855
561,1686274399.27,17.578,215.82,47.852,28.32,1105.181,469.08132790571113
562,1686274399.28,9.277,146.973,59.57,-38.086,1105.185,463.65914771886514
563,1686274399.28,-56.152,393.555,149.414,-104.492,1105.189,466.0724813617534
564,1686274399.3,-66.406,420.898,135.742,-61.523,1105.191,453.20593396403285
565,1686274399.3,4.883,211.426,106.934,36.621,1105.195,448.0351563963655
566,1686274399.3,25.879,-23.438,28.809,20.508,1105.199,458.38369162675804
567,1686274399.31,-38.574,36.133,52.734,-79.102,1105.203,461.1444667656572
568,1686274399.31,-62.5,335.938,154.297,-76.172,1105.207,453.8267050159015
569,1686274399.32,-10.254,-304.199,-139.16,33.691,1105.211,443.6504473120085
570,1686274399.32,19.531,-847.656,-237.793,39.062,1105.215,453.9268588537467
571,1686274399.32,-20.996,-147.461,75.195,-70.312,1105.219,457.6659978218618
572,1686274399.33,-67.871,228.027,104.004,-88.867,1105.223,443.13630307590614
573,1686274399.33,-30.762,71.777,27.344,0.977,1105.227,443.15894734794455
574,1686274399.34,29.785,234.863,108.887,28.32,1105.23,437.56676254457665
575,1686274399.34,-1.465,485.84,166.992,-58.594,1105.234,432.95050136555034
576,1686274399.34,-72.266,310.059,62.5,-101.562,1105.251,441.38688221593924
577,1686274399.35,-63.965,-218.75,-51.27,-20.996,1105.255,428.6090128602602
578,1686274399.35,7.812,-0.488,81.543,28.32,1105.259,437.466254520306
579,1686274399.35,2.441,549.805,229.004,-36.621,1105.263,436.0270324936743
580,1686274399.36,-62.012,251.465,81.543,-98.145,1105.267,426.2907162995686
581,1686274399.36,-54.688,-97.656,-20.996,-41.504,1105.27,427.7163784910071
582,1686274399.37,13.184,-75.684,36.621,44.922,1105.274,406.88166559273026
583,1686274399.37,22.949,227.051,147.461,1.953,1105.278,425.1036138609055
584,1686274399.37,-37.598,181.152,26.855,-79.59,1105.282,409.79535687443746
585,1686274399.38,-80.078,-700.195,-272.949,-52.734,1105.286,406.7245023630245
586,1686274399.38,-29.297,-251.953,46.387,14.16,1105.29,412.0124542636826
587,1686274399.38,30.273,576.66,218.262,21.484,1105.294,401.57363417460357
588,1686274399.39,-11.23,208.008,46.875,-48.34,1105.282,413.80068925618076
589,1686274399.39,-75.684,100.098,58.105,-84.961,1105.286,419.3195661602221
590,1686274399.4,-44.922,376.953,154.297,-19.531,1105.29,403.72615250964924
591,1686274399.4,29.785,441.406,155.762,21.484,1105.294,397.93370957234833
592,1686274399.4,8.789,162.109,21.973,-45.41,1105.298,415.53164536184727
593,1686274399.41,-62.988,-140.137,-41.504,-96.68,1105.302,402.8488346330115
594,1686274399.41,-56.152,-158.691,-6.836,-37.109,1105.305,394.7617956656707
595,1686274399.41,21.973,16.602,53.711,31.738,1105.309,392.9329911925856
596,1686274399.42,34.18,-447.754,-141.602,13.672,1105.313,396.09003110147296
597,1686274399.42,-51.27,-515.625,-141.113,-79.59,1105.317,394.76630211791775
598,1686274399.43,-73.73,340.332,179.199,-74.219,1105.321,395.67841086123593
599,1686274399.43,2.93,495.605,144.531,27.832,1105.325,397.80906633454265
600,1686274399.43,13.184,-386.23,-206.055,35.645,1105.328,404.6037184782298
601,1686274399.44,-50.293,-902.832,-311.035,-54.199,1105.332,386.67148878579536
602,1686274399.44,-62.988,66.895,110.84,-79.59,1105.336,382.2230454209473
603,1686274399.44,-1.465,368.164,117.188,18.555,1105.34,392.0207991051233
604,1686274399.45,16.113,145.996,1.465,19.043,1105.344,386.3676459417466
605,1686274399.45,-39.551,93.262,22.949,-72.266,1105.348,389.0421001957652
606,1686274399.46,-87.891,84.473,41.016,-95.215,1105.352,384.5516236048609
607,1686274399.46,-69.336,-24.902,-36.621,-20.996,1105.356,378.9906663988028
608,1686274399.46,-20.02,-375.977,-149.414,15.137,1105.36,384.3659678555967
609,1686274399.47,-36.133,56.641,56.641,-76.66,1105.364,380.9883793647346
610,1686274399.47,-92.285,283.691,118.164,-128.906,1105.367,378.4405490621995
611,1686274399.48,-97.656,-223.145,-129.883,-56.641,1105.371,372.19092339995007
612,1686274399.48,-29.785,-147.461,-107.422,14.16,1105.373,364.241570581051
613,1686274399.48,-4.395,435.059,160.645,-31.25,1105.377,374.7840658992896
614,1686274399.49,-61.523,378.418,77.637,-110.84,1105.381,359.5577936206858
615,1686274399.49,-82.52,60.547,-25.391,-90.332,1105.385,370.6247441144488
616,1686274399.49,-26.367,138.184,62.012,-2.93,1105.389,366.16090980082834
617,1686274399.5,9.766,102.539,41.016,3.418,1105.393,361.6398578286168
618,1686274399.5,-28.32,-8.301,5.371,-71.289,1105.397,360.2723562055454
619,1686274399.5,-74.707,-544.434,-239.746,-67.871,1105.401,363.64151846702197
620,1686274399.51,-39.062,-696.777,-241.699,17.09,1105.405,367.42974563641786
621,1686274399.51,30.273,298.828,155.762,36.133,1105.409,375.926137834414
622,1686274399.52,-2.93,356.934,35.645,-44.434,1105.412,362.13565229822234
623,1686274399.52,-65.43,-108.398,-98.633,-77.148,1105.416,355.68076365100853
624,1686274399.52,-44.434,-20.508,-30.273,-6.348,1105.423,361.0446459442244
625,1686274399.53,21.973,237.793,75.684,35.156,1105.427,358.2971401026418
626,1686274399.53,17.09,216.309,38.086,-16.602,1105.431,337.3301441751045
627,1686274399.54,-59.57,-114.258,-83.496,-81.055,1105.435,342.73113779892157
628,1686274399.54,-63.477,52.734,25.391,-39.551,1105.439,347.2979767108171
629,1686274399.54,17.09,174.316,53.223,50.781,1105.443,344.43854592483484
630,1686274399.55,29.785,-124.023,-91.309,25.879,1105.447,342.90407216188527
631,1686274399.55,-42.48,-554.688,-241.699,-62.988,1105.45,339.3167016346384
632,1686274399.55,-69.824,-104.98,28.32,-67.871,1105.454,334.7942389622441
633,1686274399.56,-2.441,443.359,150.879,15.625,1105.458,315.4669277639374
634,1686274399.56,30.273,144.043,-20.996,20.996,1105.462,324.60921175749377
635,1686274399.57,-26.855,56.641,-31.738,-73.242,1105.466,337.2436162147363
636,1686274399.57,-62.5,292.969,90.82,-98.145,1105.463,320.82162773618785
637,1686274399.57,-13.184,365.234,124.512,-8.789,1105.467,318.3580400036924
638,1686274399.58,43.945,125.977,12.695,39.551,1105.471,310.81015498397267
639,1686274399.58,1.465,-110.352,-68.359,-38.574,1105.475,292.1280584427905
640,1686274399.58,-75.684,20.02,-32.227,-99.609,1105.479,311.6847232663393
641,1686274399.59,-46.875,56.152,-1.953,-27.344,1105.483,298.81134935526075
642,1686274399.59,34.668,-439.453,-198.242,58.594,1105.487,299.80640774826287
643,1686274399.59,20.996,-1000.0,-493.164,27.832,1105.491,295.8229954219524
644,1686274399.6,-49.805,-418.945,-134.277,-74.707,1105.495,286.07749357229125
645,1686274399.6,-55.176,278.32,96.68,-60.547,1105.499,286.624349655546
646,1686274399.61,18.555,180.176,18.555,38.574,1105.502,282.6719258783869
647,1686274399.61,50.781,219.727,64.941,25.391,1105.506,277.4949458855249
648,1686274399.61,-10.254,222.656,46.875,-70.312,1105.524,278.77959022331913
649,1686274399.62,-55.176,161.133,-0.488,-69.824,1105.527,282.0548534491559
650,1686274399.62,0.977,96.191,-6.836,31.25,1105.531,262.22988553383686
651,1686274399.62,54.688,346.68,128.906,47.852,1105.535,279.1679178178161
652,1686274399.63,8.789,430.176,97.168,-49.805,1105.539,250.98353168909009
653,1686274399.63,-58.105,-45.41,-150.879,-85.938,1105.543,262.0400457742444
654,1686274399.64,-31.25,-697.754,-291.016,18.066,1105.547,261.5303943771304
655,1686274399.64,43.945,-312.988,-14.16,60.547,1105.551,249.74084349374655
656,1686274399.64,19.043,428.711,163.574,-42.48,1105.555,260.1157336704184
657,1686274399.65,-57.129,-17.578,-133.789,-91.309,1105.559,253.2394606545203
658,1686274399.65,-52.246,-363.77,-225.098,-20.508,1105.563,254.76923175476531
659,1686274399.66,25.391,296.387,146.973,43.945,1105.567,250.27138988960454
660,1686274399.66,39.551,479.004,142.09,0.0,1105.568,238.57401243766668
661,1686274399.66,-31.25,100.586,-20.02,-78.613,1105.572,241.49964675264818
662,1686274399.66,-60.059,58.105,-2.93,-54.688,1105.575,261.06177865452855
663,1686274399.67,-1.465,335.449,115.234,25.391,1105.579,246.6999122498192
664,1686274399.67,29.785,402.832,117.188,15.137,1105.583,249.62435630873307
665,1686274399.68,-21.484,-38.574,-83.008,-58.594,1105.587,238.21674444913788
666,1686274399.68,-61.035,-331.543,-172.852,-59.57,1105.591,239.75021003331668
667,1686274399.68,-15.137,-121.094,-36.133,28.32,1105.595,240.08122139673722
668,1686274399.69,46.875,94.238,62.5,41.016,1105.599,234.07751677036126
669,1686274399.69,6.836,-409.668,-220.703,-46.387,1105.603,243.1423007530869
670,1686274399.7,-68.848,-1000.0,-441.406,-68.359,1105.607,228.32866227511028
671,1686274399.7,-38.086,-209.473,1.953,-13.184,1105.611,236.45877040108286
672,1686274399.72,32.227,326.172,100.098,36.621,1105.614,238.26578178355345
673,1686274399.72,14.648,58.105,-20.996,-25.391,1105.618,236.73690663307164
674,1686274399.72,-50.781,225.098,78.125,-102.051,1105.622,240.48099034353731
675,1686274399.73,-54.688,422.363,124.512,-44.434,1105.626,236.49039006190029
676,1686274399.73,11.719,253.418,31.25,41.504,1105.63,245.94280033128814
677,1686274399.74,23.926,-252.441,-182.617,19.043,1105.634,246.22049680725218
678,1686274399.74,-44.922,-143.066,-63.965,-75.684,1105.638,248.43034622195347
679,1686274399.74,-71.777,392.09,151.367,-83.984,1105.641,242.28195443387693
680,1686274399.75,-3.906,114.258,-47.852,15.625,1105.645,244.4479266696494
681,1686274399.75,37.598,-375.488,-158.691,22.949,1105.649,241.4508397177878
682,1686274399.76,-6.348,45.41,27.344,-75.684,1105.653,232.16677435717835
683,1686274399.76,-48.34,110.352,-49.805,-82.52,1105.657,231.76457110975997
684,1686274399.76,-19.531,-337.402,-191.895,6.836,1105.659,242.0365081699922
685,1686274399.77,26.367,-237.793,-105.469,33.691,1105.663,246.12361280819252
686,1686274399.77,-4.395,343.75,100.586,-46.387,1105.667,253.10237217543852
687,1686274399.77,-59.082,325.684,61.035,-78.613,1105.67,244.27126008574507
688,1686274399.78,-40.039,47.363,-20.996,2.93,1105.674,256.23246035486864
689,1686274399.78,24.414,-69.824,-36.621,69.336,1105.678,252.4182880897486
690,1686274399.79,27.832,-108.398,-59.57,9.277,1105.682,252.4863416525043
691,1686274399.79,-36.621,-24.902,-38.086,-73.73,1105.686,251.3512562740768
692,1686274399.79,-59.57,-460.938,-208.496,-33.691,1105.69,255.21029518225882
693,1686274399.8,3.906,-947.266,-322.266,61.035,1105.694,253.84784777828196
694,1686274399.8,32.227,-6.348,86.426,23.926,1105.698,261.2417900968361
695,1686274399.8,-32.227,378.418,80.566,-83.984,1105.702,254.48031779870865
696,1686274399.81,-62.012,84.961,-2.441,-72.754,1105.713,265.5785427251183
697,1686274399.81,3.418,175.293,27.344,31.25,1105.717,258.1959366738024
698,1686274399.82,40.527,246.582,73.73,33.691,1105.721,274.85108601295093
699,1686274399.82,-8.301,191.895,39.551,-63.477,1105.725,268.1138697202274
700,1686274399.82,-59.57,-275.391,-200.684,-78.125,1105.729,265.21574358600816
701,1686274399.83,-31.738,-315.43,-166.016,3.906,1105.733,279.1606659355328
702,1686274399.83,24.902,18.066,9.277,31.738,1105.736,259.9136971502788
703,1686274399.84,4.395,-90.332,-111.816,-27.832,1105.74,270.0380114670961
704,1686274399.84,-63.477,-523.438,-281.738,-77.148,1105.744,282.06318222934584
705,1686274399.84,-54.688,-11.719,41.992,-34.668,1105.748,280.9466873058059
706,1686274399.85,24.414,499.512,141.602,32.227,1105.752,272.2778085251951
707,1686274399.85,28.809,159.668,-17.578,-6.348,1105.756,281.2685341782423
708,1686274399.85,-46.387,59.57,-10.254,-90.82,1105.749,271.7904205483951
709,1686274399.86,-62.5,337.402,92.773,-74.219,1105.753,280.88275837916626
710,1686274399.86,4.395,413.574,112.793,13.672,1105.757,271.48350139638654
711,1686274399.86,31.738,125.488,6.836,12.207,1105.761,271.3241094288318
712,1686274399.87,-28.32,-126.465,-105.957,-64.453,1105.765,278.60971330321956
713,1686274399.87,-70.312,-174.316,-131.836,-66.895,1105.769,280.1673021398124
714,1686274399.88,-16.113,-100.098,-85.449,19.043,1105.773,281.2182255433655
715,1686274399.88,31.25,-437.5,-253.906,48.828,1105.777,276.7539970678692
716,1686274399.88,-16.602,-1000.0,-502.441,-36.621,1105.78,280.82675983257747
717,1686274399.89,-66.895,-355.957,-138.184,-94.238,1105.784,285.2034031981
718,1686274399.89,-31.738,348.145,82.031,-20.02,1105.788,282.24472655648276
719,1686274399.9,30.762,205.566,37.109,41.504,1105.792,287.1925800616725
720,1686274399.9,14.648,341.309,104.004,-24.414,1105.793,274.78730066957434
721,1686274399.9,-40.527,419.434,89.355,-86.914,1105.797,277.7136248347808
722,1686274399.9,-31.738,214.844,10.254,-23.926,1105.801,296.5772693491401
723,1686274399.91,33.203,135.254,13.672,50.781,1105.805,297.07114850140425
724,1686274399.91,43.945,318.359,84.961,7.812,1105.809,292.22211106375784
725,1686274399.92,-27.832,104.98,-46.875,-67.383,1105.813,297.9361398730939
726,1686274399.92,-59.57,-198.242,-209.473,-41.016,1105.817,298.8187403896366
727,1686274399.92,-1.953,-784.18,-402.344,62.012,1105.821,310.2149980822679
728,1686274399.93,40.039,-419.922,-141.113,40.527,1105.825,299.56177132558184
729,1686274399.93,-6.836,426.27,147.949,-75.684,1105.829,310.3580694769246
730,1686274399.94,-54.688,120.117,-40.039,-83.984,1105.833,313.632811055019
731,1686274399.94,-15.137,55.664,-46.875,1.465,1105.836,321.4815167134685
732,1686274399.94,35.645,419.922,136.719,21.484,1105.838,314.6842726245875
733,1686274399.95,6.348,415.527,84.961,-49.316,1105.842,321.8349055705685
734,1686274399.95,-61.035,70.801,-42.969,-87.402,1105.846,318.29596553099867
735,1686274399.95,-41.504,37.109,-6.836,-17.09,1105.85,312.9964620920571
736,1686274399.96,31.738,270.508,43.945,42.48,1105.854,317.9778405397798
737,1686274399.96,12.207,143.555,-34.18,-24.902,1105.858,330.76613800215443
738,1686274399.97,-61.523,-547.852,-351.562,-74.219,1105.862,337.03141449261454
739,1686274399.97,-65.918,-789.062,-370.117,-20.508,1105.866,333.24951914084824
740,1686274399.97,5.859,97.656,52.246,34.18,1105.87,343.6018355401207
741,1686274399.98,25.879,278.809,27.832,1.465,1105.874,341.383850244473
742,1686274399.98,-42.48,-414.062,-173.828,-82.52,1105.877,335.71244217748017
743,1686274399.98,-82.52,-240.723,-13.184,-87.402,1105.881,350.68209055350695
744,1686274399.99,-16.113,462.402,161.133,-4.395,1105.898,353.46854509302125
745,1686274399.99,30.273,295.898,35.645,14.16,1105.902,352.58494736709326
746,1686274400.0,-23.926,0.0,-60.547,-76.172,1105.906,349.2664685730437
747,1686274400.0,-68.848,166.504,38.574,-103.027,1105.91,344.72502419817954
748,1686274400.0,-28.32,314.453,110.84,-15.137,1105.914,350.8136697901599
749,1686274400.01,34.18,-12.207,-108.398,41.016,1105.918,341.70031709510425
750,1686274400.01,-1.465,-648.438,-321.777,-25.879,1105.921,358.31187093476206
751,1686274400.01,-69.336,-280.273,-41.016,-102.051,1105.925,360.0569810607855
752,1686274400.02,-48.34,361.328,107.91,-50.781,1105.929,355.9870411969336
753,1686274400.02,19.531,112.793,-36.621,25.879,1105.933,363.6557081805142
754,1686274400.03,19.531,3.418,-39.551,-18.066,1105.937,364.0760235589319
755,1686274400.03,-41.504,174.805,50.781,-89.844,1105.941,358.7869705998893
756,1686274400.03,-49.805,18.555,-68.848,-36.621,1105.942,360.08204303101155
757,1686274400.04,12.207,-366.211,-245.605,56.152,1105.946,360.0149113605605
758,1686274400.04,38.574,-297.363,-149.902,25.879,1105.95,371.12528340309024
759,1686274400.04,-17.578,233.887,53.223,-72.266,1105.954,370.74968246826467
760,1686274400.05,-51.27,199.219,-20.508,-66.895,1105.958,358.6014414076916
761,1686274400.05,7.812,-190.918,-126.953,34.18,1105.962,365.2309737605393
762,1686274400.06,52.246,-353.027,-176.758,42.48,1105.966,370.35941382628613
763,1686274400.06,-0.488,-224.121,-148.926,-66.895,1105.97,352.8685377343018
764,1686274400.06,-60.059,96.68,1.465,-90.82,1105.974,366.1291411619181
765,1686274400.07,-39.551,-441.406,-242.676,12.695,1105.978,371.34666030937734
766,1686274400.07,18.066,-716.309,-260.254,62.012,1105.981,365.01983389055664
767,1686274400.08,6.836,226.562,112.793,-29.297,1105.985,365.68267677316953
768,1686274400.09,-64.941,232.91,-19.531,-93.262,1105.989,361.24848472177337
769,1686274400.1,-62.988,22.949,-56.641,-28.809,1105.993,370.659440199724
770,1686274400.1,14.648,83.984,11.23,58.594,1105.997,367.16625446092206
771,1686274400.1,20.996,176.27,69.824,12.695,1106.001,360.7024311025046
772,1686274400.11,-44.434,176.758,-16.602,-74.707,1106.005,374.05618995888426
773,1686274400.11,-76.66,-588.867,-299.805,-39.062,1106.009,358.69637327800314
774,1686274400.12,-18.066,-393.555,-75.684,38.086,1106.012,376.0950400214755
775,1686274400.12,24.414,454.102,173.34,12.695,1106.016,359.69344970797715
776,1686274400.12,-39.062,70.312,-116.211,-75.195,1106.02,363.49901430707155
777,1686274400.13,-84.473,-370.605,-255.859,-79.102,1106.024,375.56326602635227
778,1686274400.13,-20.508,207.031,101.562,-4.395,1106.028,364.3411150348384
779,1686274400.14,38.574,399.902,82.52,19.043,1106.032,369.82959926681104
780,1686274400.14,-9.766,2.441,-69.824,-61.035,1106.037,365.7142774463175
781,1686274400.14,-72.754,-20.996,-3.906,-99.121,1106.041,363.2843056162359
782,1686274400.15,-39.551,268.066,83.496,-20.508,1106.045,366.74830711993263
783,1686274400.15,36.133,325.684,92.773,35.645,1106.048,374.7130796617467
784,1686274400.15,15.625,24.414,-42.48,-20.508,1106.052,362.81323612184525
785,1686274400.16,-60.059,-235.84,-186.523,-86.426,1106.056,371.9988548398674
786,1686274400.16,-63.965,-218.75,-153.32,-48.828,1106.06,354.99588470483627
787,1686274400.16,11.23,-70.312,-71.777,29.785,1106.064,357.29871093870344
788,1686274400.17,27.344,-429.199,-270.508,9.277,1106.068,365.81615020173336
789,1686274400.17,-54.199,-1000.0,-501.953,-58.594,1106.072,365.4678506765244
790,1686274400.18,-76.172,-309.082,-73.242,-66.895,1106.076,361.5089380999696
791,1686274400.18,-0.977,356.445,107.91,9.766,1106.08,364.13683649918414
792,1686274400.18,34.668,195.312,-2.93,17.578,1106.079,356.93800133126825
793,1686274400.19,-21.484,278.32,89.355,-77.637,1106.083,361.082783233858
794,1686274400.19,-71.289,348.633,94.727,-92.773,1106.087,375.6683967225887
795,1686274400.19,-21.973,197.754,3.418,-7.812,1106.091,363.27736771305484
796,1686274400.2,43.945,62.5,-53.223,21.484,1106.094,355.143450401364
797,1686274400.2,4.883,-112.305,-144.043,-53.711,1106.098,371.05939538544845
798,1686274400.21,-56.152,-61.035,-83.496,-96.68,1106.102,358.8684302175322
799,1686274400.21,-33.691,-3.418,-61.523,-25.391,1106.106,361.5309287328069
800,1686274400.21,20.508,-756.836,-371.582,53.223,1106.11,351.41110649635965
801,1686274400.22,13.672,-401.855,-132.324,-17.09,1106.114,350.5535498678047
802,1686274400.22,-41.016,382.812,114.746,-105.957,1106.118,365.4466823576296
803,1686274400.22,-58.594,69.824,-27.344,-53.223,1106.122,355.61225376473527
804,1686274400.23,6.348,37.109,-2.93,35.645,1106.124,359.73805160480936
805,1686274400.23,38.574,373.535,112.305,11.719,1106.127,355.79133769793293
806,1686274400.24,-28.809,334.473,67.871,-78.613,1106.131,346.3666862294
807,1686274400.24,-65.43,33.203,-37.109,-69.824,1106.135,360.950008472083
808,1686274400.24,-8.301,27.344,-13.672,26.367,1106.139,348.23535839455536
809,1686274400.25,31.25,37.109,-4.395,36.621,1106.143,351.3979093867465
810,1686274400.25,-13.672,-59.082,-79.102,-60.059,1106.147,349.16252847950807
811,1686274400.26,-74.707,-552.246,-343.262,-73.73,1106.151,348.47362235497775
812,1686274400.26,-42.969,-887.207,-342.773,24.902,1106.155,348.18109568019133
813,1686274400.26,28.32,9.766,90.332,38.574,1106.159,356.9888621485101
814,1686274400.27,9.277,220.703,17.578,-39.551,1106.163,348.3859233403556
815,1686274400.27,-51.758,-137.207,-130.371,-86.426,1106.166,351.44508551965794
816,1686274400.27,-41.016,136.23,26.367,-38.086,1106.168,334.49520851631416
817,1686274400.28,25.391,511.719,175.781,33.691,1106.172,332.3158779158534
818,1686274400.28,32.227,278.32,24.414,0.488,1106.176,346.7090750138992
819,1686274400.28,-39.062,-199.219,-144.043,-82.031,1106.18,341.33036593919564
820,1686274400.29,-61.523,24.414,-30.273,-64.941,1106.184,341.7412270206657
821,1686274400.29,9.766,125.977,-0.977,23.438,1106.188,339.8616565985727
822,1686274400.3,37.109,-120.117,-144.043,22.949,1106.192,344.4518750593327
823,1686274400.3,-31.738,-559.57,-268.555,-61.035,1106.196,332.45205787024275
824,1686274400.3,-71.289,-141.602,11.23,-78.125,1106.2,342.33388871610015
825,1686274400.31,-12.207,524.902,179.688,8.301,1106.204,346.6973448439325
826,1686274400.31,35.645,219.238,-1.465,30.762,1106.208,333.39491453931817
827,1686274400.32,-5.371,78.125,-25.879,-63.477,1106.211,344.3523780920164
828,1686274400.32,-61.035,272.461,62.988,-105.469,1106.217,347.26791522709647
829,1686274400.32,-33.691,149.902,-3.906,-25.391,1106.221,339.4473323625938
830,1686274400.33,27.344,-305.664,-162.598,45.41,1106.225,329.45993481856095
831,1686274400.33,7.812,-259.766,-132.324,-13.672,1106.229,330.8591907104231
832,1686274400.33,-56.641,178.711,43.457,-89.844,1106.233,339.79065112354823
833,1686274400.34,-52.246,74.219,-67.871,-35.645,1106.237,343.08058969408773
834,1686274400.34,20.02,-495.605,-296.387,55.176,1106.241,338.19744919332135
835,1686274400.34,28.32,-757.324,-329.59,22.461,1106.245,338.26207327969547
836,1686274400.35,-37.598,80.078,36.621,-92.285,1106.249,341.9368627203591
837,1686274400.35,-60.059,311.523,43.945,-74.219,1106.253,342.24616147673316
838,1686274400.36,3.906,-148.438,-110.84,36.133,1106.256,348.03832452942555
839,1686274400.36,37.109,18.555,28.32,32.227,1106.26,342.875416337995
840,1686274400.36,-12.695,419.922,115.234,-61.523,1106.272,341.197461625421
841,1686274400.37,-54.199,195.312,-26.855,-73.73,1106.276,336.3895494980531
842,1686274400.37,-9.277,35.645,-63.477,9.277,1106.28,333.0162025339002
843,1686274400.37,50.781,107.91,5.371,43.457,1106.284,337.2337116252596
844,1686274400.38,4.883,107.91,15.625,-46.387,1106.288,337.68281351925043
845,1686274400.38,-64.941,-25.879,-94.238,-91.309,1106.292,337.6445935843799
846,1686274400.39,-49.805,-773.438,-394.531,5.371,1106.296,344.5933835260524
847,1686274400.39,13.672,-512.207,-181.641,43.457,1106.3,324.31462795396703
848,1686274400.39,12.695,380.859,124.512,-38.086,1106.304,341.8557597169612
849,1686274400.4,-50.293,110.84,-100.586,-98.145,1106.308,334.7765317064269
850,1686274400.4,-51.27,-5.371,-124.512,-58.105,1106.311,346.466575942415
851,1686274400.4,16.602,405.273,138.184,14.16,1106.315,341.56804754322627
852,1686274400.42,33.203,421.387,99.609,-1.465,1106.319,341.2293576583263
853,1686274400.43,-30.273,-2.441,-63.965,-77.148,1106.322,341.1972384461508
854,1686274400.43,-66.406,-57.617,-24.902,-87.402,1106.326,334.4552181232501
855,1686274400.43,0.977,295.898,96.191,1.953,1106.33,344.09123783588103
856,1686274400.44,42.48,304.199,26.367,14.16,1106.334,337.16032278176874
857,1686274400.44,-15.625,-349.609,-212.891,-67.383,1106.338,347.98802076168073
858,1686274400.45,-65.43,-596.68,-230.469,-84.961,1106.342,360.33228023907094
859,1686274400.45,-23.926,-243.652,-156.738,-4.395,1106.346,340.898005166995
860,1686274400.45,34.18,-54.199,-98.633,26.367,1106.35,342.6186947705803
861,1686274400.46,-12.207,-509.277,-319.336,-44.922,1106.354,343.859761753105
862,1686274400.46,-89.355,-855.957,-400.879,-85.938,1106.358,333.6789200972868
863,1686274400.46,-63.965,-23.438,24.902,-45.898,1106.362,347.0715148335606
864,1686274400.47,19.043,157.715,6.836,22.461,1106.364,342.57037028412145
865,1686274400.47,26.367,16.113,-38.086,-10.254,1106.367,338.49695005736993
866,1686274400.48,-46.875,206.543,47.852,-96.68,1106.371,346.62551973312145
867,1686274400.48,-63.477,346.68,91.797,-74.219,1106.375,349.5340909381072
868,1686274400.48,4.883,273.438,45.41,18.555,1106.379,347.35355921173914
869,1686274400.49,20.996,-161.133,-193.359,9.766,1106.383,346.1186641478596
870,1686274400.49,-49.316,-181.152,-131.348,-88.379,1106.387,346.97944274327915
871,1686274400.49,-83.008,251.465,95.703,-100.586,1106.391,344.77361518765537
872,1686274400.5,-19.043,74.707,-76.172,6.348,1106.395,350.45513004338505
873,1686274400.5,28.809,-774.902,-387.695,47.852,1106.399,352.48479350634403
874,1686274400.51,-13.672,-394.043,-124.512,-55.664,1106.403,354.22145933151455
875,1686274400.51,-57.129,379.395,114.258,-97.656,1106.406,357.8465225459498
876,1686274400.51,-29.785,-12.695,-88.379,-1.465,1106.409,347.1574448220377
877,1686274400.52,24.902,-131.836,-127.441,35.156,1106.413,346.08580703806274
878,1686274400.52,4.883,289.062,68.359,-45.41,1106.416,355.14985921018945
879,1686274400.52,-62.988,293.457,26.367,-104.004,1106.42,351.7793757852767
880,1686274400.53,-55.664,-16.602,-125.488,-41.504,1106.424,355.10181649645045
881,1686274400.53,11.719,-259.277,-200.195,27.832,1106.428,344.1214756533131
882,1686274400.54,19.531,-208.008,-168.945,-16.113,1106.432,366.60003705472275
883,1686274400.54,-40.039,-70.312,-132.324,-95.703,1106.436,351.3329475133262
884,1686274400.54,-63.477,-540.039,-337.891,-61.035,1106.44,344.1403382662569
885,1686274400.55,-4.883,-857.91,-362.793,34.668,1106.444,356.76891331679826
886,1686274400.55,37.109,17.09,45.898,5.859,1106.448,358.3736977581932
887,1686274400.56,-19.531,144.043,-45.898,-87.891,1106.452,349.7721724421218
888,1686274400.56,-64.941,-288.574,-193.359,-87.402,1106.467,350.59956863961065
889,1686274400.56,-15.137,79.59,49.316,0.488,1106.471,357.6746189823353
890,1686274400.57,36.133,516.602,162.109,24.414,1106.475,354.28423796142636
891,1686274400.57,-7.324,247.559,-20.02,-56.152,1106.479,346.91579273729826
892,1686274400.57,-71.777,-5.859,-94.238,-93.75,1106.483,351.09566243509767
893,1686274400.58,-41.504,-11.719,-61.035,-12.695,1106.487,355.77624622068714
894,1686274400.58,29.785,89.844,46.875,40.527,1106.491,350.56666069776213
895,1686274400.58,12.695,35.645,-49.805,-24.414,1106.495,369.221097420051
896,1686274400.59,-56.641,-588.379,-310.059,-77.148,1106.498,359.7690896482184
897,1686274400.59,-49.805,-146.484,-2.93,-38.086,1106.502,350.60951370695926
898,1686274400.6,20.996,484.375,136.719,23.438,1106.506,353.2835220316595
899,1686274400.6,22.949,162.109,-15.625,-13.672,1106.51,349.9780005882373
900,1686274400.6,-38.086,33.691,-33.691,-91.797,1106.502,355.1597823429979
901,1686274400.61,-59.082,175.293,2.441,-68.359,1106.506,358.0554348208072
902,1686274400.61,-2.93,13.184,-62.988,14.16,1106.51,357.23328476542645
903,1686274400.62,36.133,-64.453,-54.688,10.742,1106.514,355.03349377844177
904,1686274400.62,-6.836,67.871,-9.277,-71.289,1106.517,357.62243050932335
905,1686274400.62,-51.27,-69.336,-118.652,-73.73,1106.521,359.11985258501056
906,1686274400.63,-9.277,-114.746,-113.77,11.23,1106.525,363.62619142756967
907,1686274400.63,44.434,-500.0,-246.582,53.223,1106.529,362.73524736839664
908,1686274400.63,5.371,-846.191,-343.75,-25.391,1106.533,356.86627753100674
909,1686274400.64,-54.199,-24.414,24.902,-94.727,1106.537,364.8524973292751
910,1686274400.64,-42.969,419.434,83.984,-23.926,1106.541,354.41436414906383
911,1686274400.65,20.02,-419.922,-255.371,57.129,1106.545,351.8701513903422
912,1686274400.65,23.926,-579.59,-217.773,1.953,1106.543,369.15045777164255
913,1686274400.65,-41.992,359.863,118.652,-96.68,1106.547,367.90037636035026
914,1686274400.66,-56.152,308.594,12.207,-52.734,1106.551,374.15942182240246
915,1686274400.66,12.695,110.352,-38.574,31.25,1106.555,356.69404823070283
916,1686274400.66,33.691,120.117,-9.766,3.906,1106.559,365.75537957605667
917,1686274400.67,-37.109,-1.465,-102.051,-84.961,1106.563,359.19305884001744
918,1686274400.67,-73.73,-103.516,-205.078,-79.102,1106.567,357.01909161830315
919,1686274400.67,-19.531,-732.422,-369.141,35.645,1106.571,362.46067474515013
920,1686274400.68,29.785,-455.078,-159.668,34.668,1106.575,360.6590637966541
921,1686274400.68,-11.719,435.547,121.094,-77.637,1106.579,369.38929674603804
922,1686274400.69,-65.43,178.223,-36.133,-96.191,1106.583,363.089391287503
923,1686274400.69,-24.902,72.266,-31.25,-9.766,1106.586,361.226993875389
924,1686274400.69,44.434,430.176,133.789,22.461,1106.589,369.57563209103165
925,1686274400.7,21.973,426.27,70.801,-52.734,1106.593,358.79223354520104
926,1686274400.7,-46.875,59.082,-61.035,-97.656,1106.597,369.83690017768544
927,1686274400.7,-38.086,100.586,35.156,-31.738,1106.601,364.1027777173823
928,1686274400.71,30.762,332.52,81.543,30.273,1106.605,361.4312124014592
929,1686274400.71,28.809,132.324,-42.969,-27.832,1106.608,352.59480562093904
930,1686274400.72,-45.41,-500.0,-301.758,-84.473,1106.612,368.9850857489567
931,1686274400.72,-72.266,-907.715,-398.926,-42.48,1106.616,355.69612652110254
932,1686274400.72,-4.883,-126.953,12.695,17.578,1106.62,355.4048176516975
933,1686274400.73,32.715,348.145,75.684,3.906,1106.624,361.2189286932579
934,1686274400.73,-30.273,-30.762,-120.605,-78.613,1106.628,364.4529391792239
935,1686274400.74,-73.242,0.977,-16.602,-86.426,1106.632,372.5764755815791
936,1686274400.75,-11.719,410.156,147.949,4.883,1106.649,360.2391712494919
937,1686274400.76,32.715,370.117,39.062,21.484,1106.652,359.9972641629307
938,1686274400.76,-17.09,-284.668,-177.734,-59.082,1106.656,364.9614812354842
939,1686274400.76,-64.453,-216.797,-53.711,-97.168,1106.66,360.7418076421498
940,1686274400.77,-26.855,285.156,82.031,-18.066,1106.664,355.88660276403306
941,1686274400.77,31.25,34.18,-76.66,40.527,1106.668,372.1737703695931
942,1686274400.78,6.348,-577.148,-250.488,-24.414,1106.672,362.04494070189793
943,1686274400.78,-61.035,-218.75,-17.578,-101.562,1106.676,369.0971232364487
944,1686274400.78,-49.805,447.266,150.879,-51.758,1106.68,359.7610687739818
945,1686274400.79,28.809,86.426,-71.777,41.016,1106.684,362.48023403244565
946,1686274400.79,28.809,-93.75,-127.441,1.465,1106.688,353.23804677385965
947,1686274400.8,-41.992,317.383,91.309,-91.797,1106.692,367.3809544525284
948,1686274400.8,-61.523,396.973,91.797,-66.895,1106.693,353.18880129895143
949,1686274400.8,-3.906,20.996,-2.441,28.809,1106.697,362.57238926800943
950,1686274400.8,30.762,-54.199,-10.254,22.949,1106.701,368.3373452584562
951,1686274400.81,-19.531,299.805,75.195,-74.219,1106.705,360.3729303245604
952,1686274400.81,-72.266,237.305,-8.789,-85.938,1106.709,364.7644652340516
953,1686274400.82,-35.156,-238.77,-145.02,10.254,1106.713,369.07315501993565
954,1686274400.82,15.137,-456.543,-181.152,41.504,1106.717,363.8278504393229
955,1686274400.82,-19.043,-241.211,-149.902,-45.41,1106.721,357.4126248455134
956,1686274400.83,-66.406,105.469,9.277,-95.215,1106.725,362.0092728009942
957,1686274400.83,-49.805,-399.414,-231.445,-11.23,1106.729,366.13364269761644
958,1686274400.84,5.371,-852.539,-352.539,56.641,1106.732,371.08016675641477
959,1686274400.84,5.859,3.418,36.621,-27.832,1106.736,353.78600864434185
960,1686274400.84,-49.805,54.688,-83.496,-94.238,1106.739,359.3194634709314
961,1686274400.85,-51.27,-296.387,-200.195,-34.18,1106.743,362.8286953783896
962,1686274400.85,21.973,48.34,15.625,35.156,1106.746,369.83921010056923
963,1686274400.85,43.457,408.203,115.723,-2.441,1106.75,362.16496337534124
964,1686274400.86,-26.367,142.578,-50.293,-83.984,1106.754,362.6477956890652
965,1686274400.86,-64.941,-264.16,-245.605,-62.5,1106.758,370.19379325450524
966,1686274400.87,-6.348,-114.258,-85.449,25.879,1106.762,371.2239845615651
967,1686274400.87,48.828,367.188,158.691,20.996,1106.766,361.9501909425257
968,1686274400.87,-0.488,108.887,-79.59,-61.523,1106.77,360.18225587326907
969,1686274400.88,-61.523,-614.746,-355.957,-67.383,1106.774,381.4893556789018
970,1686274400.88,-17.578,-54.199,19.043,1.465,1106.778,365.8790251735549
971,1686274400.88,49.316,427.246,111.816,32.715,1106.782,358.03418761587665
972,1686274400.89,19.043,-19.531,-71.289,-30.762,1106.784,374.8385358726308
973,1686274400.89,-39.062,-10.254,-25.391,-81.055,1106.788,364.6435569987374
974,1686274400.9,-21.973,146.484,0.0,-19.043,1106.791,365.596371295201
975,1686274400.9,36.133,62.012,-28.32,42.48,1106.795,361.01876081666154
976,1686274400.9,36.621,-295.41,-186.523,0.488,1106.799,366.7519025241019
977,1686274400.91,-33.691,-512.207,-243.164,-73.242,1106.803,369.21857226521206
978,1686274400.91,-51.27,-224.609,-127.93,-46.387,1106.807,356.8039337015322
979,1686274400.92,21.484,-19.531,-101.562,21.484,1106.811,367.96563084749727
980,1686274400.92,43.945,-432.129,-304.199,7.324,1106.815,372.8661183980947
981,1686274400.92,-32.715,-906.738,-394.531,-67.871,1106.819,363.62785775873317
982,1686274400.93,-67.383,-31.738,37.109,-80.566,1106.823,361.6803743432643
983,1686274400.93,-1.465,337.891,54.199,10.254,1106.827,361.67223214710697
984,1686274400.93,42.969,89.844,0.488,24.414,1106.829,350.9915068190459
985,1686274400.94,-2.93,315.918,110.84,-61.523,1106.833,357.4584733737951
986,1686274400.94,-51.758,440.918,89.844,-92.773,1106.837,364.8816470280402
987,1686274400.94,-11.719,268.555,-1.953,1.953,1106.841,367.1847816546882
988,1686274400.95,48.34,52.734,-61.035,56.641,1106.844,362.92614965625467
989,1686274400.95,15.625,-43.945,-47.363,-30.273,1106.848,367.60868042771307
990,1686274400.96,-44.922,-116.211,-116.211,-95.215,1106.852,357.00304832625824
991,1686274400.96,-31.25,-163.574,-208.984,-36.133,1106.856,374.4210147170144
992,1686274400.96,24.902,-712.402,-370.117,48.828,1106.86,367.6147332915792
993,1686274400.97,26.367,-444.336,-137.207,0.0,1106.864,363.7759457418784
994,1686274400.97,-38.086,356.445,117.676,-98.145,1106.868,363.85517759395276
995,1686274400.98,-62.988,110.352,-29.785,-71.289,1106.872,372.9028026863575
996,1686274400.98,-2.93,79.102,-13.184,20.02,1106.873,366.0037609043065
997,1686274400.98,24.414,416.016,137.207,3.906,1106.877,350.2383608354633
998,1686274400.98,-33.203,324.219,56.152,-87.402,1106.881,363.2947142600151
999,1686274400.99,-69.824,28.809,-41.992,-72.266,1106.885,367.7557293054788
1000,1686274400.99,-14.648,82.031,22.461,31.738,1106.889,365.24505737090726
1001,1686274401.0,36.621,53.711,5.371,43.945,1106.893,357.6043366843052
1002,1686274401.0,-3.906,-71.777,-92.773,-54.688,1106.897,368.61970372529447
1003,1686274401.0,-74.219,-471.191,-303.223,-81.055,1106.901,363.8075289112433
1004,1686274401.01,-59.57,-1000.0,-479.98,14.16,1106.905,359.3408454435206
1005,1686274401.01,22.461,-326.172,-89.844,49.316,1106.909,365.50790592837905
1006,1686274401.02,22.949,389.648,66.895,-29.785,1106.913,350.45874436516027
1007,1686274401.02,-49.805,91.797,-40.527,-92.773,1106.916,366.48329000628144
1008,1686274401.02,-49.805,193.359,63.965,-42.969,1106.918,362.0161043883568
1009,1686274401.03,23.438,520.508,144.531,33.691,1106.922,369.5179822719322
1010,1686274401.03,34.18,358.887,35.645,0.977,1106.926,371.4618014891208
1011,1686274401.03,-34.668,71.777,-44.922,-89.355,1106.93,359.3620331657727
1012,1686274401.04,-68.359,164.551,19.043,-87.891,1106.934,364.8178064272612
1013,1686274401.04,-0.488,84.961,-8.789,7.324,1106.938,361.90587294301696
1014,1686274401.05,34.18,-122.559,-137.695,17.578,1106.942,369.6806159380898
1015,1686274401.05,-40.039,-597.168,-291.016,-77.148,1106.946,361.6615030481416
1016,1686274401.05,-84.961,-261.719,-19.531,-100.586,1106.95,365.1219116109116
1017,1686274401.06,-28.32,327.637,103.516,-16.113,1106.954,368.43626756921213
1018,1686274401.06,25.879,-19.043,-115.234,30.762,1106.957,364.9453015144344
1019,1686274401.06,-15.137,-127.93,-127.441,-53.711,1106.961,371.692470277033
1020,1686274401.08,-77.148,236.816,81.543,-120.117,1106.978,365.88267649896216
1021,1686274401.09,-59.57,356.934,82.031,-38.574,1106.982,370.79849280607675
1022,1686274401.09,12.207,25.391,-28.809,45.41,1106.986,359.2469533615509
1023,1686274401.1,7.812,-65.43,-34.668,-20.508,1106.99,364.63531502270314
1024,1686274401.1,-64.453,207.52,40.527,-115.234,1106.994,366.0147996913593
1025,1686274401.1,-64.941,66.895,-42.48,-59.57,1106.998,360.46718670541713
1026,1686274401.11,1.465,-521.973,-290.527,49.316,1107.002,360.6491024465844
1027,1686274401.11,-0.977,-905.762,-349.609,13.184,1107.006,368.9677432383791
1028,1686274401.11,-20.996,316.895,65.43,-59.082,1107.022,354.761612378104
1029,1686274401.11,-53.223,-145.508,-17.09,-103.516,1107.01,358.2432593873421
1030,1686274401.12,-76.172,-19.043,-92.773,-88.867,1107.026,365.7740046917449
1031,1686274401.12,-76.172,238.77,43.457,-97.168,1107.014,356.1807909832639
1032,1686274401.12,-39.551,-281.738,-157.227,-6.348,1107.03,366.52412437722415
1033,1686274401.12,-22.949,16.113,-62.988,5.859,1107.017,365.87099359279244
1034,1686274401.12,23.438,101.074,46.387,20.508,1107.034,360.10266746933945
1035,1686274401.13,28.32,184.57,19.531,29.297,1107.021,363.08973327952896
1036,1686274401.13,-3.906,349.121,103.516,-54.199,1107.038,368.35271877254206
1037,1686274401.13,-74.707,-155.762,-178.711,-93.75,1107.041,362.25154723879484
1038,1686274401.14,-63.477,-360.352,-171.387,-25.391,1107.045,369.6445245536282
1039,1686274401.14,16.113,137.695,77.148,40.039,1107.049,352.6863748057136
1040,1686274401.14,18.066,433.594,139.16,-25.391,1107.053,370.2291818494489
1041,1686274401.15,-54.199,1.953,-108.398,-98.633,1107.057,363.93262585942546
1042,1686274401.15,-80.566,-632.324,-351.562,-59.57,1107.061,354.25007744213906
1043,1686274401.16,-9.766,-53.223,20.02,8.301,1107.065,363.25227941201484
1044,1686274401.17,28.32,410.156,125.0,-6.348,1107.083,361.3684566808752
1045,1686274401.18,-36.621,13.672,-42.969,-90.332,1107.087,360.4520554616826
1046,1686274401.18,-75.195,-36.133,-35.645,-84.473,1107.091,361.42663804646037
1047,1686274401.18,-17.578,92.773,3.906,19.043,1107.095,356.2863253680013
1048,1686274401.19,31.738,94.238,17.578,32.715,1107.099,364.9756146057989
1049,1686274401.19,-12.695,-400.391,-218.262,-39.551,1107.103,365.7886069289702
1050,1686274401.2,-74.219,-839.844,-386.23,-62.988,1107.107,362.7944806150168
1051,1686274401.2,-42.969,-254.883,-114.746,-10.254,1107.11,363.54915686130164
1052,1686274401.2,32.715,273.926,65.43,32.227,1107.114,362.2619322576805
1053,1686274401.21,4.395,-324.707,-197.266,-23.438,1107.118,369.59594921327005
1054,1686274401.21,-65.43,-584.961,-252.441,-87.891,1107.122,359.28282756253304
1055,1686274401.22,-44.922,310.547,131.836,-41.992,1107.126,364.85497355789295
1056,1686274401.22,30.273,284.18,42.969,44.922,1107.114,370.02113587186204
1057,1686274401.22,31.25,45.898,-2.441,4.395,1107.118,353.9493834436884
1058,1686274401.22,-37.109,199.219,87.402,-82.52,1107.122,361.5054349361554
1059,1686274401.23,-56.641,329.102,95.215,-57.129,1107.126,362.0073064686756
1060,1686274401.23,8.789,222.656,17.09,43.945,1107.129,360.6750350375858
1061,1686274401.24,38.086,-148.438,-137.695,43.945,1107.133,360.61206851886215
1062,1686274401.24,-22.949,-280.273,-153.809,-58.594,1107.137,360.1406390178935
1063,1686274401.24,-62.012,1.465,-18.555,-81.543,1107.141,367.63276909240597
1064,1686274401.25,-13.184,25.391,-60.547,7.324,1107.145,357.17245466797294
1065,1686274401.25,42.969,-154.297,-132.812,40.039,1107.149,363.4933180901303
1066,1686274401.26,8.301,140.137,69.336,-53.711,1107.153,358.0218118300999
1067,1686274401.26,-58.594,359.375,113.281,-103.027,1107.157,370.71267532677166
1068,1686274401.26,-42.969,-37.109,-114.746,-15.137,1107.159,362.68861987590213
1069,1686274401.27,10.742,-668.457,-309.082,46.387,1107.163,361.98220103225333
1070,1686274401.27,1.953,-71.289,40.039,-43.457,1107.167,370.30524826209466
1071,1686274401.28,-54.199,298.828,85.938,-109.863,1107.171,356.92004044161956
1072,1686274401.28,-62.988,2.441,-58.105,-40.039,1107.175,360.96122096177055
1073,1686274401.28,2.93,-128.906,-103.516,45.898,1107.178,369.9812911781688
1074,1686274401.29,21.484,-157.715,-156.25,14.648,1107.182,360.41998985565766
1075,1686274401.29,-46.387,-124.023,-140.625,-82.031,1107.186,360.19084108061367
1076,1686274401.29,-73.242,-487.305,-298.34,-58.594,1107.19,359.2483038890697
1077,1686274401.3,-14.16,-1000.0,-469.238,60.547,1107.194,361.54955235719166
1078,1686274401.3,27.832,-322.266,-58.105,35.156,1107.198,352.3881669020111
1079,1686274401.31,-25.879,304.199,83.008,-77.637,1107.202,354.9916537565638
1080,1686274401.31,-78.125,25.879,-43.945,-92.773,1107.204,364.33049165071867
1081,1686274401.31,-27.832,217.285,76.66,-4.395,1107.208,366.1437899069509
1082,1686274401.32,41.504,497.07,135.742,38.086,1107.212,367.92370625255325
1083,1686274401.32,15.137,284.18,2.441,-37.598,1107.216,370.8862789144456
1084,1686274401.32,-59.082,-11.719,-84.473,-86.426,1107.22,354.3628113754729
1085,1686274401.33,-51.27,-135.742,-79.102,-19.531,1107.224,369.037332366498
1086,1686274401.33,18.066,27.832,51.758,38.574,1107.228,362.0399152612666
1087,1686274401.34,6.348,133.789,4.395,-18.555,1107.232,368.6165064068689
1088,1686274401.34,-70.801,-594.238,-300.781,-71.777,1107.235,365.3310721329109
1089,1686274401.34,-70.312,-242.188,3.418,-40.039,1107.239,357.26517154730794
1090,1686274401.35,0.0,472.656,163.086,23.438,1107.243,366.2064946051211
1091,1686274401.35,20.02,-2.441,-116.211,4.395,1107.247,366.82874227211545
1092,1686274401.35,-40.527,-157.715,-131.348,-86.914,1107.263,354.299176146057
1093,1686274401.36,-73.73,276.855,109.375,-92.773,1107.267,361.6395737711771
1094,1686274401.36,-15.137,390.137,125.977,9.277,1107.271,365.2912869525066
1095,1686274401.36,33.691,29.297,0.977,36.621,1107.274,352.3879323932338
1096,1686274401.37,-11.23,-53.223,-3.906,-56.641,1107.278,362.02325120225424
1097,1686274401.37,-61.035,6.836,-40.039,-92.285,1107.282,358.8661007698765
1098,1686274401.38,-29.785,-62.5,-102.051,-12.695,1107.286,363.36058686876044
1099,1686274401.38,24.414,-446.289,-271.484,43.457,1107.29,369.7876083409022
1100,1686274401.38,-3.906,-993.652,-397.949,-16.602,1107.294,360.1334337182849
1101,1686274401.39,-62.988,-206.055,3.906,-102.539,1107.298,363.25504747858906
1102,1686274401.39,-49.316,329.59,103.516,-42.969,1107.302,362.90582798320946
1103,1686274401.4,16.602,131.836,25.391,41.504,1107.306,374.9846443811775
1104,1686274401.4,18.066,266.602,117.188,-8.301,1107.297,358.4537935941742
1105,1686274401.4,-49.316,297.852,45.898,-84.473,1107.301,351.0778429169306
1106,1686274401.41,-64.941,-23.926,-120.605,-53.711,1107.305,367.6449006498947
1107,1686274401.41,5.371,-178.711,-104.98,24.414,1107.309,358.5680892902723
1108,1686274401.41,43.945,109.375,26.855,14.648,1107.313,366.2306345851563
1109,1686274401.42,-15.625,70.312,-33.691,-64.941,1107.316,360.3458767242605
1110,1686274401.42,-64.941,-265.625,-209.473,-66.895,1107.32,365.8773495745022
1111,1686274401.42,-17.578,-464.355,-201.66,18.066,1107.324,368.14709936433064
1112,1686274401.43,36.133,-4.395,38.574,24.414,1107.328,346.85634822452147
1113,1686274401.43,-3.906,489.746,153.32,-72.266,1107.332,352.2913499663127
1114,1686274401.44,-69.336,-26.855,-149.414,-103.027,1107.336,364.5212800247792
1115,1686274401.44,-42.969,-477.539,-234.863,-16.113,1107.34,340.8755213990508
1116,1686274401.46,32.715,185.547,128.906,23.926,1107.353,361.162647159124
1117,1686274401.46,14.16,442.383,98.145,-44.434,1107.357,355.1392830302509
1118,1686274401.47,-57.617,18.066,-55.664,-99.121,1107.361,362.6695032727742
1119,1686274401.47,-56.152,-5.371,-17.578,-52.246,1107.365,359.6021615585565
1120,1686274401.47,25.391,138.672,19.043,30.762,1107.369,364.53583365545734
1121,1686274401.48,39.062,-11.23,-26.855,-1.465,1107.373,361.3230996443441
1122,1686274401.48,-42.48,-494.629,-284.18,-80.566,1107.377,358.11623235141184
1123,1686274401.48,-78.125,-1000.0,-433.594,-46.875,1107.381,375.35105535098097
1124,1686274401.49,-15.137,446.289,154.297,-15.625,1107.398,360.0495719370766
1125,1686274401.49,-8.301,-231.445,-2.441,20.02,1107.385,350.7938586789799
1126,1686274401.49,37.109,320.312,65.918,13.672,1107.402,349.4965723980396
1127,1686274401.49,37.109,378.418,119.629,4.883,1107.389,366.3407581901886
1128,1686274401.5,1.953,47.363,-13.672,-58.105,1107.406,348.07336747205454
1129,1686274401.5,-20.996,89.355,-45.41,-87.891,1107.393,367.83150047506206
1130,1686274401.5,-67.871,193.848,86.426,-97.656,1107.41,367.77193636928223
1131,1686274401.5,-61.523,151.367,20.02,-104.492,1107.396,362.22365553430535
1132,1686274401.5,-49.805,276.367,66.895,-20.508,1107.414,356.0577777462832
1133,1686274401.51,24.902,-47.852,-72.266,51.27,1107.418,371.2506990545395
1134,1686274401.51,8.301,-316.406,-175.293,-11.23,1107.422,363.53151768251956
1135,1686274401.52,-68.359,-236.816,-141.602,-94.238,1107.426,366.7799896053518
1136,1686274401.52,-69.336,161.621,55.664,-63.965,1107.429,366.9893309665487
1137,1686274401.52,0.0,111.328,-23.438,20.996,1107.433,364.1649406662872
1138,1686274401.53,23.438,-735.84,-365.234,16.602,1107.437,355.8793330060183
1139,1686274401.53,-32.227,-397.949,-103.516,-80.566,1107.441,365.0011200550324
1140,1686274401.53,-65.918,310.547,137.207,-89.844,1107.443,355.7795010196936
1141,1686274401.54,-6.836,85.449,15.137,13.184,1107.447,358.8448847799584
1142,1686274401.54,32.715,91.797,30.273,25.879,1107.45,361.72838521721354
1143,1686274401.54,-26.367,320.801,75.684,-71.289,1107.454,363.63085926588167
1144,1686274401.55,-78.613,238.281,17.578,-85.938,1107.458,366.3485035529341
1145,1686274401.55,-32.227,-164.062,-97.168,7.812,1107.462,355.94871380798344
1146,1686274401.56,41.016,-324.219,-133.789,57.617,1107.466,369.93526752485286
1147,1686274401.56,7.324,-159.668,-89.355,-15.625,1107.47,354.7000535574324
1148,1686274401.56,-60.547,104.492,21.973,-80.078,1107.474,356.94083501897006
1149,1686274401.57,-51.27,-389.648,-206.055,-9.766,1107.478,360.50239075819826
1150,1686274401.57,6.836,-990.723,-366.699,61.523,1107.482,357.45018820516583
1151,1686274401.58,12.207,-111.816,72.266,-20.996,1107.486,357.37291916180214
1152,1686274401.59,-50.781,265.625,54.199,-113.77,1107.489,355.4349045957449
1153,1686274401.6,-69.336,-15.137,-54.199,-65.43,1107.493,369.1638719259335
1154,1686274401.6,-4.883,201.66,101.074,21.973,1107.497,364.89382664382595
1155,1686274401.6,22.461,417.48,148.438,-0.488,1107.501,357.3186697889141
1156,1686274401.61,-32.715,198.242,3.418,-75.684,1107.505,363.17699549785186
1157,1686274401.61,-73.73,-258.789,-152.344,-72.266,1107.509,372.965883039873
1158,1686274401.62,-25.879,-125.977,-16.113,4.883,1107.513,348.88286585439914
1159,1686274401.62,28.32,370.605,161.621,13.672,1107.517,366.2951886969033
1160,1686274401.62,-10.742,93.75,-41.504,-72.754,1107.521,377.2466387810907
1161,1686274401.63,-65.43,-466.797,-248.047,-84.473,1107.525,357.82860092729914
1162,1686274401.63,-32.227,35.645,40.527,-3.906,1107.528,361.064065385529
1163,1686274401.64,29.785,433.594,152.832,26.367,1107.532,357.5003629610953
1164,1686274401.64,2.441,-85.449,-95.215,-37.598,1107.533,360.2765654494948
1165,1686274401.64,-60.059,-226.562,-134.277,-86.914,1107.537,365.5603270926099
1166,1686274401.65,-54.199,208.984,97.656,-36.133,1107.541,363.6304875137394
1167,1686274401.65,14.648,389.648,133.789,32.227,1107.545,361.92742861665744
1168,1686274401.65,20.508,-185.059,-130.859,-5.859,1107.549,359.05561721080977
1169,1686274401.66,-56.641,-631.836,-263.184,-78.613,1107.553,357.3662331827485
1170,1686274401.66,-73.242,-263.184,-107.91,-53.711,1107.557,372.80117474560797
1171,1686274401.66,-1.465,-4.395,7.812,25.879,1107.561,370.2325240872743
1172,1686274401.67,20.02,-423.34,-196.777,25.879,1107.565,353.24641973980545
1173,1686274401.67,-37.109,-918.945,-354.98,-43.945,1107.569,352.56801491386705
1174,1686274401.68,-70.312,-90.82,66.895,-76.172,1107.572,353.37950020863593
1175,1686274401.68,-27.832,312.988,92.773,-4.883,1107.576,362.8126560682072
1176,1686274401.68,34.18,137.695,30.273,33.691,1107.579,362.8168286564416
1177,1686274401.69,1.953,273.926,99.609,-47.363,1107.583,359.2200822923663
1178,1686274401.69,-59.57,208.496,-2.93,-91.309,1107.587,366.0713126561908
1179,1686274401.69,-38.086,-49.805,-70.801,-12.207,1107.591,372.891306935263
1180,1686274401.7,24.414,-225.586,-57.617,40.527,1107.595,362.2390498703649
1181,1686274401.7,9.277,-250.488,-55.664,-33.203,1107.599,355.9986533213756
1182,1686274401.71,-50.293,-12.695,8.789,-92.285,1107.603,365.3069705626062
1183,1686274401.71,-43.457,27.832,-46.387,-33.203,1107.607,355.7857503969402
1184,1686274401.71,21.484,-442.871,-187.988,54.199,1107.61,365.6623764837604
1185,1686274401.72,35.156,-35.156,55.664,6.348,1107.614,363.8446459486117
1186,1686274401.72,-25.391,466.797,171.875,-89.355,1107.618,346.06042629996404
1187,1686274401.72,-48.34,41.992,-50.293,-61.523,1107.622,351.8004557618901
1188,1686274401.73,11.23,-81.543,-70.801,36.133,1107.624,351.63377651914226
1189,1686274401.73,42.969,361.816,152.344,25.879,1107.628,367.2901314907012
1190,1686274401.74,-14.16,373.535,115.234,-78.125,1107.631,361.43981124687105
1191,1686274401.74,-58.105,48.34,-2.441,-90.332,1107.635,353.2050237411856
1192,1686274401.74,-23.926,5.859,-4.395,-0.488,1107.639,370.80285636330456
1193,1686274401.75,30.762,31.738,3.906,39.062,1107.643,364.94434044036194
1194,1686274401.75,8.789,-99.609,-68.848,-34.18,1107.647,367.59882953052187
1195,1686274401.75,-68.848,-521.484,-298.828,-83.984,1107.651,348.67462596065974
1196,1686274401.76,-61.035,-1000.0,-470.215,-1.465,1107.655,358.2226431345859
1197,1686274401.76,22.461,-416.504,-98.145,49.805,1107.659,354.88695166525076
1198,1686274401.77,21.484,289.551,76.172,-19.043,1107.663,364.06637499742055
1199,1686274401.77,-53.711,70.312,-6.348,-92.773,1107.667,359.661882952356
1200,1686274401.77,-55.176,203.125,115.723,-55.176,1107.683,363.7219746987085
1201,1686274401.78,19.531,465.332,146.973,28.32,1107.687,354.2664264334879
1202,1686274401.78,37.598,232.422,23.438,11.23,1107.691,355.3796016479542
1203,1686274401.78,-25.391,8.789,-20.02,-71.777,1107.695,353.68611031055235
1204,1686274401.79,-51.758,163.086,43.945,-62.988,1107.699,358.43668153155943
1205,1686274401.79,-0.977,55.176,3.418,28.32,1107.703,367.9848508904805
1206,1686274401.8,40.039,-128.418,-80.078,28.809,1107.707,355.01904573328403
1207,1686274401.8,-11.719,-608.398,-248.535,-55.664,1107.711,349.49294331475136
1208,1686274401.8,-66.406,-519.043,-149.414,-81.543,1107.715,364.1236840784252
1209,1686274401.81,-27.344,263.184,113.77,-19.531,1107.718,362.13321386947996
1210,1686274401.81,37.598,112.793,-33.203,29.785,1107.722,353.99751811823154
1211,1686274401.82,8.789,-175.781,-145.508,-31.25,1107.726,351.4506084033922
1212,1686274401.83,-64.453,199.707,94.238,-104.98,1107.729,352.204981251168
1213,1686274401.84,-50.781,382.324,162.109,-47.852,1107.732,362.85031320420774
1214,1686274401.84,18.555,-111.816,-68.359,30.762,1107.736,359.1970307031488
1215,1686274401.84,19.531,-312.012,-162.598,-12.695,1107.74,368.7404010231018
1216,1686274401.85,-40.039,140.137,39.551,-93.262,1107.744,354.7319800488868
1217,1686274401.85,-64.941,-56.152,-104.98,-60.059,1107.748,349.100870131607
1218,1686274401.86,-8.789,-398.926,-180.664,34.18,1107.752,354.0737665130146
1219,1686274401.86,19.531,-377.441,-41.016,14.648,1107.756,366.7764833646332
1220,1686274401.86,-34.668,77.148,63.477,-96.68,1107.76,357.7211678917358
1221,1686274401.87,-74.707,303.223,84.473,-99.121,1107.764,361.57331176654816
1222,1686274401.87,-28.32,-399.414,-218.262,17.09,1107.768,356.3590391167638
1223,1686274401.88,17.578,-980.469,-368.164,49.316,1107.771,359.1330008719029
1224,1686274401.88,-21.484,-128.906,43.945,-65.43,1107.787,368.7438097023662
1225,1686274401.88,-69.824,270.996,61.523,-104.98,1107.791,358.3042117054418
1226,1686274401.88,-44.922,33.203,-24.414,-9.766,1107.795,360.9257029372998
1227,1686274401.89,20.02,265.137,124.023,41.016,1107.799,364.66940310436877
1228,1686274401.89,8.301,403.809,108.887,-33.691,1107.803,361.5825428611621
1229,1686274401.9,-65.43,-102.051,-126.953,-93.262,1107.807,365.8279335412335
1230,1686274401.9,-69.824,-305.664,-90.332,-42.969,1107.811,370.32062630882496
1231,1686274401.9,14.16,176.27,114.258,25.391,1107.815,367.3052223805632
1232,1686274401.91,36.621,441.895,149.414,-12.207,1107.819,357.2020999018121
1233,1686274401.91,52.246,464.355,179.199,17.578,1107.818,359.77338999512796
1234,1686274401.91,-35.156,54.199,-64.453,-88.867,1107.823,367.9972482872672
1235,1686274401.91,-12.207,-216.797,-141.602,-66.895,1107.822,370.64601948581173
1236,1686274401.92,-64.941,-419.922,-161.621,-79.102,1107.826,362.6495627802813
1237,1686274401.92,-65.918,-588.379,-277.344,-50.293,1107.827,371.22260846386604
1238,1686274401.92,-10.254,298.828,162.109,3.906,1107.83,368.435878515722
1239,1686274401.92,7.812,-43.457,60.547,32.227,1107.83,366.35479940637674
1240,1686274401.92,54.688,405.762,112.793,32.715,1107.833,380.1686914765448
1241,1686274401.93,3.906,-220.703,-78.125,-44.922,1107.837,354.48241505584264
1242,1686274401.93,-66.895,-463.379,-128.418,-83.984,1107.841,362.5304420747189
1243,1686274401.94,-37.598,-157.715,-36.621,-8.789,1107.845,359.01914592693885
1244,1686274401.94,32.715,3.418,14.648,44.434,1107.849,357.210322248344
1245,1686274401.94,16.602,-299.805,-85.938,-18.555,1107.853,355.70116708420454
1246,1686274401.95,-44.922,-283.203,-12.695,-88.867,1107.857,366.44916828398704
1247,1686274401.95,-48.34,272.949,114.258,-49.316,1107.861,360.14376734994363
1248,1686274401.97,18.066,428.223,95.703,32.227,1107.878,354.69193316898946
1249,1686274401.97,32.715,-412.598,-230.957,13.672,1107.882,362.1359917169674
1250,1686274401.98,-35.156,-634.766,-234.375,-60.059,1107.886,360.05876296494387
1251,1686274401.98,-58.105,119.629,51.27,-67.383,1107.89,359.0743982959132
1252,1686274401.98,-1.953,33.203,-12.207,17.578,1107.894,355.1866310930255
1253,1686274401.99,41.992,-439.941,-149.902,53.223,1107.898,357.1735128948264
1254,1686274401.99,-5.859,-270.996,-35.645,-37.109,1107.902,360.1402994063028
1255,1686274401.99,-65.918,363.281,148.926,-88.867,1107.906,356.239331340966
1256,1686274402.0,-31.25,107.422,-44.922,-6.836,1107.91,363.21605671328734
1257,1686274402.0,33.203,-331.055,-108.398,36.621,1107.914,354.37840235783
1258,1686274402.01,3.906,107.422,100.586,-52.246,1107.918,363.2831079574308
1259,1686274402.01,-61.523,426.27,147.949,-107.91,1107.921,362.60731130559134
1260,1686274402.01,-46.387,100.098,8.301,-31.738,1107.908,363.4069610201322
1261,1686274402.02,26.367,56.641,8.301,33.203,1107.912,360.2486812909319
1262,1686274402.02,36.133,340.82,122.559,-14.648,1107.916,360.98307169756
1263,1686274402.02,-24.414,287.109,76.172,-82.52,1107.92,358.502523544745
1264,1686274402.03,-57.617,-20.02,-36.621,-49.805,1107.924,351.38326277584974
1265,1686274402.03,-8.789,-250.0,-120.605,36.133,1107.928,355.2935594730745
1266,1686274402.04,21.484,-130.371,-9.766,20.996,1107.932,356.94528602839875
1267,1686274402.04,-30.273,-104.004,-80.566,-69.336,1107.936,358.83251830525876
1268,1686274402.04,-70.801,-498.535,-221.68,-69.824,1107.94,364.25049544549785
1269,1686274402.05,-18.066,-261.719,16.113,15.137,1107.944,369.41114605708765
1270,1686274402.05,40.527,357.422,142.578,28.809,1107.948,354.85594628039235
1271,1686274402.06,-5.859,407.715,103.027,-59.57,1107.951,362.42980299171904
1272,1686274402.06,-77.148,-373.047,-215.82,-73.73,1107.954,362.3606472430869
1273,1686274402.06,-49.805,-962.402,-343.262,22.461,1107.958,361.6678353713895
1274,1686274402.06,20.02,-13.184,95.703,39.551,1107.962,343.0513912379663
1275,1686274402.07,3.418,284.668,51.27,-31.25,1107.966,363.5499874902607
1276,1686274402.07,-62.012,3.906,-61.035,-86.914,1107.97,354.6723522819204
1277,1686274402.08,-54.199,3.418,1.465,-38.086,1107.974,370.75380971051726
1278,1686274402.08,21.973,87.891,92.773,36.621,1107.977,349.97798062703384
1279,1686274402.08,22.949,133.301,14.648,-7.812,1107.981,356.71777843278204
1280,1686274402.09,-50.781,-592.285,-287.109,-83.008,1107.985,364.770001199232
1281,1686274402.09,-60.547,-399.414,-27.832,-62.988,1107.989,366.32237833015944
1282,1686274402.1,14.648,445.801,209.473,10.254,1107.993,359.3167291853327
1283,1686274402.1,45.898,97.656,-64.941,9.766,1107.997,366.1731948429163
1284,1686274402.1,-4.883,-289.062,-203.613,-67.383,1107.998,361.0534949493806
1285,1686274402.11,-44.434,187.012,80.078,-87.891,1108.002,369.5729128991107
1286,1686274402.11,1.953,398.438,135.742,-4.883,1108.006,367.99793183670744
1287,1686274402.11,54.199,171.387,39.551,37.109,1108.01,358.7135601435857
1288,1686274402.12,10.254,69.336,13.672,-45.898,1108.014,348.5575265826845
1289,1686274402.12,-53.223,-63.477,-42.48,-89.844,1108.018,359.9874199760304
1290,1686274402.13,-29.785,-108.398,-9.766,-16.602,1108.022,355.69490813789514
1291,1686274402.13,34.668,-462.402,-181.152,47.852,1108.026,362.05211885014364
1292,1686274402.13,10.254,-926.27,-327.148,-15.625,1108.03,350.87687602475967
1293,1686274402.14,-57.129,-110.84,40.039,-102.539,1108.033,354.5778218620895
1294,1686274402.14,-54.199,328.125,74.707,-57.617,1108.037,359.1358971637663
1295,1686274402.14,10.742,-5.859,-36.133,30.762,1108.041,354.84512934138706
