,timestamps,TP9,AF7,AF8,TP10,Secondary Timestamp,emg_signal
0,1686197597.09,-257.324,263.184,47.852,-251.465,1001.987,362.9274010788473
1,1686197597.09,-217.285,242.188,94.238,-214.844,1001.991,362.8767918268488
2,1686197597.1,-170.898,495.605,82.031,-203.613,1001.995,358.4090913148968
3,1686197597.1,-201.66,374.512,57.129,-241.699,1001.998,350.18337652928216
4,1686197597.1,-262.695,53.223,40.039,-263.672,1002.002,353.03533705246707
5,1686197597.11,-253.418,-178.711,51.27,-233.887,1002.006,354.0527916821299
6,1686197597.11,-196.777,93.262,66.406,-198.242,1002.01,353.2367814363364
7,1686197597.12,-198.73,272.949,23.438,-217.773,1002.014,363.4894745606812
8,1686197597.12,-252.93,-123.047,48.828,-257.812,1002.018,357.82906493536854
9,1686197597.12,-255.859,20.508,96.68,-249.023,1002.022,363.26897853218946
10,1686197597.13,-186.523,397.949,74.707,-200.195,1002.026,357.2737343056267
11,1686197597.13,-162.109,338.867,42.969,-198.73,1002.03,352.6115680524923
12,1686197597.15,-232.422,-562.5,0.488,-247.07,1002.045,367.6216829821226
13,1686197597.15,-263.672,-638.184,77.148,-259.766,1002.049,361.1592108402792
14,1686197597.16,-201.172,449.219,118.652,-216.797,1002.053,353.3369771572278
15,1686197597.16,-171.387,378.418,33.203,-197.754,1002.057,365.81193629431027
16,1686197597.16,-220.215,-125.977,0.977,-239.258,1002.06,362.95611851150295
17,1686197597.17,-266.113,-187.5,32.227,-269.531,1002.064,364.1650179287462
18,1686197597.17,-229.492,6.836,60.547,-232.422,1002.068,351.31509626294013
19,1686197597.18,-173.828,57.129,32.715,-192.383,1002.072,362.3825985557119
20,1686197597.18,-211.426,-712.891,-10.254,-218.75,1002.076,361.57680977249163
21,1686197597.18,-263.672,-403.32,67.871,-258.789,1002.08,358.83499511146266
22,1686197597.19,-229.492,541.504,78.125,-233.398,1002.084,361.3757909713803
23,1686197597.19,-173.34,68.359,38.574,-187.5,1002.088,367.55627457842263
24,1686197597.2,-167.48,39.062,67.383,-204.59,1002.095,369.67145553669377
25,1686197597.2,-213.867,547.852,69.336,-247.07,1002.099,372.5506582429573
26,1686197597.21,-235.84,422.852,43.945,-241.699,1002.103,359.7364053180427
27,1686197597.21,-190.43,194.824,77.637,-193.848,1002.107,363.8977754301178
28,1686197597.22,-170.41,278.32,62.5,-195.312,1002.111,364.5318630481606
29,1686197597.22,-231.934,132.324,15.625,-239.258,1002.115,373.90874894747606
30,1686197597.22,-266.113,-20.508,40.039,-247.07,1002.119,366.8000792777334
31,1686197597.23,-226.074,-14.648,89.355,-215.82,1002.123,359.510320796174
32,1686197597.23,-184.57,286.133,100.586,-197.266,1002.127,364.68511018914916
33,1686197597.23,-210.938,551.27,59.57,-231.445,1002.13,369.06171178655586
34,1686197597.24,-256.836,420.898,39.062,-252.93,1002.134,368.02357968955863
35,1686197597.24,-184.57,-152.344,95.215,-185.547,1002.136,368.05477585245336
36,1686197597.24,-239.746,-237.793,55.176,-216.309,1002.138,362.9595171911162
37,1686197597.24,-187.988,428.711,45.41,-218.75,1002.14,369.5670102524666
38,1686197597.25,-232.91,244.629,8.301,-253.418,1002.144,355.9896373646947
39,1686197597.25,-228.027,50.293,21.973,-230.957,1002.148,373.0142052897559
40,1686197597.26,-179.688,170.898,50.781,-198.242,1002.152,359.29665282787664
41,1686197597.26,-164.551,262.207,38.086,-205.078,1002.156,365.10085954874353
42,1686197597.26,-219.727,-22.461,-3.418,-243.164,1002.16,367.2371681899805
43,1686197597.27,-252.441,-18.555,18.555,-243.164,1002.163,371.58195763238115
44,1686197597.27,-197.754,535.645,62.988,-204.102,1002.167,374.66437289502045
45,1686197597.27,-224.609,-174.316,121.582,-216.797,1002.167,375.89280295721903
46,1686197597.27,-166.504,762.695,72.754,-199.219,1002.171,372.79644286402134
47,1686197597.27,-161.133,667.48,28.809,-203.613,1002.171,371.3782411505527
48,1686197597.28,-198.242,359.863,19.531,-229.004,1002.175,370.31986879202015
49,1686197597.28,-220.703,141.602,-23.926,-246.582,1002.175,371.02079750828915
50,1686197597.28,-273.438,-810.059,2.93,-248.047,1002.179,364.6662541479169
51,1686197597.28,-251.465,111.816,44.434,-262.207,1002.179,373.8676209334626
52,1686197597.29,-225.098,219.238,56.152,-224.121,1002.182,375.858463940779
53,1686197597.29,-174.316,224.609,35.645,-188.965,1002.186,370.6285479203113
54,1686197597.29,-187.988,-175.293,43.457,-217.285,1002.19,369.2080842255333
55,1686197597.3,-244.629,-49.316,76.66,-264.16,1002.194,369.799807114333
56,1686197597.3,-245.605,456.055,58.105,-257.812,1002.198,365.47160745914744
57,1686197597.3,-186.523,581.543,42.48,-208.984,1002.202,366.74336511877965
58,1686197597.31,-182.129,-268.555,-9.766,-208.984,1002.206,373.55990652853046
59,1686197597.31,-241.699,447.266,65.43,-252.441,1002.223,372.7795232611289
60,1686197597.31,-237.305,-595.215,28.809,-250.0,1002.21,377.6562985754349
61,1686197597.32,-186.035,497.559,2.441,-209.473,1002.227,373.7122740463418
62,1686197597.32,-165.039,247.559,-2.441,-207.52,1002.231,369.9008814775858
63,1686197597.32,-215.82,354.004,5.859,-257.324,1002.235,380.3979219753658
64,1686197597.33,-251.465,180.176,8.789,-265.137,1002.239,372.73958192603
65,1686197597.33,-219.727,-22.949,1.465,-218.262,1002.243,376.28030822139897
66,1686197597.34,-185.547,-655.273,-13.672,-186.035,1002.247,379.8461287274838
67,1686197597.34,-208.008,-572.266,49.805,-224.609,1002.251,382.3107428308907
68,1686197597.34,-246.582,537.598,47.363,-272.949,1002.255,387.75194133977953
69,1686197597.35,-233.398,324.219,-24.414,-240.234,1002.258,373.85142713183063
70,1686197597.35,-186.523,16.113,0.977,-197.754,1002.262,378.16855676639153
71,1686197597.36,-191.406,520.996,21.484,-224.609,1002.266,372.1964627559971
72,1686197597.37,-244.141,504.883,-35.156,-266.602,1002.272,384.8919530212904
73,1686197597.38,-259.277,136.719,0.0,-256.348,1002.276,379.0866761040947
74,1686197597.38,-212.891,234.375,52.246,-214.355,1002.28,373.06285474681937
75,1686197597.39,-192.871,443.848,22.461,-220.215,1002.283,380.312385475914
76,1686197597.39,-254.395,296.387,-25.879,-271.973,1002.287,380.7778395633643
77,1686197597.39,-289.062,-307.617,-7.812,-276.855,1002.291,389.3966678273326
78,1686197597.4,-230.957,-239.258,56.641,-228.027,1002.295,396.28322579522415
79,1686197597.4,-181.641,395.508,14.16,-207.031,1002.299,386.08481217483757
80,1686197597.4,-222.656,333.496,-45.898,-246.094,1002.303,377.44061118315113
81,1686197597.41,-277.344,-463.379,-35.156,-272.461,1002.307,391.98279713605604
82,1686197597.41,-246.094,-401.855,50.293,-233.398,1002.311,392.6427859293551
83,1686197597.42,-174.805,522.949,23.926,-204.59,1002.315,383.71738452657456
84,1686197597.42,-192.383,287.109,-35.645,-238.77,1002.315,384.305613903903
85,1686197597.42,-257.324,-40.527,1.953,-270.508,1002.319,386.11285974563236
86,1686197597.43,-241.699,228.516,30.762,-241.211,1002.323,392.03002434037927
87,1686197597.43,-179.199,430.176,0.0,-191.895,1002.327,383.22924683475577
88,1686197597.43,-177.246,68.359,-38.574,-200.195,1002.33,383.8793627405568
89,1686197597.44,-241.699,-313.965,-35.156,-250.977,1002.334,381.3344869562357
90,1686197597.44,-255.859,-204.102,1.465,-248.047,1002.338,389.5963460034624
91,1686197597.44,-186.523,221.68,23.438,-196.289,1002.342,385.2108559638759
92,1686197597.45,-163.086,208.008,-43.945,-191.406,1002.346,390.1550686408593
93,1686197597.45,-223.633,-781.738,-61.523,-229.98,1002.35,384.0780906087455
94,1686197597.46,-258.301,-557.129,34.668,-247.07,1002.354,385.1506025981254
95,1686197597.46,-204.102,366.211,6.836,-210.449,1002.358,387.7289042716951
96,1686197597.46,-166.016,59.082,-38.574,-183.105,1002.362,395.8765438499827
97,1686197597.47,-201.172,-106.934,-8.789,-222.656,1002.366,390.0388988355882
98,1686197597.47,-240.234,495.117,7.324,-255.371,1002.37,385.65929327667106
99,1686197597.48,-215.332,568.848,-19.531,-219.238,1002.374,399.54485847611545
100,1686197597.48,-163.574,260.254,-33.203,-178.711,1002.377,393.38834380681334
101,1686197597.48,-175.781,-7.812,-39.551,-206.543,1002.381,397.9355444298731
102,1686197597.49,-224.121,108.887,-7.324,-245.117,1002.385,388.8394123510408
103,1686197597.49,-217.285,461.426,-2.441,-222.168,1002.389,391.0521249400607
104,1686197597.5,-179.688,-238.77,-32.227,-177.734,1002.393,391.67502953609153
105,1686197597.5,-177.246,-364.746,10.254,-194.336,1002.397,388.74782251857084
106,1686197597.5,-226.562,494.141,-9.277,-244.141,1002.401,401.14972544437967
107,1686197597.51,-253.418,323.242,-40.039,-238.77,1002.405,387.2953269569619
108,1686197597.52,-199.219,163.086,-6.836,-202.637,1002.419,398.7181384839435
109,1686197597.53,-158.203,283.203,-20.996,-196.289,1002.423,400.83086178605987
110,1686197597.53,-202.148,116.699,-23.438,-232.91,1002.427,394.6708931608582
111,1686197597.54,-247.07,-15.625,-19.531,-253.418,1002.431,407.8509059628639
112,1686197597.54,-204.59,-235.352,-24.414,-205.078,1002.435,392.1691405386019
113,1686197597.54,-164.551,-131.348,-0.977,-184.57,1002.439,395.160195402961
114,1686197597.55,-188.965,58.594,-22.949,-224.121,1002.443,399.22620553928795
115,1686197597.55,-224.609,-4.395,-45.41,-249.023,1002.447,392.88319183012106
116,1686197597.55,-215.82,-721.191,-46.875,-212.891,1002.45,390.40203116829497
117,1686197597.56,-224.609,233.887,41.992,-232.91,1002.452,397.8734169488007
118,1686197597.56,-159.668,-314.453,47.852,-169.434,1002.454,400.30556855683636
119,1686197597.56,-156.738,589.844,0.488,-186.523,1002.455,398.69809384006066
120,1686197597.56,-148.926,695.312,-12.695,-196.777,1002.458,394.6863845104336
121,1686197597.56,-159.668,498.047,-37.598,-205.566,1002.459,402.6886514052274
122,1686197597.57,-215.332,269.531,-27.344,-248.047,1002.462,400.81441296581363
123,1686197597.57,-218.75,101.074,-28.32,-254.395,1002.463,401.1387593239669
124,1686197597.57,-231.445,-34.18,4.883,-242.676,1002.467,403.55284178307005
125,1686197597.58,-176.758,82.031,-10.742,-183.594,1002.471,406.1886178700148
126,1686197597.58,-140.625,178.223,-27.344,-172.852,1002.475,405.24056640981286
127,1686197597.58,-185.547,-264.16,-13.184,-217.773,1002.479,404.98217566742386
128,1686197597.59,-224.121,-238.77,22.461,-243.652,1002.483,398.8813989267835
129,1686197597.59,-181.641,533.203,13.672,-210.449,1002.487,405.9271513383474
130,1686197597.59,-125.488,583.496,-34.668,-181.641,1002.491,398.6387445811512
131,1686197597.6,-159.668,-266.602,-25.391,-208.984,1002.495,405.6296083348431
132,1686197597.61,-222.656,-282.227,35.645,-245.117,1002.51,409.81822527726706
133,1686197597.62,-205.566,513.672,-8.789,-220.703,1002.514,400.95795900132924
134,1686197597.62,-142.09,308.105,-38.574,-164.551,1002.518,397.18075420557585
135,1686197597.62,-141.602,116.211,-34.18,-180.664,1002.521,404.2197246609277
136,1686197597.63,-203.613,82.031,-26.855,-223.633,1002.525,413.1289677106914
137,1686197597.63,-209.961,-37.109,-4.395,-204.59,1002.529,394.9460997302718
138,1686197597.64,-151.855,1.953,-9.766,-161.133,1002.533,411.41403691228226
139,1686197597.64,-146.484,-668.945,-56.152,-148.926,1002.537,405.56436335730086
140,1686197597.64,-212.402,-760.254,2.441,-201.66,1002.541,410.0237327172311
141,1686197597.64,-179.199,485.84,-14.16,-210.449,1002.542,413.72435629568844
142,1686197597.65,-232.91,398.926,26.367,-227.051,1002.545,413.77974599319083
143,1686197597.65,-217.285,390.625,-29.785,-232.422,1002.546,411.1387566637084
144,1686197597.65,-186.035,532.227,-11.23,-178.711,1002.549,407.744003273255
145,1686197597.65,-193.359,116.211,-6.836,-197.754,1002.55,401.9724850027639
146,1686197597.66,-151.855,315.43,7.812,-169.922,1002.553,399.25715974604304
147,1686197597.66,-141.602,203.613,15.625,-160.156,1002.554,394.1928719112076
148,1686197597.66,-153.32,263.184,-22.461,-189.941,1002.558,401.32282974870867
149,1686197597.66,-207.031,-43.945,-36.621,-227.539,1002.562,406.26065438331415
150,1686197597.67,-202.148,-228.516,-4.395,-203.613,1002.565,408.34214364245855
151,1686197597.67,-139.16,116.211,27.344,-160.645,1002.569,408.58090607443665
152,1686197597.68,-125.488,424.805,-18.066,-170.898,1002.573,406.6127075619874
153,1686197597.68,-184.57,232.422,-39.551,-218.262,1002.577,401.5102118078128
154,1686197597.68,-214.355,-572.266,-20.02,-213.379,1002.581,413.42013042912265
155,1686197597.69,-167.48,-583.008,29.297,-173.34,1002.585,413.8989298236709
156,1686197597.69,-143.555,515.625,17.09,-183.594,1002.598,410.67749535869916
157,1686197597.69,-203.613,382.812,-47.363,-224.609,1002.602,407.4287694376554
158,1686197597.7,-235.84,49.805,-8.301,-231.934,1002.606,406.7145242289741
159,1686197597.7,-175.781,367.188,17.09,-180.176,1002.61,409.02235512786734
160,1686197597.7,-133.301,244.629,-24.902,-157.227,1002.614,405.8262915068968
161,1686197597.71,-174.805,-90.332,-71.777,-203.125,1002.618,415.6024264431911
162,1686197597.71,-228.027,-794.434,-44.434,-213.867,1002.622,420.73877046937247
163,1686197597.72,-190.918,-449.219,66.406,-165.527,1002.625,417.0880800124984
164,1686197597.72,-122.559,754.883,24.414,-132.812,1002.629,418.36607129838535
165,1686197597.72,-150.879,428.223,-27.832,-165.039,1002.633,415.0636684190721
166,1686197597.73,-204.102,152.832,11.719,-204.102,1002.637,410.58296590851404
167,1686197597.73,-176.27,438.477,17.578,-181.152,1002.641,410.37803491781216
168,1686197597.74,-112.305,271.973,-15.625,-134.766,1002.642,411.6592817075484
169,1686197597.74,-107.91,-32.227,4.395,-150.879,1002.646,414.2169085504558
170,1686197597.74,-158.203,94.238,20.508,-200.195,1002.65,410.9530364811497
171,1686197597.75,-178.711,264.648,-0.488,-201.172,1002.654,413.83671778432785
172,1686197597.75,-118.652,374.512,-8.301,-153.32,1002.658,413.3339243175428
173,1686197597.76,-107.422,-308.594,-34.668,-129.395,1002.662,414.0583889499903
174,1686197597.76,-172.363,-605.469,23.926,-174.316,1002.666,408.14858384077434
175,1686197597.76,-192.871,320.312,32.227,-192.871,1002.67,415.61530906997064
176,1686197597.77,-146.484,451.172,-29.297,-146.484,1002.674,414.1450371836329
177,1686197597.77,-108.887,-8.789,-13.184,-131.836,1002.677,412.87428019743936
178,1686197597.77,-138.184,53.223,9.277,-166.504,1002.681,406.79616142523406
179,1686197597.78,-178.223,375.977,-23.438,-191.895,1002.685,420.4769793676401
180,1686197597.79,-151.367,199.707,-25.391,-160.645,1002.688,418.46445586661235
181,1686197597.8,-100.098,123.535,-8.301,-127.441,1002.692,406.8895017183243
182,1686197597.8,-121.582,187.988,-40.527,-160.645,1002.696,416.75455570622296
183,1686197597.8,-174.805,20.508,-35.156,-196.777,1002.7,412.3703441825703
184,1686197597.81,-174.316,-9.766,-23.438,-171.875,1002.704,419.47122466731673
185,1686197597.81,-126.953,-684.57,-45.898,-125.977,1002.708,418.883556988971
186,1686197597.82,-110.352,-621.094,19.043,-133.301,1002.712,421.4726483559101
187,1686197597.82,-150.391,510.742,26.367,-187.5,1002.716,421.02337342357475
188,1686197597.82,-161.621,294.922,-51.758,-179.199,1002.72,407.65367234419574
189,1686197597.83,-109.863,-11.719,-29.785,-120.117,1002.724,419.1316314890788
190,1686197597.83,-87.891,503.418,16.602,-115.234,1002.727,421.39708174467063
191,1686197597.84,-132.812,506.348,-56.152,-162.109,1002.731,417.7343444614861
192,1686197597.84,-177.246,67.383,-62.012,-180.176,1002.736,414.9676360021289
193,1686197597.84,-145.996,114.258,-40.039,-137.207,1002.74,419.35937529841783
194,1686197597.85,-93.262,437.012,-68.848,-103.516,1002.743,414.6116717688241
195,1686197597.85,-125.488,344.238,-80.566,-129.883,1002.747,420.6375748121434
196,1686197597.86,-185.059,-43.945,-92.285,-154.297,1002.751,423.9126742799035
197,1686197597.86,-158.691,-189.941,-68.848,-121.582,1002.755,415.79774924526447
198,1686197597.86,-86.426,-34.18,-52.246,-82.031,1002.759,431.7921424335599
199,1686197597.87,-89.844,118.164,-63.965,-114.258,1002.763,423.7130214640344
200,1686197597.87,-163.086,-397.461,-99.609,-160.156,1002.767,423.21949026663185
201,1686197597.87,-173.828,-610.352,-55.176,-137.207,1002.771,421.50156624514136
202,1686197597.88,-113.77,346.191,-13.672,-95.215,1002.775,415.70388425714253
203,1686197597.88,-88.867,491.211,-59.57,-101.562,1002.779,422.5729440937623
204,1686197597.88,-132.324,232.422,-70.312,-146.484,1002.779,422.09470895043114
205,1686197597.89,-163.086,333.984,-59.57,-157.227,1002.783,416.376483439929
206,1686197597.89,-111.328,463.379,-41.504,-105.469,1002.787,426.093352080255
207,1686197597.89,-72.754,261.719,-55.664,-86.914,1002.791,414.5789506882881
208,1686197597.9,-120.117,-137.695,-87.891,-135.254,1002.795,418.4811056118581
209,1686197597.9,-172.363,-167.969,-50.293,-162.109,1002.798,414.44418388863085
210,1686197597.91,-136.719,8.301,-22.461,-126.953,1002.802,419.20285078478827
211,1686197597.91,-71.777,79.102,-68.848,-91.309,1002.806,416.75854514112655
212,1686197597.91,-104.004,-710.938,-104.004,-113.281,1002.81,413.54641073410363
213,1686197597.92,-158.691,-653.32,-16.602,-153.809,1002.814,425.0788630738346
214,1686197597.92,-132.812,568.359,-18.066,-137.207,1002.818,416.36904464785465
215,1686197597.92,-87.402,535.156,-30.762,-97.168,1002.822,414.2753844791196
216,1686197597.94,-91.797,319.336,-14.16,-115.723,1002.84,417.04238592811265
217,1686197597.95,-143.555,490.234,-39.551,-160.156,1002.844,423.5386085253451
218,1686197597.95,-153.32,413.574,-49.316,-147.461,1002.848,411.9344116109468
219,1686197597.96,-88.379,169.434,-44.434,-93.75,1002.852,415.64582068377075
220,1686197597.96,-64.453,174.316,-44.434,-89.355,1002.856,420.6987166535109
221,1686197597.96,-123.047,45.898,-71.777,-134.766,1002.86,417.169200171579
222,1686197597.97,-149.902,2.441,-45.898,-146.973,1002.864,421.3045320858948
223,1686197597.97,-100.098,-339.844,-47.363,-102.539,1002.868,415.9191786254882
224,1686197597.97,-69.824,232.91,50.293,-80.078,1002.87,414.8183457734457
225,1686197597.97,-64.941,-291.016,-27.344,-80.566,1002.872,410.1388250995514
226,1686197597.98,-86.914,528.32,-11.23,-116.211,1002.874,413.37640418461723
227,1686197597.98,-98.633,450.195,-30.273,-121.094,1002.876,413.79708188661726
228,1686197597.98,-144.043,178.223,-34.18,-153.32,1002.878,417.63958778992657
229,1686197597.98,-152.344,185.547,-58.105,-153.32,1002.879,414.56238961077725
230,1686197597.98,-132.812,10.254,-21.973,-127.93,1002.882,411.4347631358342
231,1686197597.99,-130.371,-139.16,17.09,-115.723,1002.883,413.70498204399644
232,1686197597.99,-75.684,105.469,-12.207,-84.473,1002.886,420.0233633750046
233,1686197597.99,-75.684,48.828,-12.695,-86.914,1002.89,409.23189947620216
234,1686197598.0,-138.672,-126.953,-41.016,-125.977,1002.893,404.47347825684227
235,1686197598.0,-154.785,-246.094,-13.672,-125.488,1002.897,415.5765996980053
236,1686197598.0,-87.891,328.125,48.828,-86.914,1002.901,407.192590907708
237,1686197598.01,-51.758,658.691,-1.953,-92.773,1002.905,409.9428965481547
238,1686197598.01,-109.863,37.598,-70.312,-139.648,1002.909,409.68085641055023
239,1686197598.02,-157.715,-616.699,-4.883,-150.391,1002.913,406.10992656907507
240,1686197598.02,-115.234,109.375,47.363,-107.422,1002.928,412.5803413406004
241,1686197598.02,-61.523,466.309,-50.781,-85.449,1002.932,406.9367925170185
242,1686197598.03,-81.543,-138.184,-46.875,-117.676,1002.936,411.60352711104986
243,1686197598.03,-136.719,-20.02,3.906,-143.066,1002.94,414.48701279018053
244,1686197598.04,-138.184,502.441,-32.227,-131.348,1002.943,413.70443688352844
245,1686197598.04,-88.379,338.379,-47.852,-102.051,1002.947,405.0248856494245
246,1686197598.04,-93.75,-327.148,-43.945,-108.887,1002.951,409.20988065001137
247,1686197598.05,-157.715,-350.098,-21.973,-139.16,1002.955,405.6656749536946
248,1686197598.05,-154.297,542.48,-8.301,-123.535,1002.959,411.7444104265817
249,1686197598.06,-87.402,566.895,-46.387,-78.125,1002.963,405.21694388238103
250,1686197598.06,-76.172,257.812,-44.434,-86.914,1002.967,413.9227890626962
251,1686197598.06,-147.461,414.062,-41.016,-107.91,1002.973,411.52730831981063
252,1686197598.06,-130.371,310.547,-34.668,-123.535,1002.971,406.9789511345535
253,1686197598.07,-91.309,262.695,-38.574,-51.758,1002.977,404.8480978840895
254,1686197598.07,-57.617,126.465,-47.363,-43.945,1002.981,401.7453758480598
255,1686197598.08,-102.051,145.02,-52.734,-80.566,1002.985,416.98986101838096
256,1686197598.08,-133.301,-19.531,-35.645,-86.426,1002.989,398.04286304166413
257,1686197598.08,-96.68,-13.672,-44.922,-45.898,1002.993,411.3914309587413
258,1686197598.09,-60.547,-631.836,-66.406,-11.23,1002.997,405.8732420119873
259,1686197598.09,-76.172,-594.238,-14.16,-42.48,1003.001,401.0884808317371
260,1686197598.09,-113.281,560.059,-2.441,-76.66,1003.005,396.50422558534325
261,1686197598.1,-103.027,362.793,-56.152,-42.48,1003.009,402.5291018665743
262,1686197598.1,-40.527,109.375,-42.969,1.953,1003.012,410.7534361193923
263,1686197598.11,-29.297,632.324,-14.648,-16.602,1003.016,406.3053431710266
264,1686197598.11,-91.797,518.555,-67.871,-70.801,1003.019,406.8477168074591
265,1686197598.11,-99.609,110.84,-35.645,-57.617,1003.023,410.37397123206506
266,1686197598.12,-42.48,245.117,8.301,-8.789,1003.027,408.4368231284613
267,1686197598.12,-30.273,473.145,-35.156,-21.484,1003.031,404.0636836672623
268,1686197598.13,-86.426,340.82,-77.637,-74.219,1003.035,402.7665552480058
269,1686197598.13,-116.211,-265.625,-36.133,-82.031,1003.039,395.90476376575293
270,1686197598.13,-76.172,-383.789,14.648,-45.898,1003.042,392.6777179779638
271,1686197598.14,-35.645,244.629,-32.715,-36.133,1003.046,394.51875041275815
272,1686197598.14,-63.477,434.57,-70.801,-64.941,1003.05,409.946964858985
273,1686197598.14,-119.629,-351.562,-60.059,-78.613,1003.054,404.1620521901898
274,1686197598.15,-91.797,-378.906,15.137,-45.41,1003.058,391.9696942438324
275,1686197598.15,-27.344,579.59,-11.719,-14.648,1003.062,404.0398626477145
276,1686197598.17,-47.363,429.199,-61.035,-52.246,1003.065,405.9315925659998
277,1686197598.17,-111.328,47.852,-31.738,-103.516,1003.069,396.70809476273047
278,1686197598.18,-98.633,294.434,-7.812,-83.984,1003.073,390.559280980996
279,1686197598.18,-33.691,481.934,-37.109,-44.922,1003.077,391.0752163593532
280,1686197598.18,-39.551,114.746,-83.008,-52.246,1003.08,407.05659079367956
281,1686197598.19,-102.539,-538.574,-63.477,-87.402,1003.084,410.47506767146854
282,1686197598.19,-109.375,-231.934,0.488,-83.496,1003.088,405.26631618903593
283,1686197598.2,-42.969,636.719,-7.812,-45.898,1003.092,405.3292609572736
284,1686197598.2,-14.648,336.426,-84.473,-40.527,1003.096,393.89876805598135
285,1686197598.2,-73.242,-358.398,-59.57,-79.102,1003.1,405.76996489770875
286,1686197598.21,-112.793,201.66,-0.488,-95.215,1003.104,390.12435251696286
287,1686197598.21,-62.012,684.57,-46.875,-55.176,1003.108,393.88044199525575
288,1686197598.23,-23.438,233.398,-31.738,-31.738,1003.125,401.539481302282
289,1686197598.23,-63.965,47.852,-14.16,-68.848,1003.129,400.7588448143751
290,1686197598.24,-108.887,345.703,-34.18,-96.191,1003.133,397.8791428705582
291,1686197598.24,-78.125,368.652,-37.598,-61.035,1003.137,402.1683995362459
292,1686197598.24,-29.297,113.77,-52.734,-37.109,1003.141,392.7229408184003
293,1686197598.25,-51.27,-210.449,-57.129,-66.406,1003.144,394.0275001978793
294,1686197598.25,-110.352,-98.145,-24.902,-105.469,1003.148,394.38574415424506
295,1686197598.26,-102.539,274.414,-41.504,-85.938,1003.152,388.6982972861195
296,1686197598.26,-42.969,-175.781,-12.695,-37.109,1003.154,396.637426237302
297,1686197598.26,-45.898,-298.828,-71.777,-36.133,1003.156,397.6724242253013
298,1686197598.26,-14.648,145.508,-12.207,-47.852,1003.158,396.08005086983496
299,1686197598.26,-41.016,-410.156,-18.066,-49.316,1003.16,397.2207943093149
300,1686197598.26,-59.57,356.445,-39.551,-89.355,1003.161,387.4489797640811
301,1686197598.27,-85.938,337.891,-31.25,-104.004,1003.164,392.9153581806011
302,1686197598.27,-108.398,64.941,-55.176,-96.68,1003.165,380.65954487840025
303,1686197598.27,-92.285,118.164,-49.805,-92.773,1003.168,394.1189016480022
304,1686197598.27,-70.801,-170.898,-36.133,-58.594,1003.169,391.02494180994586
305,1686197598.28,-14.648,-78.613,-27.344,-26.855,1003.173,392.0578220203485
306,1686197598.28,-47.363,1.953,-57.617,-67.871,1003.177,390.65254835367597
307,1686197598.28,-110.84,-187.012,-79.102,-109.375,1003.181,394.14508794413007
308,1686197598.29,-92.285,-365.723,-33.203,-79.59,1003.185,387.16453174616106
309,1686197598.29,-26.855,254.395,-5.371,-37.109,1003.189,403.7457584710521
310,1686197598.3,-35.645,462.402,-54.199,-58.594,1003.193,390.32087013276487
311,1686197598.3,-102.539,-182.129,-82.031,-96.191,1003.197,396.31275937358834
312,1686197598.31,-104.492,-708.008,-23.926,-85.449,1003.204,392.07295763549007
313,1686197598.31,-37.598,28.32,21.973,-48.34,1003.208,400.3306063440205
314,1686197598.31,-22.949,452.148,-75.684,-49.316,1003.212,388.1900636774775
315,1686197598.32,-87.402,-164.551,-52.734,-101.074,1003.216,390.2663151110613
316,1686197598.32,-108.398,-88.867,-21.484,-103.027,1003.22,395.60097487171964
317,1686197598.33,-36.621,211.426,-45.41,-45.41,1003.224,395.27285667721225
318,1686197598.33,-2.441,202.637,-49.805,-40.527,1003.228,388.8285232639265
319,1686197598.33,-63.965,-324.219,-59.57,-82.52,1003.231,388.91450148563143
320,1686197598.34,-106.934,-404.297,-8.789,-102.051,1003.235,383.29543647125666
321,1686197598.34,-64.453,518.066,-6.348,-71.289,1003.239,383.8216538509864
322,1686197598.34,-16.602,461.914,-51.27,-41.992,1003.243,386.91563480010007
323,1686197598.35,-110.352,118.652,-31.25,-110.352,1003.245,390.1775723661944
324,1686197598.35,-49.316,83.984,-55.664,-77.148,1003.247,396.64698243685274
325,1686197598.35,-87.402,271.973,-26.855,-83.496,1003.249,396.65244503476794
326,1686197598.36,-30.762,157.715,-53.223,-48.34,1003.253,391.20619400282806
327,1686197598.36,-42.969,-57.129,-66.895,-71.289,1003.257,399.5023743682148
328,1686197598.36,-97.656,-175.293,-63.965,-113.77,1003.261,390.30316128616533
329,1686197598.37,-98.145,-217.773,-35.156,-95.703,1003.264,392.378501774013
330,1686197598.37,-35.156,-85.938,-60.547,-38.086,1003.268,390.75109728894245
331,1686197598.38,-21.973,-733.398,-82.52,-28.32,1003.272,397.8047518736281
332,1686197598.38,-69.336,-733.887,5.371,-73.242,1003.276,382.5895160186464
333,1686197598.38,-78.613,362.793,1.465,-89.844,1003.28,394.8751659486797
334,1686197598.39,-30.273,431.152,-27.344,-41.992,1003.284,395.8129693151124
335,1686197598.39,-3.418,282.715,-27.832,-29.297,1003.288,401.17305107698706
336,1686197598.39,-47.363,426.758,-52.734,-74.219,1003.292,390.58142094647
337,1686197598.4,-86.914,265.137,-57.617,-93.262,1003.296,392.8242749508209
338,1686197598.4,-52.246,-12.695,-32.715,-59.082,1003.3,387.1334061495713
339,1686197598.41,7.324,151.855,-21.973,-25.391,1003.304,393.11959138939403
340,1686197598.41,-16.602,247.07,-72.266,-62.988,1003.308,396.31213546659706
341,1686197598.41,-72.266,-25.391,-62.5,-99.609,1003.312,400.3091834726423
342,1686197598.42,-60.547,-575.195,-33.691,-59.082,1003.316,381.5504816916288
343,1686197598.42,-14.16,-619.629,-17.09,-19.531,1003.319,397.215422771073
344,1686197598.42,-7.324,310.059,-16.602,-38.086,1003.323,398.5841352314408
345,1686197598.43,-56.152,403.32,-55.664,-73.242,1003.327,390.7419626357554
346,1686197598.43,-78.613,-84.961,-36.621,-67.871,1003.331,384.86987485525344
347,1686197598.44,-29.785,74.219,-8.789,-30.273,1003.335,387.0288611343428
348,1686197598.44,4.395,431.641,-44.434,-32.227,1003.348,397.20351127051487
349,1686197598.44,-49.316,142.578,-60.547,-77.148,1003.352,391.44807669627954
350,1686197598.45,-89.844,-94.238,-29.785,-85.938,1003.356,398.19182951457134
351,1686197598.45,-41.992,195.312,-29.297,-41.504,1003.359,381.4834528553598
352,1686197598.45,-5.371,105.469,-44.434,-22.949,1003.363,392.87023120478005
353,1686197598.46,-49.316,-183.594,-66.406,-62.5,1003.367,393.71263569721646
354,1686197598.46,-103.027,-821.289,-81.055,-80.078,1003.371,385.1686355174215
355,1686197598.46,-71.289,-525.879,4.395,-48.34,1003.375,389.67620598661114
356,1686197598.47,-6.836,624.512,-16.602,-23.926,1003.379,388.0900356503788
357,1686197598.47,-20.02,214.844,-89.355,-44.922,1003.383,388.3880130731998
358,1686197598.48,-80.078,-147.949,-61.523,-84.961,1003.387,393.82137427271704
359,1686197598.48,-78.125,328.613,-27.832,-60.059,1003.391,392.4715428322537
360,1686197598.5,-13.184,484.863,-64.941,-2.93,1003.395,382.31624066966447
361,1686197598.5,-11.23,38.574,-46.387,-27.344,1003.399,377.25136843755746
362,1686197598.51,-66.895,-108.887,-3.418,-73.73,1003.403,386.53057796389953
363,1686197598.51,-80.078,301.27,-35.156,-62.988,1003.407,372.20393967369404
364,1686197598.51,-29.785,288.086,-47.852,-20.02,1003.41,375.98975637872456
365,1686197598.52,-5.371,-388.184,-48.828,-8.789,1003.414,380.6955174750592
366,1686197598.52,-55.176,-432.129,-20.02,-54.688,1003.418,372.48307628778537
367,1686197598.52,-83.008,335.938,-25.879,-69.336,1003.422,382.7875040316824
368,1686197598.53,-31.738,365.723,-47.852,-19.043,1003.426,379.1102754194322
369,1686197598.53,7.324,104.492,-38.086,-2.441,1003.43,381.47283423077175
370,1686197598.54,-16.113,143.555,-33.203,-43.945,1003.434,376.0464257776484
371,1686197598.54,-60.059,243.652,-58.594,-67.871,1003.438,368.9128027671839
372,1686197598.54,-49.805,60.059,-55.176,-42.48,1003.439,371.1912967581856
373,1686197598.55,13.184,-187.988,-20.02,-2.441,1003.443,371.59994013695336
374,1686197598.55,8.789,81.543,-12.207,-28.809,1003.447,371.7745612912358
375,1686197598.56,-88.379,316.406,-70.801,-106.445,1003.451,359.4321566176971
376,1686197598.56,-120.605,-58.594,-94.727,-99.121,1003.455,371.4273711293839
377,1686197598.56,-68.848,-455.566,-66.895,-49.805,1003.459,370.11711820600465
378,1686197598.57,-54.199,-221.191,-67.383,-62.012,1003.463,358.41584562369087
379,1686197598.57,-92.773,279.297,-80.078,-102.539,1003.467,365.66606469536606
380,1686197598.57,-100.586,116.699,-124.512,-89.355,1003.471,382.4106233808182
381,1686197598.58,-53.223,-399.414,-97.168,-32.227,1003.475,365.88781656276484
382,1686197598.58,-22.949,173.828,-46.387,-27.832,1003.479,361.30463401833
383,1686197598.59,-62.5,486.816,-92.285,-72.754,1003.482,363.2610654339464
384,1686197598.6,-103.027,16.602,-75.195,-87.891,1003.496,355.2716362127742
385,1686197598.6,-58.594,63.477,-32.227,-44.434,1003.5,346.37862458185833
386,1686197598.6,-3.906,323.73,-62.988,-12.207,1003.504,357.59014122019863
387,1686197598.61,-32.227,73.73,-92.285,-39.551,1003.508,349.8477287409138
388,1686197598.61,-91.309,-389.648,-55.664,-66.895,1003.512,354.9943962485508
389,1686197598.62,-67.871,-406.738,-24.902,-39.551,1003.515,356.22543709080855
390,1686197598.62,0.977,203.125,-41.504,-11.719,1003.519,342.54162709569505
391,1686197598.62,-4.883,476.562,-78.125,-42.969,1003.523,342.57201117010857
392,1686197598.63,-71.289,-321.777,-75.684,-73.73,1003.527,344.41316230773174
393,1686197598.63,-77.148,-429.199,-23.438,-47.852,1003.531,351.7315632508606
394,1686197598.63,-48.34,-1.953,-50.293,-62.988,1003.529,343.6589878410022
395,1686197598.64,-3.418,520.02,-35.156,-8.789,1003.535,346.47115496204594
396,1686197598.64,-63.965,149.414,-35.156,-71.289,1003.533,348.3877872155092
397,1686197598.64,8.789,378.906,-69.336,-15.137,1003.539,338.842381026351
398,1686197598.64,-11.719,312.5,-41.504,-16.113,1003.537,342.83877654505443
399,1686197598.64,19.531,145.996,-65.918,-0.488,1003.541,343.32746932928796
400,1686197598.65,-33.691,-256.348,-83.984,-51.27,1003.545,341.9826270983669
401,1686197598.65,-77.637,-283.203,-59.082,-75.684,1003.549,342.0433067488254
402,1686197598.66,-38.086,-57.617,-30.762,-38.574,1003.553,334.7008009222136
403,1686197598.66,13.184,5.371,-61.035,-3.906,1003.557,344.6217256096065
404,1686197598.66,-15.137,-719.727,-102.539,-19.531,1003.561,344.27695365773127
405,1686197598.67,-63.477,-733.887,-8.789,-54.688,1003.565,338.26049293865015
406,1686197598.67,-36.621,452.148,-1.465,-23.926,1003.569,347.7601883644778
407,1686197598.68,17.09,514.648,-26.367,39.062,1003.572,342.90818952364594
408,1686197598.68,16.602,303.223,-11.719,28.809,1003.577,346.43793873237485
409,1686197598.68,-31.25,424.805,-41.504,-18.066,1003.58,340.7421687432357
410,1686197598.69,-40.527,298.34,-37.109,-16.602,1003.584,347.59577430807354
411,1686197598.69,11.23,97.656,-7.812,23.926,1003.588,353.18277645787117
412,1686197598.7,35.156,182.617,-16.113,20.508,1003.592,351.3392663102
413,1686197598.7,-13.672,44.434,-56.641,-18.066,1003.596,334.9995058943093
414,1686197598.7,-51.758,-64.941,-35.156,-22.461,1003.6,349.93630651157486
415,1686197598.71,-13.672,-448.242,-33.691,16.113,1003.604,348.15746167297686
416,1686197598.71,23.438,-556.641,-0.488,33.203,1003.608,346.63523185548473
417,1686197598.72,-13.672,306.152,-4.395,-14.16,1003.612,348.961502483432
418,1686197598.72,-59.57,275.391,-42.48,-41.016,1003.616,353.62872437509094
419,1686197598.72,-39.062,-112.305,-1.953,-3.418,1003.62,339.06114636339174
420,1686197598.72,14.16,160.645,2.441,24.902,1003.619,343.1000960302016
421,1686197598.73,-2.441,439.941,-45.41,-10.254,1003.623,343.5745101438671
422,1686197598.73,-63.965,152.344,-50.293,-53.223,1003.627,341.41700364745196
423,1686197598.74,-50.293,-27.832,-30.273,-21.484,1003.631,355.5853878143993
424,1686197598.74,0.977,32.227,-26.855,13.184,1003.635,345.76417842247577
425,1686197598.74,-5.371,-35.156,-40.527,-14.16,1003.639,352.24697804018786
426,1686197598.75,-58.105,-127.441,-74.219,-57.129,1003.643,348.60323311574024
427,1686197598.75,-80.566,-822.266,-53.223,-56.641,1003.647,364.1878141048623
428,1686197598.75,-20.02,-422.852,33.203,-11.719,1003.651,344.8078748330858
429,1686197598.76,19.531,687.988,-1.953,-2.93,1003.655,358.29648830785885
430,1686197598.76,-34.668,173.34,-62.5,-47.363,1003.659,350.7038355521427
431,1686197598.77,-71.289,-127.441,-33.203,-71.289,1003.662,351.8978279411014
432,1686197598.77,-16.602,393.555,1.465,-25.879,1003.678,345.9528024567923
433,1686197598.77,31.25,476.074,-47.363,7.812,1003.682,342.95511704769666
434,1686197598.78,-5.859,-18.066,-46.387,-17.578,1003.686,349.8396976568634
435,1686197598.78,-52.246,-111.816,13.672,-42.48,1003.69,343.9651379335014
436,1686197598.78,-31.738,267.09,-30.273,-13.672,1003.694,353.0058534748031
437,1686197598.79,19.531,184.082,-57.129,18.555,1003.698,354.7957894425587
438,1686197598.79,8.301,-498.047,-49.316,-0.488,1003.702,347.04138012581234
439,1686197598.8,-49.316,-578.613,-22.949,-36.133,1003.705,362.75899730808703
440,1686197598.8,-41.504,349.609,-22.949,-19.043,1003.709,352.55247315898714
441,1686197598.8,16.602,439.453,-57.617,28.32,1003.713,361.4896329585119
442,1686197598.81,31.25,124.023,-53.223,18.555,1003.717,350.2579032040019
443,1686197598.81,-30.762,144.531,-32.227,-29.785,1003.721,353.40047975490114
444,1686197598.81,-50.781,239.258,-35.156,-35.156,1003.713,354.8574393462706
445,1686197598.82,5.371,52.246,-42.969,12.695,1003.717,358.06383083202644
446,1686197598.82,37.598,-140.625,-21.973,33.203,1003.721,357.4544087620866
447,1686197598.83,6.348,139.16,-36.621,-15.137,1003.724,347.26227958231806
448,1686197598.83,-39.062,128.418,-60.547,-35.645,1003.728,359.415940978719
449,1686197598.83,-5.371,-31.738,-65.43,14.648,1003.732,359.91896645155106
450,1686197598.84,46.875,-520.02,-52.246,44.922,1003.736,352.57299699483906
451,1686197598.84,24.902,-172.852,-1.465,0.977,1003.74,348.6504001497567
452,1686197598.84,-18.066,696.777,-37.109,-34.18,1003.744,359.29038446006433
453,1686197598.85,-6.836,266.602,-67.871,-7.324,1003.748,348.08496236115485
454,1686197598.85,36.133,24.902,-60.547,28.32,1003.752,362.22226265283183
455,1686197598.86,33.203,505.859,-30.762,0.488,1003.756,359.77195817504924
456,1686197598.87,-20.996,498.535,-65.43,-49.316,1003.769,364.914412912909
457,1686197598.88,-37.598,115.234,-27.344,-34.18,1003.773,347.4679703103911
458,1686197598.88,20.02,220.703,14.648,16.113,1003.777,351.61513906184575
459,1686197598.88,42.48,397.949,-62.5,13.184,1003.78,357.78235320131813
460,1686197598.89,-25.879,144.043,-82.031,-41.992,1003.784,357.657043517837
461,1686197598.89,-70.801,-454.102,-70.801,-44.434,1003.788,359.83463421223695
462,1686197598.9,-33.691,-617.188,-6.348,0.0,1003.792,360.7927126222754
463,1686197598.9,13.184,426.758,3.906,6.348,1003.796,349.94626712597665
464,1686197598.9,-21.973,580.078,-82.52,-25.391,1003.8,353.8183326655508
465,1686197598.91,-74.219,153.809,-35.645,-36.133,1003.804,361.65269384647155
466,1686197598.91,-31.738,308.594,-5.371,3.906,1003.808,358.7958653364703
467,1686197598.92,27.344,526.855,-35.156,29.785,1003.812,359.21943289027035
468,1686197598.92,-2.93,278.809,-51.27,-9.277,1003.814,354.3953468748902
469,1686197598.92,-63.477,-36.621,-33.691,-46.387,1003.818,347.391541309566
470,1686197598.93,-47.852,181.641,-10.742,-20.996,1003.822,351.8760774637896
471,1686197598.93,15.137,377.441,-26.855,20.508,1003.826,356.33816615508164
472,1686197598.93,18.066,24.902,-74.219,1.465,1003.83,354.18720476666806
473,1686197598.94,-42.969,-552.246,-62.5,-48.828,1003.834,355.76099936557114
474,1686197598.94,-50.293,-294.922,-17.09,-35.645,1003.838,358.9360567220448
475,1686197598.94,9.766,194.336,-30.273,10.254,1003.842,349.6458756652862
476,1686197598.95,34.668,38.574,-77.637,14.648,1003.845,354.9840674747311
477,1686197598.95,-13.184,-415.039,-57.129,-31.738,1003.849,334.9578989422507
478,1686197598.96,-49.316,54.199,-0.488,-48.828,1003.853,354.9741489938082
479,1686197598.96,0.0,706.055,-39.062,-5.859,1003.857,341.50604742864454
480,1686197598.96,37.109,235.84,-64.453,14.16,1003.861,348.0911356907088
481,1686197598.97,-12.207,-100.098,-61.035,-21.973,1003.865,349.26615555049614
482,1686197598.97,-49.316,359.863,-55.176,-47.852,1003.869,343.4228168189612
483,1686197598.98,-18.066,384.766,-52.734,-2.93,1003.873,349.6866001279595
484,1686197598.98,24.902,115.234,-69.336,34.668,1003.877,354.10025393840704
485,1686197598.98,-2.441,-136.23,-72.266,-2.93,1003.881,356.30367198466433
486,1686197598.99,-63.477,-8.789,-38.086,-46.387,1003.885,351.5944264950593
487,1686197598.99,-41.504,432.129,-49.316,-23.926,1003.888,353.8299374012595
488,1686197599.0,10.742,-219.727,-79.59,25.879,1003.892,348.5022984133013
489,1686197599.0,1.465,-596.191,-49.316,8.301,1003.896,348.9737028461068
490,1686197599.0,-39.062,310.547,-42.969,-46.875,1003.9,342.0490458486394
491,1686197599.01,-50.781,375.488,-66.406,-35.645,1003.904,343.3542458393461
492,1686197599.01,-15.137,-0.488,-30.762,15.137,1003.919,346.39322295055695
493,1686197599.01,16.113,170.898,-28.32,14.648,1003.923,352.29828588280304
494,1686197599.02,-19.043,400.879,-63.477,-32.227,1003.927,341.54194867181786
495,1686197599.02,-53.223,168.945,-71.289,-42.969,1003.931,346.1898519971109
496,1686197599.02,-6.836,-106.934,-71.777,2.93,1003.935,338.3272682420779
497,1686197599.03,37.598,-56.152,-66.895,28.32,1003.939,342.65576517724077
498,1686197599.03,1.465,-28.809,-62.012,-8.789,1003.943,338.1884279152131
499,1686197599.04,-46.875,-43.457,-81.055,-36.621,1003.947,342.01971142157
500,1686197599.04,-9.766,-680.664,-73.242,21.484,1003.95,344.7417801810087
501,1686197599.04,65.918,-333.496,33.691,81.055,1003.954,329.4854628170571
502,1686197599.05,78.613,736.328,2.93,46.387,1003.958,352.2497098113713
503,1686197599.05,25.879,193.848,-35.645,4.395,1003.962,334.8910725165645
504,1686197599.05,17.09,7.324,25.391,25.879,1003.952,352.7918680202754
505,1686197599.06,77.148,585.938,21.973,67.871,1003.956,342.333857061318
506,1686197599.06,95.215,563.477,-40.527,63.477,1003.96,338.5536019266356
507,1686197599.07,31.738,0.977,-23.926,20.508,1003.964,350.6822280187455
508,1686197599.07,-0.488,-39.062,27.344,12.695,1003.968,342.4688461378122
509,1686197599.07,50.781,159.18,-17.578,57.617,1003.972,345.44030306215114
510,1686197599.08,79.102,154.785,-37.598,64.453,1003.976,340.63624754069656
511,1686197599.08,26.367,-289.062,-35.156,20.996,1003.98,345.42121262443845
512,1686197599.08,-14.16,-327.148,5.371,5.859,1003.983,343.54734675770527
513,1686197599.09,28.32,521.973,14.16,39.551,1003.987,346.4116783642533
514,1686197599.09,73.242,583.984,-44.922,75.195,1003.991,348.28706963035546
515,1686197599.1,40.039,-135.742,-31.25,47.363,1003.995,350.371186026096
516,1686197599.1,-13.184,-79.59,32.227,8.789,1003.997,347.22578444869174
517,1686197599.1,9.766,509.766,-17.09,27.832,1004.001,340.88219811532264
518,1686197599.11,70.312,245.605,-48.828,69.824,1004.005,354.4079504763807
519,1686197599.11,60.059,-43.457,-20.02,49.805,1004.009,353.0674411082523
520,1686197599.12,5.371,8.301,-21.973,2.441,1004.012,348.49684001206833
521,1686197599.12,7.324,50.781,-28.32,20.996,1004.016,355.71927737287956
522,1686197599.12,64.453,120.117,-45.898,77.637,1004.02,342.6233930873231
523,1686197599.13,65.918,-562.012,-67.383,70.312,1004.024,346.68987079094154
524,1686197599.13,9.277,-379.883,1.465,7.812,1004.028,359.24092897343274
525,1686197599.13,-14.648,721.68,-13.672,-0.977,1004.032,350.378579121219
526,1686197599.14,27.832,518.555,-39.551,43.457,1004.036,357.9489318113605
527,1686197599.14,62.012,342.285,-32.715,57.129,1004.04,351.5989554519741
528,1686197599.14,25.879,529.297,-37.109,4.395,1004.042,369.2644325135941
529,1686197599.15,-18.066,397.461,-60.547,-22.461,1004.046,349.33957786861185
530,1686197599.15,1.953,136.23,-34.18,14.16,1004.049,362.43153541364967
531,1686197599.16,52.734,208.496,-24.414,37.109,1004.053,357.84426579577024
532,1686197599.16,31.25,204.59,-86.426,3.418,1004.057,368.2400711344924
533,1686197599.16,-15.625,9.766,-65.918,-22.461,1004.061,371.45512539317315
534,1686197599.17,-0.977,-479.492,-53.223,14.16,1004.065,371.98900193388357
535,1686197599.17,41.992,-599.121,-10.742,38.086,1004.069,352.54078570339556
536,1686197599.18,43.457,372.559,-19.531,-3.906,1004.073,373.43837461609473
537,1686197599.18,-11.23,465.82,-79.59,-44.434,1004.077,368.37363215422454
538,1686197599.18,-9.766,169.434,-48.828,-15.137,1004.081,364.3475301222492
539,1686197599.19,45.898,357.422,-30.762,32.227,1004.085,376.1455111467633
540,1686197599.19,49.805,469.727,-48.34,31.25,1004.099,368.19784516591386
541,1686197599.19,0.488,122.07,-76.66,-0.977,1004.103,371.9762529047536
542,1686197599.2,-34.18,-112.305,-43.945,-4.395,1004.107,372.30562512186407
543,1686197599.2,10.742,254.395,-36.133,44.922,1004.111,372.1428623979263
544,1686197599.2,62.988,241.211,-55.176,66.895,1004.115,371.330332972224
545,1686197599.21,25.879,39.551,-73.73,24.902,1004.119,379.24526767944826
546,1686197599.21,-33.691,-657.227,-86.914,11.23,1004.122,378.5448097331557
547,1686197599.22,-12.207,-601.562,-8.789,43.945,1004.126,376.6156592578206
548,1686197599.22,46.875,677.734,-19.531,70.312,1004.13,378.78902719874
549,1686197599.22,33.203,493.164,-103.516,54.199,1004.134,380.44242432205243
550,1686197599.23,-23.926,7.324,-92.773,19.043,1004.138,384.9301445414191
551,1686197599.23,-16.113,482.91,-27.344,30.762,1004.142,383.48488827492747
552,1686197599.25,41.016,644.043,-29.297,68.848,1004.145,392.9588444932353
553,1686197599.25,54.688,323.242,-24.902,58.105,1004.149,396.3020227092321
554,1686197599.26,2.441,180.176,-20.02,13.672,1004.153,388.99923493228425
555,1686197599.26,-16.113,391.113,-40.039,12.207,1004.157,395.39742346836636
556,1686197599.26,37.598,421.875,-44.922,48.828,1004.161,400.26361378289363
557,1686197599.27,61.035,-15.625,-66.406,51.758,1004.165,400.94452160336334
558,1686197599.27,17.09,-137.207,-48.34,13.672,1004.169,399.76795690877543
559,1686197599.28,-9.766,269.043,-31.738,0.977,1004.173,386.08327070914777
560,1686197599.28,25.879,434.57,-63.477,34.668,1004.177,389.8646826050009
561,1686197599.28,58.594,-207.031,-72.754,51.27,1004.181,391.36658568619265
562,1686197599.29,21.973,-370.117,-36.133,10.742,1004.185,388.7370293035296
563,1686197599.29,-30.273,352.539,-51.758,-29.785,1004.188,395.2772418498975
564,1686197599.29,-12.695,389.648,-71.289,-4.883,1004.19,396.77414746075266
565,1686197599.3,33.203,76.66,-50.781,26.855,1004.194,394.04947800094345
566,1686197599.3,27.344,209.473,-48.828,3.418,1004.198,388.2730428212456
567,1686197599.3,-22.461,437.988,-75.684,-38.086,1004.202,392.3765039628297
568,1686197599.31,-29.297,127.93,-83.984,-24.414,1004.206,396.9806085116591
569,1686197599.31,25.391,-239.258,-67.871,32.227,1004.21,403.83575653083153
570,1686197599.32,38.574,-40.039,-50.781,28.32,1004.213,394.05343467262844
571,1686197599.32,-14.16,411.621,-47.852,-23.438,1004.217,393.5391597577599
572,1686197599.32,-42.48,297.363,-100.098,-29.297,1004.221,405.1891870972425
573,1686197599.33,-4.883,-378.418,-64.941,21.484,1004.225,398.68231720976996
574,1686197599.33,26.367,192.383,-2.441,23.926,1004.229,398.78444488471763
575,1686197599.34,-16.602,699.707,-85.449,-32.227,1004.233,394.3321458663013
576,1686197599.34,-71.289,109.863,-65.918,-40.039,1004.236,400.22404565787565
577,1686197599.34,-40.039,176.27,-17.578,0.488,1004.24,399.0945901055476
578,1686197599.35,13.672,622.07,-55.664,19.043,1004.244,401.17961523382013
579,1686197599.35,-12.695,487.305,-83.984,-17.09,1004.248,403.7439505233963
580,1686197599.36,-60.547,-12.207,-69.824,-45.41,1004.252,393.06758440939706
581,1686197599.36,-44.434,-181.641,-45.898,-19.043,1004.256,398.26451556483096
582,1686197599.36,8.789,225.098,-48.828,12.695,1004.259,391.3096170927373
583,1686197599.37,10.742,526.367,-80.566,-8.789,1004.263,396.69331710443157
584,1686197599.37,-51.27,-256.836,-106.934,-41.016,1004.267,402.91483621152565
585,1686197599.37,-53.711,-460.938,-42.969,-18.555,1004.271,391.72537964951096
586,1686197599.38,18.066,530.762,-33.691,20.02,1004.275,408.9236372431488
587,1686197599.38,20.996,479.004,-80.566,11.23,1004.279,396.2574375503286
588,1686197599.38,-35.645,92.285,-88.867,-29.785,1004.28,399.88544635548715
589,1686197599.39,-56.152,195.801,-55.176,-37.598,1004.284,401.75368532877906
590,1686197599.39,-7.812,338.867,-53.711,0.977,1004.287,394.54296617238236
591,1686197599.4,27.832,104.004,-96.191,15.137,1004.291,394.77551538338
592,1686197599.4,-19.043,-395.508,-79.59,-17.578,1004.295,395.16595462590647
593,1686197599.4,-62.988,-299.805,-50.293,-44.922,1004.299,409.5686690294123
594,1686197599.41,-19.531,151.855,-43.945,-9.766,1004.303,396.5186221902729
595,1686197599.41,37.109,206.055,-84.961,31.25,1004.307,403.2435202614267
596,1686197599.41,0.488,-489.746,-89.355,7.324,1004.311,398.11262633215006
597,1686197599.42,-55.664,-206.543,-15.625,-42.48,1004.315,398.9940482376009
598,1686197599.42,-29.297,731.934,-54.199,-34.18,1004.319,389.168974587987
599,1686197599.43,25.391,451.172,-62.012,16.602,1004.323,398.4559221131487
600,1686197599.43,31.738,248.535,-51.27,15.137,1004.327,392.5284380263361
601,1686197599.43,-22.461,401.367,-68.359,-31.25,1004.331,390.0729402940253
602,1686197599.44,-62.988,362.305,-79.102,-51.758,1004.334,398.68629351627783
603,1686197599.44,-15.625,179.688,-56.152,-12.207,1004.338,402.28982331660364
604,1686197599.44,10.254,101.074,-59.082,-0.977,1004.342,394.91941837522654
605,1686197599.45,-62.988,-57.129,-98.145,-48.34,1004.346,390.7245860570789
606,1686197599.45,-99.609,-17.09,-73.73,-63.477,1004.35,391.143800503741
607,1686197599.46,-55.176,-360.84,-63.965,-22.949,1004.354,395.68331103888056
608,1686197599.46,-15.625,-526.367,-36.133,-6.348,1004.358,386.3631811538963
609,1686197599.46,-45.41,357.422,-51.27,-51.758,1004.362,383.72294080644616
610,1686197599.47,-79.59,437.988,-97.656,-76.66,1004.366,396.4936139561001
611,1686197599.47,-30.762,208.496,-70.801,-22.461,1004.37,383.6602450260098
612,1686197599.47,21.973,401.367,-65.918,17.578,1004.37,388.338743637231
613,1686197599.48,2.441,452.637,-90.332,-17.09,1004.374,384.74180570038624
614,1686197599.48,-42.48,76.66,-90.332,-50.293,1004.378,389.14707826805085
615,1686197599.48,-41.992,-100.098,-77.637,-20.02,1004.381,389.73481420284537
616,1686197599.49,11.719,75.684,-63.477,24.902,1004.385,394.31208503180363
617,1686197599.49,20.996,-23.926,-68.359,2.93,1004.389,379.9991739987736
618,1686197599.5,-46.387,-91.797,-95.703,-50.293,1004.393,389.94699739779674
619,1686197599.5,-72.754,-724.121,-97.656,-37.598,1004.397,376.2035165450789
620,1686197599.5,-7.812,-554.688,-32.227,13.184,1004.401,387.0061710107736
621,1686197599.51,30.762,672.363,-38.574,13.184,1004.405,386.95069987883437
622,1686197599.51,-21.973,388.672,-116.211,-26.367,1004.409,383.7550286323253
623,1686197599.52,-63.477,-25.879,-91.309,-37.109,1004.413,391.61519098216337
624,1686197599.52,-16.113,547.363,-31.25,-3.418,1004.417,385.4550540950465
625,1686197599.52,30.273,667.48,-65.43,15.625,1004.421,389.6437284308777
626,1686197599.53,-17.578,220.215,-55.176,-24.414,1004.425,372.7302455766714
627,1686197599.53,-62.988,161.621,-26.855,-51.758,1004.429,381.4913323037662
628,1686197599.54,-34.18,383.301,-69.824,-17.09,1004.433,377.7953216043417
629,1686197599.54,14.648,228.027,-69.824,24.414,1004.437,377.89072507918013
630,1686197599.54,6.836,-370.605,-64.941,10.254,1004.44,377.6845616022899
631,1686197599.55,-45.898,-388.184,-57.617,-34.18,1004.444,363.33044304546746
632,1686197599.55,-39.062,506.348,-45.41,-19.043,1004.448,371.7831250116374
633,1686197599.55,19.043,542.969,-74.219,22.461,1004.452,374.7326881944589
634,1686197599.56,28.809,55.176,-93.75,10.742,1004.456,369.9386140239751
635,1686197599.56,-15.137,-7.324,-67.871,-18.555,1004.46,375.34812497724465
636,1686197599.56,-26.855,347.168,-52.734,-17.09,1004.473,370.9310197725349
637,1686197599.57,19.531,335.449,-67.383,15.625,1004.477,360.2997319681231
638,1686197599.57,56.152,-34.668,-56.152,21.484,1004.481,368.6904686017779
639,1686197599.58,16.113,107.91,-62.5,-21.484,1004.485,364.0395606507448
640,1686197599.58,-36.621,120.117,-75.684,-39.551,1004.489,370.2854812828578
641,1686197599.58,-1.465,21.973,-75.195,0.488,1004.493,361.1339256976598
642,1686197599.59,40.039,-588.379,-93.262,37.109,1004.497,368.6104865437877
643,1686197599.59,5.371,-500.977,-56.641,1.465,1004.501,372.95800409320793
644,1686197599.59,-32.227,578.613,-56.641,-45.41,1004.505,359.6366805595941
645,1686197599.6,-2.93,446.777,-70.801,-8.789,1004.509,360.89864183196977
646,1686197599.6,49.316,342.285,-61.035,52.246,1004.512,359.1715258306648
647,1686197599.61,39.062,547.363,-55.176,31.25,1004.516,361.53458418179326
648,1686197599.62,-24.902,416.992,-80.078,-16.113,1004.519,359.01583403693013
649,1686197599.63,-33.203,-66.406,-44.434,-3.418,1004.523,344.0033968417558
650,1686197599.63,24.414,-3.906,-8.789,39.062,1004.527,350.1332885621536
651,1686197599.64,35.645,398.926,-62.012,45.41,1004.531,348.3105236995481
652,1686197599.64,-27.344,344.238,-91.797,-10.254,1004.535,334.5999394690579
653,1686197599.64,-69.336,-400.879,-83.496,-35.645,1004.539,335.23465590623243
654,1686197599.65,-23.438,-524.902,-18.555,24.902,1004.543,332.1489472995021
655,1686197599.65,23.926,387.695,-49.805,41.992,1004.546,331.1394622803906
656,1686197599.65,-12.207,366.699,-101.562,-0.977,1004.55,331.66154787033923
657,1686197599.66,-60.547,-164.062,-61.523,-17.578,1004.554,327.64585655181554
658,1686197599.66,-26.367,-15.625,-21.973,20.996,1004.558,336.14280113300805
659,1686197599.67,37.598,500.488,-53.223,53.711,1004.562,322.7679248415956
660,1686197599.67,26.855,311.523,-85.938,21.973,1004.564,328.13312594336134
661,1686197599.67,-34.18,1.953,-76.172,-11.719,1004.567,324.58680806674187
662,1686197599.68,-29.297,212.402,-54.199,15.625,1004.571,326.85786310566465
663,1686197599.68,37.598,389.648,-60.547,52.246,1004.575,326.13312080350113
664,1686197599.68,40.527,73.73,-105.957,33.203,1004.579,314.95899310667374
665,1686197599.69,-26.367,-558.594,-76.172,-9.277,1004.583,321.75234155745335
666,1686197599.69,-41.016,-376.465,-28.809,-10.742,1004.587,304.02451017765617
667,1686197599.69,19.531,369.141,-45.41,22.949,1004.591,302.1454922068767
668,1686197599.7,48.34,356.934,-104.004,25.879,1004.595,312.0654844064355
669,1686197599.7,-6.836,-405.762,-85.938,-11.719,1004.599,302.1984898241727
670,1686197599.71,-32.715,73.242,-5.371,-33.691,1004.603,303.81714413456297
671,1686197599.71,23.926,815.43,-46.387,7.324,1004.607,306.27405302395715
672,1686197599.71,52.734,435.547,-36.621,39.062,1004.612,300.24789812178915
673,1686197599.72,13.184,209.961,-31.25,-8.789,1004.616,286.00860267679604
674,1686197599.72,-31.738,379.883,-60.059,-43.945,1004.619,293.26255144436027
675,1686197599.73,-14.16,442.383,-64.941,-3.418,1004.623,305.40662440690943
676,1686197599.73,25.879,238.281,-76.172,26.367,1004.627,295.1680660092457
677,1686197599.73,5.859,-34.668,-72.266,-7.812,1004.631,296.01456759822764
678,1686197599.74,-50.781,-84.473,-67.871,-36.621,1004.635,283.4294743079242
679,1686197599.74,-46.875,167.969,-55.664,-16.602,1004.639,299.11039357705147
680,1686197599.74,-4.395,-176.758,-71.777,30.273,1004.643,286.61651876093003
681,1686197599.75,3.906,-439.453,-52.734,22.461,1004.647,289.50286205093215
682,1686197599.75,-31.25,420.898,-49.805,-28.32,1004.651,291.98317892903503
683,1686197599.76,-39.062,531.738,-76.172,-18.066,1004.655,288.1248405389784
684,1686197599.76,17.578,355.469,-48.828,33.203,1004.654,296.2372056254951
685,1686197599.76,46.387,493.164,-58.105,40.039,1004.658,286.36424970231735
686,1686197599.77,-6.836,478.027,-85.449,-17.578,1004.662,297.1603126776482
687,1686197599.77,-51.27,165.039,-76.66,-36.133,1004.666,286.99010851976993
688,1686197599.77,-10.742,-62.5,-49.805,13.184,1004.67,287.6442731041423
689,1686197599.78,31.25,36.621,-64.941,38.086,1004.674,287.9314589945685
690,1686197599.78,-3.418,-11.719,-75.195,-2.93,1004.678,286.78368406182807
691,1686197599.78,-51.27,-11.719,-82.52,-34.668,1004.682,284.7001464162224
692,1686197599.79,-41.992,-664.062,-76.172,6.348,1004.686,290.93441486609055
693,1686197599.79,-3.418,-496.582,-10.254,34.668,1004.69,294.07575371228774
694,1686197599.8,-12.695,674.316,-45.41,-1.465,1004.693,295.8499230003424
695,1686197599.8,-68.848,256.836,-95.215,-34.18,1004.697,295.6201914433084
696,1686197599.8,-73.242,-66.406,-64.941,-20.996,1004.701,289.2364284226809
697,1686197599.81,0.977,559.57,-44.434,24.414,1004.705,290.48387781665633
698,1686197599.81,16.602,569.336,-89.355,20.508,1004.709,289.5514746549623
699,1686197599.82,-44.434,133.301,-71.777,-24.902,1004.713,297.8406005589282
700,1686197599.82,-67.871,90.332,-42.969,-29.785,1004.717,299.3035127165565
701,1686197599.82,-13.672,155.273,-79.102,14.16,1004.721,294.0872750217828
702,1686197599.83,20.02,129.395,-80.566,20.996,1004.725,300.3167238119423
703,1686197599.83,-61.035,-410.645,-80.078,-25.391,1004.729,300.3599249754508
704,1686197599.84,-135.254,-483.398,-18.555,-40.039,1004.733,297.6460215392591
705,1686197599.84,-95.215,492.188,-29.297,-8.301,1004.737,302.41418541985576
706,1686197599.84,-41.016,511.719,-79.102,18.555,1004.74,303.7964013144815
707,1686197599.85,-52.246,11.23,-74.219,-9.277,1004.744,303.50308668878273
708,1686197599.85,-71.289,-32.227,-65.43,-36.133,1004.745,307.9416249835911
709,1686197599.85,-61.035,362.793,-55.664,-7.812,1004.749,304.06211264361104
710,1686197599.86,-58.594,325.684,-71.289,17.09,1004.753,294.5655032331456
711,1686197599.86,-75.195,-152.832,-76.66,-8.301,1004.757,301.5852087189405
712,1686197599.86,-122.07,-220.703,-70.801,-45.898,1004.761,294.7874916946129
713,1686197599.87,-124.023,-2.93,-46.387,-29.297,1004.765,302.8610989806732
714,1686197599.87,-63.477,102.051,-68.848,18.066,1004.769,304.47435633599827
715,1686197599.88,-48.34,-595.703,-95.215,20.02,1004.773,303.8623652723998
716,1686197599.88,-103.516,-511.719,-48.34,-25.879,1004.777,300.3381319028175
717,1686197599.88,-158.691,556.152,-52.734,-34.18,1004.78,309.9568708275622
718,1686197599.89,-153.32,397.949,-63.965,7.812,1004.784,313.1082199965566
719,1686197599.89,-139.648,213.867,-59.082,19.531,1004.788,310.92850983616074
720,1686197599.89,-198.242,374.023,-60.547,-13.672,1004.792,307.4915224307313
721,1686197599.9,-257.324,283.691,-76.172,-33.203,1004.795,312.39265808335915
722,1686197599.9,-222.168,-91.797,-37.598,10.254,1004.799,314.67134874399505
723,1686197599.91,-153.32,-20.508,-1.953,44.922,1004.803,307.800865803502
724,1686197599.91,-165.039,229.492,-78.125,11.23,1004.807,305.94947357885263
725,1686197599.91,-252.93,-11.23,-94.727,-20.508,1004.811,312.5705113910043
726,1686197599.92,-256.348,-586.426,-60.547,7.324,1004.815,318.6175478028128
727,1686197599.92,-186.523,-570.801,-24.414,40.039,1004.819,319.81864485449086
728,1686197599.92,-170.41,387.207,-43.945,8.789,1004.823,317.14429165353977
729,1686197599.93,-215.82,348.633,-74.707,-34.18,1004.827,312.5808545392651
730,1686197599.93,-213.867,51.758,-61.035,-21.484,1004.831,319.93706427483363
731,1686197599.94,-154.785,242.188,-41.992,18.555,1004.834,323.568070712492
732,1686197599.94,-140.625,380.859,-53.223,17.09,1004.848,324.7751353722667
733,1686197599.94,-189.941,100.586,-83.008,-23.926,1004.852,325.3929136481061
734,1686197599.95,-212.402,-116.699,-58.594,-34.18,1004.856,331.6672283816705
735,1686197599.95,-155.762,106.934,-56.152,12.695,1004.86,319.9753489471834
736,1686197599.95,-115.723,-12.207,-73.73,34.668,1004.864,324.75238180617214
737,1686197599.96,-158.691,-191.895,-80.566,-11.719,1004.868,330.5024678724772
738,1686197599.96,-206.055,-796.387,-112.305,-38.086,1004.872,316.63989664882797
739,1686197599.96,-170.898,-649.902,-43.457,0.977,1004.876,329.3607386271894
740,1686197599.97,-110.352,522.461,-31.738,29.785,1004.88,319.8810504232299
741,1686197599.97,-128.906,214.844,-106.934,-1.465,1004.884,325.1506010082284
742,1686197599.98,-189.941,-326.66,-91.797,-36.621,1004.888,327.74721019975163
743,1686197599.98,-188.477,192.383,-24.414,-12.207,1004.891,331.82230306363255
744,1686197599.99,-125.488,482.422,-56.152,34.668,1004.894,331.53441173482406
745,1686197599.99,-124.512,58.105,-66.406,20.996,1004.898,331.1700145091925
746,1686197600.0,-194.824,-133.789,-36.133,-30.273,1004.902,340.090916072522
747,1686197600.0,-212.891,169.922,-51.27,-27.832,1004.905,338.7168583387398
748,1686197600.0,-164.062,257.812,-76.66,10.742,1004.909,338.0162665331825
749,1686197600.01,-137.695,-310.547,-68.359,21.973,1004.913,335.12859090776243
750,1686197600.01,-178.223,-419.434,-31.25,-23.926,1004.917,343.7037751635782
751,1686197600.02,-208.496,-25.391,-41.992,-46.387,1004.921,344.20194892178785
752,1686197600.02,-163.574,135.742,-51.758,0.0,1004.925,352.43853972432106
753,1686197600.02,-132.324,-300.781,-71.777,18.066,1004.929,354.658816445226
754,1686197600.03,-167.969,-466.309,-46.875,-14.16,1004.933,363.42600414678765
755,1686197600.03,-191.406,274.414,-40.039,-32.715,1004.937,362.5614716724256
756,1686197600.04,-170.41,208.984,-48.34,-10.254,1004.94,363.7525751648243
757,1686197600.05,-103.516,75.195,-57.129,18.066,1004.944,359.6147784439517
758,1686197600.05,-79.102,163.574,-62.988,-8.301,1004.948,370.6441312119206
759,1686197600.06,-135.254,138.184,-68.848,-54.199,1004.952,371.65051817915366
760,1686197600.06,-152.344,-151.367,-83.984,-32.227,1004.955,364.00202549703357
761,1686197600.06,-102.539,-622.559,-59.57,21.484,1004.959,360.1375408676073
762,1686197600.07,-99.121,-372.07,-29.785,5.371,1004.963,365.63707050832534
763,1686197600.07,-155.273,286.133,-46.875,-39.551,1004.967,368.7343285166274
764,1686197600.07,-201.66,102.539,-85.938,-25.391,1004.971,367.8975709533851
765,1686197600.08,-206.055,-294.434,-68.848,20.508,1004.975,351.8864701162507
766,1686197600.08,-173.828,42.969,-38.086,19.043,1004.979,370.44204118576823
767,1686197600.09,-210.938,397.949,-78.613,-30.762,1004.983,371.7074442704044
768,1686197600.1,-256.836,-70.801,-81.055,-42.969,1005.002,368.0853501278799
769,1686197600.11,-241.211,-297.852,-39.062,4.883,1005.006,369.72198607473314
770,1686197600.11,-202.637,272.949,-39.062,25.879,1005.01,360.60029261128193
771,1686197600.12,-219.727,290.039,-73.73,-7.324,1005.014,370.0312967510304
772,1686197600.12,-258.789,-140.137,-84.961,-29.785,1005.017,370.23857820914253
773,1686197600.12,-291.016,-379.883,-38.574,0.977,1005.021,365.44249178806393
774,1686197600.13,-368.652,-53.223,-36.621,42.969,1005.025,367.7317851231545
775,1686197600.13,-452.148,248.047,-83.984,23.438,1005.029,373.7750181513202
776,1686197600.13,-483.887,-203.125,-68.848,-30.762,1005.03,361.08400575230746
777,1686197600.14,-535.156,-465.82,-90.82,-23.438,1005.033,362.17105519027484
778,1686197600.14,-484.375,-135.742,-51.27,-44.922,1005.034,365.1419884234289
779,1686197600.14,-546.387,-599.121,-27.832,-9.766,1005.037,354.41878322833264
780,1686197600.14,-414.062,314.941,-38.574,-2.93,1005.038,359.1613253230246
781,1686197600.14,-476.562,359.375,-33.203,32.227,1005.041,362.05107482620997
782,1686197600.14,-362.305,208.496,-73.242,20.996,1005.042,368.1966049787489
783,1686197600.15,-446.777,318.359,-70.801,25.391,1005.045,366.2986409879942
784,1686197600.15,-392.578,-375.977,-80.078,-5.859,1005.046,360.0437267930974
785,1686197600.15,-422.852,-350.586,-46.875,-26.367,1005.05,348.33259310823564
786,1686197600.16,-373.047,20.508,-47.363,9.766,1005.054,364.5421557624335
787,1686197600.16,-303.223,-50.293,-84.961,43.945,1005.058,366.0181886484878
788,1686197600.16,-311.523,-224.609,-74.219,16.113,1005.062,356.9256452362575
789,1686197600.17,-350.586,45.41,-21.484,-19.531,1005.066,352.2009436666611
790,1686197600.17,-324.219,349.609,-15.625,-9.766,1005.069,356.6033488611673
791,1686197600.18,-268.555,117.676,-87.402,16.602,1005.073,360.09789272358046
792,1686197600.18,-277.344,-836.426,-85.449,9.766,1005.077,358.3476264486972
793,1686197600.18,-324.219,-361.816,-16.113,-35.156,1005.081,361.5197337376405
794,1686197600.19,-314.941,514.16,-45.41,-35.645,1005.085,361.38334589065454
795,1686197600.19,-261.23,139.16,-16.113,16.113,1005.089,378.82679163484136
796,1686197600.2,-266.113,60.547,-35.645,9.766,1005.092,365.3634998758165
797,1686197600.2,-330.566,36.621,-90.82,-34.18,1005.096,363.44865305768036
798,1686197600.2,-339.844,97.168,-61.035,-31.738,1005.1,368.01226105246576
799,1686197600.21,-295.898,-265.137,-61.035,10.254,1005.104,362.0138306038537
800,1686197600.21,-269.531,-422.363,-26.855,27.832,1005.108,363.3883407091876
801,1686197600.22,-290.527,437.5,-39.062,-15.625,1005.112,356.91267235874125
802,1686197600.22,-332.52,407.227,-81.055,-40.039,1005.116,369.3007107921165
803,1686197600.22,-318.359,171.875,-56.152,-3.906,1005.12,364.52397850397205
804,1686197600.22,-268.555,310.547,-37.598,30.273,1005.12,368.2467658261828
805,1686197600.23,-289.551,335.449,-56.152,5.859,1005.124,366.8538971565307
806,1686197600.23,-359.863,67.871,-74.219,-30.273,1005.128,361.0862415892334
807,1686197600.24,-364.258,-62.988,-56.152,-9.766,1005.132,358.9219823381411
808,1686197600.24,-305.664,1.465,-63.965,37.598,1005.136,355.4726875762018
809,1686197600.24,-299.805,-128.906,-69.824,19.043,1005.14,359.77646760682876
810,1686197600.25,-361.328,-165.527,-77.637,-36.133,1005.143,356.8570518453231
811,1686197600.25,-402.344,-775.879,-89.844,-20.02,1005.147,362.5423888451066
812,1686197600.25,-360.84,-667.48,-11.719,28.809,1005.151,368.43124145959445
813,1686197600.26,-302.734,480.469,-29.785,31.738,1005.155,367.3943862417866
814,1686197600.26,-331.055,339.844,-90.82,-20.02,1005.159,362.77154046751673
815,1686197600.27,-368.652,97.656,-56.152,-46.387,1005.163,363.67205354180055
816,1686197600.27,-328.613,438.477,-33.691,-14.648,1005.167,357.0020084275644
817,1686197600.27,-293.945,447.754,-64.941,2.93,1005.171,362.457826396612
818,1686197600.28,-346.68,0.488,-53.223,-49.805,1005.175,353.33098826692554
819,1686197600.28,-410.645,-69.336,-18.555,-83.008,1005.179,352.43324332727667
820,1686197600.29,-386.719,210.449,-61.523,-32.715,1005.183,352.66944724846746
821,1686197600.29,-334.473,70.312,-73.73,-15.137,1005.187,354.73224362168327
822,1686197600.29,-348.633,-528.809,-73.242,-57.617,1005.19,353.80850309426
823,1686197600.3,-405.273,-563.965,-69.824,-105.957,1005.194,353.8493793057571
824,1686197600.3,-410.156,139.16,-46.875,-99.609,1005.198,351.2375984102722
825,1686197600.3,-357.91,291.992,-65.43,-44.434,1005.202,342.8598496410635
826,1686197600.31,-355.957,0.977,-60.059,-46.875,1005.206,353.44729405589317
827,1686197600.31,-416.504,-19.531,-43.945,-111.328,1005.21,352.19522700436517
828,1686197600.31,-441.406,284.18,-63.477,-126.953,1005.223,343.3517193113141
829,1686197600.32,-408.203,166.992,-57.129,-89.844,1005.227,352.22256452488745
830,1686197600.32,-388.672,57.617,-56.641,-83.008,1005.231,343.0685765909298
831,1686197600.32,-435.059,176.27,-70.312,-125.488,1005.235,346.9991443053215
832,1686197600.33,-475.098,9.766,-76.66,-154.297,1005.239,347.7446994151766
833,1686197600.33,-437.012,-156.738,-68.848,-106.934,1005.243,346.95327860177235
834,1686197600.34,-404.785,-726.562,-101.074,-57.129,1005.247,348.58910430584996
835,1686197600.34,-434.57,-585.449,-74.707,-94.238,1005.251,345.238060130343
836,1686197600.34,-481.934,463.867,-56.641,-135.254,1005.255,348.45638245469087
837,1686197600.35,-471.68,332.031,-70.801,-96.191,1005.259,348.18540034051045
838,1686197600.35,-413.574,161.133,-74.707,-57.129,1005.263,338.21442892697945
839,1686197600.36,-416.016,235.352,-74.219,-85.449,1005.266,346.4921857011126
840,1686197600.36,-464.355,362.793,-70.801,-128.906,1005.268,336.93389229721924
841,1686197600.36,-475.586,11.719,-72.754,-96.68,1005.272,347.79727909949855
842,1686197600.37,-417.969,-123.535,-54.688,-33.691,1005.276,339.42534416222816
843,1686197600.37,-390.137,428.223,-66.895,-46.387,1005.28,340.5571322361035
844,1686197600.38,-439.941,361.328,-86.914,-90.82,1005.284,335.2369604339728
845,1686197600.38,-458.984,-290.527,-64.453,-93.262,1005.288,345.05854417837946
846,1686197600.38,-396.484,-237.793,-35.645,-46.875,1005.292,340.77192612124907
847,1686197600.39,-345.215,448.73,-73.73,-8.301,1005.295,336.88777416357937
848,1686197600.39,-401.367,339.355,-108.398,-47.363,1005.299,343.8354815895698
849,1686197600.4,-452.148,-170.898,-73.73,-71.289,1005.303,342.7742650579345
850,1686197600.4,-407.227,-76.172,-21.973,-15.625,1005.307,344.5271067368114
851,1686197600.4,-346.191,427.246,-60.059,22.461,1005.311,340.18961508372917
852,1686197600.42,-342.773,266.602,-73.73,0.0,1005.318,343.30326465698056
853,1686197600.43,-387.207,-219.727,-72.266,-37.598,1005.322,342.70307887027707
854,1686197600.43,-379.883,-61.523,-56.641,-16.113,1005.326,331.64063911754283
855,1686197600.43,-322.754,385.254,-61.523,29.297,1005.33,343.45726593371353
856,1686197600.44,-331.055,192.383,-98.145,15.625,1005.333,345.4064696949358
857,1686197600.44,-381.348,-713.379,-104.492,-2.93,1005.337,339.8298779285004
858,1686197600.45,-373.047,-680.176,-21.484,15.625,1005.341,351.70496291895967
859,1686197600.45,-314.453,575.195,-9.766,37.598,1005.345,344.29477421288453
860,1686197600.45,-294.922,497.07,-102.051,44.434,1005.349,340.14456866985205
861,1686197600.46,-348.145,-45.898,-92.285,16.602,1005.353,338.8194059657287
862,1686197600.46,-379.395,331.055,-46.387,-6.836,1005.357,343.96799304912867
863,1686197600.46,-335.449,566.406,-65.918,30.273,1005.361,348.27498049583295
864,1686197600.46,-301.27,296.387,-53.711,49.805,1005.364,342.73815558790125
865,1686197600.47,-337.891,139.648,-45.41,14.648,1005.368,347.19072476953477
866,1686197600.47,-370.117,304.199,-65.918,2.441,1005.372,339.5784042148101
867,1686197600.48,-341.309,366.699,-63.965,30.273,1005.376,348.1083357874933
868,1686197600.48,-302.734,-187.5,-93.262,62.5,1005.38,344.58551276695874
869,1686197600.48,-319.824,-566.895,-76.172,42.969,1005.384,349.30363795578927
870,1686197600.49,-356.445,75.684,-48.828,0.977,1005.388,341.8863371808905
871,1686197600.49,-343.262,490.234,-66.895,20.508,1005.392,345.7659045536052
872,1686197600.5,-300.293,-239.258,-71.777,76.172,1005.396,342.33505393729195
873,1686197600.5,-317.383,-382.812,-36.621,53.711,1005.4,344.7222589816015
874,1686197600.5,-372.559,488.77,-51.758,-20.02,1005.403,361.9661500857682
875,1686197600.51,-382.324,389.16,-67.871,-8.789,1005.407,340.7226080491932
876,1686197600.51,-336.914,202.148,-46.387,54.199,1005.404,351.9538012231293
877,1686197600.51,-304.688,305.176,-66.895,62.988,1005.408,345.4248875115447
878,1686197600.52,-347.168,329.102,-81.055,12.695,1005.412,351.54473755956883
879,1686197600.52,-403.809,101.074,-63.477,-14.648,1005.416,350.26416674420676
880,1686197600.52,-378.906,-134.766,-57.129,25.391,1005.42,355.6324735554659
881,1686197600.53,-320.312,-98.145,-48.828,61.035,1005.424,348.7655249163016
882,1686197600.53,-323.242,-85.938,-48.828,37.109,1005.428,356.05258496807545
883,1686197600.54,-351.562,-67.871,-75.684,24.902,1005.432,356.2814791933078
884,1686197600.54,-335.449,-695.801,-80.078,74.219,1005.436,350.37187290733556
885,1686197600.54,-282.715,-609.863,-5.371,103.027,1005.44,355.47263463484137
886,1686197600.55,-271.484,532.715,-39.062,71.289,1005.444,348.6190171221032
887,1686197600.55,-329.59,385.254,-78.125,37.109,1005.447,349.3571000778538
888,1686197600.55,-345.215,217.773,-41.504,50.293,1005.462,347.6720764333758
889,1686197600.56,-285.645,545.41,-42.969,97.168,1005.466,357.14664255410264
890,1686197600.56,-262.695,486.816,-72.266,93.262,1005.469,348.7698464770524
891,1686197600.57,-322.754,43.945,-63.477,50.293,1005.473,350.1303417122236
892,1686197600.57,-353.516,-32.715,-36.133,41.504,1005.477,357.1398500762024
893,1686197600.57,-311.035,63.477,-51.27,80.078,1005.481,357.1279869556525
894,1686197600.58,-283.203,71.289,-65.43,91.797,1005.485,353.92525327709774
895,1686197600.58,-336.426,-416.016,-72.754,35.645,1005.489,361.6559773084494
896,1686197600.58,-380.371,-531.25,-38.086,17.578,1005.493,364.4200172223868
897,1686197600.59,-328.613,205.078,-37.598,60.059,1005.497,360.6051840849685
898,1686197600.59,-309.082,308.105,-73.73,71.777,1005.501,364.58518068851635
899,1686197600.6,-383.301,46.387,-37.109,-1.465,1005.507,361.009069119136
900,1686197600.6,-358.398,1.465,-78.125,32.715,1005.505,349.74535600582954
901,1686197600.6,-352.051,413.086,-41.016,17.578,1005.511,351.7383221089404
902,1686197600.6,-309.57,268.066,-53.711,56.641,1005.515,360.28303439549535
903,1686197600.61,-323.73,-24.414,-58.105,37.109,1005.519,356.2131965869404
904,1686197600.61,-373.047,-83.496,-61.035,-17.09,1005.523,351.4185303566523
905,1686197600.62,-386.719,-50.781,-56.152,-17.09,1005.527,355.609054512497
906,1686197600.62,-339.844,55.664,-78.613,36.621,1005.531,355.2514254132446
907,1686197600.62,-318.848,-588.867,-93.262,48.34,1005.535,363.7706907246967
908,1686197600.63,-365.234,-428.223,-43.945,-2.93,1005.538,363.41419767066157
909,1686197600.63,-381.348,609.863,-55.176,-18.555,1005.542,361.67867297178543
910,1686197600.64,-333.496,367.188,-77.148,30.273,1005.546,360.4602443304273
911,1686197600.64,-294.922,48.34,-76.172,44.922,1005.55,357.7154872585829
912,1686197600.64,-315.43,200.684,-57.617,1.953,1005.542,364.78998900940854
913,1686197600.65,-350.098,399.902,-59.57,-21.973,1005.546,357.01787231873925
914,1686197600.65,-334.961,-23.438,-48.828,27.344,1005.55,361.3596268891017
915,1686197600.66,-277.344,-153.32,-16.602,64.941,1005.554,364.8341840506942
916,1686197600.66,-275.879,334.473,-54.199,26.855,1005.558,355.9331086139195
917,1686197600.66,-329.102,168.457,-72.754,-6.348,1005.562,360.45996815916703
918,1686197600.67,-331.543,-414.062,-49.805,17.578,1005.566,357.9537143579793
919,1686197600.67,-269.531,-281.25,-23.926,68.848,1005.569,364.24288441080574
920,1686197600.68,-243.652,465.332,-47.852,53.223,1005.573,369.35162756414195
921,1686197600.68,-292.969,332.52,-76.66,4.883,1005.577,359.1379932255402
922,1686197600.68,-316.406,-108.887,-40.527,7.812,1005.581,356.08433753026964
923,1686197600.69,-243.652,502.441,-53.223,45.898,1005.598,362.9808620365863
924,1686197600.69,-264.16,101.562,-19.043,49.316,1005.585,362.0682405211121
925,1686197600.69,-301.758,182.129,-74.707,-8.789,1005.602,366.3031052651066
926,1686197600.7,-341.797,-203.125,-35.156,-29.297,1005.606,361.5934709569832
927,1686197600.7,-305.664,94.238,-21.973,4.395,1005.61,356.3509883813354
928,1686197600.7,-254.395,183.594,-59.57,23.926,1005.614,368.613454894077
929,1686197600.71,-275.879,-68.848,-59.082,-4.883,1005.617,365.2276427289422
930,1686197600.71,-334.961,-736.816,-82.031,-24.414,1005.621,358.7315342694528
931,1686197600.71,-313.477,-752.93,16.602,1.465,1005.625,360.1107547359443
932,1686197600.72,-249.023,490.234,37.598,20.508,1005.629,369.363021654814
933,1686197600.72,-263.184,506.836,-52.734,-4.395,1005.633,365.13941517804227
934,1686197600.73,-310.547,137.695,-42.969,-32.227,1005.637,365.93059090378216
935,1686197600.73,-299.316,366.211,-20.02,-14.16,1005.641,365.13872758146096
936,1686197600.75,-250.977,472.656,-33.203,29.297,1005.644,361.53518430105913
937,1686197600.75,-251.953,167.969,-39.551,23.438,1005.648,361.2399265827387
938,1686197600.76,-297.363,3.906,-20.508,-25.391,1005.652,366.57139012639504
939,1686197600.76,-305.664,244.141,-29.297,-31.738,1005.656,374.86388248297857
940,1686197600.76,-259.766,296.387,-36.133,16.602,1005.66,379.3570117103616
941,1686197600.77,-241.211,-107.422,-44.922,32.715,1005.664,374.87477573815045
942,1686197600.77,-289.062,-388.184,-27.832,-16.602,1005.667,365.15510322923456
943,1686197600.78,-311.035,-55.664,-11.719,-27.832,1005.671,365.9987611656959
944,1686197600.78,-257.324,356.934,-23.926,8.789,1005.675,366.56452406860905
945,1686197600.78,-232.422,-316.895,-70.312,22.461,1005.679,373.8381148477564
946,1686197600.79,-268.555,-614.258,-40.039,-14.16,1005.683,368.4061307909329
947,1686197600.79,-291.504,331.055,-19.043,-47.363,1005.687,368.45758449042887
948,1686197600.79,-266.602,387.207,-41.016,-6.836,1005.689,371.4276491534164
949,1686197600.8,-214.844,136.23,-41.016,35.156,1005.693,362.8196883143476
950,1686197600.8,-220.703,209.473,-44.434,10.742,1005.697,369.332240061982
951,1686197600.8,-282.227,252.93,-50.781,-39.551,1005.7,370.8287333924111
952,1686197600.81,-286.621,-17.578,-63.965,-30.762,1005.704,367.2004864367615
953,1686197600.81,-240.234,-493.164,-32.715,28.809,1005.708,370.68793343956213
954,1686197600.82,-241.699,-244.141,-10.742,17.578,1005.712,374.1834152628994
955,1686197600.82,-293.457,143.555,-51.758,-37.109,1005.716,367.9596393774308
956,1686197600.82,-297.852,43.945,-70.801,-32.227,1005.72,370.7144194059905
957,1686197600.83,-247.07,-641.602,-69.336,19.043,1005.724,371.9383900719477
958,1686197600.83,-224.609,-428.711,-10.254,24.414,1005.728,369.7453921222267
959,1686197600.84,-263.184,525.391,-40.527,-22.461,1005.732,368.3828217826258
960,1686197600.84,-311.035,231.445,-46.387,-39.551,1005.735,367.4889561833499
961,1686197600.84,-282.227,206.055,-5.859,2.93,1005.739,362.03006034887926
962,1686197600.85,-244.629,484.375,-23.926,29.297,1005.743,366.51650363948767
963,1686197600.85,-253.418,329.102,-59.57,-19.531,1005.747,371.4332922353181
964,1686197600.86,-243.164,-90.82,-60.059,-50.781,1005.751,369.00180260508415
965,1686197600.86,-202.148,-238.77,-30.762,-18.066,1005.755,374.2938500208509
966,1686197600.86,-159.18,57.617,-20.02,24.902,1005.758,372.9177365051727
967,1686197600.87,-174.805,351.074,-52.246,7.324,1005.762,362.69524094589855
968,1686197600.87,-229.98,-348.633,-75.684,-19.043,1005.766,372.3133143124434
969,1686197600.87,-235.352,-564.453,-12.207,-0.488,1005.77,366.7711343449072
970,1686197600.88,-191.895,239.258,-4.883,27.832,1005.774,375.17691413637016
971,1686197600.88,-251.953,-43.457,-52.734,-27.832,1005.792,367.2379571783689
972,1686197600.88,-184.57,310.547,-43.457,20.996,1005.778,354.6729480343335
973,1686197600.89,-278.809,40.039,-20.508,-36.133,1005.796,373.8847286966004
974,1686197600.89,-239.258,408.691,-28.32,3.418,1005.8,370.66831101736557
975,1686197600.89,-225.586,234.375,-60.547,14.648,1005.803,371.00046777324076
976,1686197600.9,-257.324,-191.895,-60.059,-16.113,1005.807,363.1606402491178
977,1686197600.9,-292.48,-245.117,-30.762,-41.016,1005.811,364.7299749395333
978,1686197600.91,-276.855,52.734,-30.273,-10.254,1005.815,376.12186905565244
979,1686197600.91,-245.117,176.27,-77.148,17.09,1005.819,382.8014388323663
980,1686197600.91,-278.32,-632.812,-81.543,-10.254,1005.823,368.3194326252901
981,1686197600.92,-322.266,-403.809,-8.301,-43.457,1005.827,362.12669765942326
982,1686197600.92,-288.574,559.082,-37.598,-19.531,1005.831,372.77444175611146
983,1686197600.92,-224.121,282.715,-46.387,24.414,1005.835,360.12489288183457
984,1686197600.93,-212.402,-29.785,-44.434,0.977,1005.827,370.46803186104717
985,1686197600.93,-263.672,21.484,-47.852,-45.41,1005.831,372.3456964897514
986,1686197600.94,-286.133,258.301,-40.039,-41.504,1005.835,370.2705122688457
987,1686197600.94,-240.234,-143.555,-54.688,8.301,1005.839,371.5003735705915
988,1686197600.95,-228.027,-442.383,-52.734,5.859,1005.843,369.21092433062466
989,1686197600.95,-282.227,-176.758,-58.594,-42.48,1005.847,369.6824129366488
990,1686197600.95,-320.312,-105.469,-46.875,-47.852,1005.85,363.35938818884046
991,1686197600.96,-287.109,-483.887,-51.758,-2.93,1005.854,361.3450297888968
992,1686197600.96,-247.07,-495.117,-34.18,24.414,1005.858,364.89494591301514
993,1686197600.96,-286.621,238.281,-43.945,-27.344,1005.862,371.94170898416377
994,1686197600.97,-337.402,100.098,-68.359,-56.152,1005.866,364.6408781499851
995,1686197600.97,-269.043,105.957,-17.578,22.461,1005.869,363.6492558645067
996,1686197600.97,-317.383,-120.117,-28.32,-11.23,1005.87,376.2213692789758
997,1686197600.98,-287.598,222.168,-49.316,-7.324,1005.872,375.36047378770616
998,1686197600.98,-340.82,-95.215,-60.059,-31.738,1005.876,371.43981942552523
999,1686197600.98,-330.566,-379.883,-41.504,-0.488,1005.88,377.26801614601294
1000,1686197600.99,-278.32,-236.328,-36.133,35.156,1005.884,376.36782746774435
1001,1686197600.99,-282.227,-178.711,-47.363,11.23,1005.888,377.6273382754019
1002,1686197601.0,-330.566,-189.941,-57.129,-34.18,1005.892,358.0744486756296
1003,1686197601.0,-344.238,-751.465,-59.082,-13.184,1005.896,367.9038078991039
1004,1686197601.0,-308.594,-708.496,24.902,22.461,1005.9,368.61297739121096
1005,1686197601.01,-280.273,460.938,-4.883,10.254,1005.904,382.1421021024422
1006,1686197601.01,-318.359,368.164,-82.031,-30.273,1005.908,375.3125091871076
1007,1686197601.02,-352.539,59.082,-49.805,-44.434,1005.911,377.367179433421
1008,1686197601.02,-318.848,357.91,-23.926,-6.836,1005.916,373.6866509632775
1009,1686197601.02,-291.016,398.438,-46.875,21.484,1005.92,376.4326546597608
1010,1686197601.03,-322.266,9.766,-47.363,-14.648,1005.923,371.63689071784324
1011,1686197601.03,-357.422,-67.871,-12.695,-46.387,1005.927,377.4981419328837
1012,1686197601.04,-329.59,36.133,-47.852,-9.766,1005.931,364.094014883499
1013,1686197601.04,-269.043,-76.172,-59.57,36.621,1005.935,370.57650864833556
1014,1686197601.04,-282.715,-492.676,-63.477,18.555,1005.939,369.95530396933833
1015,1686197601.05,-334.961,-768.555,-19.043,-18.555,1005.943,377.56817157760986
1016,1686197601.05,-314.453,212.402,-3.906,-10.254,1005.947,364.924604684505
1017,1686197601.05,-258.301,549.805,-59.082,28.32,1005.951,369.7007744013905
1018,1686197601.06,-255.371,173.828,-53.711,10.254,1005.955,367.66553632324
1019,1686197601.06,-304.688,186.035,-40.039,-41.016,1005.959,374.0292760408234
1020,1686197601.08,-329.102,317.871,-39.062,-32.715,1005.974,375.8343603197697
1021,1686197601.08,-295.898,226.074,-44.434,17.578,1005.978,371.8709070274124
1022,1686197601.08,-271.973,31.25,-52.246,25.879,1005.982,372.2697399000163
1023,1686197601.09,-311.523,88.867,-57.617,-30.762,1005.985,370.7757082684684
1024,1686197601.09,-351.074,-54.199,-55.176,-49.316,1005.989,366.45073867270406
1025,1686197601.1,-328.125,-151.855,-50.781,-7.324,1005.993,372.3075465374006
1026,1686197601.1,-301.27,-699.707,-77.637,20.508,1005.997,365.68318573950813
1027,1686197601.1,-317.871,-627.93,-47.852,-13.184,1006.001,372.4707591387998
1028,1686197601.11,-345.703,252.93,-36.621,-50.781,1006.005,367.47818986485174
1029,1686197601.11,-344.238,6.348,-77.148,-22.461,1006.009,371.8254212882314
1030,1686197601.12,-291.016,-50.293,-69.336,12.695,1006.013,363.89065531641927
1031,1686197601.12,-282.227,405.273,-31.738,-8.301,1006.017,373.45957780645784
1032,1686197601.12,-341.309,363.77,-60.547,-44.922,1006.021,370.9433121590286
1033,1686197601.13,-346.191,-1.465,-27.344,-39.062,1006.025,379.1985583475543
1034,1686197601.13,-286.621,37.109,8.789,-1.465,1006.029,365.53266899319533
1035,1686197601.14,-266.602,295.41,-45.898,-4.883,1006.033,373.24364397377076
1036,1686197601.14,-318.359,137.695,-86.914,-50.293,1006.037,357.8695081353184
1037,1686197601.14,-344.238,-326.66,-56.152,-54.199,1006.041,364.282921617473
1038,1686197601.15,-294.434,-219.238,-7.812,-8.789,1006.045,365.42627501724684
1039,1686197601.15,-262.207,202.148,-32.715,8.301,1006.049,377.4154542456768
1040,1686197601.16,-307.129,168.457,-65.918,-35.156,1006.053,371.0039644711893
1041,1686197601.16,-352.051,-528.32,-58.594,-58.105,1006.056,374.09093377233916
1042,1686197601.16,-319.824,-615.234,2.93,-3.906,1006.06,377.2349465796424
1043,1686197601.17,-292.969,136.23,-55.664,-10.742,1006.063,375.07670789151985
1044,1686197601.17,-272.949,104.98,-19.043,30.273,1006.064,375.5533263718525
1045,1686197601.17,-337.891,-124.512,-32.715,-39.062,1006.067,366.64562282222073
1046,1686197601.18,-322.266,18.555,-17.09,-12.207,1006.071,377.11415327042846
1047,1686197601.18,-261.719,315.43,-35.156,16.602,1006.075,370.1330811549012
1048,1686197601.18,-262.695,6.348,-59.57,-4.395,1006.079,381.7962436863743
1049,1686197601.19,-338.867,-480.469,-59.082,-47.852,1006.083,373.9923473523025
1050,1686197601.19,-348.633,-322.266,7.812,-39.551,1006.087,376.4854318820243
1051,1686197601.19,-282.715,222.168,4.883,14.648,1006.091,383.18304416377407
1052,1686197601.2,-259.277,219.727,-66.895,8.789,1006.095,371.93654432234035
1053,1686197601.2,-315.918,-784.668,-78.613,-38.574,1006.099,374.0509680697331
1054,1686197601.21,-347.656,-619.141,6.836,-46.875,1006.103,373.0829285718622
1055,1686197601.21,-287.598,523.926,5.371,-4.395,1006.106,379.42190468069435
1056,1686197601.22,-250.488,361.816,-37.109,16.113,1006.112,387.45192669735735
1057,1686197601.22,-294.922,-8.301,-27.344,-25.391,1006.116,371.71429717342073
1058,1686197601.22,-345.703,121.582,-24.414,-60.547,1006.12,379.39438307736214
1059,1686197601.23,-315.43,425.293,-36.133,-17.578,1006.124,369.39327487673614
1060,1686197601.23,-264.648,2.93,-43.945,27.832,1006.128,371.13514118596567
1061,1686197601.24,-283.691,-474.609,-20.508,-10.254,1006.132,367.3809538395967
1062,1686197601.24,-335.938,-26.367,-27.832,-56.152,1006.136,370.5267622296579
1063,1686197601.24,-319.824,421.875,-30.762,-24.902,1006.14,364.3794108260705
1064,1686197601.25,-271.484,-222.168,-49.805,20.02,1006.144,370.0837177147474
1065,1686197601.25,-273.438,-420.41,-19.531,0.0,1006.147,375.61827894080875
1066,1686197601.25,-315.43,253.418,-22.949,-48.828,1006.151,370.21981322014517
1067,1686197601.26,-344.727,196.289,-43.457,-45.898,1006.155,365.1710747817583
1068,1686197601.26,-302.734,148.438,-16.113,7.812,1006.155,371.73957504905906
1069,1686197601.26,-271.973,275.879,-26.367,23.438,1006.159,374.91284275488675
1070,1686197601.27,-311.523,317.383,-51.27,-16.113,1006.163,367.8819559700406
1071,1686197601.27,-349.609,74.219,-45.41,-25.391,1006.166,371.64062462127004
1072,1686197601.27,-320.312,-182.129,-33.203,27.832,1006.17,377.01071031383447
1073,1686197601.28,-273.438,-146.973,-24.902,52.734,1006.174,370.48438069666275
1074,1686197601.28,-297.852,-146.484,-31.738,3.418,1006.178,367.16668208758244
1075,1686197601.28,-342.773,-112.793,-53.711,-25.879,1006.182,370.4617913248564
1076,1686197601.29,-328.613,-689.941,-68.848,14.16,1006.186,373.6225978490488
1077,1686197601.29,-279.297,-601.562,18.066,42.48,1006.19,361.0233909873815
1078,1686197601.3,-277.832,532.715,1.953,8.789,1006.194,372.33008429050557
1079,1686197601.3,-332.52,381.836,-64.941,-37.109,1006.198,368.36616121996605
1080,1686197601.3,-340.332,176.758,-19.043,-19.043,1006.202,378.5568677637711
1081,1686197601.31,-284.668,477.051,-7.324,33.691,1006.206,363.45776801284796
1082,1686197601.31,-267.578,415.039,-48.34,38.086,1006.21,369.7087452403124
1083,1686197601.32,-317.871,35.156,-27.832,-7.324,1006.214,370.3839270702498
1084,1686197601.32,-342.773,-30.273,-1.465,-23.926,1006.218,372.49730462775653
1085,1686197601.32,-302.734,4.883,-46.875,22.949,1006.222,377.48193659701246
1086,1686197601.33,-272.461,-1.465,-47.852,37.598,1006.226,372.4834833590814
1087,1686197601.33,-302.734,-448.73,-70.801,-7.812,1006.229,369.295442244167
1088,1686197601.34,-333.496,-720.703,-4.883,-16.113,1006.233,375.7580680317011
1089,1686197601.34,-291.992,319.824,38.574,19.531,1006.237,370.9557177822424
1090,1686197601.34,-253.418,573.242,-44.922,31.738,1006.241,375.6064804358701
1091,1686197601.35,-278.809,112.305,-58.594,-3.418,1006.245,365.16337181919056
1092,1686197601.35,-333.984,141.113,-34.18,-43.945,1006.245,360.25917468084606
1093,1686197601.35,-326.66,317.871,-28.809,-17.09,1006.249,370.701027854499
1094,1686197601.36,-271.973,196.289,-44.434,28.32,1006.253,374.4017560689004
1095,1686197601.36,-276.367,-55.664,-54.688,5.371,1006.257,382.64454217792587
1096,1686197601.36,-320.801,-186.035,-50.781,-39.062,1006.261,376.81136411235127
1097,1686197601.37,-320.312,-221.68,-30.762,-20.508,1006.264,365.40179225628447
1098,1686197601.37,-262.695,-40.527,-43.457,27.832,1006.268,381.74659429610614
1099,1686197601.38,-264.648,-639.16,-66.895,16.113,1006.272,371.13872677285104
1100,1686197601.38,-319.824,-634.766,-17.578,-33.691,1006.276,376.1611610427159
1101,1686197601.38,-322.754,310.059,-10.254,-26.367,1006.28,367.60294514801313
1102,1686197601.39,-280.762,119.629,-54.688,19.531,1006.284,374.60199064916867
1103,1686197601.39,-252.93,19.043,-52.246,26.367,1006.288,379.98479037110803
1104,1686197601.4,-284.18,429.199,-25.879,-16.602,1006.299,381.63522114045304
1105,1686197601.4,-324.707,375.977,-59.082,-40.039,1006.303,365.9360705862625
1106,1686197601.41,-305.664,24.902,-16.113,-2.93,1006.307,364.022136800377
1107,1686197601.41,-262.207,125.488,18.555,24.902,1006.311,366.01885524309773
1108,1686197601.42,-277.832,220.215,-60.059,-8.301,1006.315,372.21005910085125
1109,1686197601.42,-331.055,-67.871,-63.477,-41.504,1006.319,364.42358149056366
1110,1686197601.42,-331.543,-592.773,-42.48,-13.184,1006.323,366.96940756871527
1111,1686197601.43,-278.809,-500.488,-21.973,27.344,1006.327,372.4359035056175
1112,1686197601.43,-261.719,375.977,-26.855,7.324,1006.331,375.311166467018
1113,1686197601.44,-308.594,305.176,-65.918,-31.738,1006.335,371.2338485869843
1114,1686197601.44,-274.414,91.309,-47.363,16.602,1006.338,370.6087448076361
1115,1686197601.44,-328.613,26.367,-32.715,-29.785,1006.338,376.19432791499327
1116,1686197601.44,-320.801,-15.137,-41.992,-38.574,1006.342,372.61346057929967
1117,1686197601.44,-285.645,138.184,-33.203,14.648,1006.342,380.29023491415734
1118,1686197601.45,-356.445,-204.102,-29.297,-47.852,1006.346,377.96738652517587
1119,1686197601.45,-316.895,48.34,-7.812,9.277,1006.349,362.5282260683099
1120,1686197601.46,-269.531,170.41,-50.781,31.738,1006.353,370.43511092240203
1121,1686197601.46,-302.734,-47.852,-72.754,-16.602,1006.357,359.6496392230836
1122,1686197601.46,-352.539,-730.469,-78.125,-41.992,1006.361,374.2516917004316
1123,1686197601.47,-321.777,-645.508,8.301,1.465,1006.365,373.7318367593928
1124,1686197601.47,-258.301,552.246,-1.465,29.785,1006.369,373.5839744763026
1125,1686197601.47,-270.508,374.512,-83.496,3.906,1006.373,368.05728314890916
1126,1686197601.48,-320.801,66.895,-51.758,-35.645,1006.377,372.97615873797525
1127,1686197601.48,-315.43,387.695,-18.555,-28.32,1006.381,383.22070501284384
1128,1686197601.5,-260.742,488.77,-36.621,18.555,1006.394,374.56282218838453
1129,1686197601.5,-252.93,152.344,-38.086,10.254,1006.398,362.4201609578427
1130,1686197601.51,-312.5,-202.637,-28.809,-37.109,1006.402,367.8370841400104
1131,1686197601.51,-329.59,-6.348,-34.18,-41.504,1006.406,379.6955089825236
1132,1686197601.51,-273.926,390.625,-43.457,8.789,1006.41,371.7651666785443
1133,1686197601.52,-247.07,-206.055,-101.562,24.414,1006.414,356.3869415682574
1134,1686197601.52,-297.363,-921.875,-53.223,-24.414,1006.418,370.9421882303066
1135,1686197601.52,-318.359,-19.531,8.301,-46.387,1006.422,363.9843603465283
1136,1686197601.53,-270.996,543.457,-38.574,0.977,1006.426,366.66265247617645
1137,1686197601.53,-231.445,266.113,-46.387,20.996,1006.43,368.7122641215223
1138,1686197601.54,-257.812,250.977,-57.129,-18.555,1006.434,364.73139745105334
1139,1686197601.54,-301.27,276.367,-73.242,-34.668,1006.437,367.6164848729178
1140,1686197601.56,-271.484,154.785,-58.105,-7.324,1006.455,377.79400196508215
1141,1686197601.56,-218.75,62.5,-57.617,24.902,1006.459,367.87098127787044
1142,1686197601.57,-231.934,168.945,-62.988,-6.348,1006.463,368.4871348481829
1143,1686197601.57,-284.18,191.406,-77.148,-53.223,1006.467,365.10441047779284
1144,1686197601.57,-287.109,-103.027,-82.52,-28.32,1006.471,373.73171232873204
1145,1686197601.58,-244.629,-492.188,-48.828,14.648,1006.475,369.5322791031421
1146,1686197601.58,-238.281,-303.711,-45.41,9.277,1006.479,373.96336052966905
1147,1686197601.58,-275.879,59.57,-54.688,-30.273,1006.482,359.2529766352863
1148,1686197601.59,-287.109,113.77,-80.078,-29.785,1006.486,362.2376195947704
1149,1686197601.59,-292.48,166.016,-57.129,-34.18,1006.486,368.6621860517348
1150,1686197601.59,-254.395,-599.121,-73.242,20.508,1006.49,366.310794072023
1151,1686197601.59,-258.789,92.285,-10.742,-2.441,1006.49,366.0042169099356
1152,1686197601.6,-215.82,367.188,-44.434,22.949,1006.494,371.2710857170212
1153,1686197601.6,-222.656,-268.555,0.977,21.973,1006.494,374.09025773122136
1154,1686197601.6,-250.977,594.727,-64.453,-23.926,1006.498,362.8053413093256
1155,1686197601.6,-244.629,279.297,-65.43,-4.883,1006.498,375.9855270829132
1156,1686197601.6,-300.293,-71.777,-53.223,-38.086,1006.502,370.75763721140856
1157,1686197601.61,-291.016,-312.012,-40.527,-15.137,1006.505,368.5168686687551
1158,1686197601.61,-237.305,-11.719,-49.805,25.879,1006.509,370.60542063696937
1159,1686197601.62,-245.605,105.469,-67.871,5.859,1006.513,373.2110160452123
1160,1686197601.62,-309.082,-224.121,-49.316,-50.293,1006.517,372.5180784175901
1161,1686197601.62,-312.5,5.371,-17.578,-29.297,1006.521,375.13907138821725
1162,1686197601.63,-247.07,351.074,-24.902,22.949,1006.525,370.72165219476915
1163,1686197601.63,-222.656,291.016,-49.805,19.043,1006.529,370.95532816451396
1164,1686197601.63,-267.578,-523.926,-87.891,-11.23,1006.53,370.1915991818567
1165,1686197601.64,-295.41,-740.723,-24.414,-22.461,1006.533,370.49625378524956
1166,1686197601.64,-248.047,326.172,9.277,13.672,1006.537,359.7610432999649
1167,1686197601.64,-216.309,406.738,-55.664,32.227,1006.541,368.13351306227
1168,1686197601.65,-262.695,-247.07,-61.035,-17.578,1006.545,364.3426456900683
1169,1686197601.65,-291.016,-278.32,-44.434,-44.434,1006.549,372.73339469746844
1170,1686197601.66,-242.676,18.066,-30.762,5.371,1006.553,368.7401624456373
1171,1686197601.66,-196.289,82.52,-61.035,39.062,1006.557,357.1989435992834
1172,1686197601.66,-229.492,-629.395,-77.637,5.371,1006.561,355.1469771141313
1173,1686197601.67,-280.762,-440.43,-27.832,-30.762,1006.565,360.56202914488085
1174,1686197601.67,-267.578,350.098,-36.133,-12.695,1006.569,370.0000393920388
1175,1686197601.68,-222.168,-25.391,-75.195,20.996,1006.572,369.7478264131346
1176,1686197601.68,-214.844,-138.672,-83.496,1.465,1006.576,372.3392704472429
1177,1686197601.68,-253.418,283.691,-49.805,-30.762,1006.58,375.5641316586755
1178,1686197601.69,-264.648,328.125,-62.5,-19.531,1006.584,366.4421999440242
1179,1686197601.69,-230.957,74.219,-23.926,22.949,1006.588,356.63930311280205
1180,1686197601.7,-210.938,73.73,-18.555,24.414,1006.592,368.0118274611543
1181,1686197601.7,-250.488,-56.152,-72.754,-28.32,1006.596,367.74603392726885
1182,1686197601.7,-282.227,-110.84,-47.852,-49.805,1006.6,369.64674892562664
1183,1686197601.71,-245.605,-429.199,-39.551,-4.883,1006.604,362.09860407374305
1184,1686197601.71,-218.262,-417.48,-40.039,14.648,1006.608,368.5512423719817
1185,1686197601.71,-246.582,375.488,-50.781,-29.785,1006.612,372.53433343455106
1186,1686197601.72,-280.273,275.391,-74.707,-54.688,1006.616,366.9970602914532
1187,1686197601.72,-257.324,84.473,-55.176,-22.461,1006.619,366.89048515245315
1188,1686197601.72,-209.473,133.789,-57.129,21.484,1006.622,369.1406639149761
1189,1686197601.73,-221.191,14.648,-77.637,6.836,1006.626,374.67994425558726
1190,1686197601.73,-276.855,-77.148,-56.641,-35.645,1006.63,370.4059164677119
1191,1686197601.74,-272.949,-239.258,-17.09,-24.902,1006.634,367.14837436105154
1192,1686197601.74,-215.82,-181.152,-24.902,19.043,1006.638,373.45819352156906
1193,1686197601.74,-202.637,-107.422,-62.012,17.09,1006.642,368.9019096143248
1194,1686197601.75,-253.418,-79.59,-70.801,-30.762,1006.645,375.4068718187978
1195,1686197601.75,-288.086,-715.82,-81.055,-36.621,1006.649,360.4795727097065
1196,1686197601.76,-235.352,-516.602,-16.113,1.465,1006.653,366.03355663355524
1197,1686197601.76,-194.336,571.289,-26.855,1.953,1006.657,362.89779705796764
1198,1686197601.76,-243.652,231.934,-83.008,-40.039,1006.661,364.1925570794853
1199,1686197601.77,-280.273,24.414,-52.734,-50.781,1006.665,366.2152375859728
1200,1686197601.77,-237.305,372.559,-29.785,-7.324,1006.666,370.0853588850784
1201,1686197601.77,-193.848,385.254,-51.758,16.113,1006.67,370.805766936874
1202,1686197601.78,-223.145,-32.715,-45.41,-14.648,1006.674,370.8127125842831
1203,1686197601.78,-270.996,-339.844,-14.648,-43.457,1006.678,367.2410567640134
1204,1686197601.78,-256.836,-83.984,-27.344,-18.066,1006.682,373.110429830043
1205,1686197601.79,-207.031,70.801,-44.434,18.066,1006.686,368.7512425076649
1206,1686197601.79,-217.285,-494.629,-68.359,1.953,1006.69,357.24860393397586
1207,1686197601.8,-269.531,-831.055,-4.883,-34.18,1006.694,372.34771016018635
1208,1686197601.8,-261.23,115.723,50.293,-21.973,1006.698,369.60489397215326
1209,1686197601.8,-202.148,512.695,-18.066,20.508,1006.702,380.79615052337715
1210,1686197601.81,-178.223,150.879,-27.832,13.672,1006.706,373.4293370134352
1211,1686197601.81,-216.309,115.234,-24.902,-24.902,1006.709,381.8353005628035
1212,1686197601.81,-230.469,187.5,-25.391,-19.043,1006.737,372.06195756761906
1213,1686197601.82,-195.801,68.848,-22.949,28.32,1006.741,366.57863593635267
1214,1686197601.82,-183.105,-69.824,-25.879,37.598,1006.745,378.08759023625146
1215,1686197601.82,-211.914,-5.371,-42.969,6.348,1006.749,376.5327175972556
1216,1686197601.83,-250.977,-203.125,-49.805,-11.719,1006.752,369.9691422430563
1217,1686197601.83,-234.375,-307.129,-17.578,9.766,1006.756,366.3173402731674
1218,1686197601.84,-202.148,-746.582,-45.41,38.574,1006.76,369.2702886441591
1219,1686197601.84,-226.562,-783.203,7.324,8.301,1006.764,383.06837779040563
1220,1686197601.84,-267.578,218.262,17.09,-47.363,1006.768,379.01659425939135
1221,1686197601.85,-257.812,140.625,-58.105,-22.949,1006.772,379.40742700383214
1222,1686197601.85,-197.754,-112.305,-28.809,26.855,1006.776,373.8569715284319
1223,1686197601.86,-191.895,208.496,-6.836,9.766,1006.78,384.3578561897857
1224,1686197601.87,-250.977,123.535,-43.945,-29.785,1006.769,370.79698912928035
1225,1686197601.88,-261.23,-210.938,-7.324,-20.02,1006.773,372.57040204196585
1226,1686197601.88,-206.543,-189.941,18.555,31.738,1006.776,369.2841685115396
1227,1686197601.88,-192.871,81.543,-23.926,32.715,1006.78,370.44907920001884
1228,1686197601.89,-242.676,-88.379,-51.27,-21.973,1006.784,372.8454097326129
1229,1686197601.89,-267.09,-725.098,-55.176,-21.484,1006.788,370.1785949671969
1230,1686197601.9,-234.375,-600.586,17.09,25.391,1006.792,381.1832926992498
1231,1686197601.9,-199.219,208.496,4.395,24.902,1006.796,368.8654410756389
1232,1686197601.9,-240.723,5.371,-54.199,-15.625,1006.8,363.53264807959727
1233,1686197601.91,-290.039,-477.539,-12.695,-37.598,1006.804,363.77445311959235
1234,1686197601.91,-257.812,-168.457,34.668,-8.301,1006.808,362.5011202077834
1235,1686197601.92,-208.496,247.07,-1.465,21.973,1006.812,373.49236688630145
1236,1686197601.92,-223.633,39.551,-54.688,2.93,1006.813,370.45297947304664
1237,1686197601.92,-279.297,-521.973,-4.395,-28.809,1006.817,370.7386711547012
1238,1686197601.92,-271.973,-254.395,59.082,-15.625,1006.821,376.9050169334074
1239,1686197601.93,-211.914,333.008,-8.789,18.066,1006.825,371.94448185717306
1240,1686197601.93,-208.008,20.02,-64.941,12.207,1006.829,374.67716647280764
1241,1686197601.94,-263.184,-622.559,-30.762,-22.461,1006.833,365.43098271262613
1242,1686197601.94,-279.297,-494.141,2.93,-22.949,1006.837,374.28612516006893
1243,1686197601.94,-229.004,186.523,-14.16,17.09,1006.841,368.6666062832835
1244,1686197601.95,-208.008,146.973,-69.824,17.578,1006.845,372.39660808734106
1245,1686197601.95,-254.395,-509.766,-43.945,-20.508,1006.849,381.5225801322342
1246,1686197601.96,-274.902,-151.367,2.93,-29.297,1006.853,376.59960180962076
1247,1686197601.96,-231.934,210.938,-37.598,12.207,1006.856,372.1603712225829
1248,1686197601.96,-200.195,-227.051,-58.105,38.086,1006.872,370.9470782755634
1249,1686197601.97,-232.422,-288.574,-60.059,-4.395,1006.876,376.16255786709297
1250,1686197601.97,-280.762,189.453,-26.367,-40.039,1006.88,379.993694549077
1251,1686197601.98,-258.301,265.137,-35.645,-10.742,1006.884,375.6817666801222
1252,1686197601.98,-218.75,-52.246,-43.457,26.367,1006.887,378.07380025814416
1253,1686197601.98,-241.699,-339.355,-45.41,2.93,1006.891,375.0561765996819
1254,1686197601.99,-285.156,-158.691,-26.367,-40.527,1006.895,368.0624106525065
1255,1686197601.99,-277.832,192.383,-34.18,-21.484,1006.899,377.82028009658137
1256,1686197601.99,-229.98,-436.035,-60.547,25.879,1006.903,374.1226380694732
1257,1686197602.0,-221.68,-622.559,-24.414,16.113,1006.907,361.2523262420313
1258,1686197602.0,-265.137,230.957,-35.156,-35.645,1006.911,373.2237001575151
1259,1686197602.01,-289.062,177.246,-55.664,-39.062,1006.915,372.6100267356736
1260,1686197602.02,-250.0,9.766,-34.18,3.418,1006.92,377.7782151818943
1261,1686197602.03,-216.797,-16.602,-41.504,10.742,1006.924,372.38487410616335
1262,1686197602.03,-251.465,-29.785,-41.992,-35.645,1006.928,372.7415214761561
1263,1686197602.04,-289.062,21.973,-62.012,-52.734,1006.932,382.01471281769005
1264,1686197602.04,-259.766,-419.434,-21.484,-5.371,1006.936,370.3945756691571
1265,1686197602.04,-222.656,-373.047,-6.836,11.719,1006.94,376.1913295941199
1266,1686197602.05,-254.395,-81.543,-56.641,-33.691,1006.944,378.9699445789695
1267,1686197602.05,-304.688,-76.172,-66.895,-63.477,1006.948,381.36518957782357
1268,1686197602.05,-291.504,-657.227,-58.105,-29.785,1006.951,367.3905419780658
1269,1686197602.05,-290.527,-155.273,-22.461,-46.875,1006.95,372.0416320747332
1270,1686197602.06,-235.352,-315.918,14.648,7.812,1006.955,370.5452499118633
1271,1686197602.06,-232.422,328.125,-3.906,3.906,1006.954,375.97451685929786
1272,1686197602.06,-235.352,596.191,-31.738,-19.531,1006.959,374.37210184460145
1273,1686197602.06,-216.309,312.5,-47.852,0.0,1006.958,376.0412028270727
1274,1686197602.07,-277.832,-124.023,-26.855,-50.293,1006.962,372.94843937403346
1275,1686197602.07,-291.016,40.039,-74.707,-62.988,1006.963,372.064400242964
1276,1686197602.07,-300.781,-277.344,1.465,-54.688,1006.966,367.62332617580563
1277,1686197602.07,-250.488,-83.496,-19.043,7.324,1006.97,370.0850894700347
1278,1686197602.08,-225.586,22.461,-41.504,20.508,1006.974,379.5702172831771
1279,1686197602.08,-262.207,-360.352,-38.086,-20.996,1006.978,369.7779386468007
1280,1686197602.08,-295.898,-305.664,7.324,-37.109,1006.982,375.87762654472465
1281,1686197602.09,-255.371,341.309,-15.625,-3.906,1006.986,367.8033684157778
1282,1686197602.09,-212.891,327.148,-37.598,21.484,1006.989,376.5485294811733
1283,1686197602.1,-248.047,-498.535,-68.359,-5.859,1006.993,371.28481708171006
1284,1686197602.11,-291.016,-687.5,-33.203,-39.551,1007.009,370.2268073941304
1285,1686197602.12,-268.555,333.496,-4.395,-23.438,1007.012,371.2236184376861
1286,1686197602.12,-217.773,428.223,-49.805,19.043,1007.016,379.84812239164285
1287,1686197602.12,-223.633,139.648,-38.574,-2.441,1007.02,384.84757709289744
1288,1686197602.13,-279.785,32.715,-41.504,-44.922,1007.024,384.20027348831644
1289,1686197602.13,-287.109,-99.609,-30.762,-21.973,1007.028,379.496246998176
1290,1686197602.14,-227.051,20.508,-29.785,27.344,1007.032,374.90383508657624
1291,1686197602.14,-202.637,-612.793,-70.801,30.273,1007.036,365.366620329009
1292,1686197602.14,-248.535,-793.945,-12.695,-18.066,1007.04,369.7255591451425
1293,1686197602.15,-266.602,346.68,20.02,-42.48,1007.044,378.8202264171164
1294,1686197602.15,-218.262,437.5,-36.621,5.371,1007.048,378.6606064066392
1295,1686197602.16,-185.547,143.555,-50.293,26.855,1007.051,381.52655662635954
