,timestamps,TP9,AF7,AF8,TP10,Secondary Timestamp,emg_signal
0,1686362333.39,15.625,-166.016,-77.148,-285.645,1410.287,343.94904577830874
1,1686362333.4,-14.16,-324.707,-57.617,-273.926,1410.291,343.5826407219083
2,1686362333.4,-7.812,-17.09,-29.785,-200.195,1410.295,346.23028724754425
3,1686362333.4,9.766,-17.09,-53.711,-121.094,1410.299,344.3746214719628
4,1686362333.41,-4.883,-388.672,-53.711,-80.078,1410.303,355.25057877230347
5,1686362333.41,-15.137,-533.691,-27.832,-90.82,1410.307,354.18167284456297
6,1686362333.42,-24.902,-278.32,-17.09,-69.336,1410.311,339.4784165542253
7,1686362333.42,-2.93,119.629,-22.949,-1.953,1410.315,359.9151542344087
8,1686362333.42,2.441,-391.113,-75.684,6.836,1410.319,349.5959617671759
9,1686362333.43,-36.621,-690.918,-22.949,-65.918,1410.323,353.79717645757233
10,1686362333.43,-35.156,176.27,0.488,-113.281,1410.327,350.7830563329515
11,1686362333.43,-17.09,169.434,-52.734,-50.781,1410.33,354.6267596951108
12,1686362333.45,3.906,-101.074,-39.551,-13.184,1410.348,359.565325227144
13,1686362333.46,11.719,-91.309,-42.969,-73.242,1410.351,340.87226412887765
14,1686362333.46,-13.184,-269.043,-50.293,-131.836,1410.355,346.9202006023854
15,1686362333.46,-10.742,-294.434,-53.223,-68.848,1410.359,354.78148433454436
16,1686362333.47,0.977,-426.758,-34.668,24.414,1410.363,336.82022361472394
17,1686362333.47,-6.836,-351.074,-3.906,15.137,1410.367,339.5927995738861
18,1686362333.48,-26.367,-17.09,-41.504,-34.668,1410.371,344.7458394590174
19,1686362333.48,-34.18,-31.25,-64.453,-18.066,1410.375,351.52962727439575
20,1686362333.48,-11.23,-648.926,-72.754,27.344,1410.379,338.4893123099418
21,1686362333.48,-12.207,-206.543,-52.734,63.965,1410.377,347.7765203333966
22,1686362333.49,9.766,-397.461,-28.809,22.461,1410.383,344.5609144619527
23,1686362333.49,-4.883,76.66,-48.828,-4.395,1410.381,346.7785900508342
24,1686362333.49,-12.695,390.137,-33.203,9.277,1410.387,342.24059079823917
25,1686362333.49,-8.301,-14.648,-56.641,-40.527,1410.385,348.7283312444996
26,1686362333.49,-35.156,-92.773,-71.777,47.852,1410.391,351.6420068978298
27,1686362333.49,10.254,-343.75,-28.32,36.133,1410.389,354.4538209392365
28,1686362333.5,36.621,-327.148,-22.461,88.867,1410.393,351.4152049597179
29,1686362333.5,49.316,-157.227,-49.805,73.242,1410.397,353.8762210144039
30,1686362333.51,21.484,-274.902,-65.918,44.434,1410.401,359.21700254065007
31,1686362333.51,-10.742,-469.727,-34.668,39.551,1410.405,352.56860829913677
32,1686362333.51,-10.254,-322.754,5.859,48.34,1410.408,349.06342540701087
33,1686362333.52,-4.395,-25.879,-35.156,42.48,1410.412,349.39279838394503
34,1686362333.52,-20.508,-40.039,-46.387,30.762,1410.416,351.8362770237973
35,1686362333.52,-28.809,-573.242,-78.125,47.852,1410.42,352.0292085495484
36,1686362333.53,-18.555,-651.367,-18.555,86.426,1410.424,348.33468351058247
37,1686362333.53,7.324,289.551,12.207,91.797,1410.428,354.3959846105649
38,1686362333.53,16.113,174.316,-72.266,55.176,1410.431,353.09376332744586
39,1686362333.54,-6.348,-445.312,-21.484,1.465,1410.435,346.0687079996149
40,1686362333.54,-7.812,-213.379,0.488,-21.484,1410.439,352.4730924403209
41,1686362333.55,5.859,62.988,-41.504,-1.953,1410.443,339.76736523172156
42,1686362333.55,2.93,-86.914,-58.105,-22.949,1410.447,353.14895252478783
43,1686362333.55,-11.23,-458.984,-28.809,-79.59,1410.451,348.23120302407614
44,1686362333.56,-9.277,-127.93,21.973,-86.426,1410.455,352.06457531455527
45,1686362333.56,10.254,422.363,-47.852,-67.871,1410.459,336.5159253767948
46,1686362333.56,16.113,54.688,-70.801,-79.59,1410.463,352.4364477891056
47,1686362333.57,12.695,-175.781,-80.078,-132.812,1410.467,345.92064097216723
48,1686362333.57,0.977,-137.207,-55.176,-160.645,1410.475,336.6712914738485
49,1686362333.58,2.441,72.266,-29.785,-116.699,1410.478,354.08000787134205
50,1686362333.58,18.555,-164.551,-73.242,-42.969,1410.482,351.72803082252517
51,1686362333.58,29.297,-337.402,-65.43,-26.855,1410.486,354.4653746422481
52,1686362333.59,15.137,38.086,-50.293,-59.082,1410.49,347.4497343040843
53,1686362333.59,2.441,-113.281,-79.59,-22.949,1410.494,354.61592297847716
54,1686362333.6,42.969,-499.023,-73.73,23.438,1410.498,354.0235314239686
55,1686362333.6,56.152,-488.281,-14.16,-24.902,1410.502,338.8434942661083
56,1686362333.6,24.902,234.863,0.977,-70.312,1410.506,350.4308282196107
57,1686362333.61,29.785,239.746,-58.105,-83.008,1410.51,345.1135570879043
58,1686362333.61,62.012,-36.621,-32.715,-86.426,1410.514,339.4854671256107
59,1686362333.62,56.152,144.531,-38.574,-155.762,1410.526,347.55945672955283
60,1686362333.62,69.824,73.73,-28.809,-91.797,1410.518,349.31086660689823
61,1686362333.62,29.297,-90.332,-50.781,-150.391,1410.53,341.92397856943205
62,1686362333.62,17.578,-350.098,-52.246,-75.684,1410.534,352.2861139231108
63,1686362333.63,35.156,-209.961,-30.273,-59.57,1410.538,354.217843247206
64,1686362333.63,42.969,-32.227,-57.129,-66.406,1410.542,351.97975835281204
65,1686362333.64,34.18,-39.062,-69.824,-83.984,1410.546,343.19692382232716
66,1686362333.64,33.203,-645.508,-69.824,-90.332,1410.55,343.3895579597415
67,1686362333.64,51.758,-576.172,-10.742,-22.949,1410.554,343.3581760905995
68,1686362333.65,49.316,529.785,4.883,32.227,1410.558,352.87357961023713
69,1686362333.65,32.227,318.359,-69.336,26.367,1410.562,345.61334777683004
70,1686362333.66,26.855,-52.246,-76.66,13.184,1410.565,349.23780119794594
71,1686362333.66,37.109,169.922,-38.086,-34.668,1410.569,352.1530326266976
72,1686362333.66,47.852,218.262,-39.062,-65.43,1410.559,339.57877710164894
73,1686362333.67,38.574,-108.398,-76.172,-69.336,1410.563,355.75148553449515
74,1686362333.67,20.02,-224.121,-55.176,-66.895,1410.567,351.0397590305867
75,1686362333.67,23.926,94.727,-27.832,-37.109,1410.571,355.1066517371937
76,1686362333.68,38.086,119.141,-50.293,-26.367,1410.575,352.7591429347087
77,1686362333.68,10.254,-409.668,-70.801,-57.129,1410.579,354.776369659679
78,1686362333.69,-11.719,-581.543,-40.039,-92.285,1410.583,345.3478149708491
79,1686362333.69,-9.766,28.32,-17.09,-84.473,1410.587,344.9605320241693
80,1686362333.69,-2.93,380.859,-25.879,-93.262,1410.59,344.71980520654085
81,1686362333.7,1.465,-305.176,-73.242,-115.234,1410.594,342.347921063455
82,1686362333.7,-10.742,-512.695,-43.457,-154.297,1410.598,354.9856258765042
83,1686362333.7,-22.461,299.805,-15.137,-141.602,1410.602,350.4966064106849
84,1686362333.72,0.488,267.09,-52.246,-99.609,1410.617,343.58365834563915
85,1686362333.73,19.043,45.41,-60.547,-115.234,1410.621,349.3846450305762
86,1686362333.73,-4.883,-136.719,-39.551,-145.02,1410.625,341.4587844730051
87,1686362333.73,-11.23,-167.48,-13.672,-168.945,1410.629,349.07833177367553
88,1686362333.74,13.672,150.879,-38.574,-165.527,1410.633,357.08247492797256
89,1686362333.74,13.184,-493.164,-84.473,-174.316,1410.637,355.4475847376044
90,1686362333.75,-5.371,-556.152,-37.109,-164.062,1410.641,345.65305787363275
91,1686362333.75,-11.23,387.695,-21.973,-146.484,1410.645,357.18331749665043
92,1686362333.75,0.977,149.414,-64.453,-130.371,1410.649,354.9121930814106
93,1686362333.76,20.508,-5.371,-38.086,-137.695,1410.653,350.19241888646684
94,1686362333.76,5.371,302.246,-12.207,-231.445,1410.657,363.6384130039185
95,1686362333.76,-4.883,275.391,-37.109,-249.512,1410.66,346.94857273218537
96,1686362333.77,18.555,-86.914,-68.359,-176.27,1410.662,350.6871148230517
97,1686362333.77,33.691,-49.316,-58.594,-116.699,1410.666,352.132361831093
98,1686362333.77,39.062,224.121,-41.016,-85.938,1410.67,340.4201453059522
99,1686362333.78,26.367,127.441,-67.871,-85.938,1410.674,342.4941870825103
100,1686362333.78,7.812,-186.035,-48.34,-44.434,1410.678,350.904155822521
101,1686362333.79,17.578,-312.012,-29.785,2.441,1410.682,343.14875568438697
102,1686362333.79,46.387,8.789,-33.203,-7.324,1410.686,361.9924853712999
103,1686362333.79,45.41,256.836,-38.086,-8.789,1410.69,344.42849997452106
104,1686362333.8,33.691,-387.207,-75.684,25.391,1410.694,345.63788089750426
105,1686362333.8,56.152,-496.582,-36.133,21.484,1410.697,356.2771460295871
106,1686362333.8,65.918,250.977,-21.484,-34.18,1410.701,348.9192564565635
107,1686362333.81,36.133,178.711,-87.891,-87.402,1410.705,341.6210035370637
108,1686362333.83,22.461,-180.176,-49.805,-87.891,1410.722,354.84749000513244
109,1686362333.83,45.41,-13.184,-0.488,-58.105,1410.726,356.90912062614314
110,1686362333.83,42.969,169.922,-44.434,-15.137,1410.73,348.49447116083815
111,1686362333.84,11.23,-31.25,-61.523,-12.207,1410.734,350.1547284201347
112,1686362333.84,-21.484,-328.613,-45.41,-24.902,1410.738,351.25745946197577
113,1686362333.85,-32.715,-270.996,-8.789,25.391,1410.742,354.6788520866595
114,1686362333.85,-10.742,331.055,-24.414,23.438,1410.745,342.3025263778271
115,1686362333.85,-18.066,263.184,-72.266,-35.156,1410.749,341.3933681234066
116,1686362333.86,8.789,-154.297,-72.754,-151.367,1410.753,339.4754806304229
117,1686362333.86,-32.715,-421.875,-39.551,-87.402,1410.753,344.72643938958015
118,1686362333.86,-15.625,-43.457,25.879,-81.055,1410.757,345.01453866796385
119,1686362333.86,6.836,-108.887,-45.41,-149.414,1410.757,341.9988984788635
120,1686362333.86,23.438,518.066,-16.113,-32.715,1410.761,351.0238232651962
121,1686362333.86,15.625,147.949,-28.809,-49.316,1410.761,354.05187483299824
122,1686362333.87,28.809,109.375,-59.57,-51.758,1410.765,341.4167620938794
123,1686362333.87,28.809,-99.121,-67.871,-9.766,1410.765,351.8325972070755
124,1686362333.87,26.855,-379.883,-79.59,-27.832,1410.769,348.434687205699
125,1686362333.88,8.789,-79.59,-45.898,-31.25,1410.773,345.6705071145594
126,1686362333.88,23.438,-5.859,-42.969,-2.93,1410.777,352.59534107602263
127,1686362333.88,46.387,-136.719,-31.738,-4.395,1410.781,351.915434814955
128,1686362333.89,47.363,-18.555,-5.371,-41.016,1410.785,350.8013503213656
129,1686362333.89,44.922,177.734,-34.18,-27.832,1410.789,343.55251532496965
130,1686362333.9,46.387,153.809,-49.316,31.25,1410.793,343.2045296048335
131,1686362333.9,46.875,-409.668,-67.871,51.27,1410.796,347.58018820662176
132,1686362333.9,24.902,-402.832,-25.879,8.301,1410.798,348.4927413348321
133,1686362333.9,15.137,356.445,-27.344,-61.523,1410.802,344.6574073452689
134,1686362333.91,25.391,64.453,-64.453,-79.59,1410.806,349.6786985588881
135,1686362333.91,30.273,-565.918,-34.668,-51.27,1410.809,355.8985728921846
136,1686362333.92,14.648,-177.246,-9.277,-80.566,1410.813,339.4677144250407
137,1686362333.92,-13.672,297.852,-39.551,-174.316,1410.817,345.17340394388907
138,1686362333.92,-22.461,30.273,-51.758,-209.473,1410.821,343.8053096933667
139,1686362333.93,-16.113,-451.172,-33.691,-145.02,1410.825,339.98558485155013
140,1686362333.93,7.324,-210.449,7.812,-101.074,1410.829,341.1422100112951
141,1686362333.94,16.602,553.711,-22.461,-130.859,1410.833,343.2955738952879
142,1686362333.94,1.465,132.324,-67.871,-132.812,1410.837,347.6736870007539
143,1686362333.94,5.859,-43.945,-45.41,-84.961,1410.841,347.1523473583597
144,1686362333.95,11.719,213.379,-21.973,-57.617,1410.871,341.5799205678185
145,1686362333.95,-3.906,173.34,-36.133,-72.266,1410.875,343.82723953117795
146,1686362333.96,-28.32,-159.668,-48.34,-79.59,1410.879,335.6162913318422
147,1686362333.96,-47.852,-195.312,-31.738,-40.527,1410.883,348.4668730517808
148,1686362333.96,-32.715,59.082,-42.969,21.973,1410.887,346.5310219795767
149,1686362333.97,-26.855,-76.172,-55.176,31.25,1410.891,348.31606270999714
150,1686362333.97,-41.992,-508.789,-60.059,23.438,1410.895,347.90423015895306
151,1686362333.97,-30.762,-674.805,-3.418,33.691,1410.899,357.5646798435381
152,1686362333.98,-12.695,277.832,48.34,18.555,1410.903,344.50929345030784
153,1686362333.98,-6.836,543.945,-26.855,-23.926,1410.907,340.1356633613343
154,1686362333.99,-26.367,40.527,-31.738,-103.027,1410.91,340.3844224139889
155,1686362333.99,-24.414,35.156,-11.719,-142.09,1410.914,343.0726921477492
156,1686362333.99,4.395,223.145,-15.625,-124.512,1410.901,339.91210761822003
157,1686362334.0,25.879,141.113,-33.203,-99.609,1410.905,347.01704428843425
158,1686362334.0,34.18,-224.121,-52.246,-65.918,1410.909,335.6790551016821
159,1686362334.0,27.832,-143.066,-32.227,-47.363,1410.913,342.2673545151601
160,1686362334.01,16.113,161.621,-22.461,-0.488,1410.917,334.35030482975736
161,1686362334.01,6.348,64.941,-48.34,2.441,1410.921,338.9966756607471
162,1686362334.02,-10.254,-591.309,-46.875,-76.66,1410.925,338.5457309330827
163,1686362334.02,-28.32,-375.488,0.488,-115.234,1410.929,343.17210877821435
164,1686362334.02,-20.508,429.199,4.883,-83.008,1410.933,333.78196241115864
165,1686362334.03,8.301,108.398,-49.316,-38.086,1410.937,344.4937802225013
166,1686362334.03,26.367,110.352,-57.129,-23.926,1410.941,337.8332812515305
167,1686362334.03,2.441,307.617,-18.555,-48.34,1410.944,342.80324253584644
168,1686362334.04,-27.832,264.648,-7.324,-41.504,1410.945,335.4354730269302
169,1686362334.05,-20.508,-110.84,-64.453,13.184,1410.949,339.74899347896826
170,1686362334.05,-25.879,-299.805,-38.574,-28.32,1410.953,345.2731596831895
171,1686362334.05,-52.734,245.117,21.973,-143.555,1410.957,339.0065938615941
172,1686362334.06,-52.246,272.461,-35.156,-172.363,1410.961,338.986776684539
173,1686362334.06,-36.133,-376.465,-52.246,-83.984,1410.965,336.2543399823924
174,1686362334.07,-11.23,-341.797,-3.906,-28.32,1410.969,342.0234445289295
175,1686362334.07,10.742,418.945,15.137,-66.406,1410.973,332.18767864304795
176,1686362334.07,-31.738,289.062,-26.855,-116.699,1410.977,344.5838430950425
177,1686362334.08,-92.773,-114.746,-8.789,-147.949,1410.98,340.7977733422327
178,1686362334.08,-82.52,48.34,14.648,-145.996,1410.984,335.0959048001184
179,1686362334.08,-72.266,114.746,-14.16,-168.457,1410.988,335.1955914873664
180,1686362334.1,-104.492,30.273,-22.949,-188.477,1410.992,325.0275079086458
181,1686362334.1,-106.445,-129.883,-27.344,-127.441,1410.996,332.8296784781886
182,1686362334.1,-75.195,-129.883,-13.672,-59.57,1411.0,338.3551903818657
183,1686362334.11,-71.289,248.535,-9.766,-3.906,1411.004,333.1744769007108
184,1686362334.11,-93.262,352.051,-23.438,31.25,1411.008,332.3583945877653
185,1686362334.12,-112.305,-516.602,-65.43,64.453,1411.012,333.3032737854213
186,1686362334.12,-110.352,-411.621,20.508,111.816,1411.016,338.6651465943798
187,1686362334.12,-94.727,719.727,53.223,83.984,1411.02,334.94376946881727
188,1686362334.13,-98.145,339.844,-34.18,3.906,1411.023,342.5639818407154
189,1686362334.13,-109.375,-31.25,-13.672,-70.801,1411.027,354.548905765735
190,1686362334.14,-95.215,295.898,22.949,-106.934,1411.031,332.6954500052016
191,1686362334.14,-71.777,381.836,-2.93,-95.703,1411.035,333.81936153675736
192,1686362334.14,-70.801,66.406,-32.227,-104.004,1411.038,325.8010430048836
193,1686362334.14,-79.59,-170.898,-25.879,-145.02,1411.042,323.60991687668303
194,1686362334.15,-85.938,-87.402,9.766,-171.387,1411.046,340.4141151040115
195,1686362334.15,-76.66,250.977,26.855,-172.852,1411.05,340.44857661194436
196,1686362334.16,-71.777,20.02,-11.23,-193.848,1411.054,353.5157120083118
197,1686362334.16,-97.656,-388.184,-12.207,-237.793,1411.058,327.07674497645985
198,1686362334.16,-109.375,117.676,36.133,-229.98,1411.062,335.2890214675455
199,1686362334.17,-85.938,512.207,22.461,-164.551,1411.066,340.3442897896288
200,1686362334.17,-75.195,-133.789,-27.344,-131.836,1411.07,324.7628531683925
201,1686362334.18,-91.309,-366.211,20.508,-144.531,1411.073,333.1095238960602
202,1686362334.18,-94.727,408.691,46.387,-134.766,1411.077,337.04136757795357
203,1686362334.18,-87.402,332.52,-3.418,-98.633,1411.081,338.51662108233296
204,1686362334.2,-85.449,158.691,37.598,-113.77,1411.097,331.29939387424946
205,1686362334.2,-94.238,264.16,64.453,-167.969,1411.101,333.87724519190107
206,1686362334.21,-97.168,91.309,18.066,-172.363,1411.105,330.4781579008614
207,1686362334.21,-71.289,-36.133,8.789,-131.836,1411.109,330.4179970330804
208,1686362334.22,-54.199,-313.477,34.18,-103.027,1411.113,339.20865800673977
209,1686362334.22,-68.359,-139.648,81.055,-125.977,1411.117,334.4242978875958
210,1686362334.22,-84.961,395.02,83.008,-154.297,1411.121,328.5421050385826
211,1686362334.23,-92.285,411.133,44.434,-123.047,1411.125,328.25145947227276
212,1686362334.23,-79.102,132.812,47.852,-45.898,1411.127,335.1483800319893
213,1686362334.23,-82.031,-217.285,24.902,-61.035,1411.128,326.6804912052391
214,1686362334.24,-58.105,419.922,93.75,-106.445,1411.131,332.49184545708613
215,1686362334.24,-79.59,61.035,115.723,-81.055,1411.132,324.0434553354075
216,1686362334.24,-77.637,355.957,68.848,-219.238,1411.135,321.3725933022535
217,1686362334.24,-97.656,760.742,97.656,-125.488,1411.136,327.8153036306249
218,1686362334.24,-83.496,53.711,51.27,-251.953,1411.139,330.5314389808102
219,1686362334.24,-104.98,243.164,18.066,-88.379,1411.14,324.1821034762405
220,1686362334.25,-52.734,33.203,60.059,-217.773,1411.143,334.0639988508915
221,1686362334.25,-42.969,132.812,57.617,-187.5,1411.147,324.0182021378906
222,1686362334.26,-72.754,136.23,52.246,-183.594,1411.151,323.7015404827637
223,1686362334.26,-89.844,-68.848,51.758,-135.742,1411.155,326.73197967038976
224,1686362334.26,-65.918,87.402,113.77,-69.336,1411.159,330.41015735618083
225,1686362334.27,-38.574,494.629,115.234,-51.758,1411.162,321.1097610163469
226,1686362334.27,-32.227,469.727,81.055,-83.008,1411.166,325.1738878788205
227,1686362334.27,-30.273,-268.555,20.02,-130.371,1411.17,321.32417330666874
228,1686362334.28,-26.855,-444.336,94.238,-137.695,1411.172,330.3696105680939
229,1686362334.28,-1.953,583.008,160.156,-133.789,1411.176,329.10139934902145
230,1686362334.28,-5.859,478.516,61.523,-169.434,1411.18,327.97091473174277
231,1686362334.29,-56.152,-135.254,76.66,-184.082,1411.184,335.6373787019397
232,1686362334.29,-78.613,116.211,123.047,-112.305,1411.188,325.34448942559516
233,1686362334.3,-68.848,405.273,102.051,-48.34,1411.192,333.67627139983836
234,1686362334.3,-55.176,284.18,83.008,-58.594,1411.196,329.72340997571325
235,1686362334.3,-72.754,-98.633,86.426,-117.188,1411.2,325.31140009475337
236,1686362334.31,-100.098,156.25,144.531,-170.898,1411.204,327.4765513358708
237,1686362334.31,-83.008,557.617,113.281,-151.367,1411.208,329.55781947225427
238,1686362334.32,-54.688,146.973,72.754,-85.938,1411.211,315.3958193379383
239,1686362334.32,-46.387,89.844,106.445,-86.426,1411.215,320.3488919143181
240,1686362334.32,-80.566,442.383,155.273,-134.766,1411.217,329.2666049301722
241,1686362334.32,-129.395,454.59,125.977,-125.977,1411.221,327.37334668416963
242,1686362334.33,-126.953,116.211,97.656,-85.449,1411.225,314.66807763634466
243,1686362334.33,-103.027,172.363,124.023,-93.262,1411.229,323.33710374126235
244,1686362334.34,-109.863,281.738,107.91,-121.094,1411.233,316.5207932828015
245,1686362334.34,-125.0,86.914,86.426,-122.559,1411.237,316.75544253469803
246,1686362334.34,-104.98,-246.094,56.152,-100.098,1411.241,328.30019239553786
247,1686362334.35,-79.59,-143.066,80.566,-121.094,1411.245,323.76411384352605
248,1686362334.35,-85.938,491.699,142.09,-156.25,1411.249,340.7775143299866
249,1686362334.36,-106.934,395.508,86.914,-103.516,1411.252,328.71258396286356
250,1686362334.36,-100.586,237.793,102.051,-45.41,1411.256,327.2996883790719
251,1686362334.36,-81.055,344.238,121.582,-49.316,1411.26,327.75225128898336
252,1686362334.37,-87.891,200.684,87.402,-79.59,1411.266,331.138478513789
253,1686362334.37,-122.07,229.98,95.703,-126.465,1411.27,326.76995665604926
254,1686362334.38,-132.812,-269.531,58.105,-150.391,1411.274,321.6872073526378
255,1686362334.38,-111.816,-193.848,114.746,-133.789,1411.278,324.90145946595453
256,1686362334.38,-100.586,631.348,135.742,-125.0,1411.282,326.79503940571135
257,1686362334.39,-93.262,264.648,63.965,-122.559,1411.286,328.40999211382
258,1686362334.39,-83.008,-250.977,92.285,-83.008,1411.29,321.6047670258109
259,1686362334.39,-71.777,215.332,173.34,-27.344,1411.294,321.0166808060243
260,1686362334.4,-81.543,776.367,137.695,-31.25,1411.297,319.35291241626845
261,1686362334.4,-87.402,271.484,76.172,-76.66,1411.301,325.890080812336
262,1686362334.41,-83.496,70.801,100.098,-84.473,1411.305,318.9680500776188
263,1686362334.41,-76.66,362.305,155.273,-23.438,1411.309,322.90791687903095
264,1686362334.43,-75.195,399.902,152.832,5.371,1411.324,318.79755701172667
265,1686362334.43,-86.426,90.82,117.676,-60.547,1411.328,326.3703083038961
266,1686362334.44,-72.754,-140.625,109.375,-120.117,1411.332,333.3047786463432
267,1686362334.44,-45.898,100.586,160.156,-107.91,1411.336,330.0667431448625
268,1686362334.44,-28.809,413.086,172.363,-75.684,1411.34,318.0166075756334
269,1686362334.45,-44.434,-125.488,70.312,-92.285,1411.344,323.45226793104416
270,1686362334.45,-82.52,-678.711,108.887,-92.285,1411.348,312.30040091992254
271,1686362334.45,-91.309,235.84,238.281,-65.918,1411.352,321.3782066784997
272,1686362334.46,-90.332,665.527,167.48,-41.992,1411.356,320.9920685320466
273,1686362334.46,-95.703,196.289,127.93,-12.695,1411.359,320.6418316792083
274,1686362334.47,-107.91,144.043,162.109,-4.395,1411.363,330.03248194078594
275,1686362334.47,-111.816,219.238,153.32,-3.906,1411.367,312.89498948165283
276,1686362334.47,-106.445,138.672,144.531,-10.254,1411.367,325.78099773332406
277,1686362334.48,-117.676,63.965,154.785,-26.855,1411.371,326.214210578085
278,1686362334.48,-137.695,-86.426,140.625,-35.156,1411.375,323.3489926057029
279,1686362334.48,-137.695,22.461,150.391,-25.879,1411.379,322.03542864452635
280,1686362334.49,-109.863,162.598,140.625,-40.039,1411.383,309.52467390435066
281,1686362334.49,-103.027,-123.047,116.699,-65.43,1411.387,325.37937149216606
282,1686362334.5,-121.094,-80.566,145.02,-92.773,1411.391,317.6871875647156
283,1686362334.5,-119.629,187.012,165.039,-108.887,1411.395,318.8317099717019
284,1686362334.5,-94.238,284.18,130.371,-113.77,1411.398,321.57909595742734
285,1686362334.51,-83.496,-533.691,40.527,-120.605,1411.402,325.3105007000759
286,1686362334.51,-99.121,-585.938,149.902,-127.93,1411.406,326.4621510410306
287,1686362334.51,-118.652,514.16,214.844,-152.832,1411.41,324.3576397979549
288,1686362334.52,-125.977,360.84,119.629,-131.836,1411.412,337.76865611393237
289,1686362334.52,-114.258,103.516,130.859,-90.332,1411.416,326.51520332992607
290,1686362334.52,-115.723,301.27,165.039,-83.008,1411.42,332.22533861017257
291,1686362334.53,-140.137,199.707,137.695,-84.473,1411.424,329.5995500288632
292,1686362334.53,-153.809,-122.07,101.562,-48.34,1411.428,339.1359128920587
293,1686362334.54,-137.207,-296.387,127.93,22.949,1411.432,329.3559107015872
294,1686362334.54,-121.094,17.578,161.133,22.461,1411.436,337.387311908201
295,1686362334.54,-132.324,206.543,138.184,-59.082,1411.44,320.20492350547136
296,1686362334.55,-147.949,-437.988,62.012,-86.914,1411.444,322.9903995554647
297,1686362334.55,-128.906,-687.012,127.441,-62.5,1411.447,315.7685383676354
298,1686362334.56,-104.492,296.875,224.121,-62.012,1411.451,330.7821176332282
299,1686362334.56,-118.164,365.234,135.254,-83.008,1411.455,324.2462801056605
300,1686362334.56,-129.395,-85.938,131.836,-87.402,1411.458,320.2547525514512
301,1686362334.56,-118.652,88.867,176.758,-48.828,1411.462,320.92236313965014
302,1686362334.57,-107.422,36.133,148.438,-38.086,1411.466,327.6105045119319
303,1686362334.57,-112.793,-168.457,126.465,-92.285,1411.47,324.441011847288
304,1686362334.58,-128.906,-472.656,114.258,-132.324,1411.473,332.9339582106662
305,1686362334.58,-119.629,-404.297,140.625,-124.512,1411.477,326.6736220297868
306,1686362334.58,-99.609,235.352,185.547,-134.277,1411.481,334.52545597118944
307,1686362334.59,-103.027,229.492,130.859,-160.156,1411.485,340.8170855123585
308,1686362334.59,-134.277,-433.105,102.539,-178.711,1411.489,337.24254200064405
309,1686362334.6,-142.578,-149.414,190.43,-172.363,1411.493,337.5729295401784
310,1686362334.6,-114.258,261.23,166.016,-135.742,1411.497,330.8938128504467
311,1686362334.6,-105.957,-161.621,99.609,-125.977,1411.501,344.42621163004895
312,1686362334.61,-134.277,-264.16,101.562,-188.965,1411.502,336.33596516513273
313,1686362334.61,-149.414,93.262,160.156,-228.027,1411.506,330.37554748578685
314,1686362334.61,-125.0,142.09,133.301,-202.637,1411.51,354.59552666890545
315,1686362334.62,-110.352,-168.457,107.422,-158.203,1411.514,338.8112243257966
316,1686362334.62,-118.164,-229.98,128.418,-152.344,1411.518,334.4437839471579
317,1686362334.63,-135.742,-240.723,125.0,-153.32,1411.522,336.96661928980876
318,1686362334.63,-137.695,-132.812,142.09,-139.16,1411.526,342.7357885221072
319,1686362334.63,-121.094,-396.973,83.984,-126.953,1411.53,340.63491997728664
320,1686362334.64,-135.254,-505.371,116.211,-155.762,1411.534,338.4192061599223
321,1686362334.64,-157.715,249.023,206.543,-208.496,1411.538,338.8362309958391
322,1686362334.64,-151.367,168.945,140.625,-193.359,1411.541,349.3691086129672
323,1686362334.65,-127.441,-97.168,150.879,-145.996,1411.545,336.2808771327505
324,1686362334.65,-123.535,-53.711,149.902,-141.113,1411.551,341.03419775200786
325,1686362334.66,-147.949,-193.359,120.117,-161.621,1411.555,339.7838735055261
326,1686362334.66,-169.434,-211.914,140.137,-137.695,1411.559,338.17002655477137
327,1686362334.66,-168.945,-627.441,96.191,-87.402,1411.562,344.19648103220993
328,1686362334.67,-151.855,-498.047,124.512,-93.75,1411.566,353.2054281803886
329,1686362334.67,-153.32,103.516,162.109,-135.254,1411.57,347.65042854708156
330,1686362334.68,-156.25,2.441,134.766,-160.156,1411.574,359.70679367120175
331,1686362334.68,-148.926,-393.066,130.371,-125.977,1411.578,356.6620943316144
332,1686362334.68,-133.301,-65.43,197.266,-75.684,1411.582,356.30342076669933
333,1686362334.69,-129.883,439.941,160.156,-99.609,1411.586,353.6474854383042
334,1686362334.69,-144.043,-95.703,100.098,-72.754,1411.59,354.00489691259907
335,1686362334.7,-134.277,-216.797,150.391,6.836,1411.594,352.7301329754731
336,1686362334.7,-104.004,99.121,173.34,0.488,1411.594,358.61616536072205
337,1686362334.7,-98.145,58.105,142.578,-51.758,1411.598,356.39439016599624
338,1686362334.7,-110.84,-293.457,119.629,-88.867,1411.602,350.5598423442855
339,1686362334.71,-103.027,-482.91,119.141,-93.262,1411.606,361.26313297663927
340,1686362334.71,-67.871,-211.914,140.625,-98.145,1411.61,360.6227896496587
341,1686362334.72,-47.852,-125.977,132.812,-118.164,1411.614,354.4043061212166
342,1686362334.72,-78.125,-546.387,88.379,-124.023,1411.617,351.60443498553826
343,1686362334.72,-107.91,-801.758,134.766,-125.0,1411.621,341.3222854503456
344,1686362334.73,-102.051,74.707,239.746,-120.605,1411.625,360.94448003717525
345,1686362334.73,-109.863,414.551,169.434,-139.648,1411.629,359.5214771006241
346,1686362334.74,-136.719,-68.848,134.277,-177.246,1411.633,348.8305990673222
347,1686362334.74,-160.645,-103.027,166.016,-187.988,1411.637,356.71828718270797
348,1686362334.74,-159.668,12.207,153.809,-147.949,1411.651,368.76643647586656
349,1686362334.74,-127.441,-49.805,140.625,-117.188,1411.655,357.32997692410027
350,1686362334.75,-118.652,-346.191,136.719,-153.32,1411.659,357.37304197134193
351,1686362334.75,-130.859,-270.02,166.016,-180.176,1411.663,360.57204236762516
352,1686362334.76,-122.559,-36.621,153.809,-169.434,1411.667,363.72133374380564
353,1686362334.76,-109.375,-190.918,134.277,-153.32,1411.671,365.5465940321502
354,1686362334.76,-119.141,-714.355,92.773,-170.898,1411.675,358.65263510040376
355,1686362334.77,-136.23,-679.199,163.086,-187.988,1411.679,353.8188416414069
356,1686362334.77,-119.141,255.371,240.723,-154.297,1411.682,367.23407890560213
357,1686362334.78,-78.613,221.191,147.949,-71.777,1411.686,363.8129005900546
358,1686362334.78,-74.707,-34.18,140.625,-32.227,1411.69,355.20075694127775
359,1686362334.78,-97.168,97.656,171.875,-41.504,1411.694,354.80587732158125
360,1686362334.79,-98.633,83.496,158.691,-60.547,1411.696,374.111287800012
361,1686362334.79,-84.473,-208.984,139.648,-52.734,1411.7,346.64264606176226
362,1686362334.8,-83.984,-244.141,154.785,-19.531,1411.703,363.5227945156194
363,1686362334.8,-113.77,-16.113,181.152,-27.832,1411.707,358.22462755861056
364,1686362334.8,-136.719,-41.992,160.156,-33.691,1411.711,362.0827536081473
365,1686362334.81,-132.812,-590.82,89.844,34.668,1411.715,357.3912819557521
366,1686362334.81,-105.957,-589.355,137.695,78.613,1411.719,371.59385377981795
367,1686362334.82,-97.168,201.172,206.055,27.832,1411.723,352.25373918368376
368,1686362334.82,-116.699,144.531,147.949,0.977,1411.727,370.90368256572543
369,1686362334.82,-112.305,-575.195,92.285,-26.367,1411.731,366.32505877862627
370,1686362334.83,-77.637,-423.828,168.945,-69.336,1411.735,353.5235219411407
371,1686362334.83,-83.008,316.406,197.266,-110.84,1411.739,352.4071782954267
372,1686362334.85,-113.281,55.664,127.441,-146.484,1411.742,363.424683539618
373,1686362334.85,-98.633,-206.543,151.367,-115.234,1411.746,344.2721181010541
374,1686362334.85,-72.266,-214.844,162.109,-56.641,1411.75,340.2924514598893
375,1686362334.86,-63.965,-65.43,166.504,-60.059,1411.754,333.6843375636128
376,1686362334.86,-83.008,111.816,150.879,-110.84,1411.758,344.5706882313647
377,1686362334.87,-106.934,-664.062,63.477,-132.324,1411.762,330.6593990381308
378,1686362334.87,-93.75,-563.477,154.297,-127.93,1411.766,328.2446102478061
379,1686362334.87,-67.383,498.047,219.727,-129.883,1411.77,347.13099376854046
380,1686362334.88,-85.938,175.293,123.535,-172.363,1411.774,323.7095362076532
381,1686362334.88,-97.656,-173.34,140.137,-212.891,1411.778,316.0812709825204
382,1686362334.88,-89.844,77.148,176.758,-176.758,1411.781,316.65251591813603
383,1686362334.89,-84.473,69.336,162.598,-119.629,1411.785,319.25628443588243
384,1686362334.89,-94.727,-271.973,105.469,-88.379,1411.788,311.17687226225996
385,1686362334.9,-122.07,-327.637,107.91,-67.383,1411.792,312.29965096781746
386,1686362334.9,-121.094,143.555,175.781,-53.223,1411.795,304.2703532717454
387,1686362334.9,-95.215,220.703,155.273,-72.266,1411.799,308.7470068779977
388,1686362334.91,-89.355,-135.254,124.023,-124.023,1411.803,310.1186662674492
389,1686362334.91,-121.094,-374.023,127.93,-140.137,1411.807,311.65765064733955
390,1686362334.92,-142.09,-109.863,147.949,-94.238,1411.811,310.06358182630134
391,1686362334.92,-129.883,250.0,158.203,-9.766,1411.815,300.28537820907854
392,1686362334.92,-122.559,-333.496,85.449,50.293,1411.819,303.96650863999554
393,1686362334.93,-135.742,-573.242,110.84,38.574,1411.823,313.9765499606972
394,1686362334.93,-153.809,230.957,196.777,11.23,1411.827,299.5025344052158
395,1686362334.93,-148.926,210.938,140.137,-5.371,1411.831,298.49735013238353
396,1686362334.94,-128.418,-40.527,131.836,-38.574,1411.836,308.836316305443
397,1686362334.94,-131.348,3.418,145.02,-120.605,1411.84,297.28604570222234
398,1686362334.94,-147.461,-149.902,115.234,-181.152,1411.844,300.49189474025536
399,1686362334.95,-134.277,-147.949,137.207,-147.949,1411.847,299.3866597240954
400,1686362334.95,-104.004,-478.027,100.586,-97.656,1411.851,300.56947292782223
401,1686362334.96,-89.844,-513.672,112.793,-118.652,1411.855,303.44621769644095
402,1686362334.96,-94.238,293.945,186.523,-153.32,1411.859,301.22761368105046
403,1686362334.96,-94.238,310.059,133.789,-96.68,1411.863,301.4020552666826
404,1686362334.97,-88.867,-324.219,116.699,-45.41,1411.867,300.955946783552
405,1686362334.97,-88.867,13.184,189.941,-93.262,1411.871,307.0277905159971
406,1686362334.98,-101.074,457.031,143.555,-145.996,1411.875,310.98505927390147
407,1686362334.98,-115.234,-41.992,92.285,-103.027,1411.879,307.6575211772841
408,1686362334.98,-99.121,-115.723,118.164,-10.742,1411.878,310.3157266541801
409,1686362334.98,-77.637,199.707,147.949,37.598,1411.881,324.9788896625917
410,1686362334.99,-83.496,17.09,101.074,-1.465,1411.885,302.86905814000477
411,1686362334.99,-93.75,-313.477,89.355,-45.898,1411.889,329.402661904266
412,1686362335.0,-73.73,-234.863,121.094,-15.137,1411.893,318.44046559730623
413,1686362335.0,-45.41,-78.125,121.582,20.02,1411.897,316.2888450202592
414,1686362335.0,-45.41,69.336,132.324,24.414,1411.901,327.74693753685744
415,1686362335.01,-70.801,-286.133,64.941,6.836,1411.905,317.4607502517317
416,1686362335.01,-74.219,-654.785,101.074,11.719,1411.909,327.8588637103327
417,1686362335.02,-53.711,259.277,202.637,35.156,1411.913,324.0329480537402
418,1686362335.02,-60.059,550.293,124.512,15.137,1411.917,318.02067530649583
419,1686362335.02,-88.379,51.758,110.352,-36.133,1411.92,327.20650993303497
420,1686362335.03,-90.332,94.727,142.578,-61.523,1411.922,324.70257958730707
421,1686362335.03,-74.219,198.242,107.422,-56.152,1411.926,332.6097242981131
422,1686362335.04,-70.801,-16.113,77.148,-16.602,1411.93,311.28319910721325
423,1686362335.04,-91.797,-392.578,100.586,-15.137,1411.934,330.83082171114586
424,1686362335.04,-107.91,-121.582,136.23,-33.203,1411.938,322.9465334294281
425,1686362335.05,-92.773,150.391,99.121,-1.953,1411.942,336.70219605564284
426,1686362335.05,-83.496,65.918,84.473,-11.719,1411.946,323.8712558110263
427,1686362335.05,-90.82,-494.629,54.199,-61.035,1411.949,328.8555707585233
428,1686362335.06,-105.957,-371.582,114.258,-83.496,1411.953,343.3739128627195
429,1686362335.06,-100.098,604.492,154.785,-49.316,1411.957,333.94206010468355
430,1686362335.07,-76.66,290.039,71.289,5.859,1411.961,328.2597277276151
431,1686362335.07,-96.68,-5.371,69.336,-33.203,1411.965,336.0327637189234
432,1686362335.07,-110.352,183.594,100.098,-99.609,1411.969,331.4171095025877
433,1686362335.08,-91.797,213.379,85.938,-79.102,1411.973,334.1668464082757
434,1686362335.08,-83.008,-70.312,66.895,-48.828,1411.977,336.80501519398854
435,1686362335.08,-80.078,-102.539,80.078,-74.707,1411.981,342.38544716818126
436,1686362335.09,-98.633,6.348,75.195,-94.238,1411.985,352.27052403165436
437,1686362335.09,-104.492,-140.625,61.035,-62.5,1411.989,356.31279969462616
438,1686362335.1,-80.566,-421.875,32.227,16.602,1411.993,338.7418990468656
439,1686362335.1,-71.777,-413.574,63.477,38.086,1411.996,349.6548471388067
440,1686362335.1,-91.797,290.527,118.164,-47.363,1412.0,321.45277560428156
441,1686362335.11,-109.375,178.711,30.762,-118.164,1412.004,352.0979800499975
442,1686362335.11,-107.422,-362.793,38.086,-145.02,1412.008,338.64991461626056
443,1686362335.12,-104.98,-104.004,106.445,-195.312,1412.012,327.5329280176544
444,1686362335.12,-123.535,332.52,84.473,-256.836,1412.026,346.2562286713056
445,1686362335.12,-129.395,68.359,29.297,-254.395,1412.03,324.29309255532706
446,1686362335.12,-109.863,-327.148,26.855,-168.457,1412.034,340.3194856904563
447,1686362335.13,-84.473,-97.656,80.566,-66.895,1412.038,334.3964393885252
448,1686362335.13,-90.332,156.25,49.316,-66.895,1412.042,330.5609539438702
449,1686362335.14,-119.141,-112.793,24.902,-91.797,1412.046,324.07259932376604
450,1686362335.14,-121.094,-740.723,1.465,-48.34,1412.049,336.41381640850074
451,1686362335.14,-99.121,-476.074,66.895,-15.625,1412.053,326.83801638393254
452,1686362335.15,-92.285,530.273,121.094,-55.176,1412.057,327.13048036868264
453,1686362335.15,-116.211,163.574,30.273,-132.812,1412.061,324.8541984976532
454,1686362335.16,-133.301,-126.953,43.945,-140.137,1412.065,328.50685820500394
455,1686362335.16,-122.559,118.652,73.73,-69.336,1412.069,331.7630191479153
456,1686362335.16,-94.727,11.719,54.199,-72.266,1412.067,310.73183797202637
457,1686362335.17,-105.469,-347.656,16.602,-161.133,1412.071,330.13597998346427
458,1686362335.17,-126.465,-333.008,35.156,-187.988,1412.075,317.2839154260945
459,1686362335.18,-103.027,167.969,92.285,-112.305,1412.078,316.58913460916284
460,1686362335.18,-92.285,167.48,46.387,-91.797,1412.082,321.99817196299887
461,1686362335.18,-107.422,-474.121,-32.715,-118.652,1412.086,306.24845546427827
462,1686362335.19,-118.652,-551.27,26.367,-84.961,1412.09,308.05761752045896
463,1686362335.19,-112.305,207.52,110.352,-53.223,1412.094,324.00310392045895
464,1686362335.2,-88.867,163.086,39.551,-42.969,1412.098,330.4728285302392
465,1686362335.2,-92.285,-235.352,39.551,-64.941,1412.102,326.03145396245844
466,1686362335.2,-104.98,-58.594,79.102,-112.305,1412.106,344.7036309397228
467,1686362335.21,-101.562,180.176,60.059,-72.266,1412.11,343.53269027208984
468,1686362335.22,-83.984,107.422,47.852,-27.344,1412.117,359.0051351753175
469,1686362335.22,-60.547,-82.031,47.363,-71.777,1412.121,357.9868557949994
470,1686362335.23,-67.383,-196.777,40.527,-118.652,1412.125,362.0029688701551
471,1686362335.23,-80.566,-172.852,40.039,-141.113,1412.129,387.5045204822817
472,1686362335.24,-69.824,19.531,52.734,-116.699,1412.133,384.76335836857123
473,1686362335.24,-61.035,-415.039,1.953,-65.43,1412.137,374.63650985619853
474,1686362335.24,-67.383,-760.254,40.527,-86.914,1412.14,403.36236505024596
475,1686362335.25,-85.938,288.086,120.605,-136.23,1412.144,399.65496665022675
476,1686362335.25,-82.52,494.141,27.344,-112.305,1412.148,408.4845009630491
477,1686362335.26,-45.41,151.367,14.648,-31.738,1412.152,408.17371525028864
478,1686362335.26,-30.762,312.5,62.988,-27.344,1412.156,415.7162651214766
479,1686362335.26,-52.246,241.699,28.32,-111.328,1412.16,426.349034594792
480,1686362335.27,-54.688,-72.266,-4.395,-123.047,1412.163,423.07678282526666
481,1686362335.27,-30.762,-37.109,31.25,-82.031,1412.167,424.21074123918885
482,1686362335.27,-32.715,216.797,55.176,-102.051,1412.17,430.5690236383975
483,1686362335.28,-70.312,132.324,22.949,-137.207,1412.174,429.0220687030492
484,1686362335.28,-85.938,-190.918,2.93,-130.371,1412.178,424.10941702871065
485,1686362335.29,-69.336,-280.273,23.926,-77.148,1412.182,452.50295121051084
486,1686362335.29,-67.871,-68.359,33.203,-34.668,1412.186,443.0726923178715
487,1686362335.29,-90.332,149.902,30.273,-42.48,1412.19,440.088520387643
488,1686362335.3,-106.445,-231.445,-16.602,-18.555,1412.194,443.33174902311544
489,1686362335.3,-90.332,-674.805,29.785,31.738,1412.198,459.1117733843726
490,1686362335.3,-62.5,277.832,95.215,48.34,1412.202,463.78358636051803
491,1686362335.31,-61.035,487.305,4.883,68.359,1412.206,454.97055845947966
492,1686362335.31,-74.219,21.973,9.766,79.59,1412.207,450.8018315695185
493,1686362335.32,-70.801,125.0,43.945,100.098,1412.211,474.718252254665
494,1686362335.32,-62.012,38.086,10.742,139.648,1412.215,470.5524258726546
495,1686362335.32,-70.312,-114.746,-19.043,128.906,1412.219,478.1527280402304
496,1686362335.33,-83.984,-392.578,0.488,86.914,1412.223,467.7663670616683
497,1686362335.33,-81.543,-337.402,56.152,53.223,1412.227,472.2514595216423
498,1686362335.34,-61.523,236.328,35.645,48.34,1412.231,483.74447390672185
499,1686362335.34,-50.781,254.883,-4.395,32.715,1412.235,465.4181746091869
500,1686362335.34,-83.008,-625.0,-37.598,-11.23,1412.239,477.43742089250884
501,1686362335.35,-109.863,-464.844,33.691,-35.156,1412.243,475.5133664815694
502,1686362335.35,-84.473,508.789,34.18,-20.508,1412.246,480.5609636387737
503,1686362335.35,-76.172,132.324,-46.387,-14.648,1412.25,480.2580048797428
504,1686362335.37,-109.375,-172.363,-28.809,-65.43,1412.268,481.3561311733846
505,1686362335.38,-118.164,41.992,-3.906,-106.934,1412.272,469.9469933094604
506,1686362335.38,-99.609,74.219,-19.531,-72.754,1412.276,472.1320381238577
507,1686362335.38,-70.801,-208.984,-8.301,-60.059,1412.28,475.65046415726727
508,1686362335.39,-64.453,-325.684,-19.043,-89.844,1412.284,476.4610205441741
509,1686362335.39,-87.891,-317.383,-36.621,-90.332,1412.288,482.87888764716075
510,1686362335.4,-89.355,-275.391,-5.859,-62.012,1412.292,466.28888058398195
511,1686362335.4,-62.988,-556.152,-46.875,-10.254,1412.296,478.2753460395574
512,1686362335.4,-79.102,-334.961,57.617,-36.621,1412.312,466.71388750311195
513,1686362335.4,-57.129,-612.305,-6.348,-14.16,1412.3,461.50914938584054
514,1686362335.4,-93.75,20.02,-8.301,-100.586,1412.316,477.1412713854428
515,1686362335.41,-97.168,82.031,33.203,-59.57,1412.304,477.31576654430813
516,1686362335.41,-107.91,-398.438,-45.898,-108.887,1412.319,464.6642521600189
517,1686362335.41,-123.535,-64.941,-33.203,-32.227,1412.308,466.5492525833501
518,1686362335.41,-93.75,-710.449,3.418,-61.523,1412.323,461.19447491375803
519,1686362335.42,-102.539,-560.059,13.672,6.836,1412.311,452.3211144617604
520,1686362335.42,-98.633,-315.43,20.996,-20.02,1412.327,459.64672302091776
521,1686362335.42,-123.535,-270.02,-30.273,-16.113,1412.331,458.8940369870308
522,1686362335.42,-126.953,-498.047,-28.809,-8.301,1412.335,441.97417816960524
523,1686362335.43,-95.215,-589.355,13.184,30.273,1412.339,442.19703306581886
524,1686362335.43,-56.152,-302.246,29.785,34.18,1412.343,444.70483505971134
525,1686362335.44,-51.27,-66.406,-6.836,-3.906,1412.347,433.95374065122843
526,1686362335.44,-76.66,-450.195,-37.109,-53.223,1412.351,437.9915359301127
527,1686362335.44,-83.984,-878.418,-20.02,-59.57,1412.355,438.79532594498414
528,1686362335.45,-70.312,-418.457,59.57,-47.363,1412.354,425.134198981653
529,1686362335.46,-61.035,-145.508,12.207,-80.078,1412.358,410.73821853602226
530,1686362335.46,-53.223,-665.039,-56.641,-127.441,1412.362,418.4963725802069
531,1686362335.47,-71.777,-666.016,-28.32,-154.297,1412.366,412.9416215343309
532,1686362335.47,-97.656,-250.488,20.508,-101.562,1412.37,414.1474459516559
533,1686362335.47,-104.492,-482.422,-22.461,-75.195,1412.374,410.9567704027673
534,1686362335.48,-125.0,-840.82,-10.254,-155.273,1412.378,400.3862017367415
535,1686362335.48,-137.207,-609.863,26.367,-195.801,1412.382,395.44230839791607
536,1686362335.48,-122.559,-258.301,12.207,-201.66,1412.386,400.7380639904421
537,1686362335.49,-110.84,-330.566,-24.414,-229.004,1412.39,396.3861862836377
538,1686362335.49,-142.578,-253.906,40.527,-42.969,1412.416,410.4745242644726
539,1686362335.49,-135.254,-766.602,-40.039,-222.656,1412.394,412.7768626855838
540,1686362335.5,-119.141,-312.012,-15.137,53.223,1412.42,381.3339893393246
541,1686362335.5,-155.762,-753.906,26.855,-155.762,1412.397,384.71597725099525
542,1686362335.5,-120.605,-718.262,-22.949,68.359,1412.424,378.9853324867115
543,1686362335.5,-140.625,-811.523,-1.465,15.625,1412.428,395.0249084039954
544,1686362335.51,-127.441,-602.051,-1.465,-28.809,1412.432,370.6005252491921
545,1686362335.51,-84.961,-551.758,0.488,-46.875,1412.436,371.01080511860306
546,1686362335.52,-67.383,-848.633,-29.297,-79.102,1412.439,371.3324502767669
547,1686362335.52,-83.984,-873.535,29.785,-117.188,1412.443,362.49361611864293
548,1686362335.52,-90.82,-111.328,88.379,-66.406,1412.447,358.63322229638266
549,1686362335.53,-74.707,-105.957,-4.883,28.32,1412.451,358.2609190532539
550,1686362335.53,-58.105,-410.156,9.766,40.527,1412.455,346.5327485731678
551,1686362335.53,-61.523,-293.457,43.457,3.418,1412.459,335.0125136126753
552,1686362335.54,-82.52,-353.516,8.301,-27.832,1412.461,341.75197444248545
553,1686362335.54,-77.637,-635.742,-1.465,14.648,1412.465,335.8967898059531
554,1686362335.55,-49.316,-630.371,22.949,73.73,1412.469,342.33431286718775
555,1686362335.55,-44.434,-343.75,36.133,46.387,1412.473,309.03875021920396
556,1686362335.55,-68.848,-419.922,2.93,-0.977,1412.476,322.0358956642841
557,1686362335.56,-78.125,-806.152,-42.48,34.18,1412.48,304.7318193130021
558,1686362335.56,-64.941,-819.824,-10.742,79.59,1412.484,308.6942213645893
559,1686362335.56,-54.199,-291.504,62.988,47.363,1412.488,298.59714355358904
560,1686362335.57,-57.617,-131.348,21.484,-18.066,1412.492,297.590367814216
561,1686362335.57,-60.547,-547.852,20.02,-24.902,1412.496,290.7689416664267
562,1686362335.58,-37.598,-502.93,86.426,14.648,1412.5,278.55493504516267
563,1686362335.58,-31.738,-147.949,35.156,38.574,1412.504,273.3947791002248
564,1686362335.6,-54.199,-278.809,-24.414,12.207,1412.492,250.56393093188197
565,1686362335.6,-67.871,-705.566,-26.367,-9.277,1412.496,258.4707974469577
566,1686362335.6,-52.246,-736.328,25.879,36.621,1412.5,247.59883703690053
567,1686362335.61,-34.18,-238.77,35.156,43.457,1412.504,249.55951820374923
568,1686362335.61,-48.34,-76.172,-0.977,-45.898,1412.508,238.40562126053766
569,1686362335.62,-60.547,-740.234,-48.828,-59.57,1412.512,238.40077071791757
570,1686362335.62,-51.27,-662.109,20.996,-19.043,1412.516,244.80983779458077
571,1686362335.62,-37.109,237.305,52.734,-21.973,1412.52,234.68925463288136
572,1686362335.63,-37.598,-82.52,-40.527,-48.828,1412.524,244.3460061873083
573,1686362335.63,-50.293,-506.348,-9.766,-72.754,1412.528,221.55435526979113
574,1686362335.64,-52.734,-183.105,32.715,-76.66,1412.531,231.69265754239788
575,1686362335.64,-34.668,71.289,0.0,-96.68,1412.535,224.5660570222359
576,1686362335.64,-32.715,-292.48,-53.711,-127.93,1412.539,224.51410011591884
577,1686362335.65,-56.152,-615.234,-23.926,-147.949,1412.543,225.46011292881016
578,1686362335.65,-49.805,-150.879,32.227,-132.324,1412.547,230.57536899205232
579,1686362335.65,-21.484,69.336,-24.902,-80.566,1412.551,229.77364167256613
580,1686362335.66,-19.531,-309.082,-15.137,-49.805,1412.554,219.4701761057484
581,1686362335.66,-44.922,-654.297,-1.465,-75.684,1412.558,227.1745366137812
582,1686362335.67,-58.105,-367.188,1.953,-71.289,1412.562,224.18649389214335
583,1686362335.67,-38.086,68.359,5.371,-9.766,1412.566,230.15400751957083
584,1686362335.67,-21.973,-463.379,-47.852,14.16,1412.57,217.27002710791717
585,1686362335.68,-29.297,-678.711,-6.836,33.691,1412.574,232.17367269967312
586,1686362335.68,-35.645,66.406,29.785,75.684,1412.578,235.50631330877118
587,1686362335.68,-31.25,-63.965,-31.738,111.816,1412.582,237.9099952621541
588,1686362335.69,-10.254,-487.793,3.906,125.488,1412.596,216.55306670973812
589,1686362335.69,-8.789,-215.332,42.48,83.984,1412.6,221.66494510141976
590,1686362335.69,-28.809,-95.703,-17.578,53.223,1412.604,235.51529975133033
591,1686362335.7,-23.438,-316.406,-36.621,58.105,1412.608,221.06640291989768
592,1686362335.7,-9.766,-474.609,3.906,34.18,1412.612,237.89114824216907
593,1686362335.71,-18.066,-387.207,25.391,-25.879,1412.616,244.6220030779716
594,1686362335.71,-36.621,17.578,1.465,-106.934,1412.62,236.84894214100058
595,1686362335.71,-61.035,97.656,-22.461,-137.207,1412.624,230.48928698731885
596,1686362335.72,-51.758,-594.238,-25.879,-96.68,1412.628,238.60462245477544
597,1686362335.72,-33.691,-352.051,55.664,-109.375,1412.632,239.5485540129543
598,1686362335.72,-34.668,423.828,18.555,-171.387,1412.635,237.6362570425603
599,1686362335.73,-52.734,-47.363,-32.715,-196.289,1412.639,243.94915273528605
600,1686362335.75,-69.336,-182.617,-5.371,-159.18,1412.646,251.26062630995793
601,1686362335.75,-73.73,63.965,-10.254,-83.496,1412.65,252.6545324495784
602,1686362335.76,-70.801,-117.676,-21.484,-59.57,1412.654,261.1939707071989
603,1686362335.76,-69.336,-456.055,-47.363,-79.102,1412.658,256.5178935115018
604,1686362335.76,-65.43,-431.152,-56.152,-66.895,1412.662,260.7145228334343
605,1686362335.77,-41.992,-117.188,-4.883,-40.527,1412.665,259.7322562542905
606,1686362335.77,-37.109,79.102,8.789,-90.332,1412.669,270.6612130935486
607,1686362335.77,-66.895,-285.156,-35.156,-169.922,1412.673,265.82718561059266
608,1686362335.78,-80.078,-223.633,34.668,-94.727,1412.672,269.59138382225336
609,1686362335.78,-82.031,-500.0,-8.301,-187.012,1412.677,275.0244263029214
610,1686362335.78,-59.57,277.832,-15.625,6.348,1412.676,269.49128572570595
611,1686362335.78,-65.43,291.992,43.457,-135.254,1412.681,288.5240291147133
612,1686362335.78,-55.176,13.184,-48.34,85.938,1412.68,294.49187732109414
613,1686362335.79,-57.617,353.516,-28.32,-115.723,1412.685,288.0321648428275
614,1686362335.79,-53.223,-458.008,-17.09,111.328,1412.684,287.73106332392905
615,1686362335.79,-77.148,-314.453,-19.531,-146.973,1412.689,296.4018172740059
616,1686362335.79,-44.922,-250.0,28.32,80.566,1412.688,301.65515723440865
617,1686362335.8,-37.109,157.715,-3.906,90.82,1412.692,283.9765997902925
618,1686362335.8,-38.574,56.641,-22.461,88.379,1412.696,289.37741370748256
619,1686362335.8,-49.316,41.016,9.766,32.227,1412.7,297.8974941597089
620,1686362335.81,-71.777,195.312,9.277,40.527,1412.704,301.79022085973185
621,1686362335.81,-79.59,269.043,0.977,110.352,1412.707,310.2776861149702
622,1686362335.82,-59.57,200.195,-22.461,126.465,1412.711,322.44195741107586
623,1686362335.82,-62.988,-608.887,-55.176,85.938,1412.715,295.86564574465626
624,1686362335.84,-77.148,-343.262,35.156,40.039,1412.732,330.21026472727675
625,1686362335.84,-53.223,527.832,11.719,42.969,1412.736,335.70079742933376
626,1686362335.84,-13.672,126.953,-40.527,61.035,1412.74,321.2287402545132
627,1686362335.85,-4.395,90.82,-6.836,23.926,1412.744,319.7621135287206
628,1686362335.85,-29.297,264.16,-13.672,-49.805,1412.748,340.0085665170433
629,1686362335.86,-49.316,34.668,-28.809,-116.699,1412.752,337.626023291138
630,1686362335.86,-48.828,-301.27,-30.762,-149.902,1412.756,343.849480122007
631,1686362335.86,-42.48,-361.816,-0.977,-183.594,1412.76,338.7752938146582
632,1686362335.87,-53.711,396.973,-2.441,-112.305,1412.791,343.58519575066185
633,1686362335.87,-52.734,383.301,37.598,-198.242,1412.764,340.62436984065965
634,1686362335.87,-60.059,350.586,-47.363,-80.566,1412.794,338.53492261492795
635,1686362335.87,-68.359,523.926,-33.203,-153.809,1412.768,338.6486986565092
636,1686362335.87,-57.129,-433.594,-73.242,-45.41,1412.798,349.0464289335671
637,1686362335.88,-65.43,-18.066,-14.16,-117.188,1412.771,335.8309727516996
638,1686362335.88,-44.922,-404.785,-8.789,-35.645,1412.802,342.58812510408427
639,1686362335.88,-53.711,69.336,48.34,-113.281,1412.775,349.67008501786967
640,1686362335.88,-40.527,561.523,2.441,-60.547,1412.806,344.3935023944113
641,1686362335.89,-51.27,201.172,-55.176,-100.586,1412.81,345.21659492670824
642,1686362335.89,-51.758,-21.973,0.488,-87.891,1412.814,345.8183057983942
643,1686362335.89,-24.414,384.766,21.484,-52.246,1412.818,344.90144309330805
644,1686362335.9,-16.113,512.695,-22.461,-39.551,1412.822,340.54298178004444
645,1686362335.9,-36.133,242.188,-50.293,-56.641,1412.826,347.2221721341357
646,1686362335.9,-50.781,-600.586,-62.012,-44.434,1412.83,347.21894100862636
647,1686362335.91,-43.945,-231.934,15.137,7.324,1412.834,340.7982494006354
648,1686362335.91,-32.227,775.391,9.766,31.25,1412.813,345.46012894720513
649,1686362335.92,-50.293,306.641,-55.664,23.438,1412.817,343.86256308354336
650,1686362335.92,-62.012,41.504,-36.133,42.48,1412.821,348.6466787884574
651,1686362335.93,-40.527,343.75,-10.254,114.746,1412.824,342.59365543734157
652,1686362335.93,-21.484,382.812,-36.133,132.324,1412.828,340.9058724826305
653,1686362335.93,-32.715,-191.895,-68.848,83.984,1412.832,358.9881150061253
654,1686362335.94,-47.852,-360.84,-36.621,55.664,1412.836,344.3849939134173
655,1686362335.94,-53.711,382.324,1.465,75.684,1412.84,346.70153713820014
656,1686362335.94,-39.062,497.559,-32.715,100.098,1412.844,348.3590357095136
657,1686362335.95,-27.832,76.172,-23.926,68.359,1412.848,363.7792324145107
658,1686362335.95,-41.016,77.637,11.719,-15.137,1412.852,344.76982472688684
659,1686362335.96,-51.758,328.613,-25.879,-67.383,1412.856,353.3864738416206
660,1686362335.97,-38.574,126.465,-39.551,-66.406,1412.882,345.69395342266216
661,1686362335.98,-21.484,-16.113,-21.973,-77.637,1412.886,354.5872895732688
662,1686362335.98,-30.273,2.93,-36.133,-100.586,1412.889,348.4840023846273
663,1686362335.98,-37.109,156.738,-26.855,-77.637,1412.893,350.744216041535
664,1686362335.99,-27.344,367.188,-11.719,-20.996,1412.897,347.19189431361735
665,1686362335.99,-20.508,-342.285,-69.824,-1.465,1412.901,350.88201276343653
666,1686362336.0,-34.668,-738.77,1.465,-37.109,1412.905,355.2844784819937
667,1686362336.0,-44.922,392.578,68.848,-95.215,1412.909,349.2590041973592
668,1686362336.0,-41.504,659.668,-30.762,-73.73,1412.913,353.40351557971786
669,1686362336.01,-30.273,283.203,-41.992,-11.23,1412.917,352.2434683492982
670,1686362336.01,-25.391,438.477,-23.438,-16.602,1412.921,350.3424095724111
671,1686362336.01,-40.527,391.113,-34.668,-65.43,1412.925,341.5166521522608
672,1686362336.02,-33.691,56.641,-61.035,-71.289,1412.913,342.9916749244532
673,1686362336.02,-13.672,11.719,-54.688,-39.062,1412.917,350.0276052818311
674,1686362336.02,-14.648,200.195,-42.48,-22.949,1412.92,346.01156094446554
675,1686362336.03,-32.715,53.711,-44.922,-39.551,1412.924,340.22568523694474
676,1686362336.03,-45.41,-222.656,-62.012,-22.949,1412.928,339.4913752413718
677,1686362336.04,-32.715,-276.367,-56.152,28.32,1412.932,348.37099703324867
678,1686362336.04,-14.16,229.492,-21.973,49.316,1412.936,345.8131146360928
679,1686362336.04,-8.301,523.926,-36.133,21.973,1412.94,342.69045671809846
680,1686362336.05,-13.184,-125.0,-61.035,7.812,1412.944,337.0985384829758
681,1686362336.05,0.977,-277.832,-20.508,59.082,1412.948,348.2336922816766
682,1686362336.06,20.508,537.598,20.996,67.871,1412.952,348.5984744743147
683,1686362336.06,11.23,501.465,-37.598,21.484,1412.956,338.01047901165276
684,1686362336.06,-7.812,-286.133,-60.059,1.953,1412.957,335.0557298781874
685,1686362336.06,-4.395,-177.246,14.16,41.504,1412.961,338.4166620113845
686,1686362336.07,15.625,391.113,-7.324,55.176,1412.965,337.20138956800974
687,1686362336.07,14.16,195.801,-50.293,-33.691,1412.969,329.0006677726752
688,1686362336.08,-7.324,-201.172,-17.578,-103.516,1412.973,340.28329178638825
689,1686362336.08,-28.809,-157.715,10.742,-51.758,1412.977,341.53255777077675
690,1686362336.08,-19.043,323.242,-12.695,18.555,1412.981,325.2965021940954
691,1686362336.09,-5.371,395.02,-32.227,0.977,1412.985,336.2738395254941
692,1686362336.09,-22.949,-263.672,-53.223,-38.574,1412.989,330.33389459001785
693,1686362336.1,-41.016,-232.422,-12.207,-42.969,1412.992,331.51122547999614
694,1686362336.1,-24.414,754.883,-6.348,-13.184,1412.996,334.84528115126005
695,1686362336.1,18.066,501.953,-62.012,13.184,1413.0,333.03287623121116
696,1686362336.12,21.484,178.223,-53.223,-27.832,1413.017,330.951502006648
697,1686362336.12,-8.789,338.379,-26.855,-52.734,1413.021,324.0504203024284
698,1686362336.13,4.883,329.59,-39.062,-17.09,1413.025,320.73631938230557
699,1686362336.13,36.133,96.68,-43.457,25.879,1413.029,319.9849130833618
700,1686362336.14,22.949,58.594,-49.316,31.738,1413.033,334.3452556614307
701,1686362336.14,-3.906,55.176,-51.27,52.734,1413.037,335.4321338636753
702,1686362336.14,-7.324,105.957,-38.574,147.461,1413.041,319.28613035012114
703,1686362336.15,20.996,-116.699,-60.547,225.586,1413.045,315.9418734666239
704,1686362336.15,-10.254,89.844,16.113,85.938,1413.061,323.26645494739495
705,1686362336.15,31.25,-312.5,-33.203,204.59,1413.049,336.4858616846839
706,1686362336.16,-19.531,518.555,-41.016,52.734,1413.065,321.34312450898886
707,1686362336.16,-11.719,446.777,4.883,125.488,1413.053,329.6283226479636
708,1686362336.16,-22.461,212.891,-67.871,37.109,1413.069,318.17163953373256
709,1686362336.16,-37.598,577.148,-62.988,94.238,1413.057,319.6944746722212
710,1686362336.16,0.488,-252.93,-10.742,47.363,1413.073,326.5042477261397
711,1686362336.16,-22.461,-5.371,-37.109,102.051,1413.06,338.950653409279
712,1686362336.17,18.066,62.5,12.207,69.824,1413.077,322.96101093288956
713,1686362336.17,0.977,339.844,-57.617,50.781,1413.081,330.17366631270585
714,1686362336.18,-20.02,144.531,-54.199,37.598,1413.085,331.57708929924473
715,1686362336.18,-27.344,188.965,-18.066,64.941,1413.089,328.1526515388842
716,1686362336.18,-19.043,434.082,-14.648,61.523,1413.092,322.0381452559901
717,1686362336.19,-8.789,498.047,-39.551,8.789,1413.096,330.9579174314885
718,1686362336.19,-4.395,243.164,-66.406,-35.645,1413.1,333.0158250959441
719,1686362336.19,-3.418,-539.551,-75.195,-30.273,1413.104,330.94597426420756
720,1686362336.2,7.812,-75.684,2.441,-16.113,1413.093,329.6189057994197
721,1686362336.2,30.273,872.559,-7.324,-37.598,1413.097,332.41079977988437
722,1686362336.2,13.184,330.566,-63.965,-60.547,1413.101,327.8747637624602
723,1686362336.21,-11.23,157.715,-46.875,-20.508,1413.105,337.9919396839192
724,1686362336.21,6.348,460.449,-48.34,14.648,1413.109,334.75369137423706
725,1686362336.22,27.344,335.449,-61.035,-9.766,1413.113,335.4695145594483
726,1686362336.22,16.113,-112.793,-61.035,-64.941,1413.117,325.60847316184044
727,1686362336.22,-14.16,-165.527,-37.598,-88.867,1413.121,333.3886141904214
728,1686362336.23,-6.348,549.805,-2.441,-29.785,1413.125,340.2205259808337
729,1686362336.23,9.277,704.59,-51.758,-5.859,1413.129,350.49191991660655
730,1686362336.24,-7.324,64.941,-54.199,-38.086,1413.133,356.2914678708484
731,1686362336.24,-29.297,45.898,-2.93,-67.383,1413.136,340.54021916352366
732,1686362336.24,-23.926,510.254,-18.066,-35.645,1413.14,336.26859967669805
733,1686362336.25,8.789,391.602,-40.039,32.227,1413.144,337.0783198685315
734,1686362336.25,2.441,-212.402,-58.105,25.879,1413.148,334.74757348000884
735,1686362336.25,-36.621,-88.379,-21.973,-23.438,1413.152,326.416126228706
736,1686362336.26,-42.48,653.809,-32.227,6.348,1413.156,333.65453010278196
737,1686362336.26,-19.043,439.941,-71.289,82.52,1413.16,336.25963493972984
738,1686362336.27,-12.695,-189.941,-52.734,97.656,1413.164,335.9205060784801
739,1686362336.27,-35.645,31.738,-18.066,35.645,1413.168,334.7865275938084
740,1686362336.27,-46.387,806.152,-22.461,-27.344,1413.172,339.2449594429066
741,1686362336.28,-25.879,518.066,-61.523,-20.02,1413.176,339.2894840113297
742,1686362336.28,-5.859,291.016,-53.711,-5.859,1413.179,351.39950880799074
743,1686362336.28,-11.719,461.426,-33.203,-41.016,1413.183,347.2151231495461
744,1686362336.29,-15.137,470.215,-50.781,-46.875,1413.184,340.3995579691909
745,1686362336.29,6.348,186.035,-67.383,6.836,1413.188,337.7479655447647
746,1686362336.3,21.973,190.918,-47.363,20.508,1413.192,333.42964075388466
747,1686362336.3,8.301,367.188,-47.852,-32.715,1413.196,343.43424049284044
748,1686362336.3,-11.719,184.57,-57.617,-40.039,1413.2,347.3847541878028
749,1686362336.31,-9.277,-104.492,-69.336,5.859,1413.204,344.1043922578142
750,1686362336.31,11.719,-386.23,-21.973,17.578,1413.208,344.3754595201296
751,1686362336.31,15.625,422.363,26.855,14.648,1413.212,347.3936118230083
752,1686362336.32,-4.395,783.203,-66.895,37.598,1413.216,347.46888763739986
753,1686362336.32,-1.953,314.941,-58.594,92.773,1413.22,346.8809963613142
754,1686362336.33,20.508,372.07,-23.926,119.141,1413.224,342.79581091855016
755,1686362336.33,25.879,547.363,-38.086,41.992,1413.227,344.5289268559686
756,1686362336.35,1.465,300.781,-67.383,-31.738,1413.257,350.0119176445867
757,1686362336.35,-6.348,38.086,-62.012,-28.32,1413.261,346.1764440982726
758,1686362336.35,18.066,68.359,-31.738,28.32,1413.265,347.49314015012294
759,1686362336.36,25.391,291.016,-34.18,49.316,1413.269,352.54030554656515
760,1686362336.36,5.371,476.074,-62.988,48.828,1413.273,352.1909164099245
761,1686362336.37,-14.648,-376.953,-80.566,111.816,1413.277,360.291054140191
762,1686362336.37,6.348,-595.703,-26.855,160.645,1413.28,342.1635590979539
763,1686362336.37,37.598,598.633,-5.859,165.527,1413.284,354.8402258781909
764,1686362336.38,36.621,643.066,-63.477,127.93,1413.288,349.94768668499734
765,1686362336.38,13.672,124.512,-48.34,54.199,1413.292,358.09522292152616
766,1686362336.38,-0.977,321.777,-22.949,12.695,1413.296,341.61588249457816
767,1686362336.39,19.531,512.207,-37.109,11.23,1413.3,352.0916427043959
768,1686362336.39,30.273,210.938,-62.012,15.137,1413.287,353.30093258416116
769,1686362336.4,8.789,29.785,-71.289,-0.977,1413.291,345.11887917764324
770,1686362336.4,-4.395,256.348,-42.969,-12.207,1413.295,354.4662372824996
771,1686362336.4,-4.883,300.293,-43.457,-2.441,1413.299,358.92291216740017
772,1686362336.41,-3.418,72.754,-51.758,-2.441,1413.303,359.1446985353831
773,1686362336.41,-14.648,-185.059,-53.711,-35.156,1413.307,361.7967005719409
774,1686362336.42,-30.273,68.848,-35.645,-40.039,1413.311,364.90817887589606
775,1686362336.42,-10.254,383.789,-41.016,2.93,1413.315,366.0560510036452
776,1686362336.42,23.438,-45.41,-43.945,18.555,1413.319,356.8943080075529
777,1686362336.43,32.227,-158.691,-18.066,-14.648,1413.322,346.0457037718062
778,1686362336.43,17.09,281.738,-36.621,-37.109,1413.326,350.9224245744628
779,1686362336.43,15.137,367.676,-63.477,-20.02,1413.33,348.24429618787815
780,1686362336.44,35.156,-305.176,-72.266,-0.488,1413.332,367.3395653571624
781,1686362336.44,33.203,-467.285,-25.391,-43.457,1413.336,346.7942865108769
782,1686362336.44,0.977,228.516,-13.184,-120.117,1413.34,344.5471224203424
783,1686362336.45,-15.625,155.762,-54.199,-143.555,1413.344,354.0118498621758
784,1686362336.45,-0.488,-143.066,-23.438,-144.043,1413.348,364.4920460354846
785,1686362336.46,19.043,-88.379,-10.254,-148.926,1413.352,352.848549168825
786,1686362336.46,22.461,313.965,-41.016,-145.02,1413.356,362.2157661265783
787,1686362336.46,8.301,371.094,-65.918,-147.461,1413.36,366.23543261027214
788,1686362336.47,15.625,-209.473,-25.391,-84.473,1413.364,355.8418910988386
789,1686362336.47,32.715,44.434,43.457,-46.387,1413.367,359.0665908622353
790,1686362336.48,5.371,591.309,-34.18,-102.051,1413.371,361.15889433710726
791,1686362336.48,-27.344,54.199,-72.754,-96.191,1413.375,359.01757886985007
792,1686362336.48,-14.16,-124.023,-50.293,-44.922,1413.377,360.45973526304795
793,1686362336.48,-1.465,258.789,-26.367,-2.441,1413.381,358.7175446407875
794,1686362336.49,-9.277,326.172,-38.086,-22.949,1413.385,365.12717218638426
795,1686362336.49,-36.621,-177.246,-86.426,-71.289,1413.389,358.5796080118651
796,1686362336.5,-25.391,-396.484,-98.145,-28.809,1413.393,367.4536265809508
797,1686362336.5,12.207,-18.066,-31.738,3.418,1413.397,370.12634365030664
798,1686362336.5,3.906,192.871,-12.207,-40.527,1413.401,373.77453122835107
799,1686362336.51,-29.785,-161.133,-61.035,-69.336,1413.405,364.4984885403663
800,1686362336.51,-48.828,-478.516,-31.25,-67.871,1413.408,370.6993889284491
801,1686362336.52,-35.645,312.5,17.09,-62.988,1413.412,370.157408024092
802,1686362336.52,-6.348,396.484,-36.133,-62.5,1413.416,357.6813939118455
803,1686362336.52,-18.066,-56.152,-42.969,-69.824,1413.42,364.9111825773711
804,1686362336.53,-29.297,-22.949,-22.461,-23.438,1413.426,364.6541581027296
805,1686362336.53,-5.859,112.793,-32.715,40.527,1413.43,370.5363414141632
806,1686362336.54,11.719,12.695,-44.434,73.73,1413.434,363.088990062319
807,1686362336.54,3.418,-589.844,-58.594,79.59,1413.438,355.66090608469045
808,1686362336.54,-12.695,-552.246,-36.133,57.129,1413.442,363.37310183471595
809,1686362336.55,-0.488,171.387,-24.902,64.453,1413.446,367.82194730400016
810,1686362336.55,14.648,136.23,-51.758,85.449,1413.45,358.28624975733004
811,1686362336.55,-4.395,-322.266,-30.273,64.941,1413.453,362.1110105566694
812,1686362336.56,-17.578,-86.426,8.301,22.949,1413.457,370.03650183784475
813,1686362336.56,-6.836,471.191,-20.02,17.578,1413.461,360.876198933168
814,1686362336.57,7.812,108.887,-51.758,67.871,1413.465,359.8179737494511
815,1686362336.57,17.09,-118.652,-50.293,87.891,1413.469,355.2337078387826
816,1686362336.57,-6.348,66.406,-27.344,42.969,1413.469,369.3583608552738
817,1686362336.58,-24.414,103.516,-36.133,-2.441,1413.473,356.7138125223943
818,1686362336.58,-11.719,-183.594,-50.293,-27.344,1413.477,362.12352987259226
819,1686362336.58,2.93,-210.449,-46.875,-82.52,1413.481,360.2098290442796
820,1686362336.59,-6.348,-104.492,-47.363,-143.066,1413.484,361.03675698203745
821,1686362336.59,-31.738,-250.488,-32.715,-131.836,1413.488,370.17419143575233
822,1686362336.6,-34.668,-448.73,-62.988,-75.684,1413.492,368.62620820839305
823,1686362336.6,-35.156,-818.359,-27.832,-22.461,1413.496,367.11760391265517
824,1686362336.6,-51.758,-102.539,41.016,-33.203,1413.5,364.02700617554643
825,1686362336.61,-52.734,333.984,-41.504,-44.922,1413.504,358.10593406700815
826,1686362336.61,-35.645,-69.824,-27.832,-22.461,1413.508,359.4931372643265
827,1686362336.62,-2.441,22.949,4.883,-36.621,1413.512,362.81193869973595
828,1686362336.63,9.277,154.297,-19.043,-58.594,1413.527,367.2981158476579
829,1686362336.64,-14.648,-73.242,-40.039,-60.547,1413.531,369.1793580912338
830,1686362336.64,-19.531,-452.637,-41.016,-23.438,1413.535,364.17815285129916
831,1686362336.64,-9.277,-210.938,-4.395,4.883,1413.539,364.25259889687675
832,1686362336.65,-16.602,98.145,-33.203,-48.34,1413.543,360.36437936792447
833,1686362336.65,-47.363,-183.594,-44.434,-82.52,1413.547,373.7912746847493
834,1686362336.66,-61.523,-760.254,-30.273,-24.902,1413.551,365.8486384013178
835,1686362336.66,-51.27,-664.551,10.254,89.844,1413.555,367.64526583184943
836,1686362336.66,-42.48,335.449,33.691,134.277,1413.558,367.3092161701795
837,1686362336.66,-20.996,206.543,-8.789,67.871,1413.56,362.8418159172737
838,1686362336.67,-55.176,196.777,-49.805,105.469,1413.562,368.34461420437924
839,1686362336.67,-28.32,-161.133,-45.898,54.199,1413.564,357.1201897601785
840,1686362336.67,-69.824,-309.082,-29.297,79.59,1413.566,364.2578785585436
841,1686362336.67,-46.387,-398.438,-39.062,80.078,1413.568,371.5592430322279
842,1686362336.67,-46.387,4.883,19.043,76.172,1413.57,362.5144465616072
843,1686362336.68,-50.781,-89.355,-6.348,102.051,1413.572,363.5705294459898
844,1686362336.68,-36.133,5.371,-34.18,106.445,1413.575,354.36321516170216
845,1686362336.68,-28.809,-517.09,-56.641,71.289,1413.579,360.5187783407258
846,1686362336.69,-39.062,-544.922,-10.254,16.602,1413.583,365.1417931813714
847,1686362336.69,-51.758,22.461,4.883,16.113,1413.587,352.9761594585161
848,1686362336.69,-49.805,150.879,-6.348,27.344,1413.591,346.2269976926025
849,1686362336.7,-52.246,-494.141,-54.199,43.945,1413.595,359.8585812680917
850,1686362336.7,-83.496,-726.074,0.488,36.621,1413.599,362.98522518255885
851,1686362336.71,-92.285,122.559,47.363,-18.555,1413.603,362.8040393784241
852,1686362336.72,-58.105,194.336,-37.598,-26.855,1413.632,361.6754378638702
853,1686362336.72,-27.344,-199.707,-38.086,-70.801,1413.636,365.8897731671181
854,1686362336.73,-41.504,-343.262,-14.16,-114.746,1413.639,359.12798880230525
855,1686362336.73,-69.336,-138.672,-7.324,-113.77,1413.643,376.48831320002574
856,1686362336.74,-57.617,85.938,-23.926,-86.914,1413.647,375.9662793107529
857,1686362336.74,-36.621,-583.496,-48.34,-11.23,1413.651,355.94508935444
858,1686362336.74,-45.41,-698.242,38.574,18.066,1413.655,361.73600641423855
859,1686362336.75,-68.359,270.508,47.852,28.809,1413.659,366.4678162431756
860,1686362336.75,-82.52,170.41,-34.18,44.922,1413.663,359.6927506857728
861,1686362336.75,-70.801,-371.582,-48.828,10.254,1413.662,358.49966229196616
862,1686362336.76,-64.941,-104.004,-20.508,21.484,1413.667,357.66943725093455
863,1686362336.76,-50.781,-386.23,-33.691,93.75,1413.666,361.31389177369385
864,1686362336.76,-50.293,59.082,-2.93,-16.602,1413.671,353.16161039171885
865,1686362336.76,-47.852,37.598,5.859,85.938,1413.67,360.48787815521297
866,1686362336.76,-67.871,2.441,-17.578,-39.551,1413.675,359.5089863876567
867,1686362336.77,-54.199,45.898,-9.766,17.578,1413.673,359.5978900772513
868,1686362336.77,-56.641,-373.047,-38.086,5.859,1413.677,352.0594673369879
869,1686362336.77,-48.828,-544.922,-28.809,35.645,1413.681,364.23184797164805
870,1686362336.78,-33.691,-189.453,18.555,48.828,1413.685,355.62981407262345
871,1686362336.78,-49.316,93.262,16.602,10.742,1413.689,352.6552098640654
872,1686362336.78,-72.266,-407.715,-20.508,-51.27,1413.693,340.18811967129596
873,1686362336.79,-61.523,-555.664,35.156,-60.059,1413.697,347.77288824798757
874,1686362336.79,-31.25,130.859,50.293,-52.246,1413.701,357.0856862727236
875,1686362336.8,-33.691,144.531,-16.113,-107.91,1413.705,346.86365417215876
876,1686362336.81,-61.035,-522.949,-23.438,-115.723,1413.707,352.2402556116911
877,1686362336.82,-60.547,-478.516,39.062,-23.438,1413.711,349.4109598512318
878,1686362336.82,-45.898,-4.883,27.344,36.621,1413.715,358.1138904119437
879,1686362336.82,-52.246,-89.355,11.23,19.043,1413.719,352.3197586474856
880,1686362336.83,-78.613,-574.219,-21.973,0.977,1413.723,351.68111263576355
881,1686362336.83,-91.309,-713.379,19.043,1.465,1413.727,349.85878416525304
882,1686362336.84,-79.59,269.531,82.031,5.371,1413.731,345.3453668485737
883,1686362336.84,-75.195,349.609,9.766,-55.176,1413.735,352.21340106773005
884,1686362336.84,-82.031,-271.484,33.203,-150.879,1413.739,354.7877945636357
885,1686362336.85,-83.008,-59.57,77.148,-149.414,1413.742,351.455140948083
886,1686362336.85,-69.336,302.734,30.762,-95.215,1413.746,351.51574768795035
887,1686362336.85,-49.316,-19.043,-11.23,-94.238,1413.75,342.3307643676151
888,1686362336.86,-45.41,-210.449,-12.207,-132.324,1413.769,351.32127840221614
889,1686362336.86,-56.152,-2.93,27.832,-168.945,1413.772,332.6944479246642
890,1686362336.86,-57.617,69.336,32.715,-176.27,1413.776,338.860451408616
891,1686362336.87,-44.922,-173.828,18.555,-155.762,1413.78,345.650887914147
892,1686362336.87,-47.363,-272.461,0.977,-179.688,1413.784,345.84779970552984
893,1686362336.88,-68.359,-227.051,12.695,-206.543,1413.788,347.6824658696282
894,1686362336.88,-70.801,-183.594,43.457,-113.281,1413.792,352.87190750040514
895,1686362336.88,-67.871,-393.555,-11.719,-9.277,1413.796,354.83525411537505
896,1686362336.89,-83.496,-677.734,27.832,-17.578,1413.8,345.61814370685863
897,1686362336.89,-92.285,85.449,110.84,-100.586,1413.804,346.9702701769066
898,1686362336.9,-92.773,370.605,23.438,-127.441,1413.808,343.38841409536457
899,1686362336.9,-84.961,-82.52,21.484,-78.125,1413.812,343.92617412978626
900,1686362336.9,-66.895,7.324,64.941,-30.273,1413.797,332.5988407429517
901,1686362336.9,-71.777,206.055,37.598,-13.184,1413.801,345.40124195119495
902,1686362336.91,-87.891,-126.465,-3.418,-35.645,1413.805,342.0772553225334
903,1686362336.91,-89.355,-592.285,29.297,-32.227,1413.809,338.8482985536441
904,1686362336.92,-70.312,-194.824,84.961,-6.836,1413.813,346.2645747157705
905,1686362336.92,-77.148,157.227,45.898,-19.043,1413.817,337.2310556052232
906,1686362336.92,-100.098,-56.152,13.184,-26.855,1413.821,345.517200043827
907,1686362336.93,-101.074,-374.512,48.828,-14.648,1413.825,340.59355133520313
908,1686362336.93,-86.426,-202.637,98.633,-8.301,1413.829,338.49815782900896
909,1686362336.94,-85.938,383.301,77.148,-39.062,1413.833,341.9231987609251
910,1686362336.94,-122.07,168.945,8.301,-57.617,1413.837,339.4694202541563
911,1686362336.94,-133.301,-302.246,32.715,-42.969,1413.84,332.304112403685
912,1686362336.95,-109.863,75.195,113.77,-27.344,1413.843,334.22975972362195
913,1686362336.95,-109.375,382.324,66.406,-17.578,1413.847,333.9269939478554
914,1686362336.95,-120.117,-58.105,6.836,-16.113,1413.851,339.89660166425426
915,1686362336.96,-110.84,-147.461,34.18,-17.578,1413.855,336.85847277044365
916,1686362336.96,-94.238,119.629,61.035,0.488,1413.859,332.76453838737837
917,1686362336.97,-100.098,-14.16,32.715,-30.273,1413.863,325.3974087413879
918,1686362336.97,-132.324,-445.312,-7.812,-113.77,1413.867,343.36078148250095
919,1686362336.97,-147.461,-504.883,44.922,-146.484,1413.871,341.23154757272954
920,1686362336.98,-129.883,302.734,134.277,-112.305,1413.875,343.8476450412937
921,1686362336.98,-117.676,437.5,59.082,-88.867,1413.879,336.50704376982605
922,1686362336.98,-134.766,-93.75,25.391,-123.535,1413.883,338.8393564186636
923,1686362336.99,-150.879,-142.09,67.383,-167.48,1413.886,338.42108853373446
924,1686362336.99,-134.766,187.5,79.102,-156.738,1413.901,326.85019648532506
925,1686362337.0,-103.516,248.047,46.875,-131.348,1413.905,329.3180509295331
926,1686362337.0,-90.332,-495.117,-5.859,-86.914,1413.909,340.45611787081384
927,1686362337.0,-98.633,-503.418,74.219,-70.312,1413.913,333.15954485256157
928,1686362337.01,-96.68,322.754,92.773,-83.008,1413.917,334.9484086142305
929,1686362337.01,-88.867,161.621,38.086,-83.008,1413.921,332.4140255274012
930,1686362337.02,-87.402,-479.492,27.832,-47.852,1413.925,327.4267494441259
931,1686362337.02,-102.539,-342.773,64.941,-20.996,1413.929,336.7751770149136
932,1686362337.02,-112.305,455.078,98.633,15.137,1413.933,333.874913629298
933,1686362337.03,-118.164,225.098,47.852,60.547,1413.937,343.7370078239444
934,1686362337.03,-113.281,28.32,51.27,23.438,1413.941,345.5538442788338
935,1686362337.04,-102.051,197.266,83.984,-14.16,1413.944,327.8337315434687
936,1686362337.04,-114.746,188.477,56.152,-12.695,1413.939,338.5903682073726
937,1686362337.04,-116.211,-185.059,9.766,22.461,1413.943,348.8388440474384
938,1686362337.05,-102.051,-210.449,49.805,27.832,1413.947,336.5738797622394
939,1686362337.05,-100.098,196.777,101.074,-27.344,1413.951,333.20913878246654
940,1686362337.06,-118.164,161.621,77.148,-57.617,1413.954,339.5290267349398
941,1686362337.06,-126.953,-423.828,8.301,-39.062,1413.958,330.6110192089132
942,1686362337.06,-102.051,-521.973,63.965,-23.926,1413.962,327.71739523245367
943,1686362337.07,-78.125,347.168,145.02,-83.008,1413.966,335.2529638883618
944,1686362337.07,-77.637,375.977,71.777,-156.738,1413.97,330.00305544082903
945,1686362337.07,-100.098,-141.113,62.012,-143.555,1413.974,330.59204913785385
946,1686362337.08,-113.281,-40.527,108.398,-59.082,1413.978,313.17779859382904
947,1686362337.08,-97.656,313.965,104.98,-27.832,1413.982,335.27931868045476
948,1686362337.1,-93.262,161.621,68.359,-52.246,1413.992,332.9114124094799
949,1686362337.1,-101.074,-104.492,70.801,-31.738,1413.996,318.42509290742333
950,1686362337.1,-88.379,-147.949,97.168,5.859,1414.0,340.1700304593313
951,1686362337.11,-77.637,-116.211,85.938,-16.113,1414.004,332.46269975888106
952,1686362337.11,-86.914,55.664,92.285,-57.129,1414.008,330.6967055565234
953,1686362337.12,-97.656,-399.902,34.18,-61.523,1414.012,341.98534904686665
954,1686362337.12,-87.402,-783.203,81.055,-49.316,1414.016,330.08324406696204
955,1686362337.12,-68.359,363.77,192.871,-20.02,1414.02,326.39690485932516
956,1686362337.13,-64.941,633.301,85.449,0.488,1414.024,328.11796391615667
957,1686362337.13,-93.75,145.508,63.965,-23.438,1414.028,329.53780906125627
958,1686362337.14,-103.516,294.922,118.164,-7.324,1414.032,325.76692265938186
959,1686362337.14,-86.914,385.742,102.051,37.598,1414.035,333.05697953726946
960,1686362337.14,-92.285,49.316,48.34,-6.348,1414.037,325.2952345608702
961,1686362337.14,-102.051,-128.418,69.824,-88.867,1414.041,327.79498583640077
962,1686362337.15,-101.562,170.898,121.094,-82.031,1414.045,318.5216008144542
963,1686362337.15,-96.191,240.723,97.656,-18.066,1414.049,322.1691665814494
964,1686362337.16,-101.562,-21.973,61.523,11.719,1414.053,322.4611636201216
965,1686362337.16,-117.676,-265.137,45.41,-18.555,1414.057,309.76321291613635
966,1686362337.16,-141.113,-208.984,60.059,-32.227,1414.061,328.29003878130476
967,1686362337.17,-148.438,173.828,106.445,40.527,1414.065,323.0710323359937
968,1686362337.17,-117.676,-45.898,44.922,91.797,1414.068,324.4647674802202
969,1686362337.18,-93.75,-580.078,62.988,47.852,1414.072,322.321309955826
970,1686362337.18,-94.727,207.52,164.062,19.531,1414.076,328.78056063143424
971,1686362337.18,-93.262,476.562,90.332,61.523,1414.08,323.05994312955477
972,1686362337.19,-87.891,149.902,87.402,78.125,1414.083,315.7193262232177
973,1686362337.19,-90.82,242.188,112.793,77.637,1414.086,323.50170900498193
974,1686362337.19,-104.492,84.961,68.848,111.328,1414.09,326.7005835629859
975,1686362337.2,-97.656,-55.664,65.918,127.93,1414.094,318.59847870987835
976,1686362337.2,-67.871,-242.188,74.707,152.832,1414.098,320.88631603770295
977,1686362337.21,-62.988,-205.566,96.68,175.781,1414.102,320.9917845047722
978,1686362337.21,-91.309,312.988,122.07,118.652,1414.106,330.62079112159586
979,1686362337.21,-108.398,345.215,75.195,57.617,1414.11,323.5998384877627
980,1686362337.22,-91.797,-277.832,69.824,55.664,1414.114,324.7074509962648
981,1686362337.22,-77.637,-154.297,147.461,25.879,1414.118,334.1964576101313
982,1686362337.22,-86.426,540.039,136.719,-25.391,1414.122,318.6658947095635
983,1686362337.23,-95.215,269.531,72.266,-27.344,1414.126,319.4698952564843
984,1686362337.23,-79.102,-59.57,65.918,-10.254,1414.127,318.1929508751796
985,1686362337.24,-65.918,303.711,123.047,23.926,1414.131,320.6416044520521
986,1686362337.24,-81.543,414.062,101.074,83.984,1414.135,311.29344213134294
987,1686362337.24,-106.934,18.066,64.941,118.164,1414.139,303.81419625713676
988,1686362337.25,-120.117,-85.938,67.871,145.02,1414.143,314.9121655365899
989,1686362337.25,-109.375,-27.832,72.754,145.508,1414.147,316.8075901943251
990,1686362337.26,-91.309,156.738,109.375,65.918,1414.151,314.88372474816094
991,1686362337.26,-102.051,-99.609,56.641,-24.414,1414.155,323.8370709979911
992,1686362337.26,-117.676,-402.344,73.73,-39.551,1414.159,318.8388791426276
993,1686362337.27,-102.051,385.254,155.273,-24.414,1414.162,321.8171139952058
994,1686362337.27,-88.379,462.402,82.52,-35.156,1414.166,319.5117488299056
995,1686362337.27,-96.191,-95.703,55.664,-50.781,1414.17,320.6319041315128
996,1686362337.28,-103.516,-80.078,113.281,-28.809,1414.172,322.8788196867555
997,1686362337.28,-95.215,273.438,120.605,17.578,1414.176,321.3537251693306
998,1686362337.28,-82.52,152.344,80.078,19.043,1414.18,325.14177782625455
999,1686362337.29,-101.074,-519.043,40.039,5.859,1414.184,319.1809547422798
1000,1686362337.29,-117.676,-499.023,68.848,-20.996,1414.188,321.67146663114625
1001,1686362337.3,-106.445,206.055,120.605,-52.246,1414.192,324.64797942115143
1002,1686362337.3,-91.797,200.684,99.121,-36.621,1414.196,324.44712059186094
1003,1686362337.3,-95.703,-234.863,86.914,-67.871,1414.2,316.39719025969396
1004,1686362337.31,-122.07,-142.578,139.648,-136.23,1414.203,310.72190057331335
1005,1686362337.31,-137.695,463.379,143.555,-153.809,1414.207,314.41729493392404
1006,1686362337.32,-128.418,236.328,84.961,-106.934,1414.211,315.37074343185776
1007,1686362337.32,-117.188,20.02,86.426,-59.57,1414.215,327.3148599680314
1008,1686362337.32,-125.977,144.043,104.004,-20.996,1414.224,314.5228375452517
1009,1686362337.33,-144.043,135.254,89.844,27.832,1414.227,309.27695466879703
1010,1686362337.33,-129.395,-256.836,41.016,81.543,1414.231,307.7127130331889
1011,1686362337.34,-92.285,-324.219,51.758,67.383,1414.235,312.633633008072
1012,1686362337.34,-90.332,88.867,98.145,20.508,1414.239,315.7488755396524
1013,1686362337.34,-110.352,-54.688,61.035,82.031,1414.243,311.8572921211007
1014,1686362337.35,-104.004,-472.168,32.715,169.434,1414.247,321.7898159239798
1015,1686362337.35,-87.891,-461.426,66.406,176.27,1414.251,309.2848996572804
1016,1686362337.35,-93.75,261.23,127.441,124.512,1414.255,316.11196708970226
1017,1686362337.36,-112.305,270.508,67.383,102.051,1414.259,321.7856799285146
1018,1686362337.36,-113.281,-138.184,51.758,109.375,1414.263,314.45380815703305
1019,1686362337.37,-92.773,-46.387,101.562,107.91,1414.267,320.265602928843
1020,1686362337.37,-86.914,186.035,115.234,92.773,1414.276,322.62065181592453
1021,1686362337.37,-98.145,27.832,67.383,55.664,1414.28,326.9029666717816
1022,1686362337.37,-96.191,-384.766,62.988,16.113,1414.284,323.4838646415732
1023,1686362337.38,-75.684,-181.152,123.047,-6.348,1414.288,336.0259726971955
1024,1686362337.38,-67.871,99.609,84.961,-25.391,1414.292,311.05649520902847
1025,1686362337.39,-83.008,-160.645,56.641,-70.312,1414.296,322.79491461767896
1026,1686362337.39,-101.562,-720.215,23.438,-87.402,1414.3,316.3537814625295
1027,1686362337.39,-100.098,-712.402,93.262,-75.684,1414.304,323.2238231826022
1028,1686362337.4,-94.727,375.488,162.109,-80.078,1414.308,323.6802017975409
1029,1686362337.4,-104.004,302.734,41.992,-106.934,1414.312,329.3352720482463
1030,1686362337.4,-117.188,-56.641,67.383,-142.09,1414.316,310.0974040392406
1031,1686362337.41,-108.887,158.691,104.004,-85.449,1414.319,321.0804996436798
1032,1686362337.41,-86.914,229.492,91.797,-52.734,1414.321,322.04028815751917
1033,1686362337.42,-91.797,-94.727,55.176,-88.867,1414.325,313.18973014749537
1034,1686362337.42,-109.375,-273.438,62.5,-101.562,1414.329,322.13174112059704
1035,1686362337.42,-103.516,17.09,102.051,-59.57,1414.333,317.5140598757207
1036,1686362337.43,-67.383,117.676,83.984,-18.066,1414.337,331.34206281739046
1037,1686362337.43,-53.711,-387.207,4.883,-51.27,1414.341,314.9316315108271
1038,1686362337.44,-82.031,-555.176,22.949,-96.68,1414.345,311.1511507275686
1039,1686362337.44,-84.961,-97.656,86.914,-65.43,1414.349,310.00433685761766
1040,1686362337.44,-49.316,124.512,89.355,1.465,1414.353,325.78185242205404
1041,1686362337.45,-31.25,-240.234,34.668,-48.34,1414.357,316.5600787898131
1042,1686362337.45,-49.316,-510.742,54.199,-123.535,1414.36,315.1154844937152
1043,1686362337.46,-72.266,208.496,125.488,-108.398,1414.364,322.9334398676325
1044,1686362337.47,-59.082,228.516,63.965,-48.34,1414.367,326.09568384570167
1045,1686362337.48,-37.109,16.113,55.664,22.949,1414.371,310.9569783591629
1046,1686362337.48,-46.875,-127.93,45.41,37.109,1414.375,321.3372963076986
1047,1686362337.48,-62.5,-80.566,62.5,36.133,1414.379,316.80493702316244
1048,1686362337.49,-73.73,143.066,72.754,112.793,1414.383,309.93587363085885
1049,1686362337.49,-75.684,-560.547,7.324,164.551,1414.387,303.1768740515614
1050,1686362337.5,-79.102,-529.297,81.055,93.262,1414.391,317.2866011822826
1051,1686362337.5,-83.008,490.723,127.93,36.621,1414.395,314.43536965990916
1052,1686362337.5,-83.496,303.711,54.688,90.82,1414.399,306.6399639098001
1053,1686362337.5,-85.938,23.438,20.02,52.246,1414.412,315.0609080183888
1054,1686362337.51,-66.406,-41.992,52.246,150.879,1414.402,313.0778856037586
1055,1686362337.51,-75.684,-188.965,44.922,58.105,1414.415,316.09088159098627
1056,1686362337.51,-44.434,74.707,86.914,108.398,1414.406,321.50087233289304
1057,1686362337.51,-62.5,172.852,112.305,48.34,1414.419,326.13805321315
1058,1686362337.51,-67.871,273.926,93.75,54.688,1414.41,318.2605839158187
1059,1686362337.52,-66.895,311.523,83.008,10.254,1414.423,324.70354407943887
1060,1686362337.52,-77.148,2.93,29.785,-11.719,1414.427,313.2123071861261
1061,1686362337.52,-65.43,-256.836,40.039,20.02,1414.431,325.41088917251335
1062,1686362337.53,-54.688,40.527,83.984,72.266,1414.435,318.0936269744163
1063,1686362337.53,-78.125,374.512,73.242,75.195,1414.439,326.07590991870626
1064,1686362337.54,-118.164,-180.664,13.184,58.105,1414.443,317.8557893388037
1065,1686362337.54,-108.887,-442.871,54.688,72.754,1414.447,316.7694063505783
1066,1686362337.54,-77.148,415.039,120.605,134.277,1414.451,321.24328654572423
1067,1686362337.55,-79.102,421.875,29.297,173.828,1414.455,319.1072191529375
1068,1686362337.56,-100.098,-90.332,14.16,163.574,1414.461,316.27357858860404
1069,1686362337.57,-97.168,28.32,74.707,173.34,1414.465,307.51691123731706
1070,1686362337.57,-65.43,186.523,56.152,192.383,1414.469,302.90025667918843
1071,1686362337.57,-60.059,142.578,34.18,207.031,1414.473,310.8147060174225
1072,1686362337.58,-69.336,-343.262,4.883,204.59,1414.477,310.3840125441205
1073,1686362337.58,-75.684,-546.387,45.41,156.738,1414.48,318.3783410492948
1074,1686362337.59,-72.754,467.773,128.906,63.965,1414.484,317.8083407771743
1075,1686362337.59,-62.5,607.422,54.199,1.953,1414.488,317.46171575616256
1076,1686362337.59,-72.754,-25.391,33.203,-12.695,1414.492,322.75053994195883
1077,1686362337.6,-81.055,121.582,91.309,-6.348,1414.496,323.9375411872163
1078,1686362337.6,-66.406,512.207,66.406,-12.207,1414.5,326.2198707538732
1079,1686362337.6,-47.852,230.957,14.16,-30.273,1414.504,315.2879555966397
1080,1686362337.61,-61.035,66.895,21.484,-35.645,1414.502,313.97901224456774
1081,1686362337.61,-90.82,249.023,55.176,-6.836,1414.506,319.8380164870044
1082,1686362337.61,-81.055,284.18,40.039,40.527,1414.51,316.3557832059187
1083,1686362337.62,-41.992,-68.848,-0.488,97.168,1414.514,324.5173621144764
1084,1686362337.62,-38.574,-180.664,7.812,83.984,1414.518,320.2315263397841
1085,1686362337.63,-72.754,88.379,38.086,22.949,1414.522,321.77557776103816
1086,1686362337.63,-100.586,295.41,61.035,14.16,1414.526,325.8023331613762
1087,1686362337.63,-103.516,88.867,10.254,50.781,1414.53,312.21969051942915
1088,1686362337.64,-109.375,-420.898,18.066,48.34,1414.534,312.8873943279181
1089,1686362337.64,-118.164,356.445,113.281,-27.344,1414.538,312.58920572345926
1090,1686362337.64,-110.352,666.992,38.086,-58.105,1414.541,317.9050118757517
1091,1686362337.65,-87.402,228.027,28.809,-29.297,1414.545,319.9198392009752
1092,1686362337.65,-58.105,338.379,65.918,1.465,1414.561,327.4544344927116
1093,1686362337.66,-59.082,451.172,43.457,40.527,1414.565,317.0860887979108
1094,1686362337.66,-79.102,147.461,5.371,71.289,1414.569,309.11152551529966
1095,1686362337.66,-66.895,-271.973,31.25,134.277,1414.573,316.62603303768935
1096,1686362337.67,-49.805,30.273,72.754,148.926,1414.577,332.17899243986125
1097,1686362337.67,-65.918,320.801,26.855,52.246,1414.581,314.6484805525597
1098,1686362337.68,-93.262,234.375,23.926,-58.105,1414.585,323.00308709833223
1099,1686362337.68,-107.91,-236.816,4.395,-65.918,1414.589,317.9474546773842
1100,1686362337.68,-95.703,-50.293,53.711,21.484,1414.593,326.28057551159276
1101,1686362337.69,-87.891,820.312,87.402,55.176,1414.596,319.2932360420599
1102,1686362337.69,-95.215,413.574,3.418,42.48,1414.6,322.1619247305888
1103,1686362337.69,-94.238,198.242,24.414,88.379,1414.604,314.06757624264617
1104,1686362337.7,-86.914,455.566,66.406,146.484,1414.594,325.37680167790336
1105,1686362337.7,-91.797,490.234,32.715,93.75,1414.598,321.6579756994381
1106,1686362337.7,-111.816,124.023,-15.625,2.93,1414.602,330.69309343047155
1107,1686362337.71,-126.953,31.738,7.812,-0.977,1414.606,322.51542860751164
1108,1686362337.71,-120.605,334.961,36.621,87.891,1414.609,322.2110680744682
1109,1686362337.72,-85.938,225.586,6.836,153.32,1414.613,326.23245336672585
1110,1686362337.72,-69.336,-160.156,-24.414,131.348,1414.617,308.7161969880408
1111,1686362337.72,-89.844,-174.316,15.137,106.934,1414.621,323.924237824168
1112,1686362337.73,-94.727,355.469,60.547,136.719,1414.625,330.4395986724265
1113,1686362337.73,-72.754,429.688,6.836,144.043,1414.629,323.9045462566056
1114,1686362337.74,-75.684,-38.086,-29.785,109.863,1414.633,313.39345166134433
1115,1686362337.74,-104.004,-112.305,12.695,71.777,1414.637,329.03278287557487
1116,1686362337.76,-94.238,607.422,68.848,72.266,1414.654,334.6201868316726
1117,1686362337.76,-67.383,575.195,14.648,109.375,1414.657,323.3829583457185
1118,1686362337.76,-58.594,118.652,-7.812,96.68,1414.661,340.77296482875227
1119,1686362337.77,-70.312,191.895,35.645,42.969,1414.665,329.49507999878074
1120,1686362337.77,-86.914,407.715,14.16,-11.719,1414.669,334.6627366743988
1121,1686362337.78,-77.148,255.371,-7.324,-27.344,1414.673,320.6180567420088
1122,1686362337.78,-67.871,-250.977,-12.207,-33.691,1414.677,335.0450720884501
1123,1686362337.78,-82.52,-164.551,28.32,-32.715,1414.681,320.0390850953802
1124,1686362337.79,-94.238,736.328,66.895,11.23,1414.685,324.2727123589795
1125,1686362337.79,-81.055,557.129,4.395,60.059,1414.689,333.3369648566296
1126,1686362337.8,-67.383,249.023,-13.672,76.172,1414.693,319.23370639914435
1127,1686362337.8,-76.66,267.578,13.672,44.922,1414.697,327.0070545387856
1128,1686362337.82,-79.59,423.828,36.133,46.875,1414.718,335.0802450410711
1129,1686362337.82,-65.43,221.68,-20.508,125.977,1414.722,325.70288352198236
1130,1686362337.83,-61.035,-19.043,-8.789,196.777,1414.726,326.522471237224
1131,1686362337.83,-73.73,402.832,49.316,165.039,1414.73,333.4411339803726
1132,1686362337.84,-91.309,393.555,-12.695,110.84,1414.734,324.12015965842824
1133,1686362337.84,-100.098,-140.625,-47.363,106.934,1414.738,336.6813575598069
1134,1686362337.84,-94.727,13.184,18.555,142.09,1414.742,328.1285302382191
1135,1686362337.85,-85.449,469.238,26.855,189.941,1414.746,322.89462916776426
1136,1686362337.85,-86.426,446.777,-0.977,165.039,1414.75,341.90968706977077
1137,1686362337.85,-94.727,-130.371,-26.855,125.0,1414.753,331.300537971627
1138,1686362337.86,-84.473,-367.188,43.945,133.789,1414.757,330.64944582884124
1139,1686362337.86,-51.758,581.055,0.488,98.145,1414.758,331.727706521708
1140,1686362337.86,-59.57,554.688,90.82,140.137,1414.761,329.90670029736225
1141,1686362337.86,-54.688,81.055,-8.789,18.555,1414.761,330.3293048498984
1142,1686362337.87,-39.551,22.461,7.812,30.273,1414.765,333.22251260448127
1143,1686362337.87,-20.02,354.004,36.621,75.684,1414.769,337.49438657922826
1144,1686362337.88,-29.785,472.168,0.488,85.449,1414.773,343.38643312574965
1145,1686362337.88,-48.34,-38.574,-22.949,125.0,1414.777,336.2308273044965
1146,1686362337.88,-44.922,83.496,35.645,151.855,1414.781,328.8740181736931
1147,1686362337.89,-22.461,577.637,31.738,145.02,1414.785,325.63860251984727
1148,1686362337.89,-78.125,306.152,-16.113,187.988,1414.788,347.2714946901424
1149,1686362337.89,-21.973,354.004,-9.766,143.555,1414.789,343.5278336026872
1150,1686362337.9,-84.961,-550.781,-56.641,148.438,1414.792,340.29266952324093
1151,1686362337.9,-63.477,40.527,4.883,105.957,1414.793,328.45557031701304
1152,1686362337.9,-85.938,-458.008,45.41,130.859,1414.796,336.17924170915165
1153,1686362337.9,-86.914,211.914,30.762,77.637,1414.797,332.5757185355953
1154,1686362337.9,-52.246,723.145,88.867,103.516,1414.8,339.42201257779004
1155,1686362337.9,-84.473,403.809,12.695,147.461,1414.801,339.94291549091105
1156,1686362337.91,-39.551,429.199,-33.691,37.109,1414.804,327.33464953892747
1157,1686362337.91,-54.199,-39.062,-40.527,-41.992,1414.808,336.9256890407183
1158,1686362337.92,-69.336,375.977,34.668,-71.777,1414.812,339.81132732133347
1159,1686362337.92,-52.246,627.93,8.789,6.348,1414.815,339.11158764543865
1160,1686362337.92,-16.602,155.762,5.371,122.07,1414.819,328.29052974015895
1161,1686362337.93,-24.414,104.004,57.129,169.922,1414.823,337.91535199748705
1162,1686362337.93,-62.5,451.66,16.113,190.918,1414.827,326.1428553879993
1163,1686362337.93,-80.566,415.039,-18.555,274.902,1414.831,334.5803278228959
1164,1686362337.94,-54.199,-192.871,-36.621,355.957,1414.832,336.1159655768836
1165,1686362337.94,-33.203,-276.367,0.0,315.918,1414.836,344.56903632535796
1166,1686362337.94,-48.828,343.262,14.16,209.473,1414.84,336.7543169481852
1167,1686362337.95,-57.617,247.07,-20.02,154.297,1414.844,340.4119856613176
1168,1686362337.95,-45.41,-21.973,-2.441,143.555,1414.848,332.96783814335595
1169,1686362337.96,-38.574,51.758,32.715,129.883,1414.852,332.68959467403903
1170,1686362337.96,-65.43,354.492,17.578,88.379,1414.856,326.1559627594293
1171,1686362337.96,-89.844,397.461,1.953,117.188,1414.859,324.38600562417514
1172,1686362337.97,-77.148,-157.227,-36.133,261.23,1414.863,334.8306961852731
1173,1686362337.97,-54.199,-49.316,18.066,331.055,1414.867,339.41995772710976
1174,1686362337.98,-55.664,774.902,41.504,269.531,1414.871,338.9044558104116
1175,1686362337.98,-69.336,371.582,-29.785,205.566,1414.875,350.1677517345341
1176,1686362337.98,-70.312,197.754,-20.996,180.664,1414.877,338.5990820901043
1177,1686362337.98,-63.477,423.34,-1.953,152.832,1414.881,335.2445804882531
1178,1686362337.99,-67.871,388.672,-18.555,119.141,1414.885,331.17074454253765
1179,1686362337.99,-85.938,36.621,-42.969,97.168,1414.889,324.9402387181907
1180,1686362338.0,-94.238,-79.102,-37.109,103.027,1414.893,340.12603377072344
1181,1686362338.0,-80.566,76.66,-17.09,145.996,1414.897,338.92242124885314
1182,1686362338.0,-71.777,293.945,7.324,151.855,1414.901,333.153421931276
1183,1686362338.01,-81.055,-19.043,-45.41,155.273,1414.905,331.59787405324016
1184,1686362338.01,-93.262,-364.746,-23.438,199.219,1414.909,341.1518363338468
1185,1686362338.02,-72.266,257.812,56.641,222.656,1414.913,331.0288225953545
1186,1686362338.02,-29.785,497.07,9.277,205.078,1414.916,346.88048806833194
1187,1686362338.02,-32.227,9.766,-15.625,137.207,1414.92,334.93714515748445
1188,1686362338.03,-53.223,-36.133,29.785,87.402,1414.922,327.2919507296935
1189,1686362338.03,-53.711,391.602,17.578,119.629,1414.926,346.7867699625143
1190,1686362338.03,-43.457,183.105,-19.043,175.781,1414.93,336.50803187686574
1191,1686362338.04,-33.203,-275.879,-8.301,156.738,1414.934,335.1658070406363
1192,1686362338.04,-48.34,-93.262,28.32,124.512,1414.938,341.0997213705363
1193,1686362338.05,-62.5,241.211,0.977,174.316,1414.942,335.00267173457837
1194,1686362338.05,-51.27,146.973,-17.09,253.906,1414.946,341.8454881974091
1195,1686362338.05,-58.105,-215.332,0.977,283.203,1414.95,338.204000559595
1196,1686362338.06,-90.332,-22.461,48.828,236.816,1414.954,337.2486724963347
1197,1686362338.06,-116.699,558.105,17.09,180.664,1414.958,333.2708068612209
1198,1686362338.06,-112.305,272.461,-21.484,195.801,1414.961,347.6448488662062
1199,1686362338.07,-93.75,19.043,-42.969,187.012,1414.965,339.29382216789327
1200,1686362338.07,-97.656,85.938,-33.203,116.699,1414.973,345.11912897729667
1201,1686362338.08,-87.402,279.297,-9.277,122.559,1414.977,339.1007287830281
1202,1686362338.08,-61.035,-14.648,-53.223,184.57,1414.981,348.0569247288175
1203,1686362338.08,-39.062,-191.895,-44.434,185.059,1414.985,340.9101014291538
1204,1686362338.09,-44.434,173.34,-21.484,137.695,1414.989,344.63422636934945
1205,1686362338.09,-55.664,53.711,-32.715,98.145,1414.992,344.2028023314804
1206,1686362338.1,-43.457,-307.129,-31.25,94.727,1414.996,348.75031031924067
1207,1686362338.1,-18.066,-276.855,-6.836,91.797,1415.0,330.073569731612
1208,1686362338.1,-20.02,379.395,23.438,60.547,1415.004,343.8395999267806
1209,1686362338.11,-44.434,371.094,-41.016,26.367,1415.008,349.03488102912394
1210,1686362338.11,-29.297,8.301,-25.879,24.902,1415.012,342.1349864855596
1211,1686362338.12,-17.09,102.051,-0.977,58.594,1415.016,339.14594840105747
1212,1686362338.12,-37.598,281.738,-20.996,88.379,1415.026,338.0498160499953
1213,1686362338.12,-66.406,88.867,-43.457,64.453,1415.03,337.9527696802379
1214,1686362338.12,-76.66,-254.883,-25.879,50.293,1415.034,343.6672656106329
1215,1686362338.13,-43.945,-167.969,4.395,142.578,1415.038,343.490902740711
1216,1686362338.13,-24.414,135.254,-11.23,243.652,1415.042,339.7602406681075
1217,1686362338.14,-46.387,168.945,-26.367,268.555,1415.046,346.4798712422351
1218,1686362338.14,-59.082,-457.031,-38.574,276.855,1415.049,339.50676570070584
1219,1686362338.14,-41.504,-542.969,32.227,357.422,1415.053,338.2631762512299
1220,1686362338.15,-19.531,489.746,60.547,369.629,1415.057,333.5716824187875
1221,1686362338.15,-28.809,475.586,-28.809,264.648,1415.061,354.8401525201354
1222,1686362338.16,-44.434,138.672,-13.672,224.121,1415.065,343.14503987511216
1223,1686362338.16,-29.785,270.02,12.695,250.488,1415.069,358.8941177004137
1224,1686362338.16,1.953,346.68,-6.348,255.859,1415.06,359.3369934955368
1225,1686362338.17,14.648,66.895,-40.039,188.477,1415.064,344.2166070397464
1226,1686362338.17,-2.441,-115.234,-36.133,116.699,1415.068,347.90707741781796
1227,1686362338.18,-2.93,126.465,-14.648,129.883,1415.071,347.05782753056235
1228,1686362338.18,28.809,203.125,-22.461,193.848,1415.075,344.23543899123626
1229,1686362338.18,32.715,-217.773,-64.941,181.152,1415.079,348.5508142986096
1230,1686362338.19,-1.953,-532.715,-52.734,83.496,1415.083,346.9739150676567
1231,1686362338.19,-24.414,102.539,20.996,57.617,1415.087,345.9454560794473
1232,1686362338.19,-8.789,527.344,-7.324,126.953,1415.091,337.83302261187464
1233,1686362338.2,0.488,-122.559,-60.059,146.484,1415.095,356.9758257333552
1234,1686362338.2,-25.879,-274.414,-6.836,114.258,1415.099,340.3568245627093
1235,1686362338.21,-51.758,395.996,15.625,149.902,1415.103,349.80828285978606
1236,1686362338.23,-38.574,309.082,-25.879,225.098,1415.121,351.43134686419563
1237,1686362338.23,-19.531,16.602,-19.043,243.164,1415.125,347.24612997944206
1238,1686362338.23,-20.996,-69.336,-15.137,196.777,1415.129,346.8489433865839
1239,1686362338.24,-24.902,38.574,-15.137,142.09,1415.133,347.6774321680546
1240,1686362338.24,-13.672,279.785,-16.113,174.316,1415.137,333.99406262319
1241,1686362338.25,6.836,-366.211,-51.758,252.93,1415.141,352.37791347878647
1242,1686362338.25,-9.277,-519.043,24.414,234.863,1415.145,346.6848583210164
1243,1686362338.25,-50.293,386.719,45.41,187.012,1415.149,344.0174601674828
1244,1686362338.26,-65.43,273.438,-22.949,251.953,1415.152,352.8865345499849
1245,1686362338.26,-52.246,93.75,20.508,311.035,1415.156,342.21377711314545
1246,1686362338.26,-41.504,373.047,18.555,265.137,1415.16,337.36475396418194
1247,1686362338.27,-62.5,32.715,-41.992,244.141,1415.165,340.0916850139304
1248,1686362338.27,-45.41,392.09,-24.902,215.332,1415.164,346.97656505916075
1249,1686362338.27,-44.434,0.977,-33.203,322.266,1415.168,343.0808273950988
1250,1686362338.28,-17.09,268.066,-11.719,365.723,1415.172,350.7686067696705
1251,1686362338.28,-33.203,252.441,-24.902,342.285,1415.176,340.316769722353
1252,1686362338.28,-51.758,-104.004,-41.504,338.867,1415.18,346.2455017051552
1253,1686362338.29,-50.781,-298.828,-43.945,380.371,1415.184,348.68360279853283
1254,1686362338.29,-49.316,27.832,-15.137,383.301,1415.188,355.9810220302451
1255,1686362338.3,-50.781,367.188,-3.906,388.672,1415.192,345.88713442723366
1256,1686362338.3,-68.848,-185.547,-44.922,374.512,1415.196,345.8450087265475
1257,1686362338.3,-67.383,-487.305,-10.254,360.84,1415.2,343.1285552834428
1258,1686362338.31,-35.645,233.887,32.227,368.652,1415.204,349.8266033052065
1259,1686362338.31,-20.996,447.754,-20.02,300.781,1415.207,353.86702030016494
1260,1686362338.31,-33.691,-90.332,-31.738,268.066,1415.207,342.0001241712246
1261,1686362338.32,-43.945,-74.707,13.184,335.449,1415.211,347.00835078384137
1262,1686362338.32,-23.926,251.953,-15.625,386.23,1415.215,353.1402210087117
1263,1686362338.32,-8.301,62.5,-24.414,336.426,1415.219,363.64762821937063
1264,1686362338.33,-25.391,-35.645,-19.531,284.18,1415.223,357.4928452423065
1265,1686362338.33,-41.992,-72.266,-18.066,321.777,1415.227,346.848026024662
1266,1686362338.34,-36.621,217.285,-1.953,356.934,1415.231,350.77874600510916
1267,1686362338.34,-38.574,414.062,-11.23,347.656,1415.235,342.252147386365
1268,1686362338.34,-49.805,-402.344,-52.734,292.969,1415.239,346.40423772214655
1269,1686362338.35,-71.289,-473.633,7.812,212.891,1415.242,349.89334167024975
1270,1686362338.35,-73.73,591.309,41.016,179.199,1415.246,355.121600238558
1271,1686362338.35,-43.945,402.832,-42.48,209.473,1415.25,342.1477908742661
1272,1686362338.37,-20.02,-29.785,-55.176,162.109,1415.274,347.0364897783987
1273,1686362338.38,-13.184,112.305,-8.789,70.312,1415.278,348.57531066713466
1274,1686362338.38,-8.789,287.109,1.953,58.105,1415.282,357.65655790976007
1275,1686362338.38,10.742,26.855,-50.781,101.074,1415.286,354.8800635521288
1276,1686362338.39,26.855,-155.762,-65.43,125.488,1415.289,359.3162428796443
1277,1686362338.39,-6.836,-18.066,-38.574,124.023,1415.293,341.5742000833843
1278,1686362338.4,-25.879,187.012,-11.23,171.875,1415.297,348.49452842120434
1279,1686362338.4,-3.906,-24.414,-47.852,270.508,1415.301,356.3637586073553
1280,1686362338.4,19.531,126.953,-20.02,260.742,1415.298,354.006431014532
1281,1686362338.4,15.625,-266.602,-44.922,303.711,1415.305,354.91820351538416
1282,1686362338.4,5.371,288.086,-56.641,242.188,1415.301,353.2663335754026
1283,1686362338.41,12.207,374.512,-11.23,230.957,1415.309,351.38018297903267
1284,1686362338.41,-17.578,-65.43,-54.688,283.691,1415.305,359.88277751486413
1285,1686362338.41,-7.324,365.723,-62.012,196.777,1415.313,350.6542324570014
1286,1686362338.41,-21.973,-339.355,-34.668,327.637,1415.309,349.5927074621692
1287,1686362338.42,6.836,23.438,-39.551,245.605,1415.317,354.8476069890237
1288,1686362338.42,-11.23,-8.789,-54.199,295.41,1415.313,354.55451435174285
1289,1686362338.42,-17.578,158.691,-46.387,218.75,1415.317,354.1994370663085
1290,1686362338.42,-32.715,24.414,-40.527,182.617,1415.321,367.0853475917082
1291,1686362338.43,-34.668,-132.812,-15.625,219.238,1415.325,354.56974343243957
1292,1686362338.43,-19.043,160.645,0.0,279.785,1415.329,349.48562893074524
1293,1686362338.44,-11.719,424.805,-37.598,235.84,1415.333,349.1778165059276
1294,1686362338.44,-28.32,200.684,-49.805,127.93,1415.337,359.34608738295066
1295,1686362338.44,-52.734,-632.812,-91.309,134.277,1415.341,352.09002412049705
