,timestamps,TP9,AF7,AF8,TP10,Secondary Timestamp,emg_signal
0,1686623736.79,-26.367,-247.07,92.285,-65.918,3114.688,370.6182004860446
1,1686623736.8,27.832,210.938,60.547,38.086,3114.692,358.4643788446718
2,1686623736.8,22.949,210.938,5.371,35.156,3114.696,378.3019874261422
3,1686623736.8,-33.691,-279.297,-22.949,-74.219,3114.7,372.08375086455976
4,1686623736.81,-26.855,-393.066,14.16,-73.242,3114.704,361.94503109305106
5,1686623736.81,22.949,-241.211,71.289,35.156,3114.708,377.98784777436936
6,1686623736.81,22.461,-252.93,21.973,57.129,3114.711,374.79724588679875
7,1686623736.82,-30.762,-749.512,-97.168,-34.18,3114.715,367.52892899705085
8,1686623736.82,-43.945,-984.863,82.031,-85.938,3114.719,365.896456564383
9,1686623736.83,19.531,-235.352,159.668,-10.254,3114.723,371.37322055954627
10,1686623736.83,40.527,-82.031,1.465,51.758,3114.727,374.0293625653983
11,1686623736.83,-6.836,-608.398,37.109,-10.742,3114.731,371.12361842212147
12,1686623736.84,-26.855,-287.598,78.613,-78.613,3114.735,369.5918665495151
13,1686623736.84,1.465,160.645,45.898,-30.273,3114.739,377.1358516693069
14,1686623736.85,29.297,99.121,16.113,41.504,3114.743,363.5809392717033
15,1686623736.85,1.953,-21.973,48.828,-6.836,3114.747,369.1130622561957
16,1686623736.85,-45.41,-64.941,22.461,-97.656,3114.751,374.79562889927035
17,1686623736.86,-23.926,-229.492,14.648,-68.359,3114.755,362.1601155360532
18,1686623736.86,24.414,-378.906,25.879,31.25,3114.759,360.3453603787735
19,1686623736.86,4.883,-745.117,57.129,27.344,3114.762,370.14326481362434
20,1686623736.87,-47.363,-324.219,70.801,-65.43,3114.766,370.24262420923645
21,1686623736.87,-43.945,24.414,6.836,-73.73,3114.77,373.6070383598866
22,1686623736.88,12.695,-159.668,34.668,21.484,3114.774,362.9092918465332
23,1686623736.88,17.09,-17.578,51.27,55.664,3114.778,368.61721752948046
24,1686623736.88,-34.668,-114.746,7.324,-29.297,3114.782,362.8245399461764
25,1686623736.89,-48.828,-246.582,13.672,-75.684,3114.786,366.92090114871354
26,1686623736.89,2.441,-414.062,33.691,0.488,3114.79,372.9015640344679
27,1686623736.89,30.762,-322.754,158.203,61.035,3114.794,364.73649867122276
28,1686623736.9,-11.23,-78.125,29.785,-4.883,3114.798,365.55892663114247
29,1686623736.9,-45.41,-410.645,-19.043,-82.52,3114.801,360.96532053360465
30,1686623736.9,-14.16,-854.492,-38.086,-30.762,3114.805,364.7045725710288
31,1686623736.91,20.508,-945.312,52.734,54.199,3114.809,366.0173049237317
32,1686623736.91,2.93,-102.051,108.398,18.066,3114.813,374.793280791734
33,1686623736.92,-41.504,-30.273,-17.578,-71.777,3114.817,375.5688758469654
34,1686623736.92,-17.578,-408.691,104.98,-58.105,3114.821,353.9464536560583
35,1686623736.92,29.297,24.414,105.957,22.461,3114.825,363.75707292344066
36,1686623736.94,4.395,282.715,11.23,16.602,3114.853,359.636982508221
37,1686623736.95,-39.551,-51.758,-11.719,-61.035,3114.857,358.6609152302372
38,1686623736.95,-46.387,-481.934,46.875,-76.66,3114.86,357.62690051042154
39,1686623736.95,-10.254,-340.332,85.449,1.465,3114.864,366.86661835120725
40,1686623736.96,19.531,91.309,51.27,39.062,3114.868,360.4660569516183
41,1686623736.96,-11.23,-282.715,-42.48,-34.668,3114.872,369.9465633271724
42,1686623736.96,-43.457,-956.055,20.508,-93.262,3114.876,363.0055957733312
43,1686623736.97,-8.301,-469.238,241.211,-42.969,3114.88,361.21658179557306
44,1686623736.97,19.531,214.355,117.188,14.648,3114.884,370.623801008979
45,1686623736.98,-14.648,-31.738,-24.902,-35.156,3114.888,372.46972293291583
46,1686623736.98,-48.828,-377.441,13.672,-110.84,3114.892,368.2148014724015
47,1686623736.98,-32.227,-125.0,39.062,-69.336,3114.896,374.85597896924145
48,1686623736.99,3.906,118.164,35.645,28.809,3114.883,365.1361684726003
49,1686623736.99,-12.207,-96.191,-5.371,0.0,3114.887,364.5215167676315
50,1686623737.0,-67.871,-200.684,10.742,-100.586,3114.891,374.50854923102617
51,1686623737.0,-62.5,-31.25,41.504,-91.797,3114.895,375.21717375236267
52,1686623737.0,-5.371,64.941,38.086,3.906,3114.899,359.6021091281828
53,1686623737.01,-12.695,-484.375,-40.527,22.949,3114.903,367.7465797064178
54,1686623737.01,-64.453,-725.586,-0.977,-65.43,3114.907,360.37097645516644
55,1686623737.01,-71.777,-519.531,69.336,-94.238,3114.911,370.1503691612783
56,1686623737.02,-19.531,-411.621,28.32,-8.301,3114.915,369.90583648598414
57,1686623737.02,14.648,-653.32,1.953,42.48,3114.918,378.6408071617604
58,1686623737.03,-16.602,-475.586,137.695,-32.227,3114.922,370.3747338733324
59,1686623737.03,-46.875,-12.207,78.125,-105.469,3114.926,370.3388969120339
60,1686623737.05,-9.766,-93.75,-18.555,-44.434,3114.946,363.0545605977319
61,1686623737.05,25.391,-746.094,34.18,45.41,3114.95,370.2072024986876
62,1686623737.06,-13.184,-533.203,151.367,7.812,3114.954,381.27722535680573
63,1686623737.06,-56.641,-9.766,60.059,-73.242,3114.957,373.75670485862713
64,1686623737.06,-32.227,-154.297,3.906,-48.828,3114.961,373.4830578262892
65,1686623737.07,9.766,-363.281,77.637,35.645,3114.965,372.4196951529611
66,1686623737.07,-1.953,-236.816,78.125,25.391,3114.969,362.5010863045653
67,1686623737.08,-42.969,-87.891,17.09,-72.754,3114.973,365.4605043592056
68,1686623737.08,-62.5,-366.211,-19.531,-108.887,3114.974,365.0110767792918
69,1686623737.08,-42.48,-478.516,-9.766,-69.824,3114.977,369.2795259954444
70,1686623737.08,-15.137,-202.148,88.867,-32.715,3114.978,370.4074207192484
71,1686623737.08,-0.488,-924.805,63.477,27.832,3114.981,357.75019336292723
72,1686623737.08,8.301,257.324,46.387,30.762,3114.981,367.0864043143326
73,1686623737.09,8.301,-252.441,202.637,43.457,3114.985,364.70426880932496
74,1686623737.09,-29.297,125.488,-3.906,-41.992,3114.985,356.89776090979717
75,1686623737.09,-43.945,155.762,35.645,-48.828,3114.989,371.30646669709773
76,1686623737.09,-55.664,-458.496,-15.137,-104.004,3114.989,365.29128497657643
77,1686623737.1,-24.414,-607.422,52.734,-47.852,3114.993,362.4868911524557
78,1686623737.1,14.16,-265.625,93.75,25.879,3114.997,376.1768971618952
79,1686623737.1,-12.695,-331.055,2.441,-6.348,3115.001,366.3948404652235
80,1686623737.11,-59.082,-728.516,-24.902,-97.656,3115.005,369.4691162973455
81,1686623737.11,-25.879,-329.59,60.547,-89.844,3115.009,365.8898198068674
82,1686623737.12,15.137,51.758,32.227,0.0,3115.013,364.6152704300217
83,1686623737.12,-3.906,-212.402,5.859,-0.977,3115.017,365.20058757208756
84,1686623737.12,-56.641,-829.102,-39.062,-86.426,3115.02,385.4103681022308
85,1686623737.13,-58.105,-1000.0,87.891,-99.609,3115.024,361.91973113396534
86,1686623737.13,8.789,-212.402,194.336,-10.254,3115.028,363.92181557419804
87,1686623737.14,27.344,151.855,27.344,23.438,3115.032,369.1111988421849
88,1686623737.14,-34.18,-141.113,7.324,-67.383,3115.036,364.78746475829405
89,1686623737.14,-66.406,-441.895,31.25,-118.652,3115.04,369.73065256763556
90,1686623737.15,-13.672,-210.938,77.148,-41.016,3115.044,366.2055746768927
91,1686623737.15,16.602,-40.039,0.0,32.227,3115.048,367.49065161913603
92,1686623737.15,-28.32,-784.18,-5.859,-20.996,3115.052,366.96617775493087
93,1686623737.16,-61.035,-432.617,83.008,-101.074,3115.056,371.9465296723613
94,1686623737.16,-22.949,124.512,35.156,-51.27,3115.06,359.5273115874455
95,1686623737.17,19.531,-11.719,30.762,36.621,3115.063,364.4228846683919
96,1686623737.17,-14.16,-55.176,18.066,0.0,3115.067,359.5133301148378
97,1686623737.17,-58.105,-225.586,8.789,-79.102,3115.071,370.674834531976
98,1686623737.18,-34.668,-206.055,46.387,-59.57,3115.074,368.8277497729749
99,1686623737.18,17.578,-252.93,31.25,34.668,3115.078,362.2878805043293
100,1686623737.18,14.16,-377.441,70.801,26.367,3115.082,368.68643437527027
101,1686623737.19,-25.879,-425.781,19.531,-67.871,3115.086,367.56189299987614
102,1686623737.19,-20.02,-442.871,6.836,-84.473,3115.09,360.33123415460653
103,1686623737.2,22.949,-749.512,-46.875,-9.277,3115.094,360.45088742489855
104,1686623737.2,32.227,-931.152,56.152,28.32,3115.098,368.1697504780851
105,1686623737.2,-14.16,-138.184,83.984,-44.922,3115.102,372.1454248859679
106,1686623737.21,-43.457,-85.938,-12.207,-105.957,3115.106,369.8724865942786
107,1686623737.21,-2.93,-295.41,154.297,-43.457,3115.11,366.7439519499527
108,1686623737.23,35.156,193.848,122.559,33.203,3115.125,363.2425160703859
109,1686623737.23,-5.859,295.898,-23.926,-10.742,3115.128,369.3496942965463
110,1686623737.24,-63.477,-96.191,-4.395,-89.844,3115.132,361.03439624670426
111,1686623737.24,-34.668,-383.789,65.918,-55.176,3115.136,360.88895979548636
112,1686623737.24,9.277,-183.594,63.965,37.109,3115.14,366.3303573101426
113,1686623737.25,-11.23,-129.883,32.227,6.348,3115.144,358.28104708222986
114,1686623737.25,-57.617,-484.863,-14.648,-86.914,3115.148,356.5597223613541
115,1686623737.25,-62.988,-921.875,20.02,-83.984,3115.152,355.318346119454
116,1686623737.26,-16.113,103.027,61.035,-20.508,3115.167,363.2100278746799
117,1686623737.26,-19.531,-342.773,242.188,0.977,3115.156,358.20604067998556
118,1686623737.26,3.418,237.305,31.738,25.391,3115.171,365.7145541058515
119,1686623737.26,-15.137,314.453,102.539,18.555,3115.16,369.64191051065586
120,1686623737.26,-32.715,-180.176,-12.207,-50.293,3115.175,362.2552332595013
121,1686623737.27,-57.617,-60.547,-20.996,-70.801,3115.164,350.6731505526495
122,1686623737.27,-53.711,-259.766,17.578,-115.723,3115.178,369.07140166875826
123,1686623737.27,-61.035,-226.562,67.871,-106.445,3115.167,379.01411028382716
124,1686623737.27,-14.16,-24.902,49.316,-54.688,3115.182,369.11239032369394
125,1686623737.28,21.484,-165.039,44.922,25.879,3115.186,358.77388140092165
126,1686623737.28,-2.441,-636.23,-43.945,-20.996,3115.19,368.03953835139885
127,1686623737.28,-61.523,-856.934,25.391,-115.234,3115.194,372.53869173849864
128,1686623737.29,-51.758,-378.418,119.141,-82.52,3115.198,358.5894890164612
129,1686623737.29,7.812,123.535,39.062,16.602,3115.202,371.9614320655447
130,1686623737.3,-7.812,-583.984,-72.754,14.648,3115.206,371.72758904776845
131,1686623737.3,-65.918,-953.125,113.77,-78.613,3115.21,373.83065333494613
132,1686623737.32,-61.523,-140.625,167.969,-90.82,3115.213,361.44931187604584
133,1686623737.32,-8.301,120.117,19.531,3.418,3115.217,367.8841267672586
134,1686623737.32,5.859,-35.645,59.082,23.926,3115.221,367.93505998252
135,1686623737.33,-24.414,-17.09,34.668,-52.734,3115.225,366.6426386672786
136,1686623737.33,-34.18,28.809,16.113,-90.332,3115.229,367.1394234776479
137,1686623737.34,-3.906,-251.465,6.348,-19.531,3115.233,374.04249264339717
138,1686623737.34,11.719,-602.051,135.254,46.387,3115.237,363.24391530441807
139,1686623737.34,-33.203,-94.238,115.723,-17.09,3115.24,369.191814916286
140,1686623737.35,-67.871,47.852,4.395,-92.285,3115.244,370.6544751534093
141,1686623737.35,-27.832,-432.617,58.105,-28.32,3115.248,358.030245110142
142,1686623737.36,14.648,-506.348,175.293,55.176,3115.252,357.5302101817021
143,1686623737.36,-14.648,74.219,122.07,0.977,3115.256,366.7438419826499
144,1686623737.36,-59.57,76.172,-13.184,-90.332,3115.258,360.1749306830296
145,1686623737.36,-33.203,-331.543,21.484,-75.684,3115.262,355.7227363088735
146,1686623737.37,23.438,-99.609,61.035,28.809,3115.266,367.118248572649
147,1686623737.37,15.625,247.559,36.621,27.832,3115.27,354.4164199147007
148,1686623737.38,-46.875,-29.785,-20.996,-77.148,3115.274,358.88492350663444
149,1686623737.38,-59.57,-715.82,-16.602,-75.195,3115.278,365.5089238751521
150,1686623737.38,-0.977,-697.754,166.992,9.277,3115.281,371.7356568490911
151,1686623737.39,17.09,-104.004,121.582,34.18,3115.285,369.18589363053866
152,1686623737.39,-29.297,0.488,-22.461,-42.969,3115.289,372.536220148668
153,1686623737.4,-53.711,-730.957,2.441,-91.309,3115.293,360.5456984320818
154,1686623737.4,-9.766,-620.605,176.27,-20.02,3115.297,363.65793267231555
155,1686623737.4,17.09,50.293,53.223,39.551,3115.301,373.4899246370622
156,1686623737.42,-27.832,-224.609,-53.223,-27.344,3115.32,369.3104918206793
157,1686623737.43,-75.195,-719.238,47.852,-111.328,3115.324,369.7011720079837
158,1686623737.43,-40.527,-233.887,60.547,-66.406,3115.328,356.74020508598244
159,1686623737.44,9.277,275.879,-5.859,20.508,3115.332,362.8699643063248
160,1686623737.44,-16.113,43.945,-48.828,-3.906,3115.336,366.88628080323593
161,1686623737.44,-63.965,-469.238,-17.09,-87.891,3115.34,365.3653901805509
162,1686623737.45,-50.293,-411.621,64.453,-80.078,3115.343,374.113653891607
163,1686623737.45,-2.93,213.379,39.062,9.277,3115.347,367.0462846010133
164,1686623737.45,17.578,-71.289,10.254,34.668,3115.352,370.7188947333119
165,1686623737.45,-11.719,-11.23,-44.434,17.09,3115.351,366.73363831146855
166,1686623737.46,-26.367,-225.586,21.484,-33.691,3115.356,365.70982724703254
167,1686623737.46,-54.688,-776.367,42.48,-71.777,3115.355,362.56703978887174
168,1686623737.46,-47.363,-395.508,68.359,-83.984,3115.36,376.1101623093359
169,1686623737.46,-34.668,-317.383,100.098,-90.82,3115.359,366.8125348252336
170,1686623737.46,-8.301,-168.945,85.449,-14.648,3115.364,377.82130270054034
171,1686623737.47,20.996,145.508,30.273,-5.859,3115.363,358.22003844321836
172,1686623737.47,20.508,-301.27,-18.555,62.988,3115.367,363.01273440184417
173,1686623737.47,-18.555,-660.645,16.602,7.324,3115.371,358.10268167926483
174,1686623737.48,-52.734,-587.402,70.801,-79.59,3115.375,365.2606270628434
175,1686623737.48,-7.324,-546.387,49.805,-29.297,3115.379,367.2733304726653
176,1686623737.48,41.016,-517.578,36.621,63.477,3115.383,366.72818716385154
177,1686623737.49,10.742,-137.207,58.105,40.527,3115.387,365.4959510204746
178,1686623737.49,-41.016,33.203,53.223,-55.664,3115.391,357.1296879420722
179,1686623737.5,-32.715,-172.852,39.062,-63.477,3115.395,359.2264666985696
180,1686623737.51,13.672,-806.152,29.297,30.273,3115.41,358.6431194513542
181,1686623737.52,21.484,-644.043,182.129,43.945,3115.414,362.97603901566
182,1686623737.52,-28.809,11.719,102.051,-48.34,3115.418,366.30016189342916
183,1686623737.52,-46.875,-137.207,10.254,-81.055,3115.422,369.2454617896914
184,1686623737.53,1.465,-232.422,86.426,1.465,3115.426,367.0802558810661
185,1686623737.53,30.273,-190.43,-9.277,48.34,3115.43,368.0034721330516
186,1686623737.54,-17.09,-280.273,-36.133,-27.832,3115.434,369.07544552259117
187,1686623737.54,-46.875,-482.91,-47.852,-85.938,3115.438,359.1914877675766
188,1686623737.54,-12.695,-188.477,25.879,-43.945,3115.438,366.317316348867
189,1686623737.54,-4.395,-890.625,2.441,-17.09,3115.441,368.67647434446775
190,1686623737.54,32.715,274.902,11.23,52.246,3115.442,365.31056556415666
191,1686623737.55,32.715,-251.465,132.324,56.152,3115.445,362.93075088263413
192,1686623737.55,21.484,276.855,-30.762,39.551,3115.446,358.31261288159874
193,1686623737.55,10.742,318.848,-9.766,3.906,3115.449,372.16456492746084
194,1686623737.55,-32.227,-205.566,-54.199,-62.012,3115.45,360.9910254229898
195,1686623737.56,-32.715,-190.43,-61.523,-76.172,3115.453,368.62793813049836
196,1686623737.56,-33.203,-354.492,-13.672,-71.777,3115.454,362.88425627865723
197,1686623737.56,19.043,-196.289,20.02,18.066,3115.458,366.0434824976043
198,1686623737.56,22.461,-266.602,-17.09,33.691,3115.462,374.35532251656036
199,1686623737.57,-20.996,-683.594,-78.613,-45.898,3115.465,357.91329831266165
200,1686623737.57,-27.344,-500.0,35.156,-89.844,3115.469,364.1149773343439
201,1686623737.58,9.277,159.18,61.523,-10.254,3115.473,366.510036248919
202,1686623737.58,23.926,304.688,-24.414,56.152,3115.477,357.8975352321669
203,1686623737.58,-17.578,-630.371,-79.102,-12.207,3115.481,357.0125950053863
204,1686623737.59,-49.316,-1000.0,16.602,-87.891,3115.485,359.96546662777064
205,1686623737.59,-14.16,-192.871,117.676,-40.527,3115.489,357.2181975035218
206,1686623737.6,25.879,199.707,10.254,40.527,3115.493,367.8202177450555
207,1686623737.6,6.348,1.465,8.301,7.324,3115.497,354.8171716313247
208,1686623737.6,-44.434,-195.801,-2.93,-84.473,3115.501,366.86985548571295
209,1686623737.61,-28.32,-280.273,17.09,-65.918,3115.505,364.45136009638395
210,1686623737.61,19.531,-296.387,22.461,29.785,3115.509,368.2789435480446
211,1686623737.62,1.953,-716.797,21.484,21.973,3115.513,363.72658886121576
212,1686623737.62,-42.969,-266.113,72.754,-81.055,3115.517,359.50929341759604
213,1686623737.62,-38.086,71.777,17.09,-89.355,3115.521,363.74453845900155
214,1686623737.63,7.324,-252.93,31.25,2.93,3115.524,358.7005603724339
215,1686623737.63,22.949,-163.574,84.473,40.039,3115.528,364.5873424585316
216,1686623737.63,0.977,180.176,29.785,-14.16,3115.531,362.90716251689406
217,1686623737.64,-28.809,67.871,3.906,-62.5,3115.535,359.08427759864696
218,1686623737.64,-9.277,-244.629,23.926,-2.441,3115.539,366.38424238973124
219,1686623737.64,16.113,64.941,28.32,46.875,3115.543,371.5794253384204
220,1686623737.65,-16.602,96.68,-10.742,-21.973,3115.547,370.54424610166114
221,1686623737.65,-57.617,-345.703,11.719,-87.891,3115.551,356.420497323212
222,1686623737.66,-34.668,-747.07,-31.25,-31.25,3115.554,353.71465216469164
223,1686623737.66,12.207,-937.012,55.176,57.617,3115.558,357.92817931709453
224,1686623737.66,-7.324,-78.613,81.055,31.738,3115.562,361.9375554122333
225,1686623737.67,-54.688,101.074,-20.02,-56.641,3115.566,351.611649054928
226,1686623737.67,-42.48,-272.949,89.844,-44.922,3115.57,379.0814195785601
227,1686623737.68,6.836,184.57,72.754,48.34,3115.574,366.2987603679708
228,1686623737.68,-0.977,265.137,-30.762,45.41,3115.588,362.3758518952288
229,1686623737.68,-54.199,-293.457,-14.648,-57.129,3115.591,374.0055325066081
230,1686623737.69,-50.293,-562.012,156.738,-77.637,3115.595,369.3129665628684
231,1686623737.69,6.836,4.395,147.461,19.043,3115.599,357.64591219775457
232,1686623737.7,18.066,347.656,-0.488,61.523,3115.603,367.2770169233294
233,1686623737.7,-37.598,-154.297,-27.832,-19.043,3115.607,364.97856719425215
234,1686623737.7,-67.871,-890.137,45.41,-65.918,3115.611,360.72175352615415
235,1686623737.71,-10.254,-419.434,247.559,19.043,3115.615,370.3923038433275
236,1686623737.71,30.273,334.961,109.863,80.566,3115.619,358.445612538058
237,1686623737.71,-2.93,50.781,-20.996,18.066,3115.623,381.1933411660373
238,1686623737.72,-34.668,-189.941,52.734,-65.43,3115.627,364.94370741180825
239,1686623737.72,-9.766,96.191,54.199,-26.855,3115.63,357.17312225361354
240,1686623737.74,18.555,315.918,33.203,64.941,3115.634,360.31364313004747
241,1686623737.74,-17.578,57.129,-24.414,38.086,3115.638,365.6467758107618
242,1686623737.74,-79.102,-208.496,-11.23,-59.57,3115.641,358.57382480001525
243,1686623737.75,-68.848,-265.625,62.5,-47.852,3115.645,359.2282002742402
244,1686623737.75,0.977,34.18,67.871,47.852,3115.649,365.43062477759685
245,1686623737.76,6.836,-339.844,-25.391,59.082,3115.653,364.9767935552568
246,1686623737.76,-48.828,-1000.0,125.488,-23.926,3115.657,370.909281622434
247,1686623737.76,-58.594,-493.164,383.789,-64.453,3115.661,365.7218715291182
248,1686623737.77,-1.953,130.371,332.52,9.766,3115.665,366.43884493097374
249,1686623737.77,20.996,-344.727,158.691,73.73,3115.669,379.4432708865693
250,1686623737.78,-20.508,-320.801,230.469,12.695,3115.673,363.1634497797435
251,1686623737.78,-46.875,103.516,191.895,-56.152,3115.677,369.7182786171414
252,1686623737.78,-7.812,23.438,85.938,-7.324,3115.68,373.24608804769576
253,1686623737.79,27.832,32.227,147.461,62.988,3115.684,371.4396754936935
254,1686623737.79,2.93,177.734,115.234,18.066,3115.688,369.9733139115179
255,1686623737.8,-32.227,145.996,66.895,-63.477,3115.692,366.2746313446633
256,1686623737.8,-3.906,-62.988,67.383,-37.598,3115.696,363.3186887139175
257,1686623737.8,43.945,-226.562,111.328,62.988,3115.7,355.26815014397783
258,1686623737.81,36.133,-223.633,97.656,53.711,3115.704,361.0953384345865
259,1686623737.81,2.93,-136.719,103.516,-57.129,3115.708,369.5688470087377
260,1686623737.81,4.395,-215.332,48.34,-67.871,3115.712,378.3379902582695
261,1686623737.82,41.992,-853.027,68.848,33.203,3115.716,360.93777596192405
262,1686623737.82,45.898,-444.336,232.422,49.805,3115.719,360.0028899660463
263,1686623737.83,3.906,141.113,94.238,-39.062,3115.723,362.9097445194139
264,1686623737.83,-15.625,-170.898,47.363,-65.43,3115.723,361.4922463087177
265,1686623737.83,27.832,-41.504,191.895,12.207,3115.727,371.3924950602507
266,1686623737.84,60.059,329.59,98.633,60.547,3115.731,370.88840226577315
267,1686623737.84,27.832,219.238,22.949,3.418,3115.735,362.06238234436097
268,1686623737.84,-10.254,-276.367,18.066,-64.453,3115.739,367.8406700108687
269,1686623737.85,-1.953,-422.363,69.336,-17.09,3115.743,374.6765827594017
270,1686623737.85,22.949,-145.508,86.914,59.57,3115.747,374.3666433909353
271,1686623737.85,-7.812,-169.922,31.738,9.277,3115.751,363.5146627418495
272,1686623737.86,-52.246,-737.305,-55.176,-80.566,3115.754,371.04569334799373
273,1686623737.86,-30.762,-1000.0,73.73,-55.664,3115.758,353.6456005992872
274,1686623737.87,21.484,-115.234,278.32,34.668,3115.762,364.52962605189094
275,1686623737.87,9.766,342.773,106.445,24.902,3115.766,376.03433236831404
276,1686623737.87,-41.992,-166.016,70.312,-64.453,3115.783,362.8331597008264
277,1686623737.88,-42.48,-29.297,102.539,-72.266,3115.786,370.72463141945735
278,1686623737.88,9.277,320.312,49.316,16.113,3115.79,373.25476019522864
279,1686623737.88,21.973,271.973,34.18,33.203,3115.794,366.01318618466127
280,1686623737.89,-31.25,-20.02,38.086,-61.035,3115.798,368.51661478591
281,1686623737.89,-55.176,-353.516,45.898,-104.004,3115.802,369.2791654285609
282,1686623737.9,-11.23,-139.648,68.359,-26.367,3115.806,381.64120822131315
283,1686623737.9,16.113,37.109,-0.488,35.645,3115.81,370.2674755325415
284,1686623737.9,-23.438,-666.992,49.316,-35.645,3115.814,358.4052554712208
285,1686623737.91,-51.758,-293.457,121.094,-110.84,3115.818,376.163039600804
286,1686623737.91,-8.301,157.227,28.809,-43.457,3115.822,369.63653776445113
287,1686623737.92,32.227,-127.93,55.664,55.664,3115.826,370.934283078508
288,1686623737.92,-0.488,-137.207,113.281,9.766,3115.842,371.59086463081553
289,1686623737.92,-52.246,115.234,42.48,-95.703,3115.846,373.102278637169
290,1686623737.92,-36.621,115.723,28.809,-70.801,3115.85,361.1317317429591
291,1686623737.93,20.996,-45.898,22.949,38.574,3115.854,366.35396936131104
292,1686623737.93,19.043,39.551,9.766,40.527,3115.858,367.99222115204054
293,1686623737.94,-31.25,-177.246,34.18,-54.199,3115.862,371.67739604892273
294,1686623737.94,-32.227,-379.395,44.434,-72.266,3115.866,372.5615463520023
295,1686623737.94,0.977,-684.082,-29.785,23.438,3115.87,364.36617524869274
296,1686623737.95,3.906,-629.395,168.457,62.5,3115.874,361.2598361078815
297,1686623737.95,-31.738,154.785,164.062,-27.832,3115.878,370.8681760069378
298,1686623737.96,-49.316,108.398,-32.715,-82.031,3115.881,367.74168901270644
299,1686623737.96,-0.488,-600.098,30.762,-1.953,3115.885,369.8293549126757
300,1686623737.96,36.621,-130.859,146.973,61.035,3115.864,362.1140522514704
301,1686623737.97,-1.953,241.699,27.832,-9.766,3115.868,361.9853199555399
302,1686623737.97,-43.457,-347.168,-24.414,-97.656,3115.872,372.0363947445997
303,1686623737.98,-7.324,-525.879,170.41,-46.387,3115.876,368.46700983092006
304,1686623737.98,35.156,113.281,167.969,36.133,3115.88,374.7610675476622
305,1686623737.98,9.277,104.98,9.277,-2.93,3115.884,367.1036387249632
306,1686623737.99,-34.18,-447.266,9.277,-90.332,3115.888,369.0327368166754
307,1686623737.99,-25.391,-529.785,191.895,-87.891,3115.892,374.3735530216339
308,1686623738.0,16.602,133.789,213.867,6.348,3115.896,368.1178741818878
309,1686623738.0,9.766,458.984,3.418,12.695,3115.9,373.01379373542284
310,1686623738.0,-35.645,-65.43,0.488,-83.008,3115.904,373.5246653289356
311,1686623738.01,12.207,156.25,77.148,-12.695,3115.903,363.40938225503004
312,1686623738.01,-37.598,-305.664,87.402,-102.051,3115.907,364.0944857351045
313,1686623738.01,29.297,404.297,0.0,35.156,3115.907,373.4188297614451
314,1686623738.02,-19.531,-186.035,-25.391,-41.992,3115.911,376.8276053510562
315,1686623738.02,-46.875,-616.211,84.961,-103.516,3115.915,362.52565700147795
316,1686623738.02,-1.953,-272.461,85.449,-31.25,3115.919,389.92450570508333
317,1686623738.03,29.785,-65.43,30.273,45.898,3115.923,380.6296212591256
318,1686623738.03,-12.695,-470.703,-82.52,-14.648,3115.927,386.4465939680768
319,1686623738.03,-60.547,-1000.0,11.23,-102.539,3115.93,374.31974479128394
320,1686623738.04,-27.344,-339.355,260.742,-65.43,3115.934,383.6329765227611
321,1686623738.04,15.625,336.914,111.328,26.367,3115.938,383.7917709748273
322,1686623738.05,-6.836,-144.531,19.043,-2.441,3115.942,375.5991687091653
323,1686623738.05,-46.387,-52.734,69.824,-95.703,3115.946,373.86489262802894
324,1686623738.07,-28.809,246.582,40.039,-81.543,3115.963,380.5922297872743
325,1686623738.07,18.066,149.902,59.082,18.555,3115.967,382.5624515063246
326,1686623738.08,20.508,61.035,67.383,32.715,3115.971,387.97576575456645
327,1686623738.08,-19.531,115.723,29.785,-55.664,3115.975,372.6328391247913
328,1686623738.08,-27.344,140.137,25.879,-87.402,3115.979,373.2721541714924
329,1686623738.09,20.508,-160.645,21.484,2.93,3115.983,379.14999580348274
330,1686623738.09,48.34,-812.988,41.016,73.242,3115.986,374.1929194633824
331,1686623738.09,4.395,-424.805,89.355,-13.672,3115.99,371.6980892618179
332,1686623738.1,-48.34,128.906,20.508,-112.793,3115.994,368.0509194148157
333,1686623738.1,-19.043,-105.469,22.461,-47.852,3115.998,377.74015463267597
334,1686623738.11,36.133,-159.668,99.609,45.41,3116.002,380.94762394440835
335,1686623738.11,25.391,193.359,49.316,10.254,3116.006,382.9264183469212
336,1686623738.13,-31.25,93.75,-6.348,-84.961,3116.034,370.97892144512593
337,1686623738.13,-25.391,-207.52,34.668,-60.547,3116.038,381.38064308456745
338,1686623738.14,26.855,66.895,78.125,37.109,3116.042,382.35627939383596
339,1686623738.14,22.461,326.66,20.508,31.25,3116.046,378.6383354709305
340,1686623738.14,-20.996,47.852,-27.832,-66.406,3116.05,371.4274607892888
341,1686623738.15,-19.531,-586.914,-13.672,-71.289,3116.054,372.34483042333807
342,1686623738.15,31.25,-628.418,133.301,35.645,3116.058,374.44828458482147
343,1686623738.15,40.039,-49.316,124.512,59.082,3116.061,382.38270010810845
344,1686623738.16,-3.906,80.078,-11.719,-34.668,3116.065,370.0097982286828
345,1686623738.16,-6.836,219.727,-8.301,-16.602,3116.055,380.16614409477626
346,1686623738.16,-28.32,-752.441,-61.035,-78.125,3116.069,378.02410874052373
347,1686623738.16,-47.852,-317.383,76.66,-87.891,3116.059,382.6731748019365
348,1686623738.17,9.277,-713.867,226.562,12.695,3116.073,383.167947030193
349,1686623738.17,-14.648,-44.434,92.773,-48.34,3116.063,369.4101439986621
350,1686623738.17,37.109,293.945,229.98,59.082,3116.077,383.424531911289
351,1686623738.17,26.855,345.703,47.852,33.203,3116.067,380.8214119651385
352,1686623738.17,-9.766,122.07,0.488,1.953,3116.071,370.118572343046
353,1686623738.18,-57.617,-451.172,18.066,-94.238,3116.075,371.20042071658594
354,1686623738.18,-36.133,-449.219,103.516,-95.215,3116.079,365.78378202034617
355,1686623738.18,13.672,178.711,71.777,10.254,3116.083,379.0178358119414
356,1686623738.19,11.719,113.77,-16.113,22.461,3116.087,375.3648787694864
357,1686623738.19,-36.621,-289.062,35.645,-73.242,3116.09,372.17057648606095
358,1686623738.2,-44.922,-97.168,45.898,-88.379,3116.094,379.1912983613335
359,1686623738.2,6.348,62.012,20.996,9.277,3116.098,378.147115940093
360,1686623738.2,14.648,-263.184,9.277,42.969,3116.098,377.21023670482964
361,1686623738.21,-32.715,-887.207,30.273,-39.062,3116.102,379.0963992176251
362,1686623738.21,-50.293,-430.664,102.539,-86.914,3116.106,372.741167478563
363,1686623738.21,-10.254,99.609,60.059,-3.418,3116.11,378.4169515360868
364,1686623738.22,16.113,-165.527,-1.465,63.477,3116.114,371.69439749088605
365,1686623738.22,-17.09,-316.895,-6.348,-6.836,3116.118,372.0831720530147
366,1686623738.22,-41.992,-395.508,52.734,-87.402,3116.122,363.3342757183239
367,1686623738.23,-8.789,-293.945,69.336,-39.551,3116.126,369.6474223500792
368,1686623738.23,19.043,-567.383,-46.387,52.246,3116.129,381.66811977589805
369,1686623738.24,-2.93,-921.875,54.199,23.438,3116.133,378.0665630198608
370,1686623738.24,-39.062,-352.539,72.266,-83.008,3116.137,378.17075987867577
371,1686623738.24,-25.879,-105.957,14.648,-84.961,3116.141,384.7686779339638
372,1686623738.25,20.02,-117.676,109.863,10.742,3116.146,378.1878347274359
373,1686623738.25,14.16,157.227,46.875,16.113,3116.15,364.67621890842247
374,1686623738.26,-43.945,-68.359,7.812,-80.078,3116.154,372.91085953418735
375,1686623738.26,-50.293,-420.41,25.391,-98.145,3116.158,381.46500781371196
376,1686623738.26,2.93,-458.984,151.367,-4.883,3116.162,377.9822316927462
377,1686623738.27,27.344,-218.262,118.652,38.086,3116.166,387.1502018976632
378,1686623738.27,-17.09,-69.824,38.574,-46.875,3116.17,361.87795368293195
379,1686623738.28,-44.922,-252.93,-31.25,-110.352,3116.174,385.2528682365173
380,1686623738.28,-5.859,-741.211,103.516,-28.809,3116.178,382.4974124867273
381,1686623738.28,33.691,-32.715,242.676,55.176,3116.182,378.1125690810393
382,1686623738.29,4.883,383.789,7.324,5.371,3116.186,374.78249527883065
383,1686623738.29,-49.316,-188.477,11.23,-74.707,3116.189,373.6630334292631
384,1686623738.29,-29.785,-139.16,103.027,-44.922,3116.188,377.82278916618003
385,1686623738.3,31.738,344.238,61.035,46.387,3116.192,370.4364584584332
386,1686623738.3,13.184,330.566,10.742,23.926,3116.196,384.49612399506225
387,1686623738.3,-45.41,-176.27,-26.855,-91.309,3116.2,377.1513312494852
388,1686623738.31,-31.25,-321.289,-2.441,-89.355,3116.204,382.99560791958686
389,1686623738.31,17.578,-146.973,40.039,25.391,3116.208,369.30170907219826
390,1686623738.32,11.719,-155.762,44.434,39.062,3116.212,381.6291058587573
391,1686623738.32,-36.133,-669.434,-82.52,-56.641,3116.216,365.6831153703999
392,1686623738.32,-51.758,-1000.0,14.16,-85.938,3116.22,385.59931841759897
393,1686623738.33,-6.836,-292.48,281.738,-1.953,3116.224,367.45896512088746
394,1686623738.33,17.09,282.715,125.977,46.387,3116.227,370.3550073725391
395,1686623738.34,-25.879,-54.199,48.34,-37.109,3116.231,376.46163188169675
396,1686623738.34,-47.852,-37.109,65.43,-109.863,3116.247,376.928532412695
397,1686623738.34,-8.789,208.008,32.715,-42.969,3116.251,372.2825911891016
398,1686623738.35,22.949,154.297,35.156,38.574,3116.254,376.9518080707342
399,1686623738.35,-14.16,-11.23,63.965,-4.395,3116.258,386.4445712910923
400,1686623738.35,-57.617,-11.719,37.109,-87.891,3116.262,384.54324533150174
401,1686623738.36,-29.785,-145.02,41.504,-52.734,3116.266,388.7254494137451
402,1686623738.36,24.414,-291.016,27.832,50.293,3116.27,388.55583094821344
403,1686623738.36,4.395,-783.691,13.672,31.25,3116.274,384.22239910229496
404,1686623738.37,-53.711,-434.57,135.254,-81.543,3116.278,382.6125269636392
405,1686623738.37,-48.34,105.957,71.289,-95.215,3116.282,381.3429788349359
406,1686623738.38,1.953,9.277,35.156,0.977,3116.286,362.47896943887116
407,1686623738.38,7.324,9.766,44.434,32.715,3116.29,388.9238341330358
408,1686623738.4,-30.762,124.512,26.855,-57.617,3116.293,378.73800038967465
409,1686623738.4,-50.781,35.645,22.461,-103.516,3116.297,373.917403238636
410,1686623738.4,-11.719,-152.832,24.902,-14.648,3116.301,382.6078213790596
411,1686623738.41,23.438,93.75,52.246,44.922,3116.305,383.16607835641275
412,1686623738.41,-20.508,26.367,14.648,-41.992,3116.309,371.67689504341
413,1686623738.42,-53.223,-344.727,-3.906,-111.328,3116.313,375.8465833575373
414,1686623738.42,-19.531,-745.605,-48.828,-40.527,3116.317,384.9116367306524
415,1686623738.42,19.531,-805.664,113.77,35.156,3116.32,369.8405454641324
416,1686623738.43,5.859,42.969,134.766,-12.695,3116.324,367.7121149937135
417,1686623738.43,-41.016,61.035,-37.598,-100.586,3116.328,374.2572989604738
418,1686623738.44,-27.344,-696.777,9.277,-74.219,3116.332,361.3672018390831
419,1686623738.44,15.625,-224.121,111.816,20.02,3116.336,378.62264580642267
420,1686623738.44,3.418,397.949,37.598,10.254,3116.339,378.8616301250521
421,1686623738.45,-48.828,-36.621,-27.832,-96.191,3116.343,378.69513906015595
422,1686623738.45,-55.176,-477.051,142.09,-104.492,3116.347,375.4933650248478
423,1686623738.45,3.906,6.348,132.812,4.395,3116.351,359.08002864799175
424,1686623738.46,9.277,159.18,-31.738,24.414,3116.355,364.57070845996236
425,1686623738.46,-35.645,-395.508,-3.418,-68.359,3116.359,373.28050022361435
426,1686623738.46,-46.387,-557.129,98.633,-108.398,3116.363,372.70086856923734
427,1686623738.47,2.93,-116.699,97.168,-27.832,3116.366,373.6433186499558
428,1686623738.47,30.762,291.016,39.062,35.645,3116.37,364.9571352659466
429,1686623738.47,16.113,105.469,25.879,44.922,3116.396,361.6521988931083
430,1686623738.48,-18.066,-81.055,-48.34,-25.879,3116.374,361.8332207950588
431,1686623738.48,4.883,-340.332,-8.789,10.742,3116.4,358.6275149979975
432,1686623738.48,-35.156,-498.047,70.801,-89.844,3116.404,367.4966237894687
433,1686623738.48,-51.758,-784.668,98.633,-95.703,3116.378,369.7700114294147
434,1686623738.48,-19.531,-72.754,75.684,-77.637,3116.408,364.62663486977806
435,1686623738.48,-20.996,-279.297,212.891,-41.504,3116.382,367.097500484558
436,1686623738.49,27.832,107.422,16.113,35.645,3116.412,357.29096599351334
437,1686623738.49,16.602,-410.156,-24.902,47.852,3116.416,367.4720989140304
438,1686623738.5,-34.18,-725.098,20.02,-60.059,3116.42,359.49569950697787
439,1686623738.5,-32.715,-479.98,70.801,-78.125,3116.424,361.2572803424552
440,1686623738.5,6.836,-24.902,41.016,13.184,3116.427,365.6186999422318
441,1686623738.51,9.277,-506.836,-43.945,47.363,3116.431,366.2676941471125
442,1686623738.51,-21.484,-727.539,110.352,-35.156,3116.435,358.9923443397391
443,1686623738.52,-36.133,-35.645,78.125,-91.797,3116.439,359.34504852242185
444,1686623738.53,3.418,-2.93,7.812,-7.812,3116.43,369.48972058825075
445,1686623738.54,25.879,-83.984,91.309,56.152,3116.434,365.0054955104904
446,1686623738.54,-15.625,43.457,33.691,-5.859,3116.438,350.863783190321
447,1686623738.54,-53.223,-260.742,20.02,-83.496,3116.442,362.389709972019
448,1686623738.55,-29.785,-475.098,27.832,-47.852,3116.446,359.40514293459705
449,1686623738.55,10.742,-830.566,47.363,56.152,3116.45,368.06577326383973
450,1686623738.56,-3.418,-621.582,154.297,34.668,3116.454,351.72065829205167
451,1686623738.56,-48.34,-26.367,63.477,-75.195,3116.458,349.91801020105095
452,1686623738.56,-44.434,-269.531,-31.738,-66.406,3116.462,355.54220321102486
453,1686623738.57,7.812,-521.973,182.129,41.016,3116.466,349.004144518989
454,1686623738.57,5.371,120.605,193.848,45.898,3116.47,357.4130581017382
455,1686623738.58,-51.758,222.656,-25.391,-61.035,3116.473,362.73468385405033
456,1686623738.58,-51.27,-320.801,38.086,-96.68,3116.473,371.1591493796683
457,1686623738.58,5.859,-193.848,179.688,2.93,3116.477,353.73675970750014
458,1686623738.58,20.508,268.555,79.102,57.129,3116.481,362.68159670609504
459,1686623738.59,-22.461,159.668,-8.301,-32.227,3116.485,355.44372647081235
460,1686623738.59,-51.27,-385.742,1.465,-101.562,3116.488,355.9648496229046
461,1686623738.6,-16.113,-516.113,59.082,-28.809,3116.492,361.4153209400412
462,1686623738.6,19.043,-236.816,51.758,58.105,3116.496,354.6338236194188
463,1686623738.6,-7.324,-247.559,6.836,0.0,3116.5,357.6997056681887
464,1686623738.61,-44.922,-769.043,-80.566,-87.402,3116.504,351.40401270011665
465,1686623738.61,-20.508,-1000.0,29.297,-40.527,3116.508,355.043152473684
466,1686623738.62,22.461,-212.891,257.812,42.48,3116.512,345.1732138788644
467,1686623738.62,1.953,201.172,83.008,9.277,3116.516,357.6667330926982
468,1686623738.62,-39.551,-222.168,62.5,-83.008,3116.521,366.4843359442191
469,1686623738.63,-27.832,-76.172,105.957,-84.473,3116.524,346.5597156739286
470,1686623738.63,13.672,224.121,33.691,16.602,3116.528,349.5984507793318
471,1686623738.64,16.602,144.043,13.184,43.457,3116.532,356.72150680656785
472,1686623738.64,-35.645,-134.766,16.113,-46.875,3116.536,357.54707467066817
473,1686623738.64,-54.688,-408.203,38.574,-87.891,3116.54,359.9141704354312
474,1686623738.65,-1.465,-140.625,88.379,-3.418,3116.544,359.5230586482346
475,1686623738.65,24.902,-12.207,-10.742,50.781,3116.548,375.2360327514979
476,1686623738.65,-13.672,-803.711,-4.395,-11.23,3116.552,382.4156545168909
477,1686623738.66,-51.27,-430.664,105.469,-91.309,3116.556,371.0982634945701
478,1686623738.66,-19.531,15.137,26.367,-36.621,3116.56,359.8671514140511
479,1686623738.67,21.973,-169.922,32.227,61.035,3116.564,359.4571707402417
480,1686623738.68,-2.93,-90.82,56.152,16.113,3116.578,370.5019742666081
481,1686623738.68,-45.898,43.945,25.391,-83.984,3116.582,363.97180734390906
482,1686623738.69,-28.809,41.504,25.391,-54.199,3116.586,376.78919709262084
483,1686623738.69,15.137,-58.105,18.555,53.223,3116.59,367.7285972320198
484,1686623738.7,11.23,-18.066,5.371,42.969,3116.594,359.6694581189604
485,1686623738.7,-42.969,-344.238,11.23,-76.172,3116.598,366.5109130937882
486,1686623738.7,-49.316,-488.281,39.062,-92.285,3116.602,362.8495805205995
487,1686623738.71,8.301,-714.844,-42.48,15.137,3116.605,376.65755562109825
488,1686623738.71,21.484,-964.355,41.016,39.551,3116.609,379.82021559284874
489,1686623738.71,25.391,39.551,177.246,37.598,3116.622,368.588679983188
490,1686623738.72,-21.484,-189.941,95.703,-60.547,3116.613,375.6045095609877
491,1686623738.72,-13.184,299.316,14.648,-21.973,3116.626,368.2921113377508
492,1686623738.72,-47.363,-71.289,-1.953,-105.957,3116.617,379.94395489433214
493,1686623738.72,-43.945,-117.676,5.371,-104.004,3116.63,379.7906575298937
494,1686623738.72,-10.254,-464.355,141.602,-22.461,3116.621,373.4949942357395
495,1686623738.72,-14.16,-372.07,163.574,-44.434,3116.634,377.5289352656506
496,1686623738.73,14.648,91.309,137.207,44.922,3116.638,387.66769853711276
497,1686623738.73,-7.324,12.695,-10.742,-1.465,3116.642,380.9001701573121
498,1686623738.74,-44.922,-519.043,17.09,-85.449,3116.645,377.2149106713454
499,1686623738.74,-24.414,-504.395,109.375,-57.617,3116.649,370.55171661198216
500,1686623738.74,30.762,26.367,92.773,42.969,3116.653,376.8419048652411
501,1686623738.75,25.879,315.918,47.363,43.457,3116.657,376.97464542962985
502,1686623738.75,-32.715,-211.914,-31.738,-50.781,3116.661,369.76169654188254
503,1686623738.76,-39.551,-764.648,163.086,-72.754,3116.665,375.00535865179023
504,1686623738.77,13.672,-126.465,283.203,4.883,3116.669,372.5225866471318
505,1686623738.78,23.438,123.535,7.324,41.504,3116.673,371.9123388671957
506,1686623738.78,-21.484,-460.449,1.953,-34.18,3116.677,353.77068792708604
507,1686623738.78,-40.039,-492.676,160.645,-93.262,3116.68,365.3211217945622
508,1686623738.79,-0.977,-92.773,81.055,-16.602,3116.684,368.95593871343317
509,1686623738.79,29.785,-198.242,4.395,52.734,3116.688,368.69962441138205
510,1686623738.8,-8.789,-690.918,-72.266,-5.859,3116.692,358.7387337563409
511,1686623738.8,-54.688,-902.344,121.582,-93.262,3116.696,358.8387115314672
512,1686623738.8,-19.043,-146.484,253.418,-42.969,3116.7,352.74464135462523
513,1686623738.81,34.18,199.707,36.133,61.523,3116.704,358.04350022038017
514,1686623738.81,8.789,-291.016,37.109,5.859,3116.708,347.3408821229684
515,1686623738.82,-46.875,-228.027,55.176,-97.656,3116.712,344.1099100094399
516,1686623738.82,-38.086,77.148,35.645,-77.148,3116.714,354.9854394689069
517,1686623738.82,7.324,49.805,36.621,24.414,3116.718,341.85937672219484
518,1686623738.82,2.93,-99.121,82.52,30.273,3116.722,341.9261762599201
519,1686623738.83,-47.852,-120.605,49.805,-68.848,3116.726,354.313847574923
520,1686623738.83,-54.199,-310.059,14.648,-86.914,3116.73,351.65365198328277
521,1686623738.84,-6.836,-547.852,33.691,0.977,3116.734,355.9733535610789
522,1686623738.84,8.789,-583.984,154.297,49.805,3116.738,346.5358616398911
523,1686623738.84,-26.855,-161.621,115.723,-29.785,3116.742,337.87189748292894
524,1686623738.85,-52.734,-4.883,26.855,-97.656,3116.745,350.7934558775099
525,1686623738.85,-15.625,-304.199,24.414,-25.391,3116.749,341.1719597905442
526,1686623738.86,22.949,-826.66,33.203,62.5,3116.753,341.2188136230342
527,1686623738.86,2.441,-315.918,96.68,2.441,3116.757,336.6818486172471
528,1686623738.86,-46.387,-7.812,22.461,-99.609,3116.758,345.64032741477774
529,1686623738.86,-27.832,-375.0,23.438,-61.523,3116.762,345.2726779846342
530,1686623738.87,19.043,-93.262,87.402,33.203,3116.766,354.024465719949
531,1686623738.87,6.348,210.938,47.852,5.859,3116.77,349.4087379893793
532,1686623738.88,-39.062,-150.391,-39.551,-91.309,3116.774,348.9488334309316
533,1686623738.88,-39.551,-729.004,-1.953,-80.566,3116.778,342.4594148182052
534,1686623738.88,10.254,-577.637,162.109,15.625,3116.782,347.76029929816445
535,1686623738.89,19.043,-257.324,76.66,25.391,3116.785,343.1264309511258
536,1686623738.89,-23.438,-370.117,3.906,-62.5,3116.789,359.87229105974853
537,1686623738.9,-32.227,-857.91,-56.152,-87.891,3116.793,345.4604390881957
538,1686623738.9,3.906,-949.219,136.719,-3.906,3116.797,339.18754482865575
539,1686623738.9,23.926,-26.367,238.77,43.457,3116.801,359.4377642414957
540,1686623738.92,-10.742,117.676,-2.93,-34.668,3116.82,341.6713942018839
541,1686623738.93,-48.828,-344.727,64.941,-118.164,3116.824,354.5072325019093
542,1686623738.93,-14.16,-63.477,98.145,-48.34,3116.828,348.2708357389213
543,1686623738.94,28.809,250.977,20.996,36.133,3116.832,352.1929961251795
544,1686623738.94,3.906,16.602,-14.648,-11.23,3116.836,363.69288136419453
545,1686623738.94,-35.156,-518.555,9.766,-90.332,3116.84,352.91421708655787
546,1686623738.95,-16.602,-448.242,86.914,-65.918,3116.844,364.3157232955392
547,1686623738.95,27.344,152.344,66.406,25.391,3116.848,359.0867328721077
548,1686623738.95,22.949,-72.754,-7.324,54.199,3116.848,364.7572135135788
549,1686623738.95,18.066,-25.391,-43.457,23.926,3116.851,357.6159329020264
550,1686623738.96,-12.695,-343.75,41.016,-41.504,3116.852,357.7049718365359
551,1686623738.96,-35.645,-851.562,26.367,-64.453,3116.855,358.33803093437615
552,1686623738.96,-27.344,-141.602,62.988,-86.914,3116.856,356.97281935682645
553,1686623738.96,-33.691,-459.473,177.246,-68.848,3116.859,354.17415499702184
554,1686623738.96,8.301,67.871,61.523,-3.906,3116.86,356.6118055239555
555,1686623738.97,18.066,169.434,68.359,37.598,3116.863,354.4144458336025
556,1686623738.97,24.902,-197.266,-0.977,64.453,3116.864,364.1448075920835
557,1686623738.97,-17.09,-506.348,-9.766,-9.766,3116.868,352.4663135945665
558,1686623738.98,-46.875,-562.988,62.012,-80.078,3116.872,353.6846767210105
559,1686623738.98,-12.207,-461.914,47.852,-24.902,3116.875,353.78515851066766
560,1686623738.98,15.137,-576.172,-10.742,53.711,3116.879,355.15140247566416
561,1686623738.99,3.418,-352.539,95.703,20.508,3116.883,356.10487897801687
562,1686623738.99,-24.414,1.465,55.176,-76.172,3116.887,356.17808463671525
563,1686623739.0,-17.09,-139.16,19.043,-57.617,3116.891,360.13830343933506
564,1686623739.0,23.926,-803.223,-3.906,54.199,3116.895,346.5250291097656
565,1686623739.0,19.531,-996.582,60.547,54.688,3116.899,358.4712391549038
566,1686623739.01,-21.484,-215.332,81.543,-52.246,3116.903,363.76342500874694
567,1686623739.01,-22.461,-133.789,4.395,-71.777,3116.907,354.3951784810878
568,1686623739.01,13.672,-322.266,93.262,12.695,3116.911,353.1142375493774
569,1686623739.02,27.832,-191.895,57.129,48.34,3116.915,354.88606779726274
570,1686623739.02,-4.395,-131.348,37.109,-35.645,3116.919,351.8032205749973
571,1686623739.02,-25.879,-290.527,-4.883,-92.285,3116.923,363.07947987697895
572,1686623739.03,18.555,-794.434,49.805,-4.395,3116.927,359.3113682389404
573,1686623739.03,51.27,-150.879,145.02,66.406,3116.931,361.5022549130022
574,1686623739.04,8.301,266.602,9.277,2.93,3116.934,350.03244224797476
575,1686623739.04,-29.297,-216.309,0.0,-70.801,3116.938,352.9027909694287
576,1686623739.04,-1.953,-187.5,83.984,-22.949,3116.942,361.40490742966796
577,1686623739.05,30.273,163.086,45.41,65.43,3116.946,358.4691840849888
578,1686623739.05,10.742,-23.926,-21.484,32.227,3116.95,362.1220405904898
579,1686623739.05,-38.574,-491.699,2.441,-78.125,3116.954,365.75856666714503
580,1686623739.06,-27.344,-510.254,131.348,-74.219,3116.958,355.809383413445
581,1686623739.06,20.996,-266.113,74.707,31.738,3116.961,359.38400508704416
582,1686623739.06,13.184,-281.25,15.137,40.527,3116.965,355.5424513105561
583,1686623739.07,-30.762,-751.953,-76.172,-56.152,3116.969,354.29682073019563
584,1686623739.07,-39.551,-1000.0,56.152,-79.59,3116.973,361.4773111705606
585,1686623739.08,-2.441,-178.223,191.895,5.371,3116.977,355.6451021014944
586,1686623739.08,20.996,110.352,-1.465,49.805,3116.981,343.8066052766387
587,1686623739.08,-11.719,-311.035,37.598,-21.484,3116.985,357.7182435554616
588,1686623739.09,-41.016,-142.09,67.383,-102.539,3116.997,347.838203143768
589,1686623739.09,-14.648,159.18,27.832,-41.992,3117.001,348.9632431287807
590,1686623739.1,27.832,137.695,23.438,51.27,3117.005,344.27177629256454
591,1686623739.1,15.137,-105.469,45.41,14.648,3117.009,353.3845128088255
592,1686623739.1,-31.25,-205.078,25.391,-68.359,3117.012,356.681100901979
593,1686623739.11,-17.578,-323.242,16.113,-38.574,3117.016,346.3957846977087
594,1686623739.11,25.879,-406.25,8.301,59.082,3117.02,357.28355218126296
595,1686623739.12,13.184,-828.613,33.203,41.016,3117.024,349.90435286041475
596,1686623739.12,-30.273,-570.801,150.879,-70.312,3117.028,367.2452354080307
597,1686623739.12,-26.367,-115.723,66.406,-83.008,3117.032,364.43624899565384
598,1686623739.13,26.855,-140.625,24.902,13.672,3117.036,348.82069813394
599,1686623739.13,30.762,-19.043,49.316,33.203,3117.04,347.5711518901663
600,1686623739.13,-35.645,51.758,10.742,-61.523,3117.028,351.1355082501047
601,1686623739.14,-46.387,-113.281,12.695,-90.82,3117.032,352.677573107927
602,1686623739.14,13.672,-313.477,25.879,0.977,3117.036,362.99480117259435
603,1686623739.14,39.551,-31.738,48.34,48.34,3117.04,355.0777995203084
604,1686623739.15,-3.906,6.836,17.09,-31.738,3117.044,344.04802582626155
605,1686623739.15,-31.25,-490.723,20.508,-99.121,3117.048,365.5278295688029
606,1686623739.16,0.0,-843.75,-52.246,-35.156,3117.052,359.04760185398806
607,1686623739.16,23.926,-988.281,57.617,45.898,3117.056,359.6068492316907
608,1686623739.16,0.0,-406.25,162.109,-4.395,3117.06,359.42124986226133
609,1686623739.17,-39.062,-92.285,8.301,-92.285,3117.063,363.637469436055
610,1686623739.17,-20.02,-702.148,19.043,-49.316,3117.067,358.9414178774574
611,1686623739.18,28.32,-357.91,197.754,41.504,3117.071,365.6173473751537
612,1686623739.19,12.695,223.633,79.59,25.879,3117.089,373.69790102348736
613,1686623739.2,-42.969,-104.492,-28.32,-75.195,3117.093,375.59059881854614
614,1686623739.2,-34.18,-402.344,93.75,-81.055,3117.097,369.45298664123715
615,1686623739.2,13.672,-2.441,80.078,24.414,3117.101,373.38909742553733
616,1686623739.21,13.184,204.102,18.555,33.203,3117.105,369.9985574501532
617,1686623739.21,-28.809,-348.633,-5.859,-53.711,3117.109,375.65164202718404
618,1686623739.22,-40.527,-902.344,66.895,-85.449,3117.113,368.30578257272583
619,1686623739.22,13.672,-333.984,187.5,-23.926,3117.117,373.8358634587938
620,1686623739.22,59.57,194.824,32.227,53.711,3117.192,374.88967334146355
621,1686623739.22,49.805,237.793,62.988,38.086,3117.121,372.6616236756198
622,1686623739.23,27.832,-216.309,-4.395,9.766,3117.196,365.79480766124647
623,1686623739.23,10.742,-133.789,-14.648,-20.02,3117.125,380.21045549367443
624,1686623739.23,-19.531,-606.445,51.27,-86.914,3117.2,379.0267940412461
625,1686623739.23,-19.531,-582.031,29.785,-93.75,3117.128,372.23397165993765
626,1686623739.23,-4.883,-162.109,55.176,-56.641,3117.204,374.8769590660098
627,1686623739.24,19.043,-227.539,74.219,-37.109,3117.132,384.6372704682594
628,1686623739.24,38.086,86.426,12.207,46.387,3117.208,378.6181117566292
629,1686623739.24,24.414,-459.473,-38.086,41.016,3117.212,384.2266621490303
630,1686623739.24,-26.855,-786.133,18.555,-59.082,3117.216,382.5583209301827
631,1686623739.25,-25.879,-519.043,100.098,-74.219,3117.22,381.78793431311647
632,1686623739.25,18.066,-60.059,55.664,9.766,3117.224,396.4623671910146
633,1686623739.26,20.508,-543.945,-65.918,47.852,3117.227,384.6183022081609
634,1686623739.26,-32.715,-786.621,89.844,-36.133,3117.231,379.5938812454738
635,1686623739.26,-47.852,-173.828,75.195,-89.355,3117.235,391.0647275555926
636,1686623739.3,-9.277,-182.129,-2.441,-8.789,3117.201,418.53383042902516
637,1686623739.3,14.16,-356.445,155.762,52.734,3117.205,418.9394757260607
638,1686623739.31,-14.16,-95.215,102.051,-3.906,3117.209,425.22458313762036
639,1686623739.31,-35.645,-24.902,-1.953,-72.754,3117.213,413.538614457998
640,1686623739.32,1.953,-315.43,-3.906,-23.926,3117.217,434.01072632150215
641,1686623739.32,40.527,-658.691,148.438,62.012,3117.221,431.055359494069
642,1686623739.32,21.484,-414.062,151.367,24.414,3117.224,439.1999996458466
643,1686623739.33,-27.344,-116.699,8.789,-71.289,3117.228,429.96997026376266
644,1686623739.33,-19.043,-329.59,25.879,-50.781,3117.232,436.65143132545023
645,1686623739.34,34.668,-380.371,78.125,60.059,3117.236,447.2499952125553
646,1686623739.34,34.18,18.555,62.012,64.453,3117.24,450.3241256484905
647,1686623739.34,-19.531,-402.344,48.828,-78.613,3117.238,443.62133948848947
648,1686623739.34,-17.578,28.32,-1.953,-50.293,3117.244,451.00114851181166
649,1686623739.35,35.645,-341.797,174.805,19.531,3117.242,447.3781306425501
650,1686623739.35,47.363,88.379,67.383,59.082,3117.246,456.02051167896843
651,1686623739.35,-3.906,-214.355,-20.02,-20.02,3117.25,460.6363947274615
652,1686623739.36,-28.809,-718.75,16.113,-68.848,3117.254,467.80051844888754
653,1686623739.36,9.766,-697.754,129.883,7.324,3117.258,468.8170802216104
654,1686623739.36,42.969,-324.707,88.379,76.172,3117.262,465.2898783389429
655,1686623739.37,12.695,-367.188,8.301,17.578,3117.266,463.02575871183336
656,1686623739.37,-31.25,-725.098,-28.32,-60.059,3117.27,466.51927761486957
657,1686623739.37,-26.855,-753.906,-67.871,-45.41,3117.271,462.93577261736374
658,1686623739.38,-0.977,-362.305,32.227,-19.531,3117.274,467.0187147997751
659,1686623739.38,-11.719,-1000.0,50.293,-37.598,3117.275,482.22541647641845
660,1686623739.38,41.992,-270.996,261.719,59.57,3117.279,466.41597817770815
661,1686623739.38,59.082,203.613,45.898,81.055,3117.278,475.19427180301903
662,1686623739.38,43.945,154.785,82.031,65.43,3117.283,456.5995064262202
663,1686623739.38,29.297,96.68,5.859,56.152,3117.281,467.3956501592196
664,1686623739.39,-11.719,-214.844,7.812,-37.598,3117.287,482.5473886898766
665,1686623739.39,-22.461,-448.242,54.688,-66.895,3117.291,473.93431288614215
666,1686623739.4,23.926,-312.5,36.133,20.02,3117.294,479.201032846788
667,1686623739.4,39.062,-235.84,37.598,69.336,3117.298,484.60394315494494
668,1686623739.4,-3.418,-307.617,61.523,-10.742,3117.302,484.73788680546124
669,1686623739.41,-35.156,-166.504,45.41,-92.285,3117.306,486.2690851431351
670,1686623739.41,3.418,9.277,55.664,-21.484,3117.31,485.35243682272096
671,1686623739.42,49.316,-163.086,-7.812,76.66,3117.314,494.70383841059237
672,1686623739.42,13.672,-851.074,10.742,29.785,3117.313,493.14908080113446
673,1686623739.42,-34.18,-431.152,140.625,-61.523,3117.317,490.6913242525891
674,1686623739.42,-15.137,6.836,64.453,-26.855,3117.321,480.0452208752733
675,1686623739.43,33.203,-181.152,17.578,70.801,3117.325,486.68784736197046
676,1686623739.43,22.461,-70.801,18.555,50.781,3117.329,489.12618786388697
677,1686623739.44,-26.367,-360.84,27.344,-50.781,3117.333,494.262531107497
678,1686623739.44,-13.672,-510.742,59.57,-58.594,3117.336,493.4165648223124
679,1686623739.44,46.875,-687.012,-35.156,52.734,3117.34,488.79039855631714
680,1686623739.45,61.523,-995.117,32.715,95.703,3117.344,486.6802592313081
681,1686623739.45,2.441,-279.297,107.91,-13.672,3117.348,495.00668970016676
682,1686623739.46,-35.156,-22.461,2.441,-85.938,3117.352,485.4068210494863
683,1686623739.46,-1.465,-548.828,31.25,-8.789,3117.356,489.0522071449555
684,1686623739.46,25.391,-102.051,75.195,52.734,3117.361,482.98473687628314
685,1686623739.47,-6.348,270.996,13.184,-6.836,3117.365,486.5162404320298
686,1686623739.47,-47.363,-98.145,8.789,-92.773,3117.368,476.51784353756324
687,1686623739.48,-17.578,-263.184,100.098,-38.574,3117.372,479.77195614440166
688,1686623739.48,20.508,102.051,69.824,45.898,3117.376,474.28410723015077
689,1686623739.48,-13.672,-86.914,1.953,-9.766,3117.38,480.4303147976776
690,1686623739.49,-56.152,-587.891,-10.254,-89.355,3117.384,471.8500772062612
691,1686623739.49,-24.414,-856.445,95.703,-44.922,3117.388,479.92551318002813
692,1686623739.49,39.062,-184.57,208.984,62.012,3117.392,473.7671421655467
693,1686623739.5,30.762,299.316,35.156,49.805,3117.396,471.1324852295626
694,1686623739.5,-24.902,-286.133,-29.785,-56.641,3117.4,464.4577719724015
695,1686623739.51,-26.367,-610.352,52.246,-69.824,3117.404,463.2608225925905
696,1686623739.51,24.902,-69.336,98.633,25.879,3117.411,453.06388294300416
697,1686623739.52,34.18,275.879,18.555,53.711,3117.415,456.03695014688003
698,1686623739.52,-15.625,-277.344,-14.648,-38.574,3117.419,457.26049707843123
699,1686623739.52,-33.203,-567.383,133.789,-79.59,3117.423,466.9546127762989
700,1686623739.53,8.301,-140.137,71.777,18.066,3117.427,436.61436973754803
701,1686623739.53,32.227,-116.699,10.254,85.938,3117.431,443.4029512955048
702,1686623739.54,1.953,-616.211,-60.059,11.23,3117.435,446.8178949530273
703,1686623739.54,-35.156,-1000.0,36.621,-76.66,3117.439,422.65334714442787
704,1686623739.54,-1.465,-310.547,205.078,-23.438,3117.443,434.26303650832045
705,1686623739.55,44.434,216.797,62.012,72.266,3117.447,436.69697716836095
706,1686623739.55,22.949,-107.91,34.18,38.574,3117.45,420.30344103979394
707,1686623739.56,6.348,87.402,32.227,-41.504,3117.463,393.7358739154012
708,1686623739.56,-12.207,-116.211,58.105,-56.641,3117.454,412.230133994527
709,1686623739.56,53.223,-90.332,1.465,57.617,3117.466,407.7219777920427
710,1686623739.56,45.41,-433.594,120.117,60.059,3117.47,414.0521767989549
711,1686623739.57,-15.137,-175.293,101.562,-42.48,3117.474,375.13307370101467
712,1686623739.57,-26.855,10.254,28.32,-60.059,3117.478,387.51157748955944
713,1686623739.58,24.902,-301.27,23.438,45.41,3117.482,385.45390340931675
714,1686623739.58,31.738,-876.465,40.039,79.59,3117.486,387.5553656301007
715,1686623739.58,-13.672,-505.371,186.523,-12.207,3117.49,379.89106012973394
716,1686623739.59,-29.297,0.977,63.477,-74.219,3117.494,381.59169262821047
717,1686623739.59,6.348,-117.188,13.672,-7.812,3117.498,370.8457877536969
718,1686623739.59,39.062,-20.508,61.523,76.66,3117.502,355.5829137055957
719,1686623739.6,17.09,139.648,20.02,27.832,3117.506,353.1227231086102
720,1686623739.61,-13.184,-16.113,-1.465,-54.199,3117.508,326.6960876394534
721,1686623739.62,14.16,-282.715,49.316,-13.184,3117.512,328.44656092719464
722,1686623739.62,54.199,-89.844,133.789,84.961,3117.516,321.15450016926115
723,1686623739.62,26.855,67.871,41.016,62.988,3117.52,303.54506360871585
724,1686623739.63,-29.297,-298.34,11.719,-50.781,3117.524,322.01015360370974
725,1686623739.63,-20.02,-747.559,-29.297,-52.246,3117.528,321.4618470794788
726,1686623739.64,31.738,-982.91,74.707,62.5,3117.532,311.85832129135775
727,1686623739.64,33.691,-342.285,164.062,62.988,3117.536,302.4698095443627
728,1686623739.64,-11.719,11.719,-21.484,-40.039,3117.54,302.9314838252951
729,1686623739.65,-20.996,-665.039,-52.734,-62.988,3117.543,302.4863335927528
730,1686623739.65,20.508,-369.141,207.52,29.297,3117.547,272.2066651758333
731,1686623739.66,39.551,339.844,111.816,78.125,3117.551,280.8418207977551
732,1686623739.66,-0.977,72.266,-34.18,-11.719,3117.567,282.11476684196765
733,1686623739.66,-26.367,-386.719,109.375,-84.473,3117.571,275.0916374092392
734,1686623739.67,14.648,-83.984,95.703,-9.766,3117.575,268.42255123812106
735,1686623739.67,37.598,267.578,21.484,64.941,3117.579,266.6738655986811
736,1686623739.67,-2.93,-13.184,-6.348,3.906,3117.583,262.40449929915985
737,1686623739.68,-43.457,-591.797,18.066,-74.707,3117.587,273.11850522545274
738,1686623739.68,-15.137,-632.812,84.473,-31.738,3117.591,255.75949627730463
739,1686623739.68,47.363,-115.723,109.863,71.289,3117.595,266.1515503552776
740,1686623739.69,38.574,-64.941,-28.809,58.105,3117.598,264.14437466107046
741,1686623739.69,-18.555,-839.844,-12.207,-38.086,3117.602,266.5840132080251
742,1686623739.7,-5.859,-524.902,216.797,-48.34,3117.606,259.58578527095835
743,1686623739.7,50.293,139.648,98.145,47.852,3117.61,261.7955837466486
744,1686623739.7,51.27,-18.555,-9.277,73.242,3117.628,247.444104721203
745,1686623739.71,-1.465,-153.32,26.855,-41.504,3117.632,242.37022060532635
746,1686623739.71,-27.344,-34.668,35.645,-102.051,3117.636,253.98677805426098
747,1686623739.71,10.742,63.477,35.645,-1.465,3117.64,254.94635488494325
748,1686623739.72,30.762,-211.914,-12.695,70.801,3117.644,247.74936162224992
749,1686623739.72,-5.371,-490.234,-0.977,-5.371,3117.648,244.17050859350127
750,1686623739.72,-32.715,-569.824,26.367,-74.219,3117.652,241.37509734131427
751,1686623739.73,11.719,-451.66,31.25,-2.93,3117.656,247.90498290146337
752,1686623739.73,53.223,-643.066,-76.172,86.914,3117.659,247.14973044073724
753,1686623739.74,14.16,-1000.0,-18.555,45.41,3117.663,253.4211727773259
754,1686623739.74,-30.273,-375.977,95.703,-62.988,3117.667,245.9498470333847
755,1686623739.74,-13.672,10.254,8.301,-40.039,3117.671,242.69334195787314
756,1686623739.76,23.926,-618.652,13.184,60.059,3117.66,260.08084012137965
757,1686623739.77,10.742,-375.0,156.738,46.875,3117.664,251.22932990213764
758,1686623739.77,-33.691,165.527,53.711,-44.434,3117.668,257.3580699794354
759,1686623739.78,-38.086,-69.336,-2.441,-64.941,3117.672,251.80866775758483
760,1686623739.78,9.766,-113.281,76.172,29.297,3117.676,253.48538302260252
761,1686623739.78,28.32,-120.117,13.672,65.43,3117.68,240.80842987065137
762,1686623739.79,-10.254,-152.832,33.203,-30.273,3117.684,262.04413024669844
763,1686623739.79,-27.344,-254.395,-18.555,-64.453,3117.688,253.57777454940341
764,1686623739.79,-2.441,-506.348,90.82,1.953,3117.703,262.570183887598
765,1686623739.79,16.602,-687.5,104.004,32.715,3117.691,256.6641106512798
766,1686623739.8,37.598,114.746,73.73,82.031,3117.707,251.44706779966063
767,1686623739.8,46.387,-53.711,229.492,95.215,3117.695,249.39844116221798
768,1686623739.8,20.02,303.223,16.113,47.852,3117.711,259.60433910766073
769,1686623739.8,2.93,319.824,31.25,15.137,3117.699,255.38048345961084
770,1686623739.8,-38.086,-352.051,-54.688,-42.969,3117.714,263.07040213650015
771,1686623739.81,-30.762,-312.988,4.883,-55.664,3117.703,257.62674632414496
772,1686623739.81,-26.855,-872.07,136.719,-19.531,3117.718,267.57597377033903
773,1686623739.81,32.715,-384.766,240.234,76.172,3117.722,269.5106880599328
774,1686623739.82,30.273,-236.328,-8.789,80.078,3117.726,261.148922676634
775,1686623739.82,-17.578,-682.129,-26.855,-13.184,3117.73,263.7639406421106
776,1686623739.82,-21.484,-468.75,167.48,-56.152,3117.734,266.30379494500943
777,1686623739.83,34.18,109.375,131.348,29.297,3117.738,265.3777130469373
778,1686623739.83,52.734,232.91,22.461,88.867,3117.742,272.9497220043238
779,1686623739.84,-2.441,-612.305,-52.246,3.418,3117.746,268.7413241980739
780,1686623739.84,-28.32,-812.5,167.969,-62.5,3117.762,267.4909666747074
781,1686623739.84,18.555,65.918,197.754,4.883,3117.765,282.7498835293499
782,1686623739.85,45.41,22.949,-33.691,73.242,3117.769,273.67636889744375
783,1686623739.85,15.137,-573.242,82.52,15.625,3117.773,268.94845194171074
784,1686623739.85,-12.207,-297.852,108.887,-69.336,3117.777,287.94078948687087
785,1686623739.86,6.836,-151.367,5.371,-31.738,3117.781,268.6169532625025
786,1686623739.86,42.48,-354.004,19.043,67.871,3117.785,273.08997234710523
787,1686623739.86,27.344,-487.305,149.414,52.246,3117.789,275.31426231598425
788,1686623739.87,-21.484,-164.551,111.328,-45.898,3117.793,276.164738944191
789,1686623739.87,-1.953,118.164,8.789,-48.34,3117.797,276.3178350518013
790,1686623739.88,44.922,-104.004,38.086,46.875,3117.801,275.21061168493384
791,1686623739.88,26.367,-503.418,119.141,43.457,3117.804,281.73624710794985
792,1686623739.88,-23.438,-101.562,83.984,-53.711,3117.778,279.9249907721117
793,1686623739.89,-26.855,74.707,9.277,-68.359,3117.782,268.6884364348471
794,1686623739.89,13.184,-149.414,28.809,24.902,3117.786,287.1604471170872
795,1686623739.89,26.855,70.801,40.039,63.477,3117.79,279.01702656946867
796,1686623739.9,-13.672,-6.836,9.766,-30.273,3117.794,280.78551241432626
797,1686623739.9,-35.645,-364.746,7.812,-84.473,3117.797,280.9567603301303
798,1686623739.9,9.277,-704.102,-39.062,-2.441,3117.801,279.8502303414331
799,1686623739.91,47.363,-937.988,108.887,74.219,3117.805,284.8546070834974
800,1686623739.91,19.043,-308.594,197.266,4.883,3117.809,292.25954852456135
801,1686623739.92,-22.461,-93.75,13.184,-96.68,3117.813,288.9327885081989
802,1686623739.92,-5.371,-580.566,6.836,-56.152,3117.817,295.9847040459591
803,1686623739.92,37.109,-132.324,89.844,55.664,3117.821,284.523275071363
804,1686623739.94,27.832,374.023,48.828,30.762,3117.84,295.3903141760677
805,1686623739.95,-15.137,-16.113,-45.41,-64.941,3117.843,293.966387320694
806,1686623739.95,-8.789,-794.922,25.391,-54.688,3117.847,293.22070666786755
807,1686623739.95,43.945,-292.969,188.477,34.668,3117.851,292.6482449625228
808,1686623739.96,40.039,309.082,62.5,50.781,3117.855,296.20500688484884
809,1686623739.96,-13.184,-311.523,-44.434,-34.18,3117.859,289.3805071160526
810,1686623739.96,-29.785,-888.672,67.871,-64.941,3117.863,295.415788450234
811,1686623739.97,13.672,-463.867,173.34,13.672,3117.867,305.13012591729597
812,1686623739.97,48.34,224.121,29.785,53.711,3117.882,297.5947301400015
813,1686623739.97,30.762,64.941,68.359,58.105,3117.871,290.1622349874321
814,1686623739.98,17.09,-132.812,3.906,0.977,3117.886,294.605713007722
815,1686623739.98,-7.324,-98.145,-13.184,-24.902,3117.875,309.3983504220182
816,1686623739.98,-31.25,-491.699,78.613,-91.797,3117.89,305.704602722653
817,1686623739.98,-26.367,-373.535,49.805,-92.773,3117.879,304.8258762157814
818,1686623739.98,-9.277,-118.164,83.984,-46.875,3117.894,300.9281810881808
819,1686623739.98,10.742,-62.012,69.824,-23.926,3117.883,306.52053428964706
820,1686623739.99,40.527,61.523,20.02,60.059,3117.898,308.65944487714853
821,1686623739.99,35.645,-425.293,-30.762,57.129,3117.902,309.660987923937
822,1686623740.0,-10.742,-726.074,32.227,-45.898,3117.906,307.6446169823305
823,1686623740.0,-12.207,-486.816,84.961,-64.453,3117.91,313.90895904209117
824,1686623740.0,32.227,-25.391,56.641,36.133,3117.914,310.1049339165416
825,1686623740.01,33.691,-482.422,-70.312,55.664,3117.918,314.4475868843454
826,1686623740.01,-15.137,-893.066,54.199,-34.18,3117.922,312.60652574324814
827,1686623740.02,-29.785,-184.082,104.492,-74.219,3117.925,319.30391424386767
828,1686623740.03,18.066,-3.906,19.531,12.207,3117.93,328.66422423479054
829,1686623740.04,45.898,-503.906,64.941,81.055,3117.934,329.79092166768305
830,1686623740.04,18.066,-270.02,58.105,5.859,3117.938,318.2193973690735
831,1686623740.04,-23.438,33.203,17.578,-76.66,3117.942,322.6310286324744
832,1686623740.05,-9.766,-131.836,6.836,-34.18,3117.946,324.19970445490566
833,1686623740.05,32.227,-422.852,55.176,55.664,3117.95,320.43097167799596
834,1686623740.06,16.113,-293.945,88.379,24.414,3117.954,321.4854125091779
835,1686623740.06,-33.203,-53.711,22.949,-86.426,3117.958,316.12655353585797
836,1686623740.06,-23.438,-314.941,-17.09,-58.594,3117.962,329.1658751529365
837,1686623740.07,19.043,-579.102,148.926,48.828,3117.965,330.20605448366234
838,1686623740.07,10.742,-0.488,138.184,31.25,3117.969,316.0800324537835
839,1686623740.08,-29.785,151.367,-12.207,-69.336,3117.973,327.93197778502235
840,1686623740.08,-27.832,-382.812,34.18,-69.336,3117.973,321.9557335001104
841,1686623740.08,18.066,-378.906,95.215,29.785,3117.977,322.3856968112733
842,1686623740.08,31.25,111.328,65.918,62.012,3117.981,335.8414098447544
843,1686623740.09,-16.602,98.633,0.977,-31.25,3117.985,325.3661150549615
844,1686623740.09,-48.34,-493.164,-6.836,-95.703,3117.989,317.56749751444084
845,1686623740.1,-8.301,-652.344,141.602,-13.672,3117.992,331.65012151882314
846,1686623740.1,20.508,-310.547,86.914,50.293,3117.996,328.35618881704494
847,1686623740.1,-16.602,-302.734,15.625,-24.414,3118.0,331.1142650613716
848,1686623740.11,-57.617,-773.438,-79.102,-93.262,3118.004,324.6801751715098
849,1686623740.11,-22.461,-1000.0,60.547,-37.109,3118.008,335.74493628301474
850,1686623740.12,32.227,-136.719,208.984,36.133,3118.012,332.7450634832073
851,1686623740.12,15.625,170.41,30.273,16.602,3118.016,331.01976375758335
852,1686623740.12,-28.809,-301.27,77.637,-71.289,3118.021,318.33538218126193
853,1686623740.13,-19.043,-116.699,94.238,-69.336,3118.025,326.80118375470875
854,1686623740.13,27.344,206.055,21.973,32.227,3118.029,331.9152225693405
855,1686623740.14,19.043,-98.145,2.441,45.898,3118.033,346.2407548079138
856,1686623740.14,-26.367,-703.125,46.875,-50.781,3118.037,345.81313184910516
857,1686623740.14,-33.203,-695.801,61.523,-84.473,3118.04,337.12009122913423
858,1686623740.15,16.113,-203.613,80.078,9.766,3118.044,345.2536719947211
859,1686623740.15,31.25,-103.516,-3.906,54.199,3118.048,340.377049804968
860,1686623740.15,-17.09,-777.344,2.441,-32.715,3118.052,334.8916152053612
861,1686623740.16,-38.574,-420.898,94.727,-100.098,3118.056,331.8833369211178
862,1686623740.16,-2.93,132.812,37.109,-37.109,3118.06,335.6521330598181
863,1686623740.17,20.996,6.348,12.695,42.48,3118.064,340.85314905048324
864,1686623740.17,-19.043,-119.629,17.09,-12.207,3118.063,334.02720929166907
865,1686623740.17,-62.988,-43.457,43.457,-101.562,3118.067,341.2013979591334
866,1686623740.17,-30.273,7.324,52.246,-56.641,3118.071,336.7929274842844
867,1686623740.18,14.16,-92.773,20.996,38.574,3118.075,346.47834692744624
868,1686623740.18,-5.859,-138.672,20.996,5.371,3118.079,342.59408120083987
869,1686623740.19,-43.457,-421.875,35.156,-92.773,3118.083,340.3302028126424
870,1686623740.19,-34.18,-487.793,53.711,-79.59,3118.087,341.6296076690896
871,1686623740.19,18.555,-647.461,-46.387,28.809,3118.091,347.2730737621297
872,1686623740.2,26.855,-1000.0,37.598,53.223,3118.094,342.391537630424
873,1686623740.2,-23.438,-461.426,220.215,-50.293,3118.098,347.64368123434923
874,1686623740.2,-43.945,-119.141,69.336,-88.867,3118.102,342.7884746409042
875,1686623740.21,5.371,-262.207,112.305,4.395,3118.106,343.53903072029516
876,1686623740.23,31.25,102.539,121.582,56.152,3118.124,344.30366830531517
877,1686623740.23,-5.859,249.023,0.0,-26.367,3118.128,365.8289813882912
878,1686623740.24,-34.18,-131.836,6.836,-87.402,3118.132,335.57712464048626
879,1686623740.24,-3.906,-289.551,115.723,-18.066,3118.136,365.848381883076
880,1686623740.24,26.855,98.633,67.383,60.059,3118.14,343.833692459194
881,1686623740.25,-8.789,-55.176,16.113,6.348,3118.144,341.021653530892
882,1686623740.25,-55.176,-540.527,4.883,-75.684,3118.148,350.9274067972422
883,1686623740.25,-38.086,-842.285,44.922,-52.734,3118.152,357.25148828611765
884,1686623740.26,7.812,9.766,87.402,14.648,3118.153,346.3581026847119
885,1686623740.26,16.113,-380.859,166.016,31.25,3118.156,341.84245762636243
886,1686623740.26,19.531,265.625,27.832,44.434,3118.157,351.17260506649114
887,1686623740.26,14.648,71.777,56.152,15.625,3118.16,348.6956620361208
888,1686623740.26,-30.762,-193.848,13.184,-49.316,3118.161,355.7882022627555
889,1686623740.27,-41.504,-251.953,-8.301,-87.891,3118.164,354.02919656683395
890,1686623740.27,-47.363,-251.953,59.57,-98.633,3118.165,351.8888983943198
891,1686623740.27,-46.875,-539.062,95.703,-90.82,3118.167,345.928426847513
892,1686623740.27,-3.906,-22.461,44.922,-5.371,3118.169,349.81314959778575
893,1686623740.28,17.09,-257.324,0.977,51.27,3118.173,357.99362263793415
894,1686623740.28,-23.438,-713.379,-35.645,-30.273,3118.176,343.70621385580165
895,1686623740.28,-53.223,-744.629,135.254,-102.051,3118.18,344.1024560702832
896,1686623740.29,-12.207,-60.059,142.578,-37.109,3118.184,337.480764528234
897,1686623740.29,25.391,265.137,14.16,40.527,3118.188,353.5851598623765
898,1686623740.3,-5.371,-545.41,-103.027,-3.906,3118.192,353.03525808611874
899,1686623740.3,-49.316,-1000.0,105.469,-92.773,3118.196,356.70457142809266
900,1686623740.3,-33.203,-202.637,262.207,-71.777,3118.213,341.488496201879
901,1686623740.31,3.906,128.906,38.086,32.715,3118.217,354.0241302403293
902,1686623740.31,-10.254,-217.285,151.367,32.715,3118.221,350.1711767887428
903,1686623740.32,-56.152,-166.504,107.91,-64.941,3118.224,352.10819644904365
904,1686623740.32,-53.711,9.277,15.137,-92.285,3118.228,363.8537077173248
905,1686623740.32,-0.977,-247.07,34.668,9.277,3118.232,352.26136852771253
906,1686623740.33,7.324,-802.734,63.965,55.176,3118.236,347.347319600132
907,1686623740.33,-39.551,-370.605,95.703,-41.504,3118.24,340.3536456397675
908,1686623740.34,-58.105,0.977,23.926,-106.934,3118.244,349.5413472508939
909,1686623740.34,-12.207,-105.469,19.043,-32.715,3118.248,353.22984975201854
910,1686623740.34,24.902,-55.176,23.438,35.156,3118.252,351.95778139076214
911,1686623740.35,-11.23,85.938,34.18,-35.156,3118.256,344.398600917048
912,1686623740.35,-53.223,37.598,30.273,-104.98,3118.271,350.2481410335876
913,1686623740.35,-21.973,-326.172,27.832,-48.34,3118.275,345.45146168051554
914,1686623740.36,27.344,-250.977,88.379,47.852,3118.279,348.96090360717466
915,1686623740.36,0.977,133.301,42.969,6.836,3118.283,344.13944624199064
916,1686623740.36,-54.199,-25.879,-23.438,-96.191,3118.287,344.8494240358787
917,1686623740.37,-48.828,-636.23,-52.246,-69.824,3118.291,360.1551722969236
918,1686623740.37,2.441,-1000.0,37.598,39.062,3118.295,355.801684553335
919,1686623740.38,3.418,-370.605,132.812,19.043,3118.299,353.9548620287875
920,1686623740.38,-42.48,45.41,-10.742,-69.824,3118.303,347.9258130463733
921,1686623740.38,-52.734,-618.652,-52.734,-82.031,3118.306,357.30297785355276
922,1686623740.39,-0.488,-367.188,174.805,2.93,3118.31,352.8435474983721
923,1686623740.39,17.578,307.129,77.148,44.922,3118.314,352.54843563178366
924,1686623740.42,-34.668,92.773,-33.203,-43.945,3118.32,355.4850489307539
925,1686623740.43,-62.988,-320.801,96.68,-97.656,3118.324,356.6457725686178
926,1686623740.43,-24.414,-50.781,94.727,-11.23,3118.328,348.9529000828444
927,1686623740.44,12.695,259.277,18.555,57.129,3118.332,351.953040636594
928,1686623740.44,-15.625,-139.16,-21.973,-1.953,3118.336,353.7307753072513
929,1686623740.44,-53.711,-869.629,18.555,-82.031,3118.34,364.6456201807551
930,1686623740.45,-17.09,-573.73,118.652,-49.316,3118.344,342.2510314465985
931,1686623740.45,26.367,236.816,66.406,35.645,3118.348,363.7595073716309
932,1686623740.45,6.836,-28.809,16.602,26.367,3118.377,346.48854123462775
933,1686623740.45,-6.348,-33.691,-52.246,0.977,3118.352,348.378727930341
934,1686623740.46,-38.574,-276.855,13.672,-73.242,3118.381,351.3083681782574
935,1686623740.46,-53.711,-684.082,108.398,-102.539,3118.356,363.4257370453222
936,1686623740.46,-46.387,-105.957,33.203,-110.352,3118.385,360.1319605592465
937,1686623740.46,-39.062,-241.211,152.344,-90.332,3118.359,354.9413267680322
938,1686623740.46,1.465,100.098,30.762,-16.113,3118.389,359.42707622297235
939,1686623740.47,5.371,204.102,25.879,13.184,3118.363,359.2313986735787
940,1686623740.47,18.066,-120.605,-34.668,40.527,3118.393,362.1093887270238
941,1686623740.47,-26.855,-474.121,-22.949,-40.039,3118.397,366.0758167403801
942,1686623740.48,-56.641,-527.832,56.641,-116.211,3118.401,365.3327211629016
943,1686623740.48,-11.23,-450.195,47.363,-48.34,3118.405,357.88607077726385
944,1686623740.48,21.484,-433.594,-10.254,37.598,3118.409,355.9570376151527
945,1686623740.49,-14.648,-144.043,2.93,-14.648,3118.412,353.4238814192825
946,1686623740.49,-51.27,-14.648,31.738,-95.215,3118.416,355.4519719684002
947,1686623740.5,-26.855,-63.477,53.223,-54.688,3118.42,359.420811202564
948,1686623740.5,11.719,-613.281,-35.645,39.551,3118.422,358.877067769933
949,1686623740.5,-15.137,-1000.0,24.902,20.996,3118.426,354.9841082114782
950,1686623740.51,-64.941,-414.062,171.387,-77.637,3118.43,346.86605438867355
951,1686623740.51,-51.758,-122.559,53.223,-78.613,3118.434,366.00887874227556
952,1686623740.51,4.395,-176.27,65.918,19.531,3118.437,351.63482425798753
953,1686623740.52,9.277,-169.434,41.504,41.016,3118.441,356.99312727761287
954,1686623740.52,-31.738,-166.016,46.387,-57.617,3118.445,352.9526430123133
955,1686623740.52,-49.316,-243.164,-13.184,-109.863,3118.449,353.4373024937435
956,1686623740.53,-21.973,-703.125,91.797,-30.762,3118.453,358.16087203990884
957,1686623740.53,4.395,-269.043,194.336,28.809,3118.457,359.12843504716557
958,1686623740.54,-30.762,91.797,8.301,-40.527,3118.461,359.972899016709
959,1686623740.54,-59.57,-254.883,26.367,-109.375,3118.465,353.9258257633762
960,1686623740.56,-22.949,-293.945,165.039,-51.27,3118.453,350.7329416269643
961,1686623740.56,18.555,122.07,78.613,31.738,3118.457,346.24402076963867
962,1686623740.56,-3.418,214.844,-0.977,-13.184,3118.461,357.91967894294385
963,1686623740.57,-56.641,-338.867,-21.484,-106.934,3118.465,351.0800187253391
964,1686623740.57,-51.758,-738.281,113.77,-84.473,3118.469,361.5363928229501
965,1686623740.58,1.465,-351.562,107.91,14.648,3118.473,349.9974024646635
966,1686623740.58,-2.93,-215.82,13.672,7.324,3118.477,353.5741517233075
967,1686623740.58,-61.035,-690.918,-70.801,-92.285,3118.48,356.91391948375855
968,1686623740.59,-53.223,-996.094,58.105,-91.797,3118.484,354.5013218101067
969,1686623740.59,-44.922,-609.375,40.039,-116.699,3118.489,359.64922569305537
970,1686623740.59,9.277,-133.301,217.285,2.93,3118.488,360.4115894460881
971,1686623740.59,3.418,143.066,77.148,-34.668,3118.493,359.18502629324183
972,1686623740.6,13.184,303.711,25.879,31.25,3118.492,374.0079199124717
973,1686623740.6,35.156,232.91,9.766,37.598,3118.497,364.63103696203126
974,1686623740.6,-33.691,-523.438,-48.828,-57.129,3118.496,361.8528308864633
975,1686623740.6,-1.953,-585.449,-5.371,-29.785,3118.501,359.6005730654341
976,1686623740.6,-37.109,-438.477,56.152,-114.258,3118.505,365.1578731842374
977,1686623740.61,-14.648,-140.137,41.016,-57.129,3118.509,350.5623057879788
978,1686623740.61,20.02,-263.672,41.992,33.691,3118.513,367.4027920179581
979,1686623740.62,0.977,-212.891,59.082,-8.789,3118.517,365.1964528235884
980,1686623740.62,-41.504,-54.199,37.598,-102.051,3118.521,363.3723631277103
981,1686623740.62,-27.344,140.137,56.641,-77.637,3118.525,354.95023554948347
982,1686623740.63,22.949,-31.738,7.324,23.438,3118.529,365.328420212672
983,1686623740.63,14.648,-642.578,95.703,28.809,3118.532,357.1387449865061
984,1686623740.63,-35.156,-200.195,123.047,-71.777,3118.528,355.8132948901451
985,1686623740.64,-32.227,150.391,-12.695,-90.332,3118.532,359.19837382145363
986,1686623740.64,14.16,-183.594,43.457,13.184,3118.536,360.42292524294345
987,1686623740.64,23.438,-36.133,151.367,46.387,3118.54,363.43978702351814
988,1686623740.65,-21.973,76.66,53.223,-54.199,3118.544,361.5842764845868
989,1686623740.65,-40.527,-295.898,20.508,-107.91,3118.548,370.3091836138526
990,1686623740.66,1.465,-641.602,-25.391,-13.672,3118.552,368.878849496788
991,1686623740.66,20.508,-1000.0,64.453,59.57,3118.555,360.91840792946886
992,1686623740.66,-7.324,-407.227,250.977,-20.996,3118.559,353.213933613213
993,1686623740.67,-38.574,47.852,81.543,-104.492,3118.563,358.64474124594653
994,1686623740.67,-10.742,-213.379,22.949,-53.711,3118.567,355.6500373951076
995,1686623740.68,45.41,125.977,56.641,44.922,3118.571,363.26962684329
996,1686623740.69,25.391,380.859,21.973,27.344,3118.588,346.5848481302886
997,1686623740.7,-31.738,59.082,-1.465,-75.195,3118.592,370.683467550028
998,1686623740.7,-28.809,-264.16,106.934,-67.383,3118.596,370.39961613026503
999,1686623740.7,28.809,100.098,115.234,31.738,3118.6,347.5138913879591
1000,1686623740.71,26.855,299.316,11.23,28.32,3118.604,365.2186987889653
1001,1686623740.71,-33.691,-218.262,-18.066,-65.918,3118.608,364.18755011747203
1002,1686623740.72,-38.574,-900.879,36.133,-74.707,3118.612,375.613125348348
1003,1686623740.72,8.789,-432.617,155.762,9.277,3118.616,368.0374317272763
1004,1686623740.72,25.879,320.312,16.113,48.34,3118.633,365.83274100896824
1005,1686623740.72,23.926,340.332,51.27,50.781,3118.62,370.433730027351
1006,1686623740.72,-10.742,-16.113,9.766,-14.648,3118.636,358.98493227129546
1007,1686623740.73,-12.695,-51.758,-41.992,-17.578,3118.623,371.61075927543965
1008,1686623740.73,-47.852,-226.074,35.156,-104.98,3118.64,365.9009700144479
1009,1686623740.73,-46.387,-529.785,103.027,-85.938,3118.627,362.2779771171407
1010,1686623740.73,-15.625,24.902,64.941,-51.758,3118.644,371.8954714687046
1011,1686623740.74,-9.277,-19.043,115.723,-26.367,3118.631,366.0398496253972
1012,1686623740.74,29.297,206.055,34.18,53.711,3118.648,373.0362019714291
1013,1686623740.74,0.488,-359.375,-29.785,33.691,3118.652,360.2781546741309
1014,1686623740.74,-49.805,-826.66,53.223,-72.754,3118.656,373.3435169315042
1015,1686623740.75,-30.273,-557.129,92.773,-86.426,3118.66,367.66520240265834
1016,1686623740.75,27.832,-181.152,52.734,15.137,3118.664,368.419988623594
1017,1686623740.76,25.391,-515.137,-71.777,32.227,3118.668,372.4863218847872
1018,1686623740.76,-29.297,-865.234,62.012,-57.617,3118.672,364.1822932481525
1019,1686623740.76,-42.969,-151.367,111.328,-87.891,3118.675,360.28094271251035
1020,1686623740.78,6.836,93.262,19.531,-5.859,3118.681,375.5914816468285
1021,1686623740.79,27.344,-58.594,127.441,42.48,3118.685,363.2796897437078
1022,1686623740.79,-16.602,100.586,71.289,-33.203,3118.689,371.8741877679392
1023,1686623740.8,-49.805,119.141,24.414,-110.84,3118.693,357.5403889429959
1024,1686623740.8,-13.184,-83.984,29.785,-41.992,3118.697,362.79396828042985
1025,1686623740.8,22.461,-402.344,48.34,41.992,3118.7,361.5800086148119
1026,1686623740.81,-8.789,-254.395,87.402,-12.207,3118.704,366.7168485148869
1027,1686623740.81,-52.246,34.18,36.621,-93.75,3118.708,363.0239157199057
1028,1686623740.81,-34.18,-211.914,-22.461,-65.918,3118.712,356.5586449490529
1029,1686623740.82,12.207,-587.891,115.234,33.203,3118.716,363.82573635980305
1030,1686623740.82,12.207,-235.352,126.953,26.367,3118.72,364.3106456185733
1031,1686623740.83,-39.062,35.156,-3.418,-74.707,3118.724,363.6374389944018
1032,1686623740.83,-38.574,-255.859,34.18,-71.289,3118.723,372.9349636651364
1033,1686623740.83,16.602,-328.613,173.34,20.508,3118.727,366.6337267650053
1034,1686623740.84,16.113,108.398,96.68,35.156,3118.731,361.92467853651897
1035,1686623740.84,-34.18,135.742,1.465,-51.27,3118.735,359.9181340702662
1036,1686623740.84,-58.105,-308.105,14.16,-100.586,3118.739,364.06820328899903
1037,1686623740.85,-21.484,-403.32,48.34,-9.766,3118.743,365.4652217683065
1038,1686623740.85,0.0,-166.504,42.48,58.105,3118.747,370.9628539086987
1039,1686623740.85,-18.555,-220.215,40.527,-17.09,3118.75,363.506113422674
1040,1686623740.86,-53.223,-666.504,-49.805,-83.984,3118.754,364.069055484038
1041,1686623740.86,-31.738,-999.023,48.34,-23.438,3118.758,357.13508086894745
1042,1686623740.87,21.973,-106.445,270.508,62.012,3118.762,368.3130904354325
1043,1686623740.87,4.395,302.734,87.891,26.855,3118.766,376.0792160880757
1044,1686623740.87,-44.434,-322.266,52.734,-71.777,3118.782,355.6683927598047
1045,1686623740.88,-22.461,-336.426,116.211,-55.664,3118.786,365.6826795065873
1046,1686623740.88,27.344,230.469,69.824,53.711,3118.79,360.241165158934
1047,1686623740.89,9.766,180.664,-12.207,38.086,3118.794,372.7834454535109
1048,1686623740.89,-39.551,-557.617,75.195,-85.449,3118.797,356.3479937421025
1049,1686623740.89,-36.621,-634.766,117.676,-106.934,3118.801,364.2685602693742
1050,1686623740.9,12.207,-115.723,70.312,-4.883,3118.805,362.9144523143448
1051,1686623740.9,18.555,10.742,18.555,29.785,3118.809,375.1833056933385
1052,1686623740.9,-31.25,-727.051,14.648,-66.406,3118.813,360.3123097790144
1053,1686623740.91,-53.223,-396.484,94.238,-116.699,3118.817,377.1116150512837
1054,1686623740.91,-8.301,194.824,47.363,-32.227,3118.821,358.24728551707614
1055,1686623740.92,22.461,105.469,44.922,38.086,3118.825,352.74094451667145
1056,1686623740.92,-15.137,50.293,98.145,-21.484,3118.82,373.021760849067
1057,1686623740.92,-54.688,62.988,63.965,-95.703,3118.823,353.2765032954571
1058,1686623740.92,-26.367,94.727,18.066,-40.527,3118.827,367.9854759298078
1059,1686623740.93,11.719,-82.031,45.898,45.898,3118.831,366.92876145305803
1060,1686623740.93,-15.137,-161.621,111.328,9.277,3118.835,366.6227050552134
1061,1686623740.94,-65.918,-294.922,35.645,-96.68,3118.839,372.0100929664786
1062,1686623740.94,-61.523,-372.07,40.527,-94.727,3118.843,363.9325408241309
1063,1686623740.94,-25.391,-584.473,-40.039,20.02,3118.847,370.0736206226465
1064,1686623740.95,-20.508,-983.887,21.484,38.086,3118.851,377.2218639515319
1065,1686623740.95,-47.852,-310.547,185.059,-80.566,3118.855,373.5959687281238
1066,1686623740.96,-57.129,49.805,62.012,-112.793,3118.859,368.70469955299933
1067,1686623740.96,-27.344,-241.211,53.711,-17.578,3118.863,376.38390190988
1068,1686623740.99,-19.043,95.703,58.594,20.996,3118.903,360.46558944388926
1069,1686623741.0,-49.316,260.742,5.859,-56.152,3118.907,365.1899620388909
1070,1686623741.0,-73.73,-81.543,22.949,-125.977,3118.911,383.32075810623223
1071,1686623741.0,-33.203,-188.477,106.934,-51.27,3118.915,367.89267253753417
1072,1686623741.01,10.254,51.27,46.875,34.18,3118.918,378.13962443868377
1073,1686623741.01,9.277,176.27,110.352,18.066,3118.91,366.6939877439638
1074,1686623741.01,-28.809,-146.973,6.836,-21.484,3118.922,377.19576022669116
1075,1686623741.01,-0.488,414.062,2.441,24.902,3118.914,377.48072668495354
1076,1686623741.02,-76.172,-484.863,3.418,-116.211,3118.926,381.55905160882673
1077,1686623741.02,-54.688,-74.707,-5.859,-76.172,3118.918,365.59449122691103
1078,1686623741.02,-58.105,-884.766,59.082,-80.078,3118.93,366.62670684632974
1079,1686623741.02,-58.594,-202.637,61.523,-106.445,3118.922,361.1054174743397
1080,1686623741.02,-10.254,-281.25,263.184,12.207,3118.934,369.4826299567631
1081,1686623741.03,0.488,101.074,56.152,-11.719,3118.926,376.3352085986478
1082,1686623741.03,-24.414,390.137,110.352,-15.137,3118.938,370.96112926155314
1083,1686623741.03,20.02,-46.875,12.207,42.969,3118.93,367.9239410149194
1084,1686623741.03,-62.988,-138.672,-29.785,-114.746,3118.942,375.8763333403174
1085,1686623741.03,-32.715,-428.223,-2.441,-28.32,3118.934,366.5225441940364
1086,1686623741.04,-42.969,-449.219,115.723,-94.727,3118.946,366.62814151029613
1087,1686623741.04,-61.035,-386.719,62.5,-93.75,3118.937,374.204651515743
1088,1686623741.04,-12.207,-83.496,60.547,-35.645,3118.941,376.6782621999741
1089,1686623741.04,27.344,-105.957,7.812,46.875,3118.945,375.30015002317975
1090,1686623741.05,-6.348,-427.246,-22.461,-5.859,3118.949,374.4746344583129
1091,1686623741.05,-24.414,102.051,62.988,-72.754,3118.962,365.06673827764234
1092,1686623741.05,-52.734,-284.668,20.02,-105.469,3118.953,370.2624246792522
1093,1686623741.06,17.578,158.203,20.508,33.203,3118.966,380.9645168984591
1094,1686623741.06,-6.348,-645.02,11.23,25.879,3118.97,373.5053387939176
1095,1686623741.06,-46.875,-694.824,137.695,-83.984,3118.974,379.258626984824
1096,1686623741.07,-30.762,37.598,84.961,-94.238,3118.978,370.2999186550752
1097,1686623741.07,20.508,-85.449,27.832,14.648,3118.982,378.0887508639563
1098,1686623741.08,25.391,-850.098,6.348,55.176,3118.986,359.4144702892385
1099,1686623741.08,-21.484,-974.121,82.52,-36.621,3118.99,371.7203879271697
1100,1686623741.08,-41.016,-139.648,132.812,-86.914,3118.994,368.98567480121113
1101,1686623741.09,6.836,125.977,20.02,-0.488,3118.998,369.7046520622056
1102,1686623741.09,41.504,-14.16,25.879,63.965,3119.002,360.03753473530816
1103,1686623741.1,-2.441,-83.496,52.734,-10.742,3119.005,384.55812046872677
1104,1686623741.1,-41.504,-11.23,24.902,-96.191,3119.007,377.62228570769696
1105,1686623741.1,-14.16,-138.184,52.246,-33.203,3119.011,373.63662702580876
1106,1686623741.1,20.996,-133.789,222.656,48.34,3119.015,368.0818745942815
1107,1686623741.11,-3.906,253.906,108.887,13.672,3119.018,374.23119688222255
1108,1686623741.11,-49.316,140.625,-27.832,-70.801,3119.022,379.7278248934591
1109,1686623741.12,-41.016,-482.91,-7.324,-62.988,3119.026,363.7245766210545
1110,1686623741.12,6.836,-694.336,156.25,38.574,3119.03,361.0257591471368
1111,1686623741.12,-7.812,-51.27,161.621,24.902,3119.034,368.19836655423563
1112,1686623741.13,-54.199,136.719,-13.672,-81.543,3119.038,368.23953956292917
1113,1686623741.13,-53.223,-522.461,-28.809,-85.938,3119.042,366.35545130892183
1114,1686623741.14,-4.883,-300.781,231.445,18.555,3119.046,369.4476940753796
1115,1686623741.14,14.648,419.922,154.297,45.898,3119.05,377.0629926375262
1116,1686623741.16,-31.738,197.266,-11.23,-42.48,3119.057,374.115411022283
1117,1686623741.16,-49.805,-407.227,91.309,-89.355,3119.061,369.581245376421
1118,1686623741.17,-10.742,-258.301,123.047,-9.277,3119.065,380.16169294983627
1119,1686623741.17,12.207,344.727,71.777,42.969,3119.069,367.89843642404145
1120,1686623741.18,-22.949,107.422,-23.926,-29.297,3119.072,356.96742093967765
1121,1686623741.18,-57.129,-827.148,-19.043,-93.262,3119.076,380.76413262083787
1122,1686623741.18,-19.531,-563.965,177.246,-36.133,3119.08,372.425794723752
1123,1686623741.19,23.438,288.086,121.582,53.223,3119.084,383.40615118042734
1124,1686623741.19,-0.977,66.406,-31.738,28.809,3119.088,373.6311021420332
1125,1686623741.19,-44.922,-438.477,125.488,-70.312,3119.092,374.44692270731167
1126,1686623741.2,-29.297,-205.078,121.582,-71.777,3119.096,369.9580757678015
1127,1686623741.2,16.113,139.16,37.598,23.926,3119.1,371.6229593589954
1128,1686623741.2,11.719,87.891,27.832,25.879,3119.098,376.35322491081087
1129,1686623741.21,-37.598,-78.125,39.551,-66.895,3119.102,374.5716531106088
1130,1686623741.21,-39.551,56.152,51.27,-86.426,3119.106,380.69413817841604
1131,1686623741.21,14.16,206.055,29.785,15.625,3119.11,379.7448296750316
1132,1686623741.22,24.414,-80.566,8.301,64.453,3119.114,384.0325249167739
1133,1686623741.22,-21.973,-400.879,44.922,-28.32,3119.118,375.655991597413
1134,1686623741.22,-40.039,-438.965,42.969,-92.285,3119.122,375.4098356350302
1135,1686623741.23,-0.977,-271.484,62.012,-12.695,3119.126,367.0843960001757
1136,1686623741.23,17.578,-468.262,-54.199,66.895,3119.13,374.4708361998614
1137,1686623741.24,-17.09,-977.051,14.16,4.395,3119.133,379.4234068178466
1138,1686623741.24,-30.273,-310.547,242.676,-79.59,3119.137,380.8413264397944
1139,1686623741.24,1.953,140.625,101.074,-37.109,3119.141,370.033417655003
1140,1686623741.25,35.156,-1.953,102.051,44.434,3119.145,380.43562655441593
1141,1686623741.25,18.066,207.031,93.262,12.207,3119.149,378.19267576642943
1142,1686623741.26,-26.367,212.891,2.441,-81.543,3119.153,381.0774528162678
1143,1686623741.26,-18.066,8.789,37.598,-72.266,3119.157,377.74493644007873
1144,1686623741.26,41.992,-43.457,105.469,31.25,3119.161,382.242372767829
1145,1686623741.27,49.805,-86.426,40.527,56.641,3119.165,372.47292900844576
1146,1686623741.27,-2.441,-264.648,40.527,-48.34,3119.169,375.62391189641187
1147,1686623741.28,-15.137,-421.387,32.227,-98.145,3119.173,377.92227569205795
1148,1686623741.28,39.062,-868.652,42.969,15.625,3119.177,364.2274859947411
1149,1686623741.28,57.129,-311.035,263.184,63.965,3119.18,373.49915453591603
1150,1686623741.29,3.418,277.344,125.977,-34.18,3119.184,360.674439925626
1151,1686623741.29,-21.973,-130.371,7.812,-91.309,3119.188,369.42105509955513
1152,1686623741.29,18.066,-88.379,174.316,-15.625,3119.188,369.0642193002495
1153,1686623741.3,44.434,329.102,105.469,69.824,3119.192,371.2660226624617
1154,1686623741.3,10.254,290.039,5.859,10.254,3119.196,379.086850958959
1155,1686623741.3,-27.344,-176.27,8.789,-71.289,3119.2,364.3586603304679
1156,1686623741.31,-9.766,-340.332,46.875,-34.668,3119.204,377.35850578341245
1157,1686623741.31,35.645,-203.125,62.012,47.363,3119.207,376.26344943601526
1158,1686623741.32,24.902,-172.363,35.645,32.227,3119.211,372.5905006373405
1159,1686623741.32,-33.691,-655.762,-69.336,-56.641,3119.215,374.224490178077
1160,1686623741.32,-30.273,-998.047,58.594,-58.594,3119.219,370.292801616686
1161,1686623741.33,21.484,-290.527,223.145,32.227,3119.223,377.7795300109536
1162,1686623741.33,26.367,10.742,54.688,47.852,3119.227,381.9810654546638
1163,1686623741.34,-19.531,-419.434,-12.695,-53.223,3119.231,379.40498408424344
1164,1686623741.34,-35.645,-185.547,72.266,-93.75,3119.239,383.1331327644097
1165,1686623741.34,11.719,302.246,82.031,-9.277,3119.243,386.79722079818106
1166,1686623741.35,33.691,208.984,15.137,48.34,3119.247,375.2189102288116
1167,1686623741.35,-16.113,-407.227,71.289,-21.484,3119.251,370.80893073101004
1168,1686623741.36,-58.105,-259.766,103.027,-104.004,3119.255,375.1657972162444
1169,1686623741.36,-13.184,-114.746,30.273,-34.18,3119.258,387.4327855269292
1170,1686623741.36,28.32,-310.059,21.484,50.781,3119.262,381.44825514245747
1171,1686623741.37,-8.301,-752.441,46.875,0.0,3119.266,378.0666721263331
1172,1686623741.37,-47.363,-375.488,155.762,-85.938,3119.27,378.2873471176342
1173,1686623741.37,-30.762,147.461,70.801,-58.594,3119.274,389.856318350456
1174,1686623741.38,21.484,82.52,21.484,38.574,3119.278,383.4717662030294
1175,1686623741.38,14.648,23.438,36.621,30.762,3119.282,381.4440500040865
1176,1686623741.38,-31.738,-145.02,44.922,-68.848,3119.282,378.3640177589438
1177,1686623741.39,-31.738,-48.828,38.574,-75.195,3119.286,368.10900048727586
1178,1686623741.39,18.066,-74.219,61.523,20.02,3119.29,382.5998465736559
1179,1686623741.4,27.832,-35.645,199.219,47.363,3119.293,385.34279957302675
1180,1686623741.4,-27.832,5.859,61.523,-49.316,3119.297,371.3256360107825
1181,1686623741.4,-54.199,-245.605,20.508,-103.027,3119.301,389.9322149898938
1182,1686623741.41,-18.555,-546.875,33.203,-7.812,3119.305,375.09262557557537
1183,1686623741.41,8.789,-993.164,50.293,65.43,3119.309,382.58676250394154
1184,1686623741.41,-18.555,-422.363,247.559,-7.812,3119.313,388.5861339786474
1185,1686623741.42,-55.664,25.391,102.539,-98.633,3119.317,387.74603823478986
1186,1686623741.42,-27.344,-212.402,28.809,-39.551,3119.321,386.1674219941119
1187,1686623741.43,14.648,147.949,92.773,52.734,3119.325,381.6270164958089
1188,1686623741.44,-5.859,404.785,31.25,0.977,3119.34,378.64362437901207
1189,1686623741.45,-39.551,81.055,21.973,-100.586,3119.344,376.31516885089496
1190,1686623741.45,-22.461,-400.391,96.68,-70.801,3119.348,378.27274988658894
1191,1686623741.45,32.227,-90.82,138.184,45.898,3119.351,366.7213664270059
1192,1686623741.46,13.184,367.188,62.012,24.902,3119.355,375.5144002310623
1193,1686623741.46,-49.316,-127.93,-26.855,-78.613,3119.359,369.0550948645877
1194,1686623741.46,-48.828,-920.898,32.227,-91.797,3119.363,380.1380867920498
1195,1686623741.47,5.371,-437.5,318.848,-8.301,3119.367,378.4829990904804
1196,1686623741.47,10.742,326.66,32.227,48.828,3119.397,376.24859429410776
1197,1686623741.47,20.996,341.797,227.051,36.133,3119.371,378.90942814655955
1198,1686623741.48,-18.066,24.414,17.09,-5.371,3119.401,376.57890458888374
1199,1686623741.48,-30.762,77.148,-17.578,-45.898,3119.375,367.4402497967339
1200,1686623741.48,-58.105,-206.055,81.055,-97.168,3119.405,389.2427003750123
1201,1686623741.48,-59.082,-163.086,48.828,-108.887,3119.379,388.5425333359578
1202,1686623741.48,-33.691,42.969,82.031,-56.641,3119.409,388.53686401152913
1203,1686623741.48,-19.043,116.211,72.266,-34.18,3119.383,379.2884430363971
1204,1686623741.49,18.066,158.691,14.16,37.109,3119.413,386.64176009834466
1205,1686623741.49,1.465,-340.82,5.371,28.32,3119.417,380.87278936764943
1206,1686623741.5,-42.48,-658.691,104.004,-74.707,3119.42,396.1245243061203
1207,1686623741.5,-23.438,-449.707,77.148,-88.379,3119.424,385.67726449460605
1208,1686623741.5,26.855,-165.527,65.43,23.438,3119.428,376.75283020458846
1209,1686623741.51,19.043,-515.625,-56.641,44.434,3119.432,376.9630227062141
1210,1686623741.51,-31.25,-985.352,27.832,-70.801,3119.436,381.6034640932214
1211,1686623741.52,-33.691,-207.031,208.008,-96.191,3119.44,377.17306986778266
1212,1686623741.55,5.859,195.801,53.711,-4.395,3119.445,378.547658704845
1213,1686623741.55,13.184,-209.961,83.496,35.645,3119.449,376.3332095984968
1214,1686623741.56,-26.367,-55.664,99.121,-36.621,3119.453,372.5449157464557
1215,1686623741.56,-49.805,140.625,20.02,-100.098,3119.457,371.8941526975151
1216,1686623741.56,-8.301,35.645,29.297,-26.855,3119.461,390.01461169925227
1217,1686623741.57,18.555,-275.879,67.383,56.152,3119.464,385.8296717616461
1218,1686623741.57,-8.789,-177.734,79.59,-6.836,3119.468,383.0383618622736
1219,1686623741.57,-36.621,11.719,51.27,-87.402,3119.472,382.74001541044134
1220,1686623741.58,-39.551,-330.566,1.953,-77.148,3119.473,370.50015603603975
1221,1686623741.58,-10.254,-366.699,11.719,-46.875,3119.476,388.1815762698572
1222,1686623741.58,3.906,-500.977,191.895,23.926,3119.477,390.94977269735296
1223,1686623741.58,25.391,-700.684,148.438,40.039,3119.48,381.8113128189562
1224,1686623741.58,11.23,129.395,202.148,32.227,3119.481,382.0689288343633
1225,1686623741.59,0.0,-73.73,223.633,14.16,3119.484,384.98748910991196
1226,1686623741.59,-42.48,184.57,13.672,-62.988,3119.485,381.5070947440075
1227,1686623741.59,-43.457,221.191,30.762,-88.867,3119.488,378.87103353552146
1228,1686623741.59,-49.316,-379.395,10.254,-92.285,3119.489,369.1692418283958
1229,1686623741.6,5.859,-425.293,83.008,-0.488,3119.493,382.07036364985566
1230,1686623741.6,30.273,-111.328,66.895,55.664,3119.497,373.7949847476255
1231,1686623741.6,-7.812,-199.219,-15.625,-28.32,3119.501,388.55993627537714
1232,1686623741.61,-41.504,-632.324,-20.996,-104.98,3119.504,387.60981076480954
1233,1686623741.61,-5.859,-421.875,221.191,-34.18,3119.508,371.31738364798673
1234,1686623741.62,27.344,41.016,166.016,52.246,3119.512,377.17006548153034
1235,1686623741.62,-0.488,-99.121,-3.418,5.859,3119.516,379.79948794643434
1236,1686623741.62,-46.387,-766.602,-59.082,-86.426,3119.533,370.6065477032724
1237,1686623741.63,-25.391,-887.695,156.25,-57.617,3119.537,386.44692204366686
1238,1686623741.63,29.785,76.172,255.859,31.738,3119.541,375.99519291636597
1239,1686623741.64,18.066,261.719,9.277,23.438,3119.545,379.07160165522396
1240,1686623741.64,-32.227,-169.434,33.691,-72.266,3119.549,380.4386449381125
1241,1686623741.64,-25.391,-357.422,66.895,-79.59,3119.552,369.5143432961924
1242,1686623741.65,28.32,-22.461,87.402,22.461,3119.556,381.9627221022687
1243,1686623741.65,24.902,76.172,2.93,53.223,3119.56,388.2725181828102
1244,1686623741.66,-22.949,-738.77,15.625,-26.367,3119.564,373.56245118600344
1245,1686623741.66,-28.32,-379.883,163.574,-81.543,3119.568,376.5682331406984
1246,1686623741.66,21.484,294.922,76.172,-11.23,3119.572,392.53623164838484
1247,1686623741.67,-12.207,-215.332,37.598,-30.273,3119.566,390.0680936848349
1248,1686623741.67,35.645,139.16,17.578,48.828,3119.576,382.70505842060857
1249,1686623741.67,-39.062,-314.453,47.852,-100.586,3119.57,388.43784513718606
1250,1686623741.68,5.371,0.0,39.551,-39.551,3119.574,377.45793691995374
1251,1686623741.68,38.574,-64.453,46.875,52.734,3119.578,379.82347608131494
1252,1686623741.68,8.789,-280.273,135.742,27.344,3119.582,392.6466565296219
1253,1686623741.69,-37.109,-411.133,61.523,-82.52,3119.586,374.6387916638085
1254,1686623741.69,-5.859,-390.625,23.926,-64.453,3119.59,387.0731078257886
1255,1686623741.69,52.246,-565.918,-7.324,37.598,3119.594,388.30729961856366
1256,1686623741.7,32.715,-611.328,116.699,16.602,3119.598,373.51434364300144
1257,1686623741.7,-26.855,18.066,114.746,-92.285,3119.601,379.61934693473813
1258,1686623741.71,-30.762,77.637,0.0,-102.051,3119.605,384.8336807938692
1259,1686623741.71,14.16,-490.234,0.977,-1.465,3119.609,374.16183923750367
1260,1686623741.71,24.902,-198.73,153.809,33.203,3119.611,382.3002181039159
1261,1686623741.72,-17.09,290.039,67.871,-49.805,3119.615,388.43224617146177
1262,1686623741.72,-37.109,-39.551,-21.484,-103.516,3119.618,376.34038889715407
1263,1686623741.72,0.977,-368.164,79.59,-29.785,3119.622,376.58626950442493
1264,1686623741.73,19.531,-84.961,78.613,43.945,3119.626,386.9667020930145
1265,1686623741.73,-18.555,-39.062,26.367,-14.648,3119.63,376.87428933344125
1266,1686623741.74,-51.758,-449.707,-3.906,-96.68,3119.634,384.7857812866695
1267,1686623741.74,-29.785,-898.438,44.922,-50.293,3119.638,386.42053697396835
1268,1686623741.74,22.949,-367.676,278.32,43.457,3119.642,384.8108804083755
1269,1686623741.75,12.695,312.012,129.395,10.254,3119.646,387.06996080976955
1270,1686623741.75,-40.527,-55.176,-33.691,-100.098,3119.65,375.1102276961007
1271,1686623741.76,-38.086,-180.664,81.055,-82.52,3119.654,378.1601119326593
1272,1686623741.76,1.465,201.172,67.383,16.602,3119.653,380.070187978638
1273,1686623741.76,5.859,289.062,-1.465,18.555,3119.657,387.02994338312055
1274,1686623741.76,-35.156,-148.926,0.977,-65.918,3119.661,376.0576466003642
1275,1686623741.77,-36.621,-189.941,118.164,-86.914,3119.665,370.85273043620975
1276,1686623741.77,5.859,70.801,68.848,12.207,3119.669,388.0650119874178
1277,1686623741.78,23.438,-91.309,19.531,52.734,3119.673,374.25775283823697
1278,1686623741.78,-17.578,-527.344,-41.504,-37.598,3119.677,383.375501313066
1279,1686623741.78,-46.875,-1000.0,5.371,-101.562,3119.681,379.22286111452155
1280,1686623741.79,-3.418,-340.332,175.781,-41.504,3119.684,380.6487013148074
1281,1686623741.79,30.273,325.684,53.223,33.691,3119.688,383.476508539975
1282,1686623741.8,-11.23,-311.035,-67.383,-18.555,3119.692,380.5945155066803
1283,1686623741.8,-58.105,-333.984,33.691,-110.352,3119.696,380.32508877407884
1284,1686623741.8,-23.926,210.449,65.43,-65.43,3119.712,374.66862199028105
1285,1686623741.81,24.414,226.074,14.648,43.945,3119.716,377.9090610284327
1286,1686623741.81,5.859,-229.004,118.652,26.367,3119.72,380.5466477631317
1287,1686623741.82,-41.992,-143.555,101.562,-79.59,3119.724,379.06313218153906
1288,1686623741.82,-34.18,11.719,6.836,-82.031,3119.728,381.7467933055495
1289,1686623741.82,20.508,-262.695,7.812,24.414,3119.732,390.4756875221407
1290,1686623741.83,14.16,-771.973,39.551,40.039,3119.736,382.86685444395994
1291,1686623741.83,-33.203,-328.125,136.719,-63.965,3119.74,378.1529769528714
1292,1686623741.83,-39.062,41.504,44.434,-96.68,3119.744,380.2837320509636
1293,1686623741.84,-6.348,-324.219,27.832,0.977,3119.748,380.67482356362257
1294,1686623741.84,8.301,-303.223,144.531,54.688,3119.751,376.7975154280766
1295,1686623741.85,-20.996,110.352,94.727,-22.949,3119.755,375.08574618861167
