,timestamps,TP9,AF7,AF8,TP10,Secondary Timestamp,emg_signal
0,1685672075.93,-59.57,-242.188,-81.543,-91.309,1296.828,321.33998079625115
1,1685672075.94,28.32,-20.02,93.75,13.184,1296.832,314.15262736176294
2,1685672075.94,86.914,503.418,259.766,91.797,1296.836,313.90973149558386
3,1685672075.94,15.625,309.082,107.91,-7.812,1296.84,311.1671110594289
4,1685672075.95,-60.547,-283.691,-170.898,-112.793,1296.844,312.34708714867344
5,1685672075.95,2.441,-437.5,-109.863,-31.25,1296.848,315.774576129062
6,1685672075.96,79.102,44.922,156.25,71.777,1296.851,313.217156119148
7,1685672075.96,38.086,286.133,120.117,21.973,1296.855,313.49660748426004
8,1685672075.96,-53.223,-497.07,-203.125,-84.473,1296.859,315.46992910685793
9,1685672075.97,-42.969,-463.379,-38.086,-74.219,1296.863,314.80392659954856
10,1685672075.97,57.129,402.344,275.391,52.734,1296.867,318.61049592855943
11,1685672075.97,65.43,278.809,94.727,67.871,1296.871,311.07763904637386
12,1685672075.98,-21.484,-97.656,-63.477,-51.27,1296.872,309.49552030566934
13,1685672075.98,-41.504,16.113,60.059,-85.938,1296.876,307.08111387836686
14,1685672075.98,38.574,152.832,132.812,31.25,1296.88,313.9347187135266
15,1685672075.99,60.547,-171.387,-62.012,81.543,1296.884,314.16754211869915
16,1685672075.99,-22.461,-459.961,-195.801,-27.344,1296.888,314.0768977233414
17,1685672076.0,-65.918,-368.652,-103.027,-96.191,1296.892,318.015447764618
18,1685672076.0,2.441,-232.422,4.395,-2.441,1296.896,318.28717912655844
19,1685672076.0,66.895,-386.719,-49.316,94.238,1296.9,315.2179971781992
20,1685672076.01,16.113,-919.922,-306.641,31.25,1296.904,317.6054882394459
21,1685672076.01,-58.594,-400.391,-9.277,-78.613,1296.908,307.2847217262014
22,1685672076.02,-10.742,216.797,150.391,-27.832,1296.911,313.0806852760304
23,1685672076.02,76.172,149.414,139.648,89.844,1296.915,314.3208001739754
24,1685672076.02,47.852,204.59,172.852,64.453,1296.917,314.93191457626136
25,1685672076.02,-23.438,259.766,94.238,-44.922,1296.921,311.14560772508815
26,1685672076.03,-8.789,101.074,27.832,-39.062,1296.925,308.52564158792933
27,1685672076.03,68.359,94.238,131.348,70.312,1296.929,308.21824731694767
28,1685672076.04,67.383,296.387,212.891,82.031,1296.933,316.9722935461093
29,1685672076.04,-25.391,6.836,30.762,-29.297,1296.937,313.5471097837535
30,1685672076.04,-55.176,-288.574,-104.492,-71.289,1296.941,314.86424613828933
31,1685672076.05,26.367,-748.535,-250.0,47.852,1296.945,308.5383927371115
32,1685672076.05,72.266,-613.281,-85.938,110.84,1296.949,311.70305085507636
33,1685672076.06,5.371,242.676,193.359,0.977,1296.953,319.43558861604174
34,1685672076.06,-52.734,-14.648,-18.066,-74.707,1296.957,309.86327116944176
35,1685672076.06,3.418,-112.793,-6.836,3.906,1296.96,313.3263239066386
36,1685672076.08,63.477,353.027,200.684,91.309,1296.978,313.64408195444963
37,1685672076.08,10.254,447.754,214.355,24.414,1296.981,315.34705047360217
38,1685672076.09,-67.383,-116.211,-87.402,-81.543,1296.985,309.44680476233754
39,1685672076.09,-31.25,-254.883,-88.867,-33.691,1296.989,312.0109731238724
40,1685672076.1,61.035,286.133,188.477,83.984,1296.993,313.8138412721434
41,1685672076.1,43.457,155.762,121.582,63.965,1296.997,316.372595541494
42,1685672076.1,-41.992,-492.188,-198.242,-54.688,1297.001,312.1097789205042
43,1685672076.11,-53.223,-1000.0,-487.793,-66.895,1297.005,315.9044681819484
44,1685672076.11,1.953,244.629,172.852,20.996,1297.021,315.62498980338677
45,1685672076.11,37.109,-387.207,-9.766,39.062,1297.009,311.97934094564135
46,1685672076.12,45.41,459.961,198.73,83.984,1297.025,315.3354248195569
47,1685672076.12,55.664,492.188,280.762,62.012,1297.013,316.7131936781822
48,1685672076.12,-22.461,142.578,97.168,-3.906,1297.028,311.8317586684641
49,1685672076.12,-33.691,-149.414,-72.266,-30.273,1297.017,312.5413767005552
50,1685672076.12,-82.52,37.109,66.895,-91.797,1297.032,312.6638659010366
51,1685672076.12,-70.801,-508.301,-132.812,-69.824,1297.021,310.85127297945405
52,1685672076.13,-24.414,221.191,120.605,-14.648,1297.036,313.25163009521214
53,1685672076.13,56.152,102.539,102.051,90.82,1297.04,315.707196129987
54,1685672076.14,16.113,-98.145,80.566,27.344,1297.044,313.3134353897805
55,1685672076.14,-75.684,-41.016,65.43,-92.285,1297.048,312.59469125172495
56,1685672076.14,-54.688,143.066,117.676,-61.035,1297.052,313.6651982280839
57,1685672076.15,37.109,221.191,180.664,57.617,1297.056,310.29276295858335
58,1685672076.15,30.273,-530.273,-119.629,61.035,1297.06,315.61433721804093
59,1685672076.15,-45.898,-547.852,-113.77,-50.781,1297.064,310.5650182527145
60,1685672076.16,-45.41,136.23,136.719,-73.73,1297.066,314.247631493612
61,1685672076.16,43.457,12.695,45.41,41.992,1297.07,312.76759596349575
62,1685672076.16,65.918,-65.918,21.484,84.473,1297.074,313.03960932348343
63,1685672076.17,-18.555,156.738,109.375,-21.973,1297.078,311.743642014936
64,1685672076.17,-60.059,105.469,51.27,-95.215,1297.082,310.7902565043029
65,1685672076.18,10.742,-375.977,-154.297,-1.953,1297.086,315.41742800135904
66,1685672076.18,54.688,-652.344,-152.832,75.684,1297.09,311.5916359416824
67,1685672076.18,-16.113,-292.969,25.879,-15.137,1297.094,313.2324624891622
68,1685672076.19,-80.078,-18.555,29.785,-106.934,1297.098,313.61593328622297
69,1685672076.19,-21.973,-424.316,-116.699,-35.645,1297.102,314.9519295652884
70,1685672076.2,57.129,-363.281,-20.508,60.547,1297.105,316.97051977615797
71,1685672076.2,23.438,286.621,208.984,5.371,1297.109,318.6423729716769
72,1685672076.22,-55.664,135.742,64.941,-94.727,1297.112,312.44698946166534
73,1685672076.22,-47.852,-621.094,-282.715,-65.43,1297.116,305.7572804966411
74,1685672076.22,41.992,-649.414,-178.223,47.363,1297.12,312.94938367012566
75,1685672076.23,49.805,354.98,247.07,48.34,1297.124,314.8854727206155
76,1685672076.23,-34.668,223.633,62.012,-49.316,1297.128,320.6428900861975
77,1685672076.24,-55.176,-457.52,-183.594,-67.383,1297.131,314.00188766096505
78,1685672076.24,22.949,-229.98,32.227,32.227,1297.135,316.10923050392915
79,1685672076.24,65.43,401.367,270.02,78.613,1297.139,312.1563496627724
80,1685672076.25,-5.371,217.773,40.527,-14.648,1297.143,313.709191237964
81,1685672076.25,-52.734,-572.754,-231.445,-74.219,1297.147,313.27890807270387
82,1685672076.26,30.273,-297.852,26.855,16.602,1297.151,316.9096883118271
83,1685672076.26,97.168,454.59,273.926,104.492,1297.155,312.4661247710318
84,1685672076.26,26.855,167.969,36.621,26.855,1297.17,316.6831113354863
85,1685672076.26,-55.664,-226.562,-90.332,-80.566,1297.174,312.7071958793021
86,1685672076.27,-3.418,56.152,108.887,-27.344,1297.178,314.33494072864636
87,1685672076.27,75.195,230.957,171.875,83.984,1297.182,317.4457144771923
88,1685672076.28,34.18,-239.258,-80.078,52.734,1297.186,313.96315279922226
89,1685672076.28,-57.617,-757.812,-323.73,-60.547,1297.189,315.325951733813
90,1685672076.28,-44.922,-528.809,-150.879,-54.688,1297.193,314.6516596737554
91,1685672076.29,55.664,-121.582,82.52,61.035,1297.197,315.54048105757846
92,1685672076.29,60.547,-346.191,-60.059,80.078,1297.201,317.613588994851
93,1685672076.3,-33.203,-943.359,-362.793,-26.855,1297.205,317.4582509484417
94,1685672076.3,-52.734,-395.508,-1.953,-71.777,1297.209,311.16744990825055
95,1685672076.3,29.785,296.875,209.473,26.855,1297.213,315.4957548053131
96,1685672076.31,74.707,225.098,170.898,88.379,1297.201,316.71236739723815
97,1685672076.31,3.418,153.32,127.93,-6.836,1297.205,309.25438638793287
98,1685672076.31,-62.988,178.223,93.262,-88.379,1297.209,318.8254955925268
99,1685672076.32,1.465,175.293,115.723,-6.836,1297.213,313.45198243834693
100,1685672076.32,70.312,195.801,166.992,86.426,1297.216,317.3114882599403
101,1685672076.33,19.531,-5.859,111.328,23.438,1297.22,315.4651004860883
102,1685672076.33,-56.152,-274.414,-101.562,-83.008,1297.224,314.6375037522216
103,1685672076.33,-26.855,-335.449,-104.004,-42.969,1297.228,314.9682089533941
104,1685672076.34,50.781,-295.41,103.516,71.289,1297.232,313.3081818027729
105,1685672076.34,43.457,70.801,181.152,60.059,1297.236,313.40936560038114
106,1685672076.34,-34.668,282.715,153.809,-44.434,1297.24,317.26785170202896
107,1685672076.35,-40.527,-14.648,17.09,-53.711,1297.244,315.6347540072491
108,1685672076.35,47.852,-533.691,-118.652,59.082,1297.247,317.9619454304644
109,1685672076.36,67.871,-86.426,125.0,91.309,1297.251,312.33789404983236
110,1685672076.36,-12.207,354.98,187.012,-11.719,1297.255,316.9489231202285
111,1685672076.36,-45.41,-173.828,-82.52,-63.965,1297.259,317.94658420441687
112,1685672076.37,34.18,-169.922,-14.16,37.598,1297.263,310.455893750289
113,1685672076.37,80.078,84.961,148.926,107.91,1297.267,312.34227778727075
114,1685672076.38,12.695,-75.684,57.129,18.066,1297.271,309.01928165635303
115,1685672076.38,-52.246,-504.395,-204.102,-63.477,1297.275,311.2951365043442
116,1685672076.38,-2.93,-1000.0,-449.219,16.113,1297.278,312.8879771619651
117,1685672076.39,83.008,-429.199,-21.973,108.398,1297.282,314.4897802849594
118,1685672076.39,46.387,441.406,241.211,51.27,1297.286,315.1297536781142
119,1685672076.39,-43.945,-7.324,-12.695,-53.711,1297.29,317.90712841363455
120,1685672076.4,-17.578,-70.801,43.945,-24.414,1297.293,307.58592124187504
121,1685672076.4,77.148,444.336,234.863,89.844,1297.297,319.4051718664159
122,1685672076.4,78.613,464.355,176.27,88.379,1297.301,314.46288362232673
123,1685672076.41,-13.184,42.48,51.758,-22.461,1297.304,310.1346624695815
124,1685672076.41,-30.762,-2.93,61.035,-41.992,1297.308,314.8590959670592
125,1685672076.42,56.152,43.457,97.656,75.195,1297.312,314.7645652553741
126,1685672076.42,79.102,-15.625,108.887,114.746,1297.316,312.9268129642959
127,1685672076.42,-9.277,-505.859,-135.254,5.371,1297.32,315.60886080776555
128,1685672076.43,-57.617,-485.84,-62.988,-66.406,1297.324,313.8358355983398
129,1685672076.43,32.715,293.945,206.543,29.785,1297.328,316.07320103372587
130,1685672076.44,100.098,287.598,123.047,111.328,1297.332,315.8690658077355
131,1685672076.44,33.691,-122.559,23.926,38.574,1297.336,317.60219707344527
132,1685672076.44,-40.527,-84.961,62.012,-54.688,1297.35,315.4700523330049
133,1685672076.44,9.277,291.504,206.543,-0.977,1297.354,316.66838333332674
134,1685672076.45,96.68,104.492,35.645,107.422,1297.358,313.4184692957523
135,1685672076.45,53.223,-286.133,-87.402,59.082,1297.362,317.4869620211575
136,1685672076.46,-45.898,-89.355,36.133,-59.57,1297.366,315.1036377223619
137,1685672076.46,-36.133,-157.227,-70.312,-42.969,1297.37,309.0740114359286
138,1685672076.46,45.898,-390.625,-126.465,69.824,1297.374,314.6854720271553
139,1685672076.47,41.016,-886.719,-304.199,83.008,1297.378,312.44129511093314
140,1685672076.47,-52.734,-468.75,-50.293,-45.898,1297.381,318.440575888301
141,1685672076.48,-69.336,126.465,119.629,-86.914,1297.385,312.4632841940234
142,1685672076.48,27.344,30.273,127.441,28.809,1297.389,313.8321074387746
143,1685672076.48,72.754,240.723,199.219,74.707,1297.393,316.1806589571254
144,1685672076.49,-2.441,392.09,149.414,-26.855,1297.386,310.9271038702814
145,1685672076.49,-58.594,48.828,3.418,-96.68,1297.39,312.05427929786043
146,1685672076.5,8.789,-366.211,-66.406,-7.812,1297.394,316.2964570752739
147,1685672076.5,76.66,-9.277,125.488,80.566,1297.397,313.61283601140326
148,1685672076.5,23.438,401.855,201.172,8.789,1297.401,316.8344450094527
149,1685672076.51,-62.012,-118.164,-88.867,-87.402,1297.405,316.95790574084253
150,1685672076.51,-38.574,-701.66,-225.586,-38.086,1297.409,318.7820075163517
151,1685672076.51,49.316,-162.109,110.352,64.453,1297.413,316.40041564323536
152,1685672076.52,40.527,501.953,249.023,44.922,1297.417,315.767929642197
153,1685672076.52,-44.922,124.512,26.855,-68.359,1297.421,310.65336765780876
154,1685672076.53,-43.457,-363.281,-123.047,-67.871,1297.425,318.73363147592283
155,1685672076.53,43.457,-46.387,72.754,52.734,1297.429,313.39311195519423
156,1685672076.53,54.688,468.75,248.535,71.777,1297.442,311.9572897027567
157,1685672076.54,-31.25,46.875,-5.371,-32.715,1297.446,312.7635588787696
158,1685672076.54,-59.082,-318.359,-128.418,-71.289,1297.45,311.51855011842076
159,1685672076.54,31.25,115.723,127.93,28.809,1297.454,314.8937809900654
160,1685672076.55,74.219,238.77,174.316,89.355,1297.457,310.3721650467703
161,1685672076.55,-9.766,-390.625,-147.949,-1.953,1297.461,313.5728589150594
162,1685672076.56,-80.078,-974.121,-439.941,-83.008,1297.465,314.21956247623433
163,1685672076.56,-5.371,-537.109,-57.617,-9.277,1297.469,317.0843914879568
164,1685672076.56,86.914,297.363,232.91,98.145,1297.473,316.9688096779301
165,1685672076.57,37.598,-125.0,-97.656,50.781,1297.477,312.81569053602055
166,1685672076.57,-54.688,-639.648,-227.051,-67.383,1297.481,307.99904226940123
167,1685672076.57,-27.344,56.641,147.461,-40.527,1297.485,315.8971611237366
168,1685672076.59,64.941,353.516,169.922,87.891,1297.487,308.0817952111909
169,1685672076.6,49.805,139.648,107.91,71.777,1297.491,314.42430829327304
170,1685672076.6,-31.738,0.977,88.867,-52.246,1297.495,314.63965346881884
171,1685672076.6,-31.25,141.113,116.211,-62.988,1297.499,316.19577210650476
172,1685672076.61,55.664,258.789,133.301,48.828,1297.503,319.67568539324134
173,1685672076.61,68.848,-34.668,31.25,83.984,1297.507,314.7201737936707
174,1685672076.62,-16.113,-310.059,-24.902,-26.855,1297.511,317.75959231825874
175,1685672076.62,-48.828,-253.418,-54.688,-85.938,1297.515,317.07113875513966
176,1685672076.62,27.832,52.246,61.035,9.766,1297.519,316.34470690184844
177,1685672076.63,65.43,-450.684,-94.238,81.543,1297.523,312.76156910937266
178,1685672076.63,-1.465,-565.43,-119.141,-4.395,1297.526,316.8981838209772
179,1685672076.63,-60.547,108.398,114.746,-98.145,1297.53,312.6111877725395
180,1685672076.64,-18.066,-40.039,19.531,-28.809,1297.532,310.46430290951906
181,1685672076.64,62.012,20.508,76.66,82.52,1297.536,316.93713645604595
182,1685672076.64,30.762,358.887,182.617,41.016,1297.54,310.7635213880741
183,1685672076.65,-54.199,219.727,87.402,-72.754,1297.544,316.38184348303884
184,1685672076.65,-31.738,-188.965,-61.523,-49.805,1297.548,316.025036866331
185,1685672076.66,58.594,-296.875,-25.879,79.102,1297.552,317.0969463436322
186,1685672076.66,57.129,-125.0,77.148,70.801,1297.556,313.4983304581052
187,1685672076.66,-38.574,-216.797,-54.199,-61.523,1297.56,314.40870785053625
188,1685672076.67,-60.547,-581.543,-284.18,-80.078,1297.564,312.1368130536768
189,1685672076.67,31.25,-1000.0,-398.926,44.434,1297.567,318.06762389479286
190,1685672076.68,57.129,-385.742,19.531,79.102,1297.571,312.462070123399
191,1685672076.68,-20.02,308.594,181.641,-25.391,1297.575,312.0254905616591
192,1685672076.68,-68.359,-136.23,-52.246,-83.008,1297.578,313.98204869531315
193,1685672076.68,10.742,-34.18,67.383,11.23,1297.582,313.5085999232283
194,1685672076.69,76.66,481.445,232.91,90.82,1297.585,314.77754751351176
195,1685672076.69,12.207,374.023,125.977,14.648,1297.589,313.95040661399844
196,1685672076.7,-62.012,-89.355,-43.457,-90.332,1297.593,314.5552965857249
197,1685672076.7,-17.09,-276.855,-23.438,-36.133,1297.597,311.4000977070423
198,1685672076.7,67.383,-20.996,142.578,79.102,1297.601,313.08403860036134
199,1685672076.71,30.762,191.895,89.355,37.598,1297.605,314.9576353278551
200,1685672076.71,-63.477,-493.164,-204.102,-70.312,1297.609,312.78006648475593
201,1685672076.72,-41.992,-436.035,-22.461,-54.688,1297.613,312.6968061984316
202,1685672076.72,57.617,400.879,262.207,70.801,1297.617,312.1540630897389
203,1685672076.72,60.059,247.559,110.352,90.332,1297.621,312.2637486019049
204,1685672076.73,-22.949,-288.086,-145.508,-28.809,1297.622,309.88913118124253
205,1685672076.73,-46.387,-152.832,2.93,-75.684,1297.626,312.30125200879644
206,1685672076.73,47.363,305.664,208.496,32.715,1297.63,311.4231987444787
207,1685672076.74,83.984,94.238,14.16,94.727,1297.634,313.7527416140926
208,1685672076.74,3.418,-393.555,-129.883,-10.742,1297.638,308.672756281485
209,1685672076.75,-46.875,-324.219,-73.242,-88.867,1297.642,311.05286882946814
210,1685672076.75,17.578,-179.688,6.348,1.465,1297.646,312.5906429397768
211,1685672076.75,92.285,-348.145,-52.734,106.445,1297.65,309.606497980914
212,1685672076.76,32.227,-919.434,-324.707,49.316,1297.654,309.88422130432303
213,1685672076.76,-44.922,-421.387,-25.879,-63.477,1297.658,310.4556291562252
214,1685672076.76,0.977,209.473,157.715,-25.879,1297.662,314.0225227140289
215,1685672076.77,78.613,149.414,175.781,81.055,1297.665,315.4930800299082
216,1685672076.77,62.988,261.719,199.219,60.059,1297.667,311.7116734268816
217,1685672076.78,-16.602,287.598,117.188,-45.41,1297.671,313.2081189522898
218,1685672076.78,-24.414,5.859,32.227,-53.711,1297.675,314.8172418069981
219,1685672076.78,50.781,-267.09,-12.207,52.246,1297.679,309.4992088387447
220,1685672076.79,67.383,24.414,125.488,72.754,1297.683,316.2228602158588
221,1685672076.79,-17.578,6.348,47.363,-43.945,1297.687,313.0825018563764
222,1685672076.8,-61.035,-340.82,-126.953,-93.75,1297.691,315.77872375298847
223,1685672076.8,17.578,-635.742,-133.789,15.137,1297.695,315.54112581575515
224,1685672076.8,70.801,-263.184,42.969,74.707,1297.699,310.5550204174134
225,1685672076.81,-2.93,363.281,180.664,-25.391,1297.703,313.80965543517266
226,1685672076.81,-63.965,-45.898,-6.348,-101.074,1297.707,314.52098243843534
227,1685672076.81,0.977,-199.219,-39.551,-18.066,1297.71,310.2256381321789
228,1685672076.82,73.242,282.715,188.965,80.078,1297.712,315.5423092426251
229,1685672076.82,36.621,431.152,211.914,31.738,1297.716,314.9938543750972
230,1685672076.82,-54.199,-84.961,-94.727,-78.125,1297.72,313.02448476836554
231,1685672076.83,-43.945,-222.656,-97.168,-55.664,1297.724,316.72393718407415
232,1685672076.83,49.316,194.336,158.203,67.383,1297.728,314.78079262595566
233,1685672076.84,44.922,56.152,66.406,58.594,1297.732,316.1069001631221
234,1685672076.84,-46.875,-516.602,-257.812,-60.059,1297.736,316.58851101084286
235,1685672076.84,-54.688,-1000.0,-505.371,-63.965,1297.74,309.7014632675454
236,1685672076.85,41.504,-436.523,-68.848,47.363,1297.744,316.63432988374393
237,1685672076.85,79.102,379.883,236.328,76.66,1297.747,311.24121225084673
238,1685672076.86,-16.113,-204.59,-67.383,-26.367,1297.751,310.85891195268067
239,1685672076.86,-68.848,-422.363,-90.82,-87.891,1297.755,312.61921328861916
240,1685672076.86,19.531,287.109,194.336,9.766,1297.771,312.0079087973997
241,1685672076.86,68.848,481.445,211.426,80.078,1297.775,312.88240184401957
242,1685672076.87,0.0,125.977,83.984,-8.789,1297.779,312.52233677297465
243,1685672076.87,-62.5,-54.688,27.344,-92.773,1297.783,317.7319529862978
244,1685672076.88,-8.789,150.391,99.609,-24.902,1297.787,307.5571982490536
245,1685672076.88,66.895,98.633,114.258,82.031,1297.791,307.6339462582101
246,1685672076.88,23.438,-461.914,-119.141,40.527,1297.795,309.78333343366563
247,1685672076.89,-58.105,-634.766,-227.539,-73.242,1297.799,311.7332615128762
248,1685672076.89,-29.297,-156.738,2.93,-42.48,1297.803,311.72237250596635
249,1685672076.9,57.617,140.137,137.207,79.59,1297.806,309.5365182588509
250,1685672076.9,46.387,-129.395,40.527,70.312,1297.81,308.42158429905686
251,1685672076.9,-44.434,-97.656,56.152,-54.688,1297.814,309.803687497111
252,1685672076.91,-62.5,155.273,105.469,-80.566,1297.817,309.4437656550127
253,1685672076.91,24.414,53.711,81.543,24.902,1297.821,312.2494842515453
254,1685672076.91,54.688,63.965,103.516,70.801,1297.824,314.27525582786797
255,1685672076.92,-24.902,210.938,122.07,-22.949,1297.828,312.9008208140486
256,1685672076.92,-62.988,104.98,62.988,-83.008,1297.832,314.18649800161916
257,1685672076.93,4.395,-350.098,-112.793,12.207,1297.836,308.9497702384665
258,1685672076.93,62.988,-515.137,-124.023,99.609,1297.84,310.5578469384061
259,1685672076.93,14.648,-194.336,75.684,20.02,1297.844,309.886732291662
260,1685672076.94,-59.082,35.156,76.172,-85.449,1297.848,310.9127590673168
261,1685672076.94,-22.461,-386.719,-165.527,-32.715,1297.852,311.2814709523882
262,1685672076.94,60.547,-838.867,-212.891,77.637,1297.856,309.73638960843374
263,1685672076.95,42.48,-139.16,116.211,33.691,1297.86,313.1935712979459
264,1685672076.97,-47.852,154.785,56.152,-85.938,1297.862,311.7253769815661
265,1685672076.97,-43.457,-378.418,-93.75,-70.801,1297.866,312.1662204853955
266,1685672076.97,52.246,-195.801,81.543,49.805,1297.87,312.14259332154757
267,1685672076.98,49.805,423.828,234.863,72.754,1297.874,312.5860157267471
268,1685672076.98,-42.48,238.281,88.379,-36.621,1297.878,310.5950633246022
269,1685672076.99,-71.777,-365.234,-143.066,-80.566,1297.882,317.58384999661666
270,1685672076.99,14.648,-216.309,38.086,15.625,1297.886,309.68227811600264
271,1685672076.99,58.594,402.832,250.0,64.453,1297.89,310.884712231275
272,1685672077.0,-20.996,199.707,40.039,-25.391,1297.893,310.2048718515453
273,1685672077.0,-79.102,-549.805,-188.477,-95.215,1297.897,309.441011386044
274,1685672077.0,-8.301,-254.395,50.781,-9.277,1297.901,309.78562690421103
275,1685672077.01,67.383,506.348,280.273,93.75,1297.905,311.8802707361711
276,1685672077.01,14.648,164.551,39.062,27.344,1297.907,316.29870958381156
277,1685672077.02,-61.523,-390.137,-194.336,-94.727,1297.911,315.04181893895566
278,1685672077.02,-32.715,-86.914,22.949,-53.711,1297.915,311.9065308013828
279,1685672077.02,50.293,451.66,252.93,59.082,1297.919,308.8521436291278
280,1685672077.03,35.156,74.707,-9.766,38.086,1297.923,316.5855591932603
281,1685672077.03,-58.105,-687.5,-307.129,-65.43,1297.927,309.71818245805383
282,1685672077.04,-53.711,-507.324,-100.586,-57.617,1297.931,313.31329166975286
283,1685672077.04,38.086,-103.027,93.262,57.617,1297.935,310.3872222511774
284,1685672077.04,53.711,-279.785,-37.598,73.242,1297.939,313.67306399760855
285,1685672077.05,-42.969,-934.57,-365.234,-40.039,1297.942,306.9919664100196
286,1685672077.05,-79.59,-428.223,-42.969,-98.633,1297.946,312.3724884127002
287,1685672077.05,8.789,301.758,199.219,-9.766,1297.95,313.6554117967766
288,1685672077.06,45.41,253.906,177.246,62.5,1297.952,309.3550355405849
289,1685672077.06,-31.738,204.102,145.508,-18.066,1297.956,316.6591229539158
290,1685672077.06,-89.355,199.219,79.59,-99.609,1297.96,314.5436627493407
291,1685672077.07,-29.785,50.293,51.27,-23.438,1297.964,307.05759291328917
292,1685672077.07,34.668,-173.34,23.926,73.242,1297.968,314.6615466604789
293,1685672077.08,-2.441,-258.789,10.254,20.02,1297.972,310.27173894236705
294,1685672077.08,-63.965,-202.148,-20.02,-80.566,1297.976,309.3357762607638
295,1685672077.08,-25.391,-52.734,37.109,-33.691,1297.98,313.9131405264999
296,1685672077.09,37.598,-458.984,-26.855,72.754,1297.984,311.32310374931586
297,1685672077.09,10.742,-273.926,65.918,44.922,1297.988,310.31052438865254
298,1685672077.1,-71.777,295.898,177.734,-65.918,1297.992,314.46654708416395
299,1685672077.1,-68.848,-25.879,19.043,-68.359,1297.995,313.41269363859226
300,1685672077.1,24.902,-82.031,24.902,41.992,1298.027,312.4032181819315
301,1685672077.1,36.621,339.844,204.59,69.336,1298.031,312.15609014353953
302,1685672077.11,-50.293,337.402,162.109,-32.715,1298.035,317.41543882586944
303,1685672077.11,-84.961,-143.555,-63.965,-78.613,1298.039,311.45032208284084
304,1685672077.12,0.0,-180.176,-38.574,35.156,1298.043,317.2381618800234
305,1685672077.12,60.059,9.277,117.676,113.77,1298.047,313.2804030883873
306,1685672077.12,-6.836,-144.043,38.086,32.715,1298.05,314.7011725571299
307,1685672077.13,-69.824,-528.32,-227.051,-39.551,1298.054,313.0345824370542
308,1685672077.13,-17.578,-1000.0,-492.188,39.062,1298.058,312.9921391296996
309,1685672077.14,60.059,-576.66,-113.77,145.996,1298.062,313.0531687497075
310,1685672077.14,34.18,288.574,193.848,105.957,1298.066,313.82957546627495
311,1685672077.14,-51.27,-203.125,-44.434,-13.184,1298.07,308.495262521752
312,1685672077.15,-36.621,-251.465,31.25,-1.953,1298.056,313.60041615720746
313,1685672077.15,69.336,432.129,228.516,113.77,1298.06,313.6625451458548
314,1685672077.15,79.59,443.359,174.805,117.188,1298.064,308.56469807328097
315,1685672077.16,-14.16,-12.695,-15.137,9.766,1298.068,312.2319460079135
316,1685672077.16,-32.715,-71.777,6.348,-23.438,1298.072,315.71217647568386
317,1685672077.17,47.852,62.988,124.512,81.055,1298.076,309.1973587885918
318,1685672077.17,69.824,-24.902,85.449,127.93,1298.08,317.8365331592043
319,1685672077.17,2.93,-333.496,-55.176,30.762,1298.083,310.330802811904
320,1685672077.18,-39.062,-403.809,-73.242,-37.598,1298.087,306.64427712610814
321,1685672077.18,29.785,-43.457,83.008,44.434,1298.091,313.2020966082369
322,1685672077.18,86.426,167.969,137.695,123.047,1298.095,313.805404711844
323,1685672077.19,10.742,-105.957,75.684,42.48,1298.099,311.26873196117685
324,1685672077.19,-70.801,-108.887,37.598,-57.617,1298.102,312.7587130936315
325,1685672077.2,-21.973,196.289,134.277,-6.836,1298.106,313.04658513487675
326,1685672077.2,61.035,153.809,94.727,94.727,1298.11,315.7564967157208
327,1685672077.2,25.391,-569.336,-172.363,64.453,1298.114,312.349464165439
328,1685672077.21,-57.617,-415.527,-26.367,-48.34,1298.118,313.6063282999196
329,1685672077.21,-47.852,-134.277,-4.883,-41.992,1298.122,310.6494406481846
330,1685672077.22,39.062,-481.934,-162.598,68.359,1298.126,312.9072802734546
331,1685672077.22,61.523,-456.055,-82.52,80.566,1298.129,312.1982972368077
332,1685672077.22,-19.531,23.438,134.277,-19.043,1298.133,311.8593320528337
333,1685672077.23,-51.758,269.043,152.832,-50.781,1298.137,313.32547274238084
334,1685672077.23,39.062,-273.926,-79.59,56.641,1298.141,314.26589929723434
335,1685672077.23,83.496,-756.348,-172.363,119.141,1298.145,313.55784578729015
336,1685672077.24,9.277,-38.574,116.699,11.719,1298.136,313.0750800561589
337,1685672077.24,-52.734,202.148,66.895,-74.219,1298.14,311.06478486732016
338,1685672077.24,2.93,-256.836,-31.738,8.301,1298.144,312.58032299964526
339,1685672077.25,74.219,-44.922,115.234,100.586,1298.147,308.84279551754895
340,1685672077.25,27.344,403.32,200.195,36.621,1298.151,309.1183803682432
341,1685672077.26,-50.781,-55.176,-43.457,-62.5,1298.155,307.7403316141667
342,1685672077.26,-20.996,-398.926,-117.676,-29.297,1298.159,311.2250555192951
343,1685672077.26,66.895,93.262,129.395,75.195,1298.163,308.8295330445121
344,1685672077.27,52.246,440.918,204.59,61.035,1298.167,310.00664416734605
345,1685672077.27,-37.109,63.965,-12.695,-57.617,1298.171,310.44827382574607
346,1685672077.28,-44.434,-552.246,-189.453,-65.918,1298.175,310.87661827665886
347,1685672077.28,41.992,-156.25,67.871,47.852,1298.179,310.6893943115232
348,1685672077.3,65.918,471.68,235.352,75.195,1298.192,316.4782756347632
349,1685672077.3,-13.672,1.953,-41.504,-28.809,1298.196,311.907440622468
350,1685672077.3,-47.852,-436.035,-174.805,-84.473,1298.2,314.70215997523735
351,1685672077.31,32.715,53.223,129.883,5.371,1298.204,309.30967487198865
352,1685672077.31,82.52,429.199,254.883,82.031,1298.208,317.38466866266344
353,1685672077.32,5.859,-173.34,-86.426,7.324,1298.212,309.1992527416363
354,1685672077.32,-70.312,-1000.0,-551.27,-73.242,1298.216,305.30447033099693
355,1685672077.32,-19.043,-633.301,-156.738,-6.348,1298.22,315.63469734917743
356,1685672077.33,59.57,333.984,285.645,85.449,1298.224,313.58177633901005
357,1685672077.33,21.973,-44.434,-11.719,26.855,1298.228,314.70641988140693
358,1685672077.34,-49.316,-448.73,-161.621,-81.055,1298.231,309.76148134829253
359,1685672077.34,-16.602,121.582,103.027,-48.828,1298.235,309.6961969671613
360,1685672077.34,66.406,396.484,203.125,65.918,1298.237,313.06721572952733
361,1685672077.34,55.176,254.395,187.012,62.012,1298.241,310.44961437936763
362,1685672077.35,-30.762,94.238,99.121,-44.434,1298.245,308.9732190265161
363,1685672077.35,-27.832,139.648,81.055,-52.246,1298.249,314.6644182357589
364,1685672077.36,69.824,187.988,124.023,60.059,1298.253,312.2872827935625
365,1685672077.36,86.426,-201.66,-13.672,95.215,1298.257,311.3299084044802
366,1685672077.36,-9.277,-479.004,-87.402,-22.461,1298.261,314.6590650988276
367,1685672077.37,-51.27,-96.68,54.688,-100.586,1298.265,310.3213065057913
368,1685672077.37,29.297,114.258,98.145,-1.465,1298.269,308.83994279677546
369,1685672077.38,72.754,-396.484,-17.578,81.543,1298.272,315.40190629743665
370,1685672077.38,6.836,-354.004,19.531,3.418,1298.276,307.6416719946073
371,1685672077.38,-53.223,32.227,72.754,-83.496,1298.28,314.3193431024871
372,1685672077.39,-4.883,-52.246,38.574,-21.973,1298.296,310.6559367929979
373,1685672077.39,74.219,30.273,73.73,86.914,1298.3,310.39486514633
374,1685672077.39,39.551,302.246,154.297,45.41,1298.304,309.65947870776415
375,1685672077.4,-48.828,242.188,105.957,-65.918,1298.308,306.6387466594724
376,1685672077.4,-34.668,-114.746,-16.113,-47.363,1298.312,308.88371204852615
377,1685672077.41,50.781,-286.621,-35.645,66.895,1298.316,311.0406833691224
378,1685672077.41,48.34,-136.23,77.148,67.871,1298.319,310.9793646950037
379,1685672077.41,-43.457,-200.195,-24.414,-45.898,1298.323,311.19908363003805
380,1685672077.42,-63.965,-563.965,-255.371,-62.012,1298.327,312.5915575220025
381,1685672077.42,23.438,-1000.0,-398.438,53.711,1298.331,307.4079418008312
382,1685672077.42,64.453,-547.852,-67.871,89.355,1298.335,309.9941002862945
383,1685672077.43,-6.836,228.516,153.809,-20.508,1298.339,313.3009808713191
384,1685672077.43,-57.129,-65.918,-38.574,-96.68,1298.328,316.3864499809225
385,1685672077.44,10.742,77.148,93.75,-6.348,1298.331,316.5565099087215
386,1685672077.44,76.172,523.438,250.488,82.031,1298.335,310.7143634503753
387,1685672077.44,22.949,351.562,113.77,10.254,1298.339,310.9007245062499
388,1685672077.45,-53.711,-125.0,-80.566,-92.285,1298.343,310.32539398205915
389,1685672077.45,-16.602,-290.527,-49.316,-45.41,1298.347,311.28526257825297
390,1685672077.46,67.871,-11.23,150.879,76.172,1298.351,314.98421991364415
391,1685672077.46,49.805,217.285,117.188,46.387,1298.355,312.6684159354125
392,1685672077.46,-40.527,-312.5,-120.117,-70.801,1298.359,317.9680030878043
393,1685672077.47,-40.527,-458.984,-71.289,-61.035,1298.363,318.8486746929359
394,1685672077.47,53.711,132.324,176.758,51.27,1298.367,318.1035621715273
395,1685672077.47,61.035,313.477,134.277,59.57,1298.371,314.94682418663683
396,1685672077.48,-33.203,-488.77,-174.316,-59.082,1298.372,315.61495574175507
397,1685672077.48,-59.57,-425.293,-30.762,-105.469,1298.376,311.1951046501993
398,1685672077.48,22.949,330.566,186.523,2.93,1298.38,316.5633219205384
399,1685672077.49,62.5,199.219,79.59,79.102,1298.384,314.02279892644594
400,1685672077.49,-12.695,-154.297,-59.57,-13.184,1298.388,315.1529401973387
401,1685672077.5,-75.195,-251.465,-126.953,-104.004,1298.392,317.536575055323
402,1685672077.5,-11.23,-237.305,-15.625,-26.367,1298.396,313.94015892704255
403,1685672077.5,58.594,-310.059,-30.762,78.125,1298.4,319.64163132039687
404,1685672077.51,5.371,-866.211,-306.641,30.273,1298.403,318.6506435431559
405,1685672077.51,-70.312,-456.543,-54.688,-85.449,1298.407,317.8972614070778
406,1685672077.52,-39.551,210.938,139.648,-57.617,1298.411,312.68587163988093
407,1685672077.52,47.363,134.277,155.762,60.059,1298.415,320.26839797324925
408,1685672077.52,27.344,19.043,123.535,36.133,1298.421,321.28211073856056
409,1685672077.53,-70.801,85.449,70.801,-83.984,1298.425,319.93759213962403
410,1685672077.53,-73.73,107.91,68.848,-89.844,1298.429,315.3641663824159
411,1685672077.53,8.301,-143.555,15.137,20.996,1298.433,317.38457220806634
412,1685672077.54,31.25,30.273,135.742,40.039,1298.437,315.05349114761736
413,1685672077.54,-43.945,7.812,48.828,-60.547,1298.441,314.36472289646093
414,1685672077.55,-79.102,-312.988,-161.621,-94.238,1298.445,320.73674791772487
415,1685672077.55,7.812,-603.516,-170.41,15.137,1298.448,316.879985143384
416,1685672077.55,62.5,-264.648,61.523,83.984,1298.452,316.5061406336283
417,1685672077.56,-6.348,348.145,196.289,-17.09,1298.456,318.19598420038693
418,1685672077.56,-73.73,-55.176,-39.551,-112.793,1298.46,316.4825744084063
419,1685672077.56,-12.207,-173.34,-32.715,-37.598,1298.464,313.6015224127724
420,1685672077.57,76.172,316.406,193.359,83.008,1298.462,315.8307195476184
421,1685672077.57,34.668,458.984,184.082,34.18,1298.466,316.86832658893843
422,1685672077.57,-58.594,-95.703,-102.539,-85.938,1298.47,315.9978310417669
423,1685672077.58,-40.039,-343.75,-128.418,-52.734,1298.474,318.4739216634934
424,1685672077.58,54.199,172.363,165.039,67.383,1298.478,315.50538450286126
425,1685672077.59,47.852,101.562,112.793,60.059,1298.482,315.0255883764813
426,1685672077.59,-42.969,-461.426,-169.434,-50.293,1298.486,316.6337486580793
427,1685672077.59,-60.547,-1000.0,-566.895,-62.988,1298.49,313.3342556333455
428,1685672077.6,25.879,-577.637,-168.457,42.48,1298.493,313.7171337559814
429,1685672077.6,61.523,404.297,284.18,79.59,1298.497,314.8269024505032
430,1685672077.6,-21.484,133.789,33.203,-26.367,1298.501,309.7072118276347
431,1685672077.61,-71.777,-87.402,-17.578,-96.191,1298.505,317.7815860830735
432,1685672077.61,8.789,263.672,163.574,5.859,1298.521,317.1324453724664
433,1685672077.62,73.242,479.98,211.914,96.191,1298.525,313.5573486491189
434,1685672077.62,10.254,177.734,101.074,12.695,1298.529,318.87063062937443
435,1685672077.62,-55.176,-17.09,53.223,-88.379,1298.533,318.63388393327904
436,1685672077.63,-4.395,139.16,97.656,-22.949,1298.537,316.1573593830463
437,1685672077.63,72.266,162.598,127.93,86.914,1298.541,319.2869463023534
438,1685672077.64,39.551,-460.449,-141.113,61.035,1298.545,320.0071706530515
439,1685672077.64,-49.316,-673.828,-183.594,-62.5,1298.549,314.46438454112763
440,1685672077.64,-37.109,62.012,124.512,-69.336,1298.553,314.049723647816
441,1685672077.65,54.688,185.059,118.164,52.246,1298.556,315.2045073178531
442,1685672077.65,56.641,-135.742,71.777,63.477,1298.56,313.0346052492681
443,1685672077.65,-33.203,-19.043,75.195,-55.664,1298.564,312.29056674072274
444,1685672077.66,-51.27,170.41,77.148,-84.473,1298.567,318.82552388944015
445,1685672077.66,27.832,56.152,66.406,28.32,1298.571,320.5032264945711
446,1685672077.66,62.988,51.758,88.867,77.637,1298.575,312.79475743200624
447,1685672077.67,-18.066,187.5,123.047,-28.32,1298.578,313.11353372156015
448,1685672077.67,-75.195,102.539,46.875,-101.074,1298.582,322.10831475779105
449,1685672077.68,-7.812,-381.348,-154.785,2.441,1298.586,319.9245227931331
450,1685672077.68,43.457,-635.254,-170.41,80.078,1298.59,316.2813781261143
451,1685672077.68,-8.301,-307.617,15.137,-3.418,1298.594,317.22221514341226
452,1685672077.69,-66.406,-240.723,-62.012,-91.797,1298.598,318.1463891849165
453,1685672077.69,-31.25,-578.613,-261.23,-42.969,1298.602,316.9570728050088
454,1685672077.7,44.922,-833.984,-212.891,65.918,1298.606,319.3091843930954
455,1685672077.7,32.715,-60.059,116.699,42.969,1298.61,313.6142325401818
456,1685672077.72,-48.828,139.648,52.734,-67.383,1298.613,317.7320281358203
457,1685672077.72,-46.387,-192.383,-41.504,-72.266,1298.617,317.5125450380715
458,1685672077.72,44.434,123.535,123.535,49.805,1298.621,319.77936045183674
459,1685672077.73,57.617,491.211,211.426,67.871,1298.625,316.7743462602474
460,1685672077.73,-20.508,207.52,41.016,-38.086,1298.629,318.0650180814025
461,1685672077.74,-48.828,-450.195,-187.5,-68.848,1298.632,319.499662169326
462,1685672077.74,20.996,-294.434,-18.066,24.414,1298.636,319.140339879957
463,1685672077.74,65.918,360.352,242.188,83.496,1298.64,316.9548227360111
464,1685672077.75,-4.883,239.746,57.129,-10.254,1298.644,319.60893167842283
465,1685672077.75,-65.43,-497.559,-191.895,-92.285,1298.648,318.7419212599152
466,1685672077.76,-6.836,-492.676,-45.898,-13.672,1298.652,318.8420543086025
467,1685672077.76,73.73,188.965,199.219,82.031,1298.656,316.16014187427294
468,1685672077.76,32.227,183.594,45.898,28.32,1298.657,320.12938273755174
469,1685672077.76,-62.5,-394.043,-136.719,-80.566,1298.661,320.7059010644552
470,1685672077.77,-32.715,-131.348,66.406,-48.828,1298.665,317.3838013963699
471,1685672077.77,54.199,365.234,208.984,68.359,1298.669,316.17777832310946
472,1685672077.78,41.504,175.293,89.844,61.035,1298.673,316.4411317576445
473,1685672077.78,-41.016,-363.281,-194.336,-46.387,1298.677,322.4470946336879
474,1685672077.78,-49.316,-424.316,-149.414,-62.988,1298.681,325.23096794640924
475,1685672077.79,26.367,-130.859,107.91,41.992,1298.685,322.2246164864587
476,1685672077.79,41.016,-298.828,-41.016,74.219,1298.689,318.78471291974245
477,1685672077.8,-44.434,-907.227,-364.746,-28.32,1298.693,319.6390865145134
478,1685672077.8,-83.496,-482.91,-56.641,-90.82,1298.696,320.47607697857245
479,1685672077.8,-8.789,118.164,132.324,3.418,1298.7,314.3462424903907
480,1685672077.81,42.48,144.531,140.625,81.055,1298.703,316.130940425354
481,1685672077.81,-22.949,-47.363,62.988,-0.488,1298.707,318.13835699198256
482,1685672077.81,-94.238,7.324,50.293,-104.492,1298.711,313.8422250269578
483,1685672077.82,-29.297,193.359,118.164,-48.34,1298.715,318.76128051311196
484,1685672077.82,58.105,-41.992,19.531,68.848,1298.719,315.5708502277289
485,1685672077.83,18.555,-228.516,7.324,32.227,1298.723,318.0977064562665
486,1685672077.83,-62.988,-160.156,-3.906,-82.031,1298.727,314.09633438017556
487,1685672077.83,-33.691,-10.254,-14.16,-64.453,1298.73,316.44003587251126
488,1685672077.84,55.664,-399.902,-52.246,60.547,1298.734,316.5937376759233
489,1685672077.84,54.688,-257.324,55.664,62.5,1298.738,316.9917260482054
490,1685672077.84,-31.738,315.918,142.578,-64.453,1298.742,313.76466886371423
491,1685672077.85,-54.199,-21.973,-15.625,-79.102,1298.746,312.5211060361597
492,1685672077.85,35.645,-43.945,36.133,41.992,1298.747,314.12146236064643
493,1685672077.86,69.824,351.074,201.172,82.52,1298.751,317.4259662722367
494,1685672077.86,-8.301,357.91,150.879,-18.555,1298.755,318.5288267284949
495,1685672077.86,-65.43,-206.543,-143.066,-87.891,1298.759,316.36674493264655
496,1685672077.87,0.977,-384.277,-156.738,-2.441,1298.763,318.9551557219266
497,1685672077.87,67.871,-5.371,104.492,86.914,1298.767,311.6178404534896
498,1685672077.88,-2.441,-74.219,41.992,10.254,1298.771,310.1052516286501
499,1685672077.88,-87.891,-505.371,-222.168,-94.238,1298.775,309.79211253352634
500,1685672077.88,-45.41,-1000.0,-493.652,-29.297,1298.779,317.5649152746835
501,1685672077.89,47.363,-443.359,-82.031,76.172,1298.782,309.17364193340245
502,1685672077.89,27.344,425.293,217.773,37.109,1298.786,313.7539946762828
503,1685672077.89,-64.941,48.828,-20.02,-76.172,1298.79,307.60703199023794
504,1685672077.9,-57.617,-72.266,-4.395,-63.965,1298.792,310.24550091472867
505,1685672077.9,36.133,336.914,192.871,54.688,1298.796,309.28028487386564
506,1685672077.9,42.969,418.945,177.734,60.547,1298.8,309.601264332955
507,1685672077.91,-58.594,34.18,3.906,-65.918,1298.804,310.93382206378806
508,1685672077.91,-85.449,-39.062,13.184,-102.539,1298.807,310.36123503082274
509,1685672077.92,9.277,-23.926,70.801,13.672,1298.811,305.14465136635806
510,1685672077.92,55.664,16.113,111.816,69.336,1298.815,309.25405237441726
511,1685672077.92,-24.902,-548.34,-246.094,-26.367,1298.819,312.4314721266339
512,1685672077.93,-85.449,-777.832,-283.691,-97.656,1298.823,310.51799911177034
513,1685672077.93,3.418,151.367,199.219,-7.812,1298.827,308.50322765958344
514,1685672077.94,83.984,291.992,149.414,93.75,1298.831,310.60197888392634
515,1685672077.94,18.555,67.383,81.055,21.484,1298.835,305.4388111527347
516,1685672077.94,-69.824,128.906,109.375,-89.844,1298.837,313.2838812245142
517,1685672077.94,-26.855,237.793,154.297,-46.875,1298.841,308.3868088723718
518,1685672077.95,68.848,154.785,98.145,71.289,1298.845,307.08725043650674
519,1685672077.95,44.434,71.777,87.402,59.082,1298.849,305.90953628137737
520,1685672077.96,-52.246,84.473,48.34,-66.406,1298.853,309.7281977806419
521,1685672077.96,-57.617,-175.293,-100.098,-80.078,1298.857,305.32767153742924
522,1685672077.96,32.227,-422.852,-159.668,49.316,1298.861,308.74465934144627
523,1685672077.97,52.734,-903.32,-344.727,84.961,1298.865,311.2358193862545
524,1685672077.97,-38.086,-559.57,-149.902,-40.039,1298.868,311.23765723674256
525,1685672077.98,-70.312,-165.527,-99.609,-88.867,1298.872,306.4317984742505
526,1685672077.98,20.02,-384.277,-104.004,15.137,1298.876,309.6941480268472
527,1685672077.98,67.383,2.441,141.602,77.637,1298.88,310.43889141535465
528,1685672077.99,-7.812,385.742,169.434,-15.625,1298.895,314.13755711612765
529,1685672077.99,-76.172,110.352,16.602,-99.609,1298.899,308.9160451377027
530,1685672077.99,-22.949,-133.301,-22.949,-31.738,1298.903,307.4308269262805
531,1685672078.0,47.363,186.523,155.273,66.895,1298.907,315.22377165318227
532,1685672078.0,2.93,426.758,213.867,18.555,1298.911,311.16520228115974
533,1685672078.01,-79.59,-83.008,-72.754,-96.191,1298.915,312.2916357157062
534,1685672078.01,-52.734,-777.832,-330.078,-67.383,1298.919,312.9037711850006
535,1685672078.01,39.062,-346.68,0.0,50.293,1298.923,307.49324357991713
536,1685672078.02,34.18,452.637,253.418,44.434,1298.927,310.4874948993847
537,1685672078.02,-56.152,75.195,-1.465,-76.66,1298.931,315.57108951559235
538,1685672078.02,-65.918,-238.77,-79.59,-90.332,1298.935,314.96568306255244
539,1685672078.03,28.809,-60.547,82.52,24.414,1298.938,314.71315170592646
540,1685672078.03,54.199,217.285,203.613,57.129,1298.94,310.93094030643766
541,1685672078.04,-27.832,29.785,-20.508,-41.016,1298.944,310.48803693174887
542,1685672078.04,-71.289,-524.414,-198.73,-94.238,1298.948,309.80061347755054
543,1685672078.04,5.371,-44.922,100.586,4.395,1298.952,313.7289541440311
544,1685672078.05,63.965,419.922,199.219,88.379,1298.956,307.59933162714185
545,1685672078.05,-3.418,-192.383,-110.84,7.812,1298.96,316.92238509236444
546,1685672078.06,-74.219,-834.473,-383.789,-79.102,1298.964,315.7802923752624
547,1685672078.06,-22.461,-386.719,-62.5,-24.414,1298.968,316.6305663411851
548,1685672078.06,58.594,332.52,222.168,83.496,1298.972,316.08600283972936
549,1685672078.07,22.949,-145.996,-92.773,56.152,1298.975,316.15113815623073
550,1685672078.07,-66.895,-747.07,-252.93,-72.754,1298.979,318.65651677733183
551,1685672078.08,-51.27,-34.668,100.098,-67.871,1298.983,322.9522175098137
552,1685672078.09,47.852,342.773,155.762,56.641,1298.988,319.62247194920724
553,1685672078.1,54.199,113.77,108.398,59.57,1298.992,325.07576326608375
554,1685672078.1,-41.992,-208.496,-44.434,-50.781,1298.996,321.84605522301644
555,1685672078.1,-57.617,-73.242,4.395,-71.777,1299.0,325.96991069300356
556,1685672078.11,37.109,331.543,177.734,42.48,1299.004,328.0854447358266
557,1685672078.11,59.082,-344.727,-137.207,98.633,1299.008,327.9525446890594
558,1685672078.12,-27.832,-774.902,-225.586,-9.766,1299.011,329.5789153033433
559,1685672078.12,-68.359,7.812,106.934,-89.844,1299.015,328.8282126868066
560,1685672078.12,-0.488,108.887,71.777,4.395,1299.019,332.40168633711056
561,1685672078.13,61.035,45.898,104.004,94.238,1299.023,330.49369615579866
562,1685672078.13,6.836,203.125,115.234,17.09,1299.027,332.06702724300794
563,1685672078.13,-65.918,163.574,53.223,-89.844,1299.031,335.3614355942365
564,1685672078.14,-21.484,-48.34,11.23,-39.551,1299.032,332.9968281786913
565,1685672078.14,63.965,-11.23,28.809,77.637,1299.036,337.17290319889076
566,1685672078.14,47.363,268.555,143.066,61.523,1299.04,342.08347700190853
567,1685672078.15,-35.645,169.434,90.332,-51.27,1299.044,337.9560589602933
568,1685672078.15,-38.086,-298.828,-175.781,-47.852,1299.048,339.5345442540819
569,1685672078.16,42.969,-468.262,-179.199,66.406,1299.052,339.13371261030574
570,1685672078.16,56.641,-145.996,66.406,69.824,1299.056,344.2705669540888
571,1685672078.16,-31.738,-225.586,-63.477,-49.316,1299.06,336.8986950432525
572,1685672078.17,-62.988,-622.559,-291.504,-86.426,1299.064,338.6484739995987
573,1685672078.17,19.531,-1000.0,-415.039,33.691,1299.067,335.8047089826116
574,1685672078.18,65.918,-420.898,-58.594,85.938,1299.071,345.5636021936784
575,1685672078.18,1.465,319.824,173.34,-16.113,1299.075,341.6853011889363
576,1685672078.18,-48.34,-57.617,-36.133,-90.82,1299.077,341.0472884868187
577,1685672078.18,15.625,-31.25,38.086,-12.695,1299.081,343.51054578859726
578,1685672078.19,69.824,399.414,203.125,76.172,1299.085,342.0139241524138
579,1685672078.19,10.254,344.238,110.84,8.301,1299.089,344.1355508829893
580,1685672078.2,-71.289,-89.355,-83.984,-97.168,1299.093,340.4630403466415
581,1685672078.2,-36.621,-264.16,-76.66,-50.781,1299.097,343.089342599587
582,1685672078.2,56.152,-59.57,98.633,68.848,1299.101,345.39611552270253
583,1685672078.21,41.992,126.465,141.602,52.734,1299.104,343.8740289014109
584,1685672078.21,-52.734,-612.793,-288.574,-50.293,1299.108,345.6571253528624
585,1685672078.22,-55.176,-729.98,-280.762,-60.547,1299.112,337.8914181359751
586,1685672078.22,45.898,235.352,193.848,49.805,1299.116,348.8288111605934
587,1685672078.22,55.176,146.973,82.52,81.055,1299.12,343.62722650858944
588,1685672078.23,-37.598,-118.164,-17.578,-46.387,1299.122,344.6061517120284
589,1685672078.23,-65.43,86.426,106.934,-108.398,1299.126,344.1921399160767
590,1685672078.23,13.184,343.75,204.102,0.977,1299.13,342.8021855003509
591,1685672078.24,54.688,271.484,110.352,73.73,1299.134,340.65450881941774
592,1685672078.24,-12.207,-31.738,-30.762,-22.461,1299.138,346.88459258533965
593,1685672078.25,-70.312,-262.207,-146.973,-106.445,1299.142,346.86554144221907
594,1685672078.25,-16.113,-253.906,-60.059,-19.531,1299.146,341.26829325847916
595,1685672078.25,65.918,-284.668,-41.504,82.031,1299.15,342.38598498486635
596,1685672078.26,28.809,-866.211,-356.445,35.156,1299.153,338.2941247421936
597,1685672078.26,-57.129,-620.605,-202.637,-87.402,1299.157,340.3216655966182
598,1685672078.26,-25.879,-106.445,27.832,-65.918,1299.161,344.4558829136863
599,1685672078.27,78.613,-226.562,5.371,70.801,1299.165,338.8440851817173
600,1685672078.27,63.477,-19.531,72.754,58.594,1299.181,340.58758552059635
601,1685672078.28,-49.316,291.992,122.07,-73.73,1299.185,335.9061195764978
602,1685672078.28,-77.148,79.102,28.809,-99.121,1299.189,337.72672110872867
603,1685672078.28,0.977,89.844,101.074,7.324,1299.193,340.92224268112767
604,1685672078.29,28.809,349.609,206.543,49.316,1299.196,334.56592331237306
605,1685672078.29,-53.223,96.191,55.176,-58.594,1299.2,338.76966106374476
606,1685672078.3,-95.215,-254.395,-129.395,-118.652,1299.204,331.6848299449714
607,1685672078.3,-18.555,-607.91,-181.152,-11.23,1299.208,338.05700227481026
608,1685672078.3,47.363,-303.711,32.715,74.219,1299.212,339.617278954976
609,1685672078.31,-8.301,377.93,177.734,-17.09,1299.216,331.19196094495817
610,1685672078.31,-85.938,6.836,-39.062,-113.281,1299.22,334.69880212808084
611,1685672078.31,-38.574,-159.18,-36.621,-52.246,1299.224,333.29946999246823
612,1685672078.32,44.434,64.453,91.309,55.176,1299.215,332.1086857462479
613,1685672078.32,23.926,284.18,155.762,22.461,1299.219,328.8221122620364
614,1685672078.32,-52.246,-46.875,-68.848,-75.195,1299.223,329.86348080751264
615,1685672078.33,-42.48,-444.824,-146.973,-62.988,1299.227,330.841668554526
616,1685672078.33,54.688,117.676,153.809,47.852,1299.231,329.426168462751
617,1685672078.34,58.594,215.82,124.512,65.918,1299.234,321.9508223814481
618,1685672078.34,-41.992,-470.703,-209.961,-54.688,1299.238,328.8063704176519
619,1685672078.34,-70.801,-771.484,-334.473,-88.867,1299.242,328.69663694401913
620,1685672078.35,22.461,15.137,89.844,31.25,1299.246,325.0107947736896
621,1685672078.35,62.012,544.922,270.02,91.797,1299.25,320.44262702731515
622,1685672078.36,-28.809,-193.359,-119.141,-14.16,1299.254,329.2580015558186
623,1685672078.36,-83.496,-820.312,-338.867,-92.773,1299.258,325.49402276501047
624,1685672078.38,-1.465,39.551,106.934,4.883,1299.272,324.782751059428
625,1685672078.38,58.594,438.477,189.453,86.914,1299.276,322.91526826126295
626,1685672078.38,-5.371,-52.246,-40.527,3.418,1299.28,319.54624179490395
627,1685672078.39,-76.172,-289.062,-152.832,-94.238,1299.284,317.22668809714963
628,1685672078.39,-36.621,34.18,31.25,-47.363,1299.288,317.1003416371778
629,1685672078.4,58.594,198.73,178.711,67.383,1299.292,316.3736875414131
630,1685672078.4,42.969,-489.258,-191.895,53.223,1299.295,313.732243347543
631,1685672078.4,-54.199,-797.852,-301.758,-63.477,1299.299,312.5744502125849
632,1685672078.41,-52.246,93.262,33.203,-74.219,1299.316,313.9085893425065
633,1685672078.41,-50.293,18.555,126.465,-66.895,1299.303,308.0186150168367
634,1685672078.41,32.715,16.602,58.105,36.621,1299.32,310.67217043514916
635,1685672078.41,56.152,262.695,115.723,63.477,1299.307,303.89133105231474
636,1685672078.41,72.754,50.781,79.102,88.867,1299.324,311.43365620857264
637,1685672078.42,72.754,182.617,94.727,87.402,1299.311,306.67583845576524
638,1685672078.42,0.488,258.301,154.785,-14.16,1299.328,311.3462279379976
639,1685672078.42,-22.461,169.434,82.031,-34.18,1299.315,310.952778150552
640,1685672078.42,-62.988,72.266,23.926,-93.75,1299.332,310.1969804896228
641,1685672078.43,-5.859,-290.039,-131.348,-10.254,1299.336,300.0727846060432
642,1685672078.43,69.336,-254.395,-0.488,86.914,1299.34,310.71598962148215
643,1685672078.43,22.949,-146.973,22.461,29.785,1299.344,309.9245940855348
644,1685672078.44,-53.223,-313.965,-145.508,-75.684,1299.348,311.20636268018006
645,1685672078.44,-24.414,-574.707,-247.559,-34.18,1299.352,302.10047345033587
646,1685672078.44,55.664,-1000.0,-416.504,90.82,1299.356,304.89479769529765
647,1685672078.45,46.875,-605.469,-127.93,63.477,1299.359,301.11580415163667
648,1685672078.47,-34.668,128.906,124.512,-67.383,1299.362,306.3717060654148
649,1685672078.47,-41.016,-77.148,-38.574,-63.965,1299.366,303.5842704580918
650,1685672078.47,51.758,118.164,87.402,52.734,1299.37,304.9190328370634
651,1685672078.48,59.082,485.84,220.215,64.453,1299.374,304.6822924793188
652,1685672078.48,-35.645,302.734,60.059,-50.781,1299.378,295.3436862858725
653,1685672078.49,-77.148,-311.035,-145.508,-98.633,1299.382,299.74651772681756
654,1685672078.49,6.348,-192.383,47.852,1.465,1299.386,299.2132180517689
655,1685672078.49,63.965,407.715,236.816,75.684,1299.39,294.0527394093205
656,1685672078.5,-4.395,171.875,76.66,-0.488,1299.393,299.2195782321461
657,1685672078.5,-74.219,-700.195,-312.988,-91.797,1299.397,296.7217757063085
658,1685672078.5,-21.484,-549.805,-164.062,-33.203,1299.401,293.7870550719467
659,1685672078.51,66.895,426.758,266.602,73.73,1299.405,296.84439102535737
660,1685672078.51,29.785,219.238,62.012,31.25,1299.42,296.8237282051373
661,1685672078.51,-58.594,-185.547,-86.914,-88.379,1299.424,292.6287312112124
662,1685672078.52,-39.551,80.078,102.051,-64.453,1299.428,296.7522043682035
663,1685672078.52,48.34,426.27,204.102,64.453,1299.432,292.49505726564803
664,1685672078.53,31.738,176.758,60.547,52.734,1299.436,295.35317097255887
665,1685672078.53,-65.918,-385.742,-193.359,-73.242,1299.44,295.71911701409783
666,1685672078.53,-65.43,-414.551,-187.012,-79.59,1299.443,296.94778989187876
667,1685672078.54,31.25,-125.0,41.016,31.25,1299.447,298.04326118212595
668,1685672078.54,58.594,-251.465,-32.715,80.078,1299.451,295.7786298822494
669,1685672078.54,-33.203,-904.297,-386.719,-18.066,1299.455,291.67917754063893
670,1685672078.55,-75.195,-650.391,-217.773,-93.75,1299.459,291.8160191562333
671,1685672078.55,7.324,61.035,82.031,-4.883,1299.463,295.49553896629203
672,1685672078.56,57.617,-26.855,82.031,69.336,1299.451,297.671440261052
673,1685672078.56,-7.324,-97.168,44.922,-15.625,1299.455,294.2515811131913
674,1685672078.56,-80.078,216.797,83.496,-109.863,1299.459,296.0539963393944
675,1685672078.57,-41.016,182.617,76.66,-47.852,1299.463,298.1134690567789
676,1685672078.57,34.668,170.898,152.832,52.734,1299.467,295.7244687469587
677,1685672078.58,0.0,-28.809,63.477,15.137,1299.471,291.27626961759574
678,1685672078.58,-75.684,-80.078,18.555,-98.145,1299.475,288.36249952967927
679,1685672078.58,-58.594,18.066,37.598,-85.449,1299.479,292.69545836219584
680,1685672078.59,29.785,-249.512,-33.203,36.133,1299.483,293.6980106021134
681,1685672078.59,39.551,17.09,114.746,42.969,1299.487,292.5385439996287
682,1685672078.6,-46.387,330.078,147.949,-76.66,1299.491,292.3409210348754
683,1685672078.6,-68.359,-40.039,-39.551,-98.633,1299.494,291.87492219033237
684,1685672078.62,18.555,-339.355,-49.316,25.391,1299.514,293.6437423022848
685,1685672078.62,57.617,-112.305,98.633,76.172,1299.518,297.3188486255301
686,1685672078.62,-14.648,189.941,150.879,-18.066,1299.522,292.1999805218446
687,1685672078.63,-66.406,-181.641,-112.793,-87.402,1299.526,297.2069588152222
688,1685672078.63,0.488,-419.434,-197.754,2.441,1299.53,295.8975418592225
689,1685672078.64,67.871,-16.113,108.398,96.68,1299.534,297.4741585755821
690,1685672078.64,10.742,-50.781,25.879,21.484,1299.538,297.0743251054593
691,1685672078.64,-68.848,-504.395,-263.184,-82.031,1299.542,293.16402144122867
692,1685672078.65,-55.176,-408.203,-82.031,-62.988,1299.542,300.7139318993972
693,1685672078.65,-30.273,-1000.0,-502.93,-23.926,1299.545,295.22565839477994
694,1685672078.65,42.48,429.199,214.844,59.57,1299.546,299.95206230750483
695,1685672078.65,53.711,-547.363,-106.934,85.449,1299.549,296.4282736440811
696,1685672078.65,55.176,517.09,188.477,78.613,1299.55,303.5254026527371
697,1685672078.66,31.738,340.332,196.289,50.781,1299.553,298.2418149574962
698,1685672078.66,-34.668,-33.691,-62.988,-38.574,1299.554,291.7490666351755
699,1685672078.66,-57.129,-305.664,-151.855,-63.965,1299.557,296.1211633743071
700,1685672078.66,-60.547,-272.949,-117.188,-76.66,1299.558,295.90734882893423
701,1685672078.67,18.066,-64.941,49.316,31.738,1299.562,297.7205046576372
702,1685672078.67,65.918,52.246,93.75,96.191,1299.566,298.0904967513652
703,1685672078.67,6.836,-100.586,-25.879,2.441,1299.569,299.1278049625209
704,1685672078.68,-62.988,-107.91,-33.203,-91.797,1299.573,292.7992507940918
705,1685672078.68,-7.324,237.305,154.297,-24.414,1299.577,296.87010430685103
706,1685672078.68,72.754,406.25,194.336,86.426,1299.581,299.4904789702856
707,1685672078.69,16.113,-487.305,-224.609,38.574,1299.585,299.29528512571943
708,1685672078.71,-75.684,-759.766,-274.414,-80.566,1299.603,300.1002654467704
709,1685672078.71,-45.41,133.301,131.836,-56.152,1299.607,298.28486538696455
710,1685672078.71,42.969,193.359,79.102,58.105,1299.611,302.29707285020334
711,1685672078.72,23.926,137.207,89.355,44.434,1299.614,300.150550996333
712,1685672078.72,-69.824,173.828,59.082,-75.684,1299.618,299.60655554217624
713,1685672078.73,-80.566,-149.414,-105.469,-83.008,1299.622,297.2820235370857
714,1685672078.73,9.277,-354.98,-121.094,49.805,1299.626,300.5947238722129
715,1685672078.73,34.18,-874.023,-331.055,91.797,1299.63,296.06023288180586
716,1685672078.74,-46.387,-602.051,-144.531,-31.25,1299.634,299.94696114849376
717,1685672078.74,-85.449,185.059,125.0,-93.75,1299.638,296.6398840165878
718,1685672078.74,-6.836,-188.965,-69.336,4.395,1299.642,301.7572067258839
719,1685672078.75,47.363,-138.672,39.062,65.43,1299.646,297.5232390378252
720,1685672078.75,-20.02,424.805,198.73,-24.902,1299.647,301.2805206481074
721,1685672078.76,-86.914,173.34,37.109,-115.234,1299.651,298.82295594438114
722,1685672078.76,-35.156,-36.133,57.129,-47.852,1299.655,301.1470338721747
723,1685672078.76,43.945,226.074,159.668,60.059,1299.659,296.83460414344006
724,1685672078.77,4.883,386.719,127.93,10.742,1299.663,299.02941213014964
725,1685672078.77,-83.008,-162.109,-114.258,-104.492,1299.667,301.96076303258667
726,1685672078.78,-64.453,-383.789,-89.844,-77.637,1299.671,296.3677399383501
727,1685672078.78,40.039,227.539,182.617,54.199,1299.675,298.21023971689823
728,1685672078.78,49.316,404.297,258.789,61.523,1299.692,300.0603662701794
729,1685672078.78,44.434,395.02,127.441,54.199,1299.679,296.45803907425
730,1685672078.78,-39.551,137.695,-18.066,-42.969,1299.696,301.80180822495277
731,1685672078.79,-49.805,-48.34,-90.82,-65.918,1299.683,300.3746768771534
732,1685672078.79,-87.891,-244.629,-122.559,-105.469,1299.699,304.0173449428885
733,1685672078.79,-69.336,-803.711,-399.414,-80.566,1299.687,298.8238620415235
734,1685672078.79,-11.23,182.617,160.156,-6.348,1299.703,303.8905401470091
735,1685672078.79,15.625,-617.676,-178.711,27.344,1299.69,304.5274399231914
736,1685672078.8,54.199,478.516,205.078,82.52,1299.707,305.89126054208157
737,1685672078.8,-0.977,-165.527,-122.559,5.859,1299.711,302.4112650806826
738,1685672078.8,-81.543,-742.188,-345.215,-93.262,1299.715,298.45022516036977
739,1685672078.81,-25.879,-368.652,-87.891,-40.039,1299.719,303.1228409748257
740,1685672078.81,64.453,282.715,235.84,64.453,1299.723,300.4411911418086
741,1685672078.82,22.949,-38.574,-33.203,36.133,1299.727,305.82627463645366
742,1685672078.82,-67.383,-957.52,-431.641,-74.219,1299.731,298.90021257695435
743,1685672078.82,-50.293,-557.129,-150.391,-72.266,1299.735,301.5052794084497
744,1685672078.84,50.781,141.113,102.051,52.734,1299.751,306.0580009641381
745,1685672078.84,67.383,-72.754,42.48,72.754,1299.755,305.8885016036695
746,1685672078.85,-18.555,-231.934,7.812,-38.574,1299.759,307.060016990561
747,1685672078.85,-42.969,170.41,91.309,-73.73,1299.763,307.76634840288096
748,1685672078.86,41.016,288.086,113.281,36.133,1299.767,309.15025868351785
749,1685672078.86,85.449,55.664,50.293,104.004,1299.771,308.0812204428975
750,1685672078.86,17.09,-216.309,-26.367,10.254,1299.774,305.44804543463783
751,1685672078.87,-42.969,14.648,58.105,-71.777,1299.778,305.497009534836
752,1685672078.87,16.602,161.133,72.754,11.23,1299.782,307.54485501481867
753,1685672078.88,79.102,-206.055,-5.371,99.121,1299.786,308.2334336845062
754,1685672078.88,28.809,-65.43,65.43,31.738,1299.79,312.0869713578551
755,1685672078.88,-43.945,219.727,112.305,-79.59,1299.794,310.4405905033986
756,1685672078.89,-8.789,-29.785,18.555,-34.668,1299.783,308.93544726861154
757,1685672078.89,75.195,-13.184,29.785,86.426,1299.787,308.86737902472294
758,1685672078.89,60.059,65.918,87.402,66.895,1299.791,305.6029100159551
759,1685672078.9,-33.691,104.004,94.727,-43.457,1299.795,307.25004954831604
760,1685672078.9,-41.016,-182.129,-92.285,-41.992,1299.799,306.5233285596954
761,1685672078.91,53.711,-617.188,-206.543,73.73,1299.803,309.23455752016554
762,1685672078.91,67.871,-253.906,70.312,88.867,1299.807,308.91985665898073
763,1685672078.91,-22.461,-87.402,17.09,-26.855,1299.811,313.3227321026045
764,1685672078.92,-44.434,-623.535,-318.848,-70.801,1299.814,310.88472655546946
765,1685672078.92,43.457,-537.598,-155.273,40.527,1299.818,307.3613120855794
766,1685672078.92,90.332,316.895,217.285,114.258,1299.822,308.77052263988236
767,1685672078.93,20.02,365.723,124.512,23.438,1299.826,305.3953763644638
768,1685672078.93,-46.875,-453.613,-186.035,-67.871,1299.828,308.0599329946625
769,1685672078.94,13.672,-491.699,-106.445,3.906,1299.832,308.4135785281373
770,1685672078.94,97.656,366.211,211.914,101.074,1299.836,311.51544447994826
771,1685672078.94,50.293,371.094,106.934,43.945,1299.839,305.4739153452853
772,1685672078.95,-44.434,-504.395,-295.41,-60.059,1299.843,307.4319086820404
773,1685672078.95,-18.555,-832.031,-325.684,-32.715,1299.847,303.1249063684301
774,1685672078.96,70.801,-153.32,47.852,73.242,1299.851,303.87377113724096
775,1685672078.96,60.547,231.934,115.234,57.129,1299.855,309.5248862335011
776,1685672078.96,-36.133,-518.066,-298.828,-63.477,1299.859,308.5101570815597
777,1685672078.97,-48.34,-684.082,-249.023,-74.707,1299.863,309.4717902975983
778,1685672078.97,49.316,346.191,241.211,38.574,1299.867,311.9791371793287
779,1685672078.97,70.312,361.328,106.934,76.66,1299.871,308.74734291177793
780,1685672078.99,-13.672,-1.953,-25.879,-29.297,1299.888,312.5098485274152
781,1685672079.0,-57.129,19.043,41.992,-91.309,1299.891,311.64852673930716
782,1685672079.0,22.461,223.633,132.812,10.254,1299.895,311.1789060988332
783,1685672079.0,80.566,220.703,120.605,97.168,1299.899,309.923062055681
784,1685672079.01,13.184,-7.324,-1.465,13.672,1299.903,311.4296889197276
785,1685672079.01,-65.43,-229.98,-125.0,-74.219,1299.907,319.3300815592106
786,1685672079.02,-14.16,-306.641,-100.586,-0.488,1299.911,309.56845753627147
787,1685672079.02,67.871,-309.082,-62.988,99.609,1299.915,313.5057190253537
788,1685672079.02,41.016,204.59,171.875,58.594,1299.917,312.04819134367085
789,1685672079.02,16.113,-942.383,-422.852,52.246,1299.919,311.02424519439825
790,1685672079.02,-39.062,337.402,124.512,-62.012,1299.921,314.37184486601944
791,1685672079.03,-67.871,-731.445,-255.859,-66.406,1299.923,315.99034139451413
792,1685672079.03,-53.711,104.492,36.621,-82.52,1299.925,315.19788030707707
793,1685672079.03,-38.086,116.699,133.789,-47.852,1299.927,314.29111776496944
794,1685672079.03,34.668,62.988,104.492,31.738,1299.929,313.730024924317
795,1685672079.03,42.969,128.418,140.625,68.359,1299.931,312.13433655154233
796,1685672079.04,65.43,278.809,171.875,70.312,1299.933,316.80984339737256
797,1685672079.04,-20.508,26.367,14.648,-35.156,1299.937,316.53928758212123
798,1685672079.04,-70.801,-344.238,-165.527,-93.262,1299.941,313.56825912573066
799,1685672079.05,2.441,-295.41,-25.391,-2.441,1299.945,315.64009953466194
800,1685672079.05,63.477,172.363,205.078,80.078,1299.948,313.5910723414859
801,1685672079.06,6.836,286.621,108.398,11.719,1299.952,315.6562468375056
802,1685672079.06,-74.707,-134.766,-93.75,-89.844,1299.956,313.74066705457335
803,1685672079.06,-49.316,-817.871,-350.098,-28.32,1299.96,319.98253628460947
804,1685672079.07,36.621,-571.289,-140.625,83.984,1299.962,312.3281718691144
805,1685672079.07,20.02,375.0,240.723,35.156,1299.966,316.21468685191365
806,1685672079.07,-71.777,13.184,-40.527,-75.195,1299.97,312.75837808676675
807,1685672079.08,-67.871,-169.922,-98.145,-57.129,1299.974,317.8045727590483
808,1685672079.08,33.203,323.242,187.5,65.43,1299.978,312.44576052917
809,1685672079.09,52.246,227.539,151.367,85.449,1299.982,315.8244384971484
810,1685672079.09,-33.203,-385.254,-180.664,-29.297,1299.986,316.1125656843911
811,1685672079.09,-62.988,-1000.0,-510.742,-62.5,1299.989,320.2338658400603
812,1685672079.1,20.508,-362.793,-55.664,44.434,1299.993,314.6980520830119
813,1685672079.1,68.848,539.062,279.785,95.215,1299.997,316.321222712915
814,1685672079.1,-9.277,136.719,21.484,-2.441,1300.001,316.29850142616317
815,1685672079.11,-64.941,-93.75,-26.855,-81.543,1300.005,317.6484368098131
816,1685672079.13,9.766,24.902,74.707,5.859,1300.024,313.5945221950399
817,1685672079.13,82.031,183.594,144.531,107.422,1300.028,315.4753680994164
818,1685672079.13,31.738,-110.352,38.574,45.41,1300.032,316.19575574060644
819,1685672079.14,-49.316,-280.273,9.277,-61.523,1300.036,317.69001381120967
820,1685672079.14,-11.719,67.871,72.754,-17.578,1300.04,315.48553353948625
821,1685672079.15,77.637,92.773,110.84,89.355,1300.043,316.6408365889487
822,1685672079.15,51.758,-446.777,-106.445,63.477,1300.047,316.54727138007553
823,1685672079.15,-41.992,-546.875,-155.273,-53.223,1300.051,316.841810684997
824,1685672079.16,-56.152,182.129,84.473,-84.961,1300.067,311.4606178262279
825,1685672079.16,-38.086,184.57,150.879,-57.617,1300.055,312.62763533754315
826,1685672079.16,14.648,74.707,75.684,22.949,1300.071,315.62460579176405
827,1685672079.16,52.246,240.723,125.977,61.523,1300.059,310.89170683211586
828,1685672079.16,58.105,10.254,75.195,79.102,1300.075,312.78867315331297
829,1685672079.16,61.523,165.527,131.836,77.637,1300.063,313.46623307056035
830,1685672079.17,-15.625,-2.441,93.262,-11.23,1300.079,312.27113304049465
831,1685672079.17,-25.391,217.285,135.742,-44.434,1300.067,316.47953926800244
832,1685672079.17,-82.031,-10.742,33.203,-96.68,1300.083,314.85178285649135
833,1685672079.18,-19.043,-313.965,-127.93,-18.066,1300.087,320.24695706567115
834,1685672079.18,58.105,-500.0,-130.371,92.285,1300.091,314.8628127146824
835,1685672079.18,20.996,-211.914,45.898,39.551,1300.094,313.71270548644515
836,1685672079.19,-54.199,76.66,125.488,-73.242,1300.098,314.23191702023996
837,1685672079.19,-35.156,-256.836,-88.379,-40.527,1300.102,312.8776784453528
838,1685672079.2,44.434,-1000.0,-373.535,78.613,1300.106,310.25611827812287
839,1685672079.2,41.992,-445.312,-17.09,58.105,1300.11,314.0513498185234
840,1685672079.22,-41.504,208.496,130.859,-65.43,1300.112,315.814137374691
841,1685672079.22,-56.152,-126.953,-61.035,-74.219,1300.116,312.56575952609785
842,1685672079.22,35.156,54.688,72.266,37.109,1300.12,311.6594372818789
843,1685672079.23,66.895,455.566,225.098,63.477,1300.124,311.698281683998
844,1685672079.23,-24.414,231.934,52.246,-52.246,1300.128,308.0942656348199
845,1685672079.24,-75.684,-389.648,-221.191,-109.863,1300.132,314.81242668589914
846,1685672079.24,5.859,-471.191,-106.934,-12.695,1300.136,314.7422002863024
847,1685672079.24,70.801,49.316,166.504,59.082,1300.14,313.0685485772605
848,1685672079.25,4.395,259.766,126.465,-25.879,1300.144,313.64867178843775
849,1685672079.25,-64.941,-597.656,-322.754,-107.422,1300.148,314.1145299598622
850,1685672079.26,-18.066,-602.051,-196.777,-34.18,1300.151,315.5078355336656
851,1685672079.26,57.129,436.035,277.832,63.477,1300.155,309.9999931519144
852,1685672079.26,27.344,281.738,83.984,19.043,1300.157,311.5149619837023
853,1685672079.26,-62.988,-138.672,-66.895,-89.355,1300.161,313.6046903014176
854,1685672079.27,-51.758,21.973,85.449,-74.707,1300.165,308.6795563001216
855,1685672079.27,44.434,338.867,182.617,40.527,1300.169,309.9007228347739
856,1685672079.28,44.434,189.941,75.684,41.992,1300.173,312.4579091081197
857,1685672079.28,-49.316,-358.398,-166.504,-82.031,1300.177,309.71428363839806
858,1685672079.28,-70.801,-423.828,-167.969,-108.887,1300.181,319.57747829762036
859,1685672079.29,15.625,-209.961,-4.395,7.812,1300.184,314.5324840402831
860,1685672079.29,46.875,-314.941,-29.785,67.383,1300.188,312.87329789568673
861,1685672079.3,-33.203,-986.816,-460.938,-6.348,1300.192,312.8886024246032
862,1685672079.3,-74.219,-718.262,-291.016,-77.148,1300.196,316.75477254143425
863,1685672079.3,-0.977,174.805,151.855,-1.465,1300.2,309.5059329608537
864,1685672079.31,60.547,198.73,167.48,90.82,1300.202,309.18939286489683
865,1685672079.31,8.789,168.945,140.625,24.414,1300.206,308.45125916795854
866,1685672079.31,-64.453,262.207,113.77,-77.637,1300.21,316.02379613178357
867,1685672079.32,-20.02,198.242,89.844,-22.949,1300.214,314.43550525428407
868,1685672079.32,63.965,106.934,98.633,86.914,1300.218,310.7358519734818
869,1685672079.33,44.922,-89.355,44.922,51.27,1300.222,305.6847015658794
870,1685672079.33,-32.715,-153.32,-8.301,-55.176,1300.226,315.9159078248112
871,1685672079.33,-24.902,48.828,38.086,-38.574,1300.23,313.73236469277265
872,1685672079.34,57.617,-426.758,-112.305,85.449,1300.234,310.6965534294108
873,1685672079.34,61.035,-292.48,36.621,87.891,1300.238,312.16617146648827
874,1685672079.34,-23.926,190.43,103.516,-42.48,1300.242,306.5760278012034
875,1685672079.35,-55.176,-280.762,-172.852,-78.613,1300.245,308.3060164328228
876,1685672079.35,28.809,-308.105,-34.18,37.598,1300.247,312.0584796106474
877,1685672079.36,71.289,246.094,194.336,87.891,1300.251,312.83243383216865
878,1685672079.36,5.371,408.691,134.766,-9.766,1300.255,311.84745811145103
879,1685672079.36,-48.828,-147.461,-154.297,-83.008,1300.259,311.5758531133636
880,1685672079.37,5.371,-242.676,-112.305,-9.766,1300.263,314.7855996602127
881,1685672079.37,66.895,61.035,142.09,75.195,1300.267,315.26051966409415
882,1685672079.38,20.02,-48.34,49.805,15.625,1300.271,310.1925372821297
883,1685672079.38,-57.129,-504.395,-256.836,-86.914,1300.275,310.8763884947518
884,1685672079.38,-36.621,-1000.0,-449.219,-43.945,1300.279,310.826409998942
885,1685672079.39,43.457,-275.391,50.781,71.289,1300.282,309.2867444852956
886,1685672079.39,42.48,497.559,231.934,58.105,1300.286,307.5549206613794
887,1685672079.39,-43.945,41.504,-26.855,-46.875,1300.29,306.06075084467284
888,1685672079.4,-53.223,-66.406,11.23,-55.664,1300.295,316.978849555515
889,1685672079.4,37.109,123.535,125.977,57.617,1300.299,310.51939348671465
890,1685672079.4,55.176,273.926,141.602,89.844,1300.303,309.89257320229063
891,1685672079.41,-33.691,-125.488,-7.812,-28.32,1300.307,308.47540556205354
892,1685672079.41,-80.078,-357.422,-31.25,-91.309,1300.311,309.74166238649633
893,1685672079.42,-9.766,-86.426,87.891,9.277,1300.315,310.3787755936649
894,1685672079.42,34.18,57.129,118.652,80.078,1300.319,313.1717951314268
895,1685672079.42,-30.273,-442.871,-174.316,-11.719,1300.323,309.28956281751437
896,1685672079.43,-90.82,-580.566,-157.227,-108.398,1300.326,312.22303753827504
897,1685672079.43,-22.949,201.66,170.41,-35.156,1300.33,313.21600609934285
898,1685672079.44,57.617,269.043,105.957,80.078,1300.334,310.9196990066026
899,1685672079.44,15.625,111.816,88.867,25.879,1300.338,310.6165645998633
900,1685672079.44,-58.105,124.512,114.746,-88.379,1300.338,310.8096235275422
901,1685672079.44,-27.344,207.52,122.559,-52.734,1300.342,308.0056544020858
902,1685672079.45,52.246,212.891,113.77,67.383,1300.345,311.84204629610804
903,1685672079.45,34.668,22.461,70.801,57.617,1300.349,308.63551003668744
904,1685672079.46,-52.734,-139.16,35.645,-62.012,1300.353,309.204244535099
905,1685672079.46,-57.617,-253.418,-34.668,-85.449,1300.357,308.2635517530014
906,1685672079.46,33.203,-295.41,-38.574,29.785,1300.361,307.71423779630277
907,1685672079.47,53.711,-888.184,-350.586,78.125,1300.365,307.7698358102545
908,1685672079.47,-28.809,-747.559,-237.305,-35.645,1300.369,304.317686415831
909,1685672079.48,-73.242,85.938,166.504,-107.91,1300.373,312.14920416986996
910,1685672079.48,-1.465,18.066,59.57,-1.953,1300.377,308.5953586610313
911,1685672079.48,58.105,110.352,117.676,81.055,1300.381,306.6586222666172
912,1685672079.49,-3.418,378.418,172.852,-6.348,1300.396,305.03668016150823
913,1685672079.49,-71.777,134.277,15.137,-98.633,1300.4,311.17076093025037
914,1685672079.49,-31.25,-53.223,19.531,-39.551,1300.404,310.4157394686429
915,1685672079.5,44.922,255.371,147.461,70.312,1300.408,312.0478304005634
916,1685672079.5,22.461,388.672,127.441,37.598,1300.412,305.33338816405035
917,1685672079.51,-62.012,-67.383,-40.039,-80.078,1300.416,305.7550034623209
918,1685672079.51,-59.57,-777.832,-320.801,-61.523,1300.42,308.81003549449304
919,1685672079.51,32.715,-588.867,-168.457,53.711,1300.423,305.33323639296174
920,1685672079.52,42.969,384.277,225.098,51.27,1300.427,313.1148248093258
921,1685672079.52,-45.898,221.68,38.574,-63.965,1300.431,306.420339858234
922,1685672079.52,-72.754,-236.816,-79.59,-87.891,1300.435,308.8731331177754
923,1685672079.53,18.555,135.254,138.672,26.367,1300.439,306.88334159724883
924,1685672079.53,55.664,552.246,236.816,67.871,1300.442,303.80662838149067
925,1685672079.54,-29.785,154.297,20.02,-40.039,1300.446,308.7215696247787
926,1685672079.54,-76.66,-219.238,-82.031,-111.816,1300.45,303.39527730454336
927,1685672079.54,-9.766,92.285,115.723,-21.973,1300.453,307.24330602769544
928,1685672079.55,49.805,378.418,171.387,71.289,1300.457,310.18995414690824
929,1685672079.55,-2.93,-171.387,-138.672,2.441,1300.461,304.4346312848736
930,1685672079.56,-72.266,-848.145,-375.977,-95.215,1300.465,307.0231561114699
931,1685672079.56,-27.344,-487.793,-121.094,-46.875,1300.469,307.22302723458256
932,1685672079.56,58.594,194.824,186.035,59.082,1300.473,299.2780489366845
933,1685672079.57,26.855,-169.434,-36.133,34.668,1300.477,310.5646651844816
934,1685672079.57,-73.73,-961.426,-384.277,-83.496,1300.481,310.09735283659745
935,1685672079.57,-62.012,-287.598,28.809,-86.426,1300.485,305.08204723349274
936,1685672079.61,38.574,377.441,221.191,36.133,1300.503,303.95505160883556
937,1685672079.61,52.734,166.992,71.289,55.176,1300.507,304.3327882526231
938,1685672079.61,-27.344,47.852,45.41,-50.781,1300.511,304.13253164347236
939,1685672079.62,-61.035,142.09,96.68,-83.008,1300.515,304.6487953830841
940,1685672079.62,8.789,237.793,131.348,19.531,1300.519,302.49127521999276
941,1685672079.63,44.434,-38.574,51.27,75.684,1300.523,310.87464697079884
942,1685672079.63,-29.297,-234.863,-19.043,-23.438,1300.526,304.8989158881001
943,1685672079.63,-83.008,43.457,74.219,-104.004,1300.53,310.1071470370823
944,1685672079.64,-21.484,134.766,78.125,-19.043,1300.534,312.6562240540433
945,1685672079.64,41.504,-279.785,-29.785,75.195,1300.538,306.3891869382998
946,1685672079.64,-2.93,-186.523,40.039,12.207,1300.542,312.35047183721815
947,1685672079.65,-74.219,-28.809,-12.695,-97.168,1300.546,308.34637113388067
948,1685672079.65,-36.621,-380.859,-188.965,-57.617,1300.547,306.2152243863223
949,1685672079.66,60.059,-289.062,-38.086,63.477,1300.551,312.72347116158437
950,1685672079.66,53.711,161.133,164.062,55.176,1300.555,305.8228778599512
951,1685672079.66,-38.574,205.078,85.938,-60.059,1300.559,310.65538726541246
952,1685672079.67,-43.945,-213.867,-97.656,-64.453,1300.563,310.3244438267009
953,1685672079.67,58.594,-336.426,-84.473,56.152,1300.567,308.4890493465197
954,1685672079.68,83.496,-88.867,98.633,93.262,1300.571,316.81324480921893
955,1685672079.68,0.0,-148.438,-37.598,-12.695,1300.575,310.625934127249
956,1685672079.68,-49.316,-357.422,-176.758,-84.961,1300.582,310.2384838837132
957,1685672079.68,-42.48,-528.809,-250.0,-76.172,1300.579,307.8006263750009
958,1685672079.69,40.039,-274.414,-0.488,29.297,1300.582,315.29066742102304
959,1685672079.69,-10.742,-1000.0,-399.414,-22.949,1300.585,313.43089464067594
960,1685672079.69,91.309,346.191,201.66,98.633,1300.586,311.55942707167395
961,1685672079.69,59.082,-422.852,9.277,63.965,1300.589,314.3592928531091
962,1685672079.69,19.043,379.883,158.203,-0.488,1300.59,309.92729077906637
963,1685672079.69,32.715,181.152,110.352,18.555,1300.593,313.96803907429114
964,1685672079.7,-48.34,-326.172,-154.785,-83.984,1300.597,308.40318285910377
965,1685672079.7,-40.527,-633.301,-162.109,-59.082,1300.601,309.2099111396842
966,1685672079.71,50.293,-107.91,85.449,54.688,1300.605,314.97240366069985
967,1685672079.71,43.457,162.109,103.027,54.199,1300.609,312.1054513293285
968,1685672079.71,-49.805,-131.836,-58.105,-63.477,1300.613,310.695863230319
969,1685672079.72,-58.594,-132.812,17.578,-91.797,1300.617,313.4124241596216
970,1685672079.72,34.668,353.027,191.406,20.508,1300.621,316.6761840474854
971,1685672079.72,62.012,360.84,111.328,70.801,1300.625,313.13478298727017
972,1685672079.73,-20.996,-450.684,-154.297,-23.438,1300.636,313.11147002576774
973,1685672079.73,-62.5,-410.645,-43.457,-81.543,1300.64,310.3502346521379
974,1685672079.73,18.555,289.062,175.293,16.113,1300.644,311.1449481853675
975,1685672079.74,75.195,238.281,100.586,93.262,1300.647,312.3384736069817
976,1685672079.74,8.301,-75.195,-20.996,18.066,1300.651,314.1253037448422
977,1685672079.75,-63.477,-261.719,-104.98,-68.848,1300.655,314.43985134766007
978,1685672079.75,-16.113,-236.816,-22.461,-10.254,1300.659,313.781794977629
979,1685672079.75,62.988,-238.281,-14.16,91.309,1300.663,316.9036036593886
980,1685672079.76,22.949,-894.043,-428.711,54.688,1300.667,314.551878297618
981,1685672079.76,-53.711,-793.457,-335.938,-49.316,1300.671,314.07598477598384
982,1685672079.76,-37.109,63.965,98.145,-43.945,1300.675,314.45755712652556
983,1685672079.77,32.715,199.219,178.223,52.734,1300.679,317.9719514282091
984,1685672079.79,34.18,294.434,171.387,51.758,1300.682,311.12335250599494
985,1685672079.79,-57.617,351.562,92.773,-64.941,1300.686,315.29473760754416
986,1685672079.79,-96.68,110.84,5.371,-116.699,1300.69,312.25796056262607
987,1685672079.8,-16.113,83.984,101.562,-15.137,1300.694,317.5494501298158
988,1685672079.8,26.855,290.527,187.5,57.129,1300.698,312.6187221871435
989,1685672079.81,-40.039,22.949,1.953,-29.785,1300.702,313.2852555422858
990,1685672079.81,-90.82,-263.184,-146.484,-98.633,1300.706,315.0747530418743
991,1685672079.81,-24.414,-708.984,-293.945,-7.324,1300.71,313.2238213073571
992,1685672079.82,56.152,-53.223,125.977,85.938,1300.713,313.15299524654876
993,1685672079.82,44.434,-622.07,-117.676,84.473,1300.714,314.3713376782326
994,1685672079.82,40.527,584.961,258.301,59.082,1300.717,316.39115196985307
995,1685672079.82,-8.789,322.754,213.379,13.184,1300.718,315.5503511118127
996,1685672079.82,-44.434,95.215,-43.457,-55.176,1300.721,317.05031812684604
997,1685672079.82,-84.961,180.176,1.953,-86.914,1300.721,321.02977591155974
998,1685672079.83,-47.852,-173.828,-102.539,-63.965,1300.725,313.87557227667463
999,1685672079.83,-35.645,-491.699,-159.18,-31.738,1300.725,313.4059393732017
1000,1685672079.83,39.062,250.488,166.504,40.527,1300.728,318.529932678185
1001,1685672079.84,56.641,184.57,110.84,73.242,1300.732,312.30432292600574
1002,1685672079.84,-26.367,-334.961,-124.512,-25.879,1300.736,315.03449165892073
1003,1685672079.84,-65.918,-472.656,-182.617,-81.055,1300.74,314.7808654689431
1004,1685672079.85,12.695,65.43,74.707,12.207,1300.744,310.24583711967625
1005,1685672079.85,60.547,359.375,153.809,79.59,1300.748,316.9910673293463
1006,1685672079.86,-0.977,-258.301,-135.254,6.836,1300.752,318.6886212181626
1007,1685672079.86,-72.754,-1000.0,-523.926,-68.359,1300.756,313.86767591273883
1008,1685672079.86,-17.09,-608.887,-189.453,-3.906,1300.786,310.2614612150672
1009,1685672079.86,77.637,329.59,213.379,103.027,1300.79,314.3373391646343
1010,1685672079.87,37.109,179.688,87.891,55.176,1300.794,321.6641902263789
1011,1685672079.87,-42.969,23.438,34.668,-60.547,1300.798,319.4657528845499
1012,1685672079.88,-10.254,149.414,48.828,-29.785,1300.802,315.68168956373694
1013,1685672079.88,73.73,160.156,111.816,80.566,1300.806,314.44611097159395
1014,1685672079.88,58.594,-432.129,-127.93,66.406,1300.81,318.0422427187041
1015,1685672079.89,-21.973,-578.613,-183.105,-53.711,1300.814,317.6662058054624
1016,1685672079.89,-27.344,161.621,118.652,-64.453,1300.817,314.138937198668
1017,1685672079.9,50.293,343.262,153.809,58.105,1300.821,317.9362472958908
1018,1685672079.9,68.359,172.852,86.914,94.727,1300.825,317.1746766335274
1019,1685672079.9,-13.184,65.43,39.551,-15.137,1300.829,317.16202978308064
1020,1685672079.91,-60.547,-33.203,-16.602,-77.148,1300.816,311.75290613826905
1021,1685672079.91,7.812,-213.379,-50.293,5.371,1300.82,317.49568019821703
1022,1685672079.92,62.988,-176.27,31.738,76.172,1300.823,316.18198085406226
1023,1685672079.92,0.0,157.715,119.629,3.418,1300.827,314.339790448766
1024,1685672079.92,-63.965,158.691,36.621,-89.355,1300.831,313.7552401713823
1025,1685672079.93,-4.883,-343.75,-189.453,-20.996,1300.835,312.1149182508369
1026,1685672079.93,72.754,-507.812,-143.555,88.379,1300.839,316.097691370366
1027,1685672079.93,41.504,-165.039,66.406,36.621,1300.843,316.7454574896897
1028,1685672079.94,-40.527,122.07,93.75,-76.172,1300.847,314.40285097517045
1029,1685672079.94,-29.297,-335.938,-133.301,-47.363,1300.851,315.6186298868606
1030,1685672079.95,69.336,-434.57,-122.559,78.613,1300.855,320.23417232994586
1031,1685672079.95,77.637,349.121,182.617,74.707,1300.859,315.8830891693784
1032,1685672079.97,-22.949,349.609,130.859,-49.316,1300.863,313.1690818150619
1033,1685672079.97,-56.641,-467.773,-198.73,-63.477,1300.867,323.46683493555497
1034,1685672079.97,32.227,-669.922,-188.477,56.641,1300.871,317.2959744298531
1035,1685672079.98,83.984,62.5,163.086,83.984,1300.875,322.3912137758046
1036,1685672079.98,5.859,242.188,112.793,-23.926,1300.879,319.433004696915
1037,1685672079.99,-57.129,-521.484,-292.969,-75.684,1300.882,316.37342397560303
1038,1685672079.99,10.742,-694.824,-245.605,13.184,1300.886,316.63733641302986
1039,1685672079.99,84.473,331.543,242.188,95.215,1300.89,317.4128965697178
1040,1685672080.0,22.949,298.34,69.336,30.273,1300.894,321.7068339635541
1041,1685672080.0,-59.082,-222.656,-110.352,-69.336,1300.898,318.1092000573028
1042,1685672080.0,-14.16,16.602,78.125,-23.926,1300.902,318.42038209243606
1043,1685672080.01,69.824,479.004,215.82,75.684,1300.906,316.43200640507683
1044,1685672080.01,37.598,247.559,55.664,43.457,1300.908,314.46145571786246
1045,1685672080.02,-46.875,-162.598,-92.285,-68.359,1300.912,317.6181072420452
1046,1685672080.02,-34.18,-20.02,49.805,-68.359,1300.915,314.03165619631676
1047,1685672080.02,60.059,341.309,187.988,51.758,1300.919,317.6719649819245
1048,1685672080.03,61.523,172.852,59.57,66.406,1300.923,316.5036407619924
1049,1685672080.03,-29.297,-385.254,-222.656,-43.945,1300.927,313.0888338448979
1050,1685672080.04,-50.293,-467.285,-219.727,-73.242,1300.931,315.4170297851799
1051,1685672080.04,32.227,-225.586,-1.953,30.762,1300.935,321.16680811955956
1052,1685672080.04,78.613,-264.648,-23.926,87.402,1300.939,315.8963137597239
1053,1685672080.05,-3.418,-958.008,-507.812,-1.953,1300.943,315.2765600505335
1054,1685672080.05,-62.5,-744.141,-318.848,-70.312,1300.947,311.762682888513
1055,1685672080.05,10.742,137.207,170.41,6.836,1300.951,317.87945422474905
1056,1685672080.06,74.219,221.191,161.621,88.867,1300.952,318.15303104556455
1057,1685672080.06,20.508,224.121,145.02,24.902,1300.956,315.74806281835737
1058,1685672080.06,-58.594,232.91,95.215,-83.008,1300.96,311.86271809478234
1059,1685672080.07,-23.926,141.113,42.48,-36.621,1300.964,315.22058399640946
1060,1685672080.07,57.129,139.16,95.215,76.66,1300.968,315.77639893632926
1061,1685672080.08,35.645,-70.312,32.715,54.688,1300.972,313.42779666059005
1062,1685672080.08,-49.316,-159.18,-7.812,-57.617,1300.976,316.5774322839501
1063,1685672080.08,-51.758,62.5,62.5,-67.871,1300.98,316.6912702066449
1064,1685672080.09,34.18,-562.012,-239.746,63.477,1300.984,312.7404782733491
1065,1685672080.09,58.105,-681.152,-186.523,101.074,1300.988,315.6273354389598
1066,1685672080.1,-18.066,186.523,152.344,-15.137,1300.991,314.3466163733121
1067,1685672080.1,-51.27,53.223,-20.508,-69.336,1300.995,308.37587257291233
1068,1685672080.1,28.32,-70.801,-6.348,25.391,1301.011,316.3317691156358
1069,1685672080.1,79.59,345.215,203.125,91.797,1301.015,317.8964793101747
1070,1685672080.11,8.301,454.102,173.34,4.395,1301.019,311.3676843415937
1071,1685672080.11,-60.059,-48.828,-104.492,-85.449,1301.023,315.8474635224243
1072,1685672080.12,-6.836,-241.211,-135.742,-20.02,1301.027,312.90343034436705
1073,1685672080.12,61.035,-14.648,100.586,76.172,1301.031,314.0011404414821
1074,1685672080.12,15.137,-67.871,54.199,21.484,1301.035,313.32488868862157
1075,1685672080.13,-70.801,-511.23,-284.668,-84.473,1301.038,317.22645207604944
1076,1685672080.13,-49.805,-1000.0,-505.859,-46.875,1301.042,312.67786533416074
1077,1685672080.14,38.086,-330.078,-21.973,53.711,1301.046,315.9370995976501
1078,1685672080.14,42.48,379.395,138.184,35.645,1301.05,314.15346733563894
1079,1685672080.14,-38.574,-314.453,-157.227,-63.965,1301.054,313.9834971002323
1080,1685672080.15,-51.27,-356.934,-24.414,-88.379,1301.042,316.7939246033039
1081,1685672080.15,41.992,338.867,200.195,25.879,1301.046,314.6088272136743
1082,1685672080.15,68.848,483.398,140.625,71.289,1301.05,315.5660056242417
1083,1685672080.16,-17.09,-186.523,-70.801,-31.738,1301.054,314.4396668543567
1084,1685672080.16,-66.406,-381.348,-64.941,-97.168,1301.058,315.26407032835783
1085,1685672080.17,6.836,-62.988,29.785,-0.488,1301.062,309.91655961992393
1086,1685672080.17,70.312,107.91,137.695,86.914,1301.066,310.06484879258704
1087,1685672080.17,11.23,-423.828,-176.758,15.625,1301.07,315.2098166831089
1088,1685672080.18,-62.988,-697.266,-268.066,-74.707,1301.074,313.29333178310236
1089,1685672080.18,-11.719,178.711,167.969,-19.043,1301.077,315.9699050700551
1090,1685672080.18,73.73,371.094,139.648,91.309,1301.081,314.0952913885087
1091,1685672080.19,43.457,-25.391,21.973,58.594,1301.085,316.91293551009676
1092,1685672080.19,-34.18,-42.969,27.832,-59.082,1301.091,313.57413482607336
1093,1685672080.2,-19.043,28.809,24.902,-41.992,1301.095,313.77901169768296
1094,1685672080.2,67.383,-115.723,-14.648,83.008,1301.099,317.83715849818947
1095,1685672080.2,71.289,-129.883,20.996,87.402,1301.103,315.02418595642393
1096,1685672080.21,-23.926,59.082,82.031,-35.645,1301.107,321.41628648282506
1097,1685672080.21,-45.41,-106.934,-59.57,-55.664,1301.111,313.29025630397314
1098,1685672080.22,41.016,-351.562,-130.371,57.617,1301.115,314.5593013012262
1099,1685672080.22,69.824,-860.84,-328.613,105.469,1301.119,313.79737792522707
1100,1685672080.22,-0.977,-511.23,-129.883,1.465,1301.122,311.5533881872898
1101,1685672080.23,-49.805,225.586,114.746,-74.219,1301.126,314.19550341721236
1102,1685672080.23,15.625,28.809,44.434,7.324,1301.13,316.814731965978
1103,1685672080.24,75.684,207.52,138.672,87.402,1301.134,314.0861722132536
1104,1685672080.24,11.719,496.094,180.664,20.02,1301.146,314.61655548167124
1105,1685672080.24,-62.988,257.812,80.566,-83.008,1301.15,310.9950285605206
1106,1685672080.24,-28.32,-0.977,9.277,-37.598,1301.154,314.40725197385746
1107,1685672080.25,39.551,172.852,92.773,75.195,1301.158,311.8092645365983
1108,1685672080.25,15.625,118.652,91.309,47.363,1301.162,311.1317157062745
1109,1685672080.26,-71.289,-176.758,-57.617,-67.383,1301.166,318.45025999977076
1110,1685672080.26,-73.242,-706.543,-318.848,-71.777,1301.17,309.8952310950888
1111,1685672080.26,14.16,-668.457,-164.551,38.574,1301.174,314.93490103043104
1112,1685672080.27,37.598,304.199,218.75,60.547,1301.178,313.4414596172852
1113,1685672080.27,-40.527,237.793,22.949,-36.133,1301.181,310.9901841768873
1114,1685672080.28,-66.895,-228.516,-75.195,-79.59,1301.185,312.1001581231666
1115,1685672080.28,11.719,129.883,165.039,14.16,1301.189,312.29302518067675
1116,1685672080.3,55.664,521.484,218.262,76.172,1301.193,309.0581853456972
1117,1685672080.3,-17.09,121.582,-36.133,-25.879,1301.197,314.6672625656903
1118,1685672080.3,-82.52,-247.559,-134.766,-116.699,1301.201,312.18662764571326
1119,1685672080.31,-18.066,96.191,113.77,-30.762,1301.205,311.3240253553511
1120,1685672080.31,52.734,422.852,206.055,74.219,1301.209,309.9247587321492
1121,1685672080.32,1.465,-121.582,-88.379,12.207,1301.212,313.0780048544956
1122,1685672080.32,-73.73,-798.34,-350.098,-86.914,1301.216,312.41338647227195
1123,1685672080.32,-31.25,-492.188,-150.391,-32.227,1301.22,312.6864452981275
1124,1685672080.33,54.199,-24.902,60.059,83.984,1301.224,314.4813226432904
1125,1685672080.33,30.762,-247.07,-84.961,60.547,1301.228,312.89385378737063
1126,1685672080.34,-59.082,-937.5,-416.504,-58.594,1301.232,314.9951385501887
1127,1685672080.34,-44.434,-442.871,-83.496,-69.824,1301.236,315.87447505366634
1128,1685672080.34,50.293,333.008,194.336,39.551,1301.238,315.6699959841902
1129,1685672080.34,56.641,232.422,117.676,68.359,1301.242,311.0827114763939
1130,1685672080.35,-28.32,102.539,73.242,-37.598,1301.246,317.13022451205035
1131,1685672080.35,-65.43,103.027,38.086,-87.891,1301.25,319.10063280332895
1132,1685672080.36,18.066,192.871,112.793,12.207,1301.254,319.5076527807228
1133,1685672080.36,71.777,26.855,73.73,94.238,1301.258,315.84287173741626
1134,1685672080.36,6.348,-116.699,14.16,12.695,1301.262,316.15073479513865
1135,1685672080.37,-48.34,106.445,69.824,-76.172,1301.266,315.00469320803103
1136,1685672080.37,7.324,218.262,110.84,-11.23,1301.269,313.87252087687233
1137,1685672080.38,61.035,-498.047,-160.645,79.59,1301.273,317.0264535038017
1138,1685672080.38,20.996,-697.754,-198.242,29.297,1301.277,311.2731951026272
1139,1685672080.38,-53.223,126.465,123.047,-72.754,1301.281,312.5653386949142
1140,1685672080.39,-44.434,2.441,-13.672,-52.734,1301.282,307.9778755958928
1141,1685672080.39,42.969,-22.461,24.902,48.828,1301.286,312.5005637768669
1142,1685672080.39,33.203,351.074,188.477,42.48,1301.29,316.8502547191826
1143,1685672080.4,-59.57,360.352,150.391,-69.336,1301.294,314.2480556722374
1144,1685672080.4,-71.777,-115.723,-105.957,-89.355,1301.298,313.88416686283523
1145,1685672080.41,14.648,-466.797,-210.449,22.949,1301.302,314.7438204798476
1146,1685672080.41,45.898,-128.418,78.613,71.289,1301.305,313.27502803952956
1147,1685672080.41,-33.691,-68.359,36.133,-34.18,1301.309,313.39342025142184
1148,1685672080.42,-83.008,-458.984,-241.699,-103.516,1301.313,308.275901310183
1149,1685672080.42,-16.602,-1000.0,-425.781,-5.371,1301.317,313.54317156739296
1150,1685672080.42,41.504,-424.316,-63.477,70.312,1301.321,307.2765988607982
1151,1685672080.43,-21.484,288.086,111.816,-15.137,1301.325,313.7771495069689
1152,1685672080.43,-99.609,-448.73,-237.793,-105.469,1301.327,313.9966878741898
1153,1685672080.44,-53.711,-357.422,-71.777,-59.57,1301.331,313.21788922254893
1154,1685672080.44,33.203,512.695,252.93,41.016,1301.335,313.9211030254693
1155,1685672080.44,10.742,461.914,141.602,14.16,1301.339,308.90385471844024
1156,1685672080.45,-85.449,-113.77,-125.0,-102.539,1301.343,312.7207226088379
1157,1685672080.45,-83.496,-381.836,-188.477,-85.938,1301.347,315.558515269814
1158,1685672080.46,9.766,21.484,58.105,36.133,1301.351,313.9716514089159
1159,1685672080.46,16.113,423.828,165.527,43.945,1301.354,318.19802451422345
1160,1685672080.46,-74.219,-387.695,-222.656,-65.918,1301.358,315.1795347790508
1161,1685672080.47,-95.703,-557.129,-180.664,-96.191,1301.362,315.2558117923146
1162,1685672080.47,5.371,347.168,212.891,20.508,1301.366,312.8484916474808
1163,1685672080.47,47.852,364.746,126.465,73.73,1301.37,314.40216065521986
1164,1685672080.49,-23.438,36.133,5.371,-22.949,1301.388,319.0821334444834
1165,1685672080.5,-62.012,10.742,19.531,-87.891,1301.392,315.69331263214167
1166,1685672080.5,9.277,-17.09,33.691,-10.742,1301.396,313.1826842034431
1167,1685672080.5,81.055,-140.137,-2.441,85.938,1301.4,312.91506328009376
1168,1685672080.51,27.832,-298.828,-65.918,25.391,1301.404,314.2645438649874
1169,1685672080.51,-58.594,-338.867,-115.234,-85.449,1301.408,315.1087838899023
1170,1685672080.52,-19.531,-281.25,-122.07,-28.32,1301.412,320.49536906435645
1171,1685672080.52,64.453,-259.766,-91.797,85.449,1301.416,310.4632992143543
1172,1685672080.52,74.219,202.637,145.508,85.938,1301.431,311.58549211248356
1173,1685672080.52,40.039,-844.238,-353.027,58.105,1301.42,316.2817763001963
1174,1685672080.52,-11.23,357.91,135.742,-28.809,1301.435,317.12375541485443
1175,1685672080.53,-39.551,-553.711,-182.129,-61.035,1301.424,315.3779596700482
1176,1685672080.53,-47.852,145.996,24.902,-84.961,1301.439,314.39334697018165
1177,1685672080.53,-32.715,143.066,86.914,-65.918,1301.428,310.23633892005444
1178,1685672080.53,30.762,-128.906,-36.133,19.531,1301.443,310.00763970624075
1179,1685672080.53,55.176,42.48,89.844,56.641,1301.431,312.6567823343283
1180,1685672080.54,65.43,41.992,70.312,86.426,1301.447,313.20297531268665
1181,1685672080.54,-3.418,54.688,3.418,-0.488,1301.451,311.4948535594999
1182,1685672080.54,-56.152,-319.336,-197.754,-75.684,1301.455,313.7761426903826
1183,1685672080.55,1.465,-567.383,-174.316,-6.348,1301.459,320.5042211193793
1184,1685672080.55,72.754,-160.645,76.66,83.496,1301.463,316.63500005927284
1185,1685672080.56,27.832,334.473,168.945,22.461,1301.467,307.8390240224634
1186,1685672080.56,-53.711,94.238,11.23,-90.82,1301.47,318.4087602684393
1187,1685672080.56,-33.691,-708.008,-307.617,-48.34,1301.474,316.3757380521695
1188,1685672080.58,62.5,-418.457,-84.473,72.754,1301.477,315.63061726790914
1189,1685672080.58,50.293,475.098,216.797,49.316,1301.481,315.96149604716067
1190,1685672080.59,-44.922,17.578,-91.797,-69.336,1301.485,315.55858904259526
1191,1685672080.59,-41.504,-203.125,-115.234,-68.359,1301.489,313.42939446096045
1192,1685672080.6,47.363,237.305,139.648,49.316,1301.493,316.735209579852
1193,1685672080.6,56.152,219.238,111.328,68.848,1301.497,316.89180111396837
1194,1685672080.6,-34.18,-370.117,-199.707,-41.016,1301.501,313.78556034591224
1195,1685672080.61,-71.289,-926.27,-437.988,-91.309,1301.505,312.9588147111702
1196,1685672080.61,-40.039,-215.332,32.715,-51.27,1301.521,315.324376325507
1197,1685672080.61,3.418,-350.586,-56.641,9.277,1301.508,311.3945881466772
1198,1685672080.62,44.922,468.262,224.121,62.5,1301.525,309.641342455644
1199,1685672080.62,52.734,508.301,266.602,76.66,1301.512,315.4418358958401
1200,1685672080.62,0.977,148.926,28.32,11.719,1301.529,312.0458474932043
1201,1685672080.62,-29.297,-35.645,-96.68,-19.043,1301.516,315.9838706409012
1202,1685672080.62,-85.449,28.809,-14.648,-106.445,1301.533,316.6026038358852
1203,1685672080.62,-106.934,-950.195,-426.758,-111.816,1301.52,316.51133574560095
1204,1685672080.63,-57.617,150.879,65.43,-68.359,1301.537,308.6410343976994
1205,1685672080.63,31.738,56.641,53.711,53.711,1301.54,316.92094857548756
1206,1685672080.64,20.996,-136.23,-18.555,52.734,1301.544,314.40898173430844
1207,1685672080.64,-71.289,-59.57,0.0,-63.965,1301.548,310.8964511700469
1208,1685672080.64,-79.59,129.395,53.711,-87.402,1301.552,312.322553617062
1209,1685672080.65,16.602,254.395,117.676,24.902,1301.556,311.8670643621775
1210,1685672080.65,43.457,-475.586,-165.039,74.707,1301.56,313.2081320190599
1211,1685672080.65,-42.969,-751.953,-249.023,-32.227,1301.564,310.65098210453937
1212,1685672080.66,-87.402,96.68,92.285,-108.887,1301.567,314.7432342640889
1213,1685672080.66,-5.859,125.0,49.316,-7.812,1301.571,316.77659579823836
1214,1685672080.66,57.617,76.172,62.012,86.426,1301.575,321.3683309433896
1215,1685672080.67,0.977,307.617,129.395,16.602,1301.579,316.169457579026
1216,1685672080.67,-72.754,223.633,75.195,-81.543,1301.582,319.51201814920836
1217,1685672080.68,-33.691,-251.465,-145.508,-32.715,1301.586,315.940471842537
1218,1685672080.68,42.969,-597.656,-202.148,80.566,1301.59,317.93527891847384
1219,1685672080.68,13.184,-241.699,49.805,39.062,1301.594,313.0513945386841
1220,1685672080.69,-65.918,177.734,106.445,-80.566,1301.598,315.4800348347345
1221,1685672080.69,-58.594,-295.898,-182.617,-64.941,1301.602,317.52422003412255
1222,1685672080.7,28.32,-600.098,-187.988,58.594,1301.606,313.0422247663585
1223,1685672080.7,39.062,272.461,209.961,57.129,1301.61,315.8388047306136
1224,1685672080.7,-45.41,221.68,-4.395,-61.523,1301.612,321.9121457299594
1225,1685672080.71,-72.754,-548.828,-267.578,-90.332,1301.616,314.31537481067136
1226,1685672080.71,11.23,-248.535,21.973,12.207,1301.62,309.65820270133275
1227,1685672080.71,56.641,498.535,226.074,65.918,1301.624,315.5674637873628
1228,1685672080.72,-16.113,331.543,39.062,-25.391,1301.627,314.1538041181956
1229,1685672080.72,-72.754,-312.012,-221.68,-95.215,1301.631,316.59437167275246
1230,1685672080.73,-3.906,-325.195,-72.266,-11.719,1301.635,312.23372933663944
1231,1685672080.73,66.895,353.516,224.609,80.078,1301.639,313.91204291634745
1232,1685672080.73,16.602,383.301,61.523,16.602,1301.643,312.5085162507984
1233,1685672080.74,-67.383,-423.34,-238.77,-82.031,1301.647,311.479830828368
1234,1685672080.74,-33.691,-416.992,-85.449,-43.945,1301.651,318.3407483203537
1235,1685672080.74,62.012,274.902,168.945,63.965,1301.655,316.5133918800459
1236,1685672080.76,47.363,229.004,45.898,55.664,1301.672,319.84773220723815
1237,1685672080.76,-42.969,-130.371,-111.328,-56.152,1301.676,317.22245928931073
1238,1685672080.77,-42.969,-54.199,13.184,-62.988,1301.68,316.2310979884513
1239,1685672080.77,47.363,49.805,83.008,58.594,1301.684,316.1398648298397
1240,1685672080.78,59.082,-135.254,-67.383,92.285,1301.688,318.8381156912944
1241,1685672080.78,-29.785,-635.254,-314.941,-17.578,1301.691,315.98151497261625
1242,1685672080.78,-62.012,-620.605,-221.68,-73.242,1301.695,319.0729965980167
1243,1685672080.79,20.508,-232.422,-55.176,27.832,1301.699,316.164935752586
1244,1685672080.79,66.406,-305.176,-174.316,93.75,1301.703,313.891991819945
1245,1685672080.8,-6.348,-826.172,-361.816,6.836,1301.707,314.0213236321847
1246,1685672080.8,-61.523,-364.258,-27.344,-84.473,1301.711,309.28989892748075
1247,1685672080.8,-4.395,304.688,143.555,-20.02,1301.715,319.0695274021541
1248,1685672080.81,56.641,11.23,47.852,82.031,1301.703,310.3900084925945
1249,1685672080.81,21.484,-31.738,61.523,26.367,1301.707,310.9516736412529
1250,1685672080.82,-52.246,228.027,87.891,-82.52,1301.711,311.5525724288424
1251,1685672080.82,-16.602,195.312,73.73,-33.691,1301.714,315.48566394180824
1252,1685672080.82,67.871,107.91,74.219,78.125,1301.718,314.6417188290626
1253,1685672080.83,54.199,-66.895,20.996,67.871,1301.722,313.9294823545834
1254,1685672080.83,-28.809,-219.727,-88.379,-41.016,1301.726,318.48473135526683
1255,1685672080.83,-43.945,-248.047,-194.336,-67.871,1301.73,318.1294833668888
1256,1685672080.84,46.387,-474.121,-143.555,42.48,1301.734,308.7846515071173
1257,1685672080.84,70.312,-211.426,42.48,81.055,1301.738,313.4082585822047
1258,1685672080.85,-13.672,279.297,104.98,-22.949,1301.742,311.90413469273454
1259,1685672080.85,-58.105,66.895,-19.043,-74.707,1301.746,312.03893614156857
1260,1685672080.85,18.066,-642.578,-250.977,31.738,1301.748,313.038862790456
1261,1685672080.86,83.496,-371.582,-20.02,110.352,1301.751,311.9404119976486
1262,1685672080.86,29.297,379.395,164.551,25.391,1301.755,314.97898227723095
1263,1685672080.86,-52.734,-66.406,-146.484,-73.242,1301.759,313.8737878040604
1264,1685672080.87,-5.859,-208.984,-167.48,-16.602,1301.763,312.013008515622
1265,1685672080.87,77.637,17.09,58.594,85.938,1301.767,314.69742280190667
1266,1685672080.88,30.273,-58.105,19.043,36.133,1301.771,310.6442065129664
1267,1685672080.88,-65.918,-413.086,-227.539,-76.66,1301.775,313.37891092943613
1268,1685672080.88,-53.223,-1000.0,-518.555,-38.086,1301.779,308.15170551749367
1269,1685672080.89,39.551,-679.199,-163.574,77.148,1301.783,311.655748691051
1270,1685672080.89,51.758,333.008,248.535,65.918,1301.787,311.1208137836847
1271,1685672080.89,-37.598,136.719,-11.23,-48.828,1301.791,312.05289074549376
1272,1685672080.9,-60.547,-79.59,-33.203,-71.777,1301.793,310.2248600329146
1273,1685672080.9,28.809,400.391,182.129,44.922,1301.797,309.7533573883396
1274,1685672080.9,62.5,533.203,160.645,90.332,1301.8,317.9156386921644
1275,1685672080.91,-20.508,166.504,14.16,-14.648,1301.804,311.6778716900826
1276,1685672080.91,-68.359,-9.766,-55.176,-80.566,1301.808,311.2844814373186
1277,1685672080.92,5.371,-13.184,10.742,14.16,1301.812,313.39006979577476
1278,1685672080.92,72.266,171.387,141.113,92.773,1301.816,314.3299312557254
1279,1685672080.92,16.113,-348.633,-154.297,20.996,1301.82,315.94120431967923
1280,1685672080.93,-62.012,-590.332,-201.172,-75.195,1301.824,317.02131051721295
1281,1685672080.93,-16.113,195.801,144.531,-33.691,1301.828,312.6988653928536
1282,1685672080.94,66.895,264.16,86.426,75.684,1301.832,314.70080783893343
1283,1685672080.94,33.203,-2.441,57.129,45.41,1301.836,314.66636055334396
1284,1685672080.94,-58.594,63.965,93.75,-69.336,1301.837,307.32092735954654
1285,1685672080.94,-51.27,261.719,121.582,-64.453,1301.841,314.61469555370564
1286,1685672080.95,38.086,147.949,49.805,48.828,1301.845,315.3009943076544
1287,1685672080.95,43.945,-25.391,-8.789,77.637,1301.849,319.32242977847744
1288,1685672080.96,-38.574,102.051,41.504,-35.156,1301.853,314.50434842373335
1289,1685672080.96,-60.547,-129.883,-126.953,-74.707,1301.857,312.85270962204123
1290,1685672080.96,18.066,-396.484,-211.914,42.48,1301.86,309.0178000831097
1291,1685672080.97,52.734,-815.43,-295.41,103.516,1301.864,311.65994138942904
1292,1685672080.97,-25.391,-377.441,-43.945,-4.395,1301.868,316.8743401885882
1293,1685672080.98,-72.754,208.984,70.801,-89.844,1301.872,311.5819537849595
1294,1685672080.98,-2.441,-101.074,-40.039,-3.906,1301.876,310.4775156599242
1295,1685672080.98,66.406,47.852,67.383,93.75,1301.88,316.0273411048866
