,timestamps,TP9,AF7,AF8,TP10,Secondary Timestamp,emg_signal
0,1686017636.308,-49.316,141.602,109.375,-51.758,119400.744,316
1,1686017636.312,-44.922,96.191,5.859,-36.621,119400.748,316
2,1686017636.316,-38.086,-584.961,-220.215,-14.16,119400.752,316
3,1686017636.32,-50.781,-267.09,-7.812,-25.391,119400.756,315
4,1686017636.324,-53.223,297.852,128.418,-41.504,119400.759,315
5,1686017636.328,-52.734,-260.742,-162.598,-32.715,119400.763,315
6,1686017636.332,-47.363,-566.895,-206.543,-9.277,119400.767,314
7,1686017636.335,-34.18,75.684,95.703,-6.348,119400.771,314
8,1686017636.339,-41.016,351.074,109.863,-26.367,119400.775,314
9,1686017636.343,-47.363,-116.211,-62.012,-35.645,119400.779,314
10,1686017636.347,-37.109,-137.695,7.324,-20.508,119400.783,314
11,1686017636.351,-36.133,324.707,168.945,-14.648,119400.787,314
12,1686017636.354,-38.086,114.258,-24.902,-34.18,119400.789,314
13,1686017636.358,-35.156,-545.898,-243.652,-40.039,119400.793,315
14,1686017636.362,-30.762,-375.977,-28.809,-24.902,119400.797,315
15,1686017636.366,-34.668,309.082,168.457,-20.508,119400.801,315
16,1686017636.37,-43.457,276.855,79.102,-35.156,119400.805,316
17,1686017636.374,-50.293,-278.32,-163.574,-41.016,119400.809,316
18,1686017636.378,-54.199,-324.707,-94.238,-38.574,119400.812,316
19,1686017636.381,-42.969,205.566,176.27,-22.461,119400.816,316
20,1686017636.385,-37.598,250.977,38.086,-18.555,119400.82,315
21,1686017636.389,-48.34,-423.828,-202.148,-40.527,119400.824,315
22,1686017636.393,-51.27,-631.836,-139.16,-43.945,119400.828,315
23,1686017636.397,-44.434,14.16,75.684,-32.227,119400.832,315
24,1686017636.414,-44.434,187.012,67.871,-26.367,119400.852,314
25,1686017636.418,-55.176,-385.254,-165.039,-38.086,119400.856,314
26,1686017636.422,-55.176,-329.102,-90.82,-42.969,119400.86,314
27,1686017636.426,-47.363,58.594,93.262,-18.066,119400.864,314
28,1686017636.43,-43.945,-43.457,-2.93,-9.766,119400.868,314
29,1686017636.434,-44.434,-595.215,-270.508,-23.926,119400.872,314
30,1686017636.438,-48.34,-415.527,-73.73,-30.273,119400.875,314
31,1686017636.441,-41.016,220.215,169.922,-19.531,119400.879,315
32,1686017636.445,-31.738,-110.84,-67.383,-5.371,119400.883,315
33,1686017636.449,-32.715,-503.906,-210.449,-14.16,119400.887,315
34,1686017636.453,-41.504,6.836,61.523,-34.18,119400.891,316
35,1686017636.457,-51.758,48.828,27.832,-28.809,119400.895,316
36,1686017636.459,-41.504,-84.961,-7.812,-8.301,119400.88,316
37,1686017636.463,-35.645,50.293,49.316,-4.883,119400.884,316
38,1686017636.467,-49.805,196.777,106.445,-26.855,119400.888,316
39,1686017636.471,-51.27,138.184,40.039,-27.344,119400.892,315
40,1686017636.475,-41.504,-24.902,39.062,-7.812,119400.896,315
41,1686017636.479,-44.434,-147.949,41.016,-18.555,119400.9,315
42,1686017636.483,-49.805,-176.758,14.16,-33.203,119400.903,315
43,1686017636.486,-49.316,-239.258,-117.188,-37.598,119400.907,315
44,1686017636.49,-45.41,-419.922,-185.059,-17.578,119400.911,315
45,1686017636.494,-43.457,-96.68,55.176,-6.348,119400.915,314
46,1686017636.498,-52.246,107.91,85.449,-35.156,119400.919,314
47,1686017636.502,-51.758,-144.043,-20.508,-37.598,119400.923,314
48,1686017636.504,-41.992,-712.891,-313.477,-8.789,119400.925,314
49,1686017636.508,-38.086,-770.996,-185.059,3.418,119400.929,314
50,1686017636.512,-41.992,146.484,229.492,-13.184,119400.932,315
51,1686017636.516,-43.945,88.867,32.227,-25.391,119400.936,315
52,1686017636.52,-46.387,-121.582,-19.531,-26.367,119400.94,315
53,1686017636.524,-41.504,-34.18,64.941,-9.766,119400.944,316
54,1686017636.528,-26.855,146.484,156.738,-8.789,119400.948,316
55,1686017636.531,-44.922,-103.027,-85.938,-32.227,119400.952,316
56,1686017636.535,-59.082,-891.602,-397.461,-34.18,119400.956,316
57,1686017636.539,-44.922,-217.773,70.312,-29.297,119400.96,316
58,1686017636.543,-39.551,487.793,241.699,-30.273,119400.964,316
59,1686017636.547,-41.504,68.359,8.301,-43.945,119400.968,316
60,1686017636.549,-45.41,-44.922,21.973,-46.875,119400.97,316
61,1686017636.553,-41.992,318.848,181.152,-29.297,119400.974,316
62,1686017636.557,-36.621,392.578,148.926,-14.648,119400.978,316
63,1686017636.561,-41.992,133.789,27.344,-22.949,119400.981,316
64,1686017636.565,-43.945,11.23,-11.23,-41.992,119400.985,315
65,1686017636.569,-39.551,-71.777,35.645,-41.016,119400.989,315
66,1686017636.573,-41.504,-30.273,81.055,-29.785,119400.993,315
67,1686017636.576,-49.316,-485.352,-187.988,-33.691,119400.997,315
68,1686017636.58,-50.293,-544.434,-158.691,-39.551,119401.001,315
69,1686017636.584,-43.945,178.711,125.0,-31.738,119401.005,315
70,1686017636.588,-35.645,101.074,68.359,-8.789,119401.009,315
71,1686017636.592,-34.18,-354.98,-65.918,-7.324,119401.013,316
72,1686017636.593,-45.898,-261.23,-26.367,-42.969,119401.014,316
73,1686017636.597,-43.945,255.859,154.785,-54.688,119401.018,316
74,1686017636.601,-38.086,98.145,28.32,-24.902,119401.022,316
75,1686017636.605,-38.086,-351.562,-43.457,-10.254,119401.026,316
76,1686017636.609,-35.645,-62.988,77.637,-31.738,119401.03,316
77,1686017636.613,-42.969,-13.672,17.09,-42.969,119401.034,316
78,1686017636.617,-42.48,-355.469,-125.0,-18.555,119401.038,316
79,1686017636.62,-39.551,-578.613,-207.031,-3.906,119401.042,316
80,1686017636.624,-35.645,-48.34,76.66,-19.531,119401.046,316
81,1686017636.628,-35.156,332.52,149.902,-34.18,119401.049,316
82,1686017636.632,-34.668,13.672,35.156,-26.367,119401.053,315
83,1686017636.636,-32.227,99.121,84.473,-19.043,119401.057,315
84,1686017636.64,-43.945,341.797,151.855,-35.156,119401.064,315
85,1686017636.644,-52.734,31.738,-44.922,-47.852,119401.067,315
86,1686017636.648,-47.852,-484.863,-222.656,-44.434,119401.071,315
87,1686017636.652,-42.48,-226.562,36.621,-35.156,119401.075,315
88,1686017636.656,-36.133,310.059,155.762,-26.367,119401.079,315
89,1686017636.66,-30.762,11.719,-51.758,-33.203,119401.083,315
90,1686017636.664,-34.668,-675.293,-328.125,-31.738,119401.087,315
91,1686017636.667,-34.668,-520.996,-137.207,-20.508,119401.091,315
92,1686017636.671,-29.297,321.777,230.957,-20.02,119401.095,315
93,1686017636.675,-38.086,270.996,89.844,-30.273,119401.099,316
94,1686017636.679,-48.34,-231.934,-131.836,-44.434,119401.103,316
95,1686017636.683,-41.504,-155.762,1.953,-27.344,119401.107,316
96,1686017636.683,-29.785,368.652,208.984,-11.23,119401.119,316
97,1686017636.687,-34.668,210.938,38.086,-28.809,119401.123,316
98,1686017636.691,-47.363,-419.434,-194.336,-45.898,119401.127,316
99,1686017636.695,-43.945,-274.902,-69.824,-42.48,119401.131,316
100,1686017636.699,-38.574,62.012,87.891,-35.645,119401.135,316
101,1686017636.703,-44.922,-128.906,-2.93,-40.527,119401.138,316
102,1686017636.707,-65.43,-876.465,-414.551,-46.875,119401.142,316
103,1686017636.71,-63.965,-635.742,-218.75,-52.734,119401.146,316
104,1686017636.714,-37.598,271.973,189.941,-35.156,119401.15,315
105,1686017636.718,-33.203,177.734,86.426,-28.809,119401.154,315
106,1686017636.722,-36.133,56.152,44.434,-52.734,119401.158,315
107,1686017636.726,-29.785,285.156,114.746,-51.758,119401.162,314
108,1686017636.745,-33.691,253.418,105.469,-32.715,119401.168,315
109,1686017636.749,-33.203,20.02,28.32,-22.461,119401.172,315
110,1686017636.753,-40.527,38.086,25.879,-22.949,119401.175,315
111,1686017636.757,-50.293,188.477,72.266,-34.18,119401.179,316
112,1686017636.761,-46.387,146.973,52.734,-25.879,119401.183,316
113,1686017636.765,-43.457,-154.297,-32.715,-7.812,119401.187,316
114,1686017636.769,-42.969,-340.82,-71.289,-17.09,119401.191,316
115,1686017636.772,-49.805,-161.133,11.719,-33.203,119401.195,316
116,1686017636.776,-50.781,132.324,63.477,-37.109,119401.199,316
117,1686017636.78,-32.227,-453.125,-220.703,-12.207,119401.203,316
118,1686017636.784,-27.344,-817.383,-227.539,-13.672,119401.207,315
119,1686017636.788,-38.574,-90.332,104.98,-38.086,119401.211,315
120,1686017636.789,-40.039,25.391,24.902,-32.715,119401.209,315
121,1686017636.793,-39.062,-166.016,-11.23,-22.461,119401.213,315
122,1686017636.797,-35.156,165.039,135.254,-14.648,119401.217,314
123,1686017636.801,-31.25,343.75,141.113,-27.344,119401.221,314
124,1686017636.805,-37.598,-71.777,-59.57,-48.828,119401.225,314
125,1686017636.809,-46.387,-495.117,-194.824,-34.668,119401.229,314
126,1686017636.813,-39.551,-138.672,62.5,-15.137,119401.233,314
127,1686017636.816,-50.781,290.527,168.457,-34.668,119401.237,314
128,1686017636.82,-55.176,-95.215,-62.012,-48.828,119401.241,314
129,1686017636.824,-46.875,-1000.0,-511.719,-32.227,119401.245,315
130,1686017636.828,-44.922,-643.555,-198.242,-16.602,119401.248,315
131,1686017636.832,-42.969,304.199,227.539,-27.344,119401.252,315
132,1686017636.834,-44.922,77.637,-4.395,-49.316,119401.255,315
133,1686017636.838,-51.758,-2.93,32.227,-53.711,119401.259,316
134,1686017636.842,-40.039,394.531,221.191,-36.133,119401.263,316
135,1686017636.846,-39.551,426.758,143.066,-32.715,119401.267,316
136,1686017636.85,-59.57,82.031,24.902,-48.34,119401.27,316
137,1686017636.854,-55.176,-283.691,-122.559,-41.016,119401.274,316
138,1686017636.858,-46.387,-113.281,-1.465,-21.484,119401.278,316
139,1686017636.861,-45.41,285.156,140.137,-28.809,119401.282,316
140,1686017636.865,-54.199,-403.32,-213.379,-43.457,119401.286,315
141,1686017636.869,-66.406,-513.672,-147.949,-52.734,119401.29,315
142,1686017636.873,-53.223,30.762,122.07,-36.621,119401.294,315
143,1686017636.877,-29.297,-37.109,63.965,-13.672,119401.298,315
144,1686017636.879,-30.762,-573.73,-198.73,-18.555,119401.3,314
145,1686017636.883,-38.574,-512.695,-103.516,-35.645,119401.303,314
146,1686017636.887,-30.762,342.285,228.027,-31.738,119401.307,314
147,1686017636.891,-36.133,233.887,93.75,-20.996,119401.311,314
148,1686017636.895,-46.387,63.965,36.621,-33.691,119401.315,314
149,1686017636.899,-47.852,21.973,47.852,-49.316,119401.319,314
150,1686017636.903,-52.246,-54.199,62.5,-53.223,119401.323,314
151,1686017636.906,-42.969,-174.316,-83.984,-27.832,119401.327,315
152,1686017636.91,-33.691,-522.461,-168.945,-19.043,119401.331,315
153,1686017636.914,-41.992,-10.742,137.695,-49.805,119401.335,315
154,1686017636.918,-51.758,337.402,134.277,-59.57,119401.339,315
155,1686017636.922,-39.062,60.059,59.57,-37.109,119401.342,316
156,1686017636.924,-32.715,197.266,123.047,-19.043,119401.349,316
157,1686017636.928,-43.457,355.469,115.234,-29.297,119401.353,316
158,1686017636.932,-40.527,-11.719,-52.246,-46.387,119401.357,316
159,1686017636.936,-31.738,-394.531,-127.93,-34.18,119401.36,316
160,1686017636.94,-30.762,-133.301,29.297,-16.602,119401.364,316
161,1686017636.944,-36.133,62.5,66.406,-28.32,119401.368,316
162,1686017636.948,-40.039,-124.512,-33.203,-45.898,119401.372,315
163,1686017636.951,-29.297,-584.961,-265.137,-29.785,119401.376,315
164,1686017636.955,-25.879,-468.262,-126.953,-3.418,119401.38,315
165,1686017636.959,-26.367,366.699,210.938,-4.883,119401.384,315
166,1686017636.963,-36.133,78.125,-5.859,-32.715,119401.388,315
167,1686017636.967,-43.457,-480.469,-190.43,-37.598,119401.392,314
168,1686017636.969,-35.156,-66.406,68.848,-24.414,119401.39,314
169,1686017636.973,-29.785,481.445,234.863,-23.438,119401.393,314
170,1686017636.977,-39.062,151.367,7.812,-28.32,119401.397,315
171,1686017636.981,-53.711,-172.363,-118.164,-37.598,119401.401,315
172,1686017636.985,-48.828,26.855,20.996,-20.996,119401.405,315
173,1686017636.989,-31.25,12.695,77.148,-7.324,119401.409,316
174,1686017636.993,-26.855,-293.457,-108.398,-24.902,119401.413,316
175,1686017636.996,-32.227,-849.609,-370.117,-23.926,119401.417,316
176,1686017637.0,-31.25,-347.656,-27.832,-11.719,119401.421,316
177,1686017637.004,-24.902,370.117,201.172,-7.812,119401.425,316
178,1686017637.008,-36.133,114.746,62.012,-20.02,119401.429,316
179,1686017637.012,-48.828,32.227,42.48,-34.668,119401.432,316
180,1686017637.014,-43.945,295.898,130.859,-31.25,119401.471,316
181,1686017637.018,-28.809,311.523,108.887,-18.555,119401.475,316
182,1686017637.022,-29.297,98.145,78.125,-17.578,119401.479,316
183,1686017637.026,-34.668,112.305,67.871,-33.203,119401.483,316
184,1686017637.03,-31.25,162.598,34.668,-43.457,119401.486,314
185,1686017637.034,-25.879,15.625,36.621,-25.391,119401.49,314
186,1686017637.038,-23.926,-518.555,-191.406,-8.301,119401.494,314
187,1686017637.041,-32.227,-777.344,-273.438,-29.785,119401.498,314
188,1686017637.045,-40.527,-71.777,50.293,-41.504,119401.502,314
189,1686017637.049,-38.086,184.082,85.449,-15.137,119401.506,314
190,1686017637.053,-26.367,-456.055,-156.738,1.465,119401.51,314
191,1686017637.057,-36.621,-366.211,-39.551,-20.996,119401.514,314
192,1686017637.058,-56.641,268.555,154.297,-46.875,119401.494,315
193,1686017637.062,-47.363,126.953,21.484,-35.156,119401.498,315
194,1686017637.066,-38.086,-144.531,-17.09,-13.184,119401.502,315
195,1686017637.07,-43.945,131.348,120.605,-34.18,119401.506,315
196,1686017637.074,-51.27,310.547,123.535,-55.176,119401.51,316
197,1686017637.078,-51.27,-228.516,-170.898,-32.715,119401.513,316
198,1686017637.082,-41.504,-588.867,-199.219,-12.207,119401.517,316
199,1686017637.085,-38.574,37.598,153.32,-18.066,119401.521,316
200,1686017637.089,-44.434,397.949,136.23,-38.574,119401.525,316
201,1686017637.093,-41.992,-247.559,-132.812,-37.598,119401.529,316
202,1686017637.097,-38.086,-426.758,-99.121,-7.812,119401.533,316
203,1686017637.101,-46.387,244.629,166.504,-8.789,119401.537,315
204,1686017637.119,-57.617,368.164,123.535,-38.574,119401.539,314
205,1686017637.123,-62.012,-403.32,-231.445,-48.828,119401.543,314
206,1686017637.127,-41.504,-626.953,-228.516,-21.484,119401.547,314
207,1686017637.131,-30.762,247.07,177.246,-7.812,119401.551,314
208,1686017637.135,-39.551,350.586,89.844,-22.949,119401.555,314
209,1686017637.139,-47.852,-217.773,-125.488,-36.133,119401.559,314
210,1686017637.143,-47.363,-313.477,-56.641,-30.273,119401.563,315
211,1686017637.146,-33.203,242.676,153.32,-7.324,119401.567,315
212,1686017637.15,-28.32,363.281,102.539,-11.23,119401.571,315
213,1686017637.154,-41.016,-378.906,-167.969,-41.016,119401.575,315
214,1686017637.158,-41.504,-641.113,-201.66,-41.992,119401.579,315
215,1686017637.162,-28.32,-36.133,30.762,-22.461,119401.582,315
216,1686017637.165,-14.16,111.816,68.359,-8.789,119401.589,315
217,1686017637.169,-25.879,-633.301,-276.855,-19.531,119401.592,316
218,1686017637.173,-46.387,-512.695,-109.375,-41.504,119401.596,316
219,1686017637.177,-35.645,336.426,222.168,-28.809,119401.6,316
220,1686017637.181,-35.645,204.59,76.172,-15.625,119401.604,315
221,1686017637.185,-51.758,-228.516,-64.453,-30.762,119401.608,315
222,1686017637.189,-59.57,-197.266,-2.93,-49.805,119401.612,315
223,1686017637.192,-49.805,260.742,167.48,-39.551,119401.616,315
224,1686017637.196,-34.18,14.648,-45.41,-7.812,119401.62,315
225,1686017637.2,-42.48,-602.051,-302.246,-16.113,119401.624,314
226,1686017637.204,-43.945,-84.473,26.367,-41.992,119401.628,314
227,1686017637.208,-41.992,290.527,143.066,-34.668,119401.632,314
228,1686017637.209,-37.109,77.148,25.391,-13.672,119401.63,314
229,1686017637.213,-30.273,116.211,47.852,-18.555,119401.634,314
230,1686017637.217,-35.645,193.359,82.52,-38.574,119401.638,314
231,1686017637.221,-38.086,-129.395,-95.215,-36.133,119401.641,314
232,1686017637.225,-48.34,-174.805,-129.395,-20.996,119401.645,315
233,1686017637.229,-49.805,-133.301,-23.926,-14.16,119401.649,315
234,1686017637.233,-37.598,-174.316,5.371,-24.902,119401.653,315
235,1686017637.236,-38.086,40.039,65.43,-42.969,119401.657,315
236,1686017637.24,-36.133,-528.32,-244.141,-27.832,119401.661,316
237,1686017637.244,-36.621,-710.449,-230.957,-9.766,119401.665,316
238,1686017637.248,-46.875,-67.383,104.492,-45.41,119401.669,316
239,1686017637.252,-42.48,-185.547,-35.645,-64.453,119401.673,316
240,1686017637.254,-37.109,-511.719,-148.438,-34.668,119401.689,316
241,1686017637.258,-41.992,-90.82,72.754,-20.02,119401.693,316
242,1686017637.262,-43.457,458.984,217.773,-29.297,119401.697,316
243,1686017637.266,-45.41,125.488,20.996,-38.086,119401.701,316
244,1686017637.27,-43.945,-144.531,-72.266,-32.227,119401.705,315
245,1686017637.274,-32.715,-42.969,43.945,-14.16,119401.709,315
246,1686017637.278,-26.367,-6.836,92.285,-6.348,119401.713,315
247,1686017637.281,-41.016,-321.289,-154.297,-21.973,119401.717,315
248,1686017637.285,-62.988,-870.605,-383.789,-44.434,119401.721,315
249,1686017637.289,-54.199,-230.469,46.387,-31.25,119401.725,315
250,1686017637.293,-37.109,381.836,176.27,-17.578,119401.729,316
251,1686017637.297,-46.387,-22.461,-31.738,-43.945,119401.732,316
252,1686017637.299,-45.898,-29.297,19.531,-46.875,119401.721,316
253,1686017637.303,-31.738,303.711,150.391,-27.344,119401.725,316
254,1686017637.307,-29.297,314.453,130.859,-20.02,119401.729,316
255,1686017637.311,-39.551,70.312,-12.207,-31.25,119401.733,316
256,1686017637.315,-56.152,33.203,-15.625,-46.387,119401.737,316
257,1686017637.319,-60.059,-74.219,27.344,-36.621,119401.74,316
258,1686017637.323,-52.734,-36.621,66.895,-21.484,119401.744,317
259,1686017637.326,-41.016,-412.598,-138.672,-24.902,119401.748,317
260,1686017637.33,-48.34,-664.551,-226.074,-45.41,119401.752,317
261,1686017637.334,-58.594,3.906,59.57,-49.316,119401.756,317
262,1686017637.338,-44.434,199.707,130.859,-25.391,119401.76,317
263,1686017637.342,-36.621,-573.242,-237.793,-13.672,119401.764,317
264,1686017637.344,-47.363,-791.504,-246.094,-30.273,119401.765,317
265,1686017637.348,-39.062,123.535,168.945,-33.691,119401.769,317
266,1686017637.352,-28.809,217.285,94.727,-16.602,119401.773,317
267,1686017637.356,-33.691,117.188,75.684,-14.648,119401.777,317
268,1686017637.36,-29.785,252.93,86.426,-28.32,119401.78,317
269,1686017637.364,-32.227,-13.184,-27.344,-31.738,119401.784,317
270,1686017637.368,-34.18,-298.34,-118.652,-19.043,119401.788,317
271,1686017637.371,-32.715,-520.508,-160.156,-9.766,119401.792,317
272,1686017637.375,-34.668,-9.277,105.957,-21.484,119401.796,318
273,1686017637.379,-35.645,326.66,117.676,-37.109,119401.8,318
274,1686017637.383,-32.715,-91.309,-66.406,-24.414,119401.804,318
275,1686017637.387,-22.461,-84.473,26.367,-2.441,119401.808,318
276,1686017637.406,-28.32,323.242,154.297,-8.789,119401.842,320
277,1686017637.41,-44.922,333.496,62.5,-31.738,119401.846,320
278,1686017637.414,-39.551,-296.387,-124.023,-22.461,119401.85,320
279,1686017637.418,-22.461,-276.367,8.301,2.441,119401.853,319
280,1686017637.422,-26.855,333.496,159.668,-0.488,119401.857,319
281,1686017637.426,-33.691,75.195,-36.621,-23.926,119401.861,319
282,1686017637.43,-34.18,-633.301,-330.078,-25.391,119401.865,319
283,1686017637.433,-38.086,-574.219,-194.824,3.906,119401.869,319
284,1686017637.435,-32.715,330.566,179.688,-12.207,119401.858,319
285,1686017637.437,-37.109,270.508,177.734,3.906,119401.873,319
286,1686017637.439,-36.621,83.008,9.277,-20.02,119401.862,319
287,1686017637.441,-29.785,270.02,50.781,-10.254,119401.877,319
288,1686017637.443,-47.852,-438.477,-163.574,-36.133,119401.866,319
289,1686017637.445,-27.832,-254.395,-173.828,-24.902,119401.881,319
290,1686017637.447,-40.039,-91.797,10.742,-28.32,119401.87,319
291,1686017637.449,-33.691,-161.621,-10.254,-23.926,119401.885,319
292,1686017637.451,-27.344,368.652,156.738,-13.184,119401.874,319
293,1686017637.455,-25.391,-171.875,-108.887,-14.648,119401.878,319
294,1686017637.459,-27.832,-499.512,-195.312,-30.762,119401.882,320
295,1686017637.462,-36.133,14.16,72.754,-35.645,119401.886,320
296,1686017637.466,-28.809,354.492,166.504,-16.602,119401.889,320
297,1686017637.47,-22.949,15.625,-17.09,-5.371,119401.893,320
298,1686017637.474,-31.25,-956.055,-503.418,-18.066,119401.897,321
299,1686017637.478,-37.109,-644.043,-240.234,-47.852,119401.901,321
300,1686017637.498,-35.645,206.055,162.109,-43.457,119401.917,321
301,1686017637.502,-34.18,103.027,94.727,-19.531,119401.921,319
302,1686017637.506,-35.645,130.859,98.633,-38.574,119401.925,319
303,1686017637.51,-44.434,160.645,36.621,-52.734,119401.929,319
304,1686017637.514,-45.898,-32.227,35.645,-35.156,119401.933,318
305,1686017637.518,-43.945,-550.293,-204.59,-19.043,119401.937,318
306,1686017637.522,-47.852,-767.09,-257.812,-23.438,119401.941,318
307,1686017637.525,-53.711,4.395,98.145,-44.434,119401.945,318
308,1686017637.529,-43.457,111.328,13.672,-31.738,119401.949,318
309,1686017637.533,-33.203,28.32,59.082,-17.578,119401.953,318
310,1686017637.537,-30.273,-0.977,66.895,-27.344,119401.956,318
311,1686017637.538,-41.992,51.27,28.809,-38.574,119401.96,318
312,1686017637.541,-33.691,1.953,28.809,-33.203,119401.96,318
313,1686017637.542,-53.711,-427.246,-145.02,-36.621,119401.964,317
314,1686017637.546,-56.152,-86.914,44.434,-30.762,119401.967,317
315,1686017637.55,-47.363,403.809,178.711,-39.551,119401.971,317
316,1686017637.554,-47.852,52.246,-5.859,-44.434,119401.975,316
317,1686017637.558,-29.297,-333.984,-165.039,-24.414,119401.979,316
318,1686017637.562,-25.391,-264.648,-56.152,-3.906,119401.983,316
319,1686017637.565,-37.598,56.641,116.699,-28.32,119401.987,316
320,1686017637.569,-42.48,-211.914,-114.746,-55.176,119401.991,315
321,1686017637.573,-40.039,-702.148,-322.266,-31.25,119401.995,315
322,1686017637.577,-29.785,-42.969,71.289,-9.277,119401.999,315
323,1686017637.581,-28.32,465.82,199.219,-16.602,119402.003,315
324,1686017637.584,-38.086,-192.871,-114.746,-29.785,119402.005,313
325,1686017637.588,-41.992,-402.832,-133.301,-28.32,119402.008,313
326,1686017637.592,-30.762,288.574,166.016,-13.672,119402.012,313
327,1686017637.596,-26.855,311.035,122.559,-10.742,119402.016,311
328,1686017637.6,-37.109,-67.871,-74.707,-28.809,119402.02,311
329,1686017637.604,-41.504,-319.336,-187.012,-36.133,119402.024,311
330,1686017637.608,-36.133,-72.754,16.113,-16.602,119402.028,311
331,1686017637.611,-27.344,307.129,151.855,0.488,119402.032,311
332,1686017637.615,-36.133,-405.762,-219.727,-9.766,119402.036,311
333,1686017637.619,-50.293,-709.961,-269.531,-37.598,119402.04,311
334,1686017637.623,-45.41,-127.441,39.551,-36.621,119402.044,312
335,1686017637.627,-34.18,-26.855,66.895,-13.184,119402.048,312
336,1686017637.629,-41.016,-581.543,-221.191,-15.137,119402.05,312
337,1686017637.633,-52.246,-564.453,-168.945,-31.738,119402.053,312
338,1686017637.637,-44.434,280.273,190.918,-21.484,119402.057,312
339,1686017637.641,-35.156,226.562,100.098,2.441,119402.061,312
340,1686017637.645,-38.086,49.805,42.969,0.977,119402.065,312
341,1686017637.649,-53.711,-84.961,2.441,-11.719,119402.069,312
342,1686017637.653,-49.805,-190.43,-5.371,-12.207,119402.073,311
343,1686017637.656,-35.645,-248.047,-95.703,7.324,119402.077,311
344,1686017637.66,-43.945,-539.551,-145.996,14.16,119402.081,311
345,1686017637.664,-48.34,-19.043,126.953,-8.789,119402.085,310
346,1686017637.668,-35.645,307.617,103.027,-7.324,119402.089,310
347,1686017637.672,-30.273,-143.555,-36.133,9.277,119402.092,310
348,1686017637.674,-36.133,-59.57,41.992,9.766,119402.095,310
349,1686017637.678,-41.992,341.797,143.555,0.488,119402.099,310
350,1686017637.682,-38.574,220.215,61.523,-6.836,119402.103,310
351,1686017637.686,-32.227,-95.215,-43.457,0.488,119402.106,310
352,1686017637.69,-27.344,-37.109,-10.742,15.625,119402.11,310
353,1686017637.694,-35.645,-16.113,33.691,11.23,119402.114,310
354,1686017637.698,-48.828,-148.926,-39.062,-11.719,119402.118,310
355,1686017637.701,-46.387,-591.797,-284.18,-6.348,119402.122,310
356,1686017637.705,-40.527,-522.949,-153.809,-0.488,119402.126,310
357,1686017637.709,-25.879,300.781,179.199,-8.789,119402.13,312
358,1686017637.713,-31.738,102.051,16.602,-28.809,119402.134,312
359,1686017637.717,-41.992,-574.219,-203.613,-35.156,119402.138,313
360,1686017637.719,-31.25,-214.355,33.203,-16.113,119402.143,313
361,1686017637.723,-33.691,430.176,221.68,-6.348,119402.147,313
362,1686017637.727,-43.457,-17.09,-37.598,-21.973,119402.151,313
363,1686017637.731,-44.922,-409.668,-116.699,-28.32,119402.155,313
364,1686017637.735,-44.434,37.109,109.863,-9.766,119402.159,313
365,1686017637.739,-38.086,142.578,121.094,-3.418,119402.162,313
366,1686017637.743,-40.039,-323.73,-126.465,-14.16,119402.166,313
367,1686017637.746,-50.781,-673.34,-309.57,-17.09,119402.17,313
368,1686017637.75,-43.945,-110.84,34.668,-8.301,119402.174,313
369,1686017637.754,-26.855,426.758,200.684,7.324,119402.178,313
370,1686017637.758,-36.621,106.445,21.973,-3.418,119402.182,313
371,1686017637.762,-47.363,-102.051,-23.926,-24.414,119402.186,315
372,1686017637.763,-43.457,169.922,107.422,-23.926,119402.199,315
373,1686017637.767,-37.598,282.227,135.742,-13.672,119402.203,315
374,1686017637.771,-41.504,62.5,23.438,-13.184,119402.207,315
375,1686017637.775,-47.363,25.391,0.0,-38.086,119402.211,317
376,1686017637.779,-38.574,-18.555,-8.789,-42.48,119402.214,317
377,1686017637.783,-22.461,-111.816,14.16,-5.371,119402.218,317
378,1686017637.787,-20.996,-556.152,-195.312,12.695,119402.222,319
379,1686017637.79,-35.645,-769.531,-247.07,-17.578,119402.226,319
380,1686017637.794,-45.898,-19.043,103.027,-43.945,119402.23,319
381,1686017637.798,-42.48,144.043,49.805,-29.297,119402.234,319
382,1686017637.802,-38.086,-184.57,-14.16,-14.16,119402.238,319
383,1686017637.806,-39.551,-95.703,54.199,-23.438,119402.242,321
384,1686017637.809,-50.293,243.164,108.887,-33.203,119402.244,321
385,1686017637.813,-51.27,52.734,9.277,-25.879,119402.248,321
386,1686017637.817,-45.898,-256.348,-39.551,-16.602,119402.252,322
387,1686017637.821,-45.898,77.637,109.375,-34.18,119402.256,322
388,1686017637.825,-59.082,276.367,110.352,-47.363,119402.259,322
389,1686017637.829,-58.105,-263.184,-151.855,-31.25,119402.263,323
390,1686017637.833,-40.039,-546.387,-175.781,-8.789,119402.267,323
391,1686017637.836,-39.062,-185.059,62.988,-8.301,119402.271,323
392,1686017637.84,-46.387,140.137,122.559,-25.391,119402.275,323
393,1686017637.844,-50.781,-230.469,-120.117,-22.949,119402.279,325
394,1686017637.848,-42.48,-581.543,-217.285,-6.348,119402.283,325
395,1686017637.852,-39.062,138.672,163.086,-4.395,119402.287,325
396,1686017637.869,-47.363,284.668,108.398,-21.973,119402.29,328
397,1686017637.873,-51.758,-101.074,-63.477,-37.598,119402.293,328
398,1686017637.877,-49.805,-32.715,12.695,-32.715,119402.297,328
399,1686017637.881,-48.34,302.246,138.184,-20.508,119402.301,328
400,1686017637.885,-56.641,231.445,74.707,-29.785,119402.305,328
401,1686017637.889,-61.523,-321.777,-181.641,-43.945,119402.309,328
402,1686017637.893,-58.594,-423.34,-140.137,-40.039,119402.313,328
403,1686017637.896,-42.969,154.297,148.438,-25.879,119402.317,328
404,1686017637.9,-38.574,235.84,53.223,-22.949,119402.321,328
405,1686017637.904,-50.293,-474.121,-236.328,-28.32,119402.325,328
406,1686017637.908,-42.969,-708.008,-237.305,-24.902,119402.329,328
407,1686017637.912,-29.297,-236.816,21.484,-10.254,119402.333,328
408,1686017637.914,-29.785,53.223,117.676,-2.93,119402.335,329
409,1686017637.918,-45.898,-566.406,-276.367,-18.555,119402.339,329
410,1686017637.922,-54.199,-603.516,-197.754,-37.598,119402.342,329
411,1686017637.926,-33.691,267.578,206.055,-23.926,119402.346,328
412,1686017637.93,-27.344,186.035,58.594,-0.488,119402.35,328
413,1686017637.934,-41.016,-245.117,-128.418,-25.391,119402.354,328
414,1686017637.938,-32.715,-316.895,-49.316,-36.133,119402.358,328
415,1686017637.941,-20.508,110.84,140.625,-13.672,119402.362,329
416,1686017637.945,-13.672,1.953,-24.414,1.953,119402.366,329
417,1686017637.949,-18.066,-581.543,-188.965,1.953,119402.37,329
418,1686017637.953,-26.367,-93.262,109.375,-16.602,119402.374,329
419,1686017637.957,-21.484,265.137,119.629,-10.742,119402.378,329
420,1686017637.959,-29.297,-140.137,-35.645,10.254,119402.394,329
421,1686017637.963,-33.203,-146.973,9.766,-1.465,119402.398,329
422,1686017637.967,-29.297,205.566,109.863,-27.832,119402.402,328
423,1686017637.971,-33.691,136.23,62.012,-30.273,119402.406,328
424,1686017637.975,-29.297,-107.422,-41.504,-10.742,119402.41,328
425,1686017637.979,-30.762,-214.355,-31.25,-10.742,119402.414,328
426,1686017637.983,-49.316,-170.41,24.902,-34.18,119402.418,326
427,1686017637.986,-52.734,-16.113,14.16,-42.48,119402.422,326
428,1686017637.99,-37.598,-500.488,-195.312,-19.043,119402.426,326
429,1686017637.994,-24.902,-487.305,-74.219,-8.301,119402.43,326
430,1686017637.998,-34.668,14.16,107.422,-31.25,119402.434,326
431,1686017638.002,-51.27,-223.145,-52.246,-43.457,119402.437,326
432,1686017638.003,-48.34,-497.559,-123.535,-23.926,119402.425,326
433,1686017638.007,-34.18,-111.816,61.035,-4.883,119402.429,326
434,1686017638.011,-27.832,364.258,180.664,-14.648,119402.433,325
435,1686017638.015,-37.109,-125.488,-60.059,-32.227,119402.437,325
436,1686017638.019,-43.945,-439.453,-124.023,-34.18,119402.441,325
437,1686017638.023,-40.039,-218.75,30.273,-20.996,119402.444,326
438,1686017638.027,-35.645,95.703,138.184,-20.996,119402.448,326
439,1686017638.03,-38.574,-136.719,-76.66,-34.668,119402.452,326
440,1686017638.034,-46.875,-385.254,-179.199,-39.062,119402.456,326
441,1686017638.038,-43.457,155.762,136.719,-20.02,119402.46,325
442,1686017638.042,-34.668,444.336,193.359,-12.207,119402.464,325
443,1686017638.046,-40.527,-222.656,-148.926,-38.086,119402.468,325
444,1686017638.049,-45.898,-711.426,-274.902,-39.551,119402.47,323
445,1686017638.053,-40.039,68.359,143.066,-18.555,119402.473,323
446,1686017638.057,-37.598,311.035,146.973,-7.812,119402.477,323
447,1686017638.061,-44.922,10.742,-6.836,-19.043,119402.481,322
448,1686017638.065,-46.875,-67.383,-44.922,-33.203,119402.485,322
449,1686017638.069,-39.551,-163.574,-38.574,-23.926,119402.489,322
450,1686017638.073,-36.133,-137.695,60.059,-18.555,119402.493,322
451,1686017638.076,-40.527,-565.918,-215.332,-28.809,119402.497,322
452,1686017638.08,-43.945,-773.438,-242.188,-33.691,119402.501,321
453,1686017638.084,-47.363,25.879,143.555,-31.738,119402.505,321
454,1686017638.088,-49.316,105.469,69.824,-18.555,119402.509,321
455,1686017638.092,-34.18,-416.992,-90.82,-0.488,119402.512,320
456,1686017638.094,-29.785,-238.281,4.395,-7.812,119402.514,320
457,1686017638.098,-47.852,266.113,142.09,-36.621,119402.518,320
458,1686017638.102,-37.598,80.078,47.363,-24.902,119402.522,320
459,1686017638.106,-24.902,-17.09,60.547,-11.719,119402.526,319
460,1686017638.11,-30.273,163.086,99.121,-36.133,119402.53,319
461,1686017638.114,-33.691,-66.406,-37.598,-49.805,119402.534,319
462,1686017638.118,-24.902,-404.297,-194.824,-31.738,119402.538,319
463,1686017638.121,-23.438,-596.68,-218.75,-9.277,119402.542,317
464,1686017638.125,-34.18,-296.875,-9.766,-21.484,119402.546,317
465,1686017638.129,-42.48,115.723,109.375,-44.922,119402.55,317
466,1686017638.133,-49.805,-237.793,-78.613,-41.016,119402.553,313
467,1686017638.137,-47.363,-383.301,-96.68,-27.344,119402.557,313
468,1686017638.138,-49.805,249.023,194.336,-33.203,119402.56,313
469,1686017638.142,-59.57,227.051,110.352,-55.664,119402.564,313
470,1686017638.146,-49.316,-86.914,-25.391,-54.199,119402.568,313
471,1686017638.15,-27.832,67.383,73.73,-22.461,119402.572,311
472,1686017638.154,-36.621,293.457,130.859,-20.996,119402.575,311
473,1686017638.158,-46.387,-49.316,-61.523,-48.828,119402.579,311
474,1686017638.162,-39.062,-689.941,-345.703,-45.41,119402.583,308
475,1686017638.165,-34.18,-573.73,-156.738,-26.855,119402.587,308
476,1686017638.169,-24.902,285.645,229.98,-30.762,119402.591,308
477,1686017638.173,-30.762,226.562,69.824,-36.621,119402.595,307
478,1686017638.177,-45.41,-259.277,-90.332,-40.527,119402.599,307
479,1686017638.181,-49.316,-363.77,-42.48,-27.832,119402.603,307
480,1686017638.183,-38.574,11.23,109.375,-13.184,119402.618,307
481,1686017638.187,-30.762,199.219,70.312,-29.297,119402.622,307
482,1686017638.191,-44.434,-628.418,-313.965,-45.41,119402.626,306
483,1686017638.195,-49.316,-515.137,-115.234,-41.992,119402.63,306
484,1686017638.199,-31.738,350.098,221.68,-27.832,119402.634,306
485,1686017638.203,-23.926,-46.387,-47.852,-16.113,119402.638,304
486,1686017638.207,-35.645,-679.688,-280.762,-27.344,119402.642,304
487,1686017638.21,-41.992,-251.465,-21.973,-41.016,119402.646,304
488,1686017638.214,-28.809,284.668,153.32,-18.555,119402.65,301
489,1686017638.218,-26.367,94.238,54.199,-2.441,119402.653,301
490,1686017638.222,-49.805,-50.293,-7.324,-24.414,119402.657,301
491,1686017638.226,-59.082,154.785,89.844,-46.387,119402.661,301
492,1686017638.229,-55.176,231.934,106.445,-29.297,119402.664,301
493,1686017638.233,-55.176,-136.23,-41.992,-5.859,119402.667,299
494,1686017638.237,-54.199,-170.41,-10.254,-21.973,119402.671,299
495,1686017638.241,-60.547,139.648,80.566,-43.457,119402.675,299
496,1686017638.245,-60.059,208.496,83.984,-31.738,119402.679,298
497,1686017638.249,-45.41,-360.352,-157.715,-9.766,119402.683,298
498,1686017638.253,-40.039,-540.527,-140.625,-19.531,119402.687,298
499,1686017638.256,-44.434,94.238,125.488,-43.457,119402.691,298
500,1686017638.26,-40.039,75.195,16.113,-35.156,119402.695,299
501,1686017638.264,-34.18,-264.648,-88.867,-13.184,119402.699,299
502,1686017638.268,-38.086,-341.797,-36.621,-9.277,119402.703,299
503,1686017638.272,-54.688,-134.766,61.523,-26.367,119402.707,299
504,1686017638.288,-61.523,-31.738,12.207,-39.551,119402.71,298
505,1686017638.292,-50.293,-406.738,-148.926,-17.578,119402.714,298
506,1686017638.296,-40.527,-124.512,45.898,-10.742,119402.718,298
507,1686017638.3,-39.551,280.273,164.551,-28.809,119402.722,297
508,1686017638.304,-43.945,-197.754,-132.324,-31.738,119402.726,297
509,1686017638.308,-38.574,-800.293,-356.445,-9.277,119402.73,297
510,1686017638.312,-40.527,-365.723,-5.371,5.859,119402.733,298
511,1686017638.315,-47.852,365.234,197.266,-17.578,119402.737,298
512,1686017638.319,-51.27,-182.129,-162.598,-35.156,119402.741,298
513,1686017638.323,-53.711,-511.23,-224.609,-25.879,119402.745,298
514,1686017638.327,-46.387,182.129,155.762,-14.648,119402.749,300
515,1686017638.331,-50.781,333.496,133.789,-21.973,119402.753,300
516,1686017638.334,-55.664,-95.703,-78.613,-37.109,119402.755,300
517,1686017638.338,-51.27,-179.199,-30.762,-30.762,119402.759,300
518,1686017638.342,-49.316,234.375,154.297,-14.16,119402.763,302
519,1686017638.346,-52.734,333.008,130.371,-30.762,119402.767,302
520,1686017638.35,-56.641,-38.574,-68.359,-55.176,119402.77,302
521,1686017638.354,-54.199,-399.414,-207.52,-45.898,119402.774,304
522,1686017638.358,-47.363,-331.543,-62.988,-22.461,119402.778,304
523,1686017638.361,-44.434,-90.82,75.684,-15.625,119402.782,304
524,1686017638.365,-41.504,-579.102,-247.07,-13.672,119402.786,305
525,1686017638.369,-35.156,-725.586,-253.418,-19.043,119402.79,305
526,1686017638.373,-30.273,-150.391,111.816,-19.043,119402.794,305
527,1686017638.377,-22.461,-120.605,37.598,-7.812,119402.798,305
528,1686017638.379,-21.484,-395.996,-75.684,-12.695,119402.8,305
529,1686017638.383,-33.203,-232.422,5.371,-35.156,119402.803,307
530,1686017638.387,-33.691,288.574,156.738,-32.715,119402.807,307
531,1686017638.391,-27.344,154.297,74.219,1.465,119402.811,307
532,1686017638.395,-23.438,9.277,25.391,0.488,119402.815,309
533,1686017638.399,-39.551,-81.055,14.648,-36.621,119402.819,309
534,1686017638.403,-56.641,-184.082,16.113,-47.363,119402.823,309
535,1686017638.406,-38.086,-254.395,-67.383,-15.137,119402.827,309
536,1686017638.41,-20.996,-583.984,-225.586,0.488,119402.831,312
537,1686017638.414,-34.668,-353.516,-12.207,-23.438,119402.835,312
538,1686017638.418,-53.711,130.859,145.508,-41.992,119402.839,312
539,1686017638.422,-45.898,-187.012,-50.781,-19.043,119402.843,315
540,1686017638.424,-35.156,-301.758,-35.156,-1.953,119402.844,315
541,1686017638.428,-38.086,248.535,164.551,-24.902,119402.848,315
542,1686017638.432,-46.387,199.707,75.195,-46.387,119402.852,315
543,1686017638.436,-44.434,2.441,35.645,-31.25,119402.856,317
544,1686017638.44,-37.109,131.836,76.172,-13.672,119402.86,317
545,1686017638.444,-41.992,9.766,44.922,-23.438,119402.864,317
546,1686017638.448,-52.246,-198.73,-84.473,-33.203,119402.868,317
547,1686017638.451,-49.316,-615.723,-295.898,-25.391,119402.872,319
548,1686017638.455,-35.156,-511.719,-118.164,-9.277,119402.876,319
549,1686017638.459,-30.762,297.363,192.871,-15.625,119402.88,319
550,1686017638.463,-32.227,55.664,7.324,-24.902,119402.883,322
551,1686017638.467,-37.598,-674.316,-252.93,-20.996,119402.887,322
552,1686017638.469,-34.18,-415.039,-5.859,-7.812,119402.891,322
553,1686017638.473,-34.18,359.375,232.422,-2.93,119402.895,322
554,1686017638.477,-40.527,124.023,8.789,-15.137,119402.899,324
555,1686017638.481,-41.016,-384.766,-105.957,-16.602,119402.903,324
556,1686017638.485,-35.156,-57.617,79.102,-1.465,119402.906,324
557,1686017638.489,-29.297,147.461,117.188,3.418,119402.91,324
558,1686017638.493,-35.156,-285.156,-79.102,-19.531,119402.914,329
559,1686017638.496,-45.898,-666.016,-264.648,-34.18,119402.918,329
560,1686017638.5,-47.852,-166.016,10.254,-27.832,119402.922,329
561,1686017638.504,-48.34,362.793,196.289,-18.555,119402.926,333
562,1686017638.508,-53.711,112.305,53.711,-24.902,119402.93,333
563,1686017638.512,-59.082,-52.734,6.836,-28.809,119402.934,333
564,1686017638.514,-54.199,201.66,119.141,-23.926,119402.948,333
565,1686017638.518,-38.574,285.156,112.793,-5.859,119402.952,337
566,1686017638.522,-35.645,-112.793,-43.945,-6.836,119402.956,337
567,1686017638.526,-42.969,-139.648,-8.301,-32.715,119402.96,337
568,1686017638.53,-46.875,101.074,46.875,-36.133,119402.964,337
569,1686017638.534,-51.27,-34.18,30.273,-23.926,119402.968,340
570,1686017638.538,-44.922,-588.867,-230.957,-9.766,119402.972,340
571,1686017638.541,-41.016,-733.398,-264.16,-25.391,119402.976,340
572,1686017638.545,-43.945,46.875,124.512,-40.039,119402.98,343
573,1686017638.549,-31.738,196.289,87.402,-16.602,119402.984,343
574,1686017638.553,-20.02,-215.82,-84.473,3.418,119402.988,343
575,1686017638.557,-21.484,-251.953,-46.875,-7.324,119402.991,343
576,1686017638.558,-31.738,126.953,120.117,-24.902,119402.994,347
577,1686017638.562,-31.25,24.414,-3.418,-24.902,119402.998,347
578,1686017638.566,-16.602,-306.152,-49.805,-6.348,119403.002,347
579,1686017638.57,-14.648,-11.23,89.844,-13.184,119403.006,347
580,1686017638.574,-27.832,103.516,22.949,-39.062,119403.009,352
581,1686017638.578,-32.227,-330.566,-183.105,-38.574,119403.013,352
582,1686017638.582,-26.855,-760.254,-306.641,-18.066,119403.017,352
583,1686017638.585,-24.902,-230.957,20.508,-16.113,119403.021,352
584,1686017638.589,-31.25,351.074,171.875,-38.574,119403.025,355
585,1686017638.593,-37.109,-258.301,-150.391,-40.527,119403.029,355
586,1686017638.597,-33.691,-447.266,-160.156,-11.23,119403.033,355
587,1686017638.601,-30.273,273.438,184.082,-0.977,119403.037,355
588,1686017638.618,-38.086,346.191,121.094,-24.414,119403.04,357
589,1686017638.622,-44.434,-127.93,-79.102,-47.363,119403.044,357
590,1686017638.626,-32.227,-147.461,-15.625,-25.391,119403.048,357
591,1686017638.63,-28.809,271.484,160.156,-10.742,119403.052,359
592,1686017638.634,-39.062,256.348,61.035,-36.133,119403.055,359
593,1686017638.638,-38.086,-314.941,-159.18,-40.527,119403.059,359
594,1686017638.642,-33.203,-403.809,-72.266,-22.461,119403.063,359
595,1686017638.645,-24.414,-55.664,50.293,-11.23,119403.067,360
596,1686017638.649,-21.973,-74.219,41.992,-20.508,119403.071,360
597,1686017638.653,-38.574,-580.566,-261.719,-33.691,119403.075,360
598,1686017638.657,-53.711,-881.348,-363.77,-33.203,119403.079,361
599,1686017638.661,-43.457,-123.047,87.891,-18.555,119403.083,361
600,1686017638.663,-32.227,195.312,96.191,-15.625,119403.085,361
601,1686017638.667,-47.852,-407.715,-160.156,-38.086,119403.088,361
602,1686017638.671,-54.688,-300.781,-19.531,-39.062,119403.092,361
603,1686017638.675,-50.293,273.438,172.363,-22.949,119403.096,361
604,1686017638.679,-51.758,96.191,53.711,-20.02,119403.1,361
605,1686017638.683,-52.734,-351.074,-187.5,-27.832,119403.104,360
606,1686017638.687,-53.711,-325.195,-88.379,-34.18,119403.108,360
607,1686017638.69,-46.387,144.043,154.297,-21.484,119403.112,360
608,1686017638.694,-35.156,-17.578,-40.527,-5.371,119403.116,360
609,1686017638.698,-34.668,-650.879,-315.918,-10.254,119403.12,358
610,1686017638.702,-43.457,-403.32,-123.047,-30.762,119403.124,358
611,1686017638.706,-45.41,125.0,91.309,-27.832,119403.127,358
612,1686017638.708,-41.992,-192.871,-58.594,-8.301,119403.129,356
613,1686017638.712,-38.086,-331.055,-82.031,-11.23,119403.133,356
614,1686017638.716,-40.039,160.156,104.98,-35.156,119403.137,356
615,1686017638.72,-45.41,105.469,53.711,-41.016,119403.141,356
616,1686017638.724,-39.062,-27.832,47.363,-23.438,119403.145,356
617,1686017638.728,-37.598,-131.348,20.508,-22.461,119403.149,356
618,1686017638.732,-40.527,-168.945,6.836,-40.527,119403.153,356
619,1686017638.735,-42.48,10.742,52.246,-47.363,119403.157,356
620,1686017638.739,-41.016,-488.281,-186.523,-20.02,119403.161,354
621,1686017638.743,-34.668,-508.301,-96.191,-8.301,119403.165,354
622,1686017638.747,-34.668,-7.324,110.352,-28.32,119403.168,354
623,1686017638.751,-42.969,-230.957,-42.969,-39.062,119403.172,354
624,1686017638.753,-50.781,-631.836,-175.293,-26.367,119403.175,353
625,1686017638.757,-41.016,-337.891,14.16,-9.766,119403.179,353
626,1686017638.761,-26.855,387.207,226.562,-9.277,119403.183,353
627,1686017638.765,-42.969,74.219,2.441,-32.715,119403.187,353
628,1686017638.769,-66.406,-442.383,-148.438,-46.387,119403.191,351
629,1686017638.773,-79.102,-292.48,5.859,-38.086,119403.195,351
630,1686017638.777,-70.801,-42.48,89.844,-35.645,119403.199,351
631,1686017638.78,-71.289,-303.223,-103.516,-51.27,119403.203,348
632,1686017638.784,-82.031,-675.293,-273.926,-63.965,119403.207,348
633,1686017638.788,-79.59,-78.613,70.801,-55.664,119403.21,348
634,1686017638.792,-76.172,407.227,190.43,-45.41,119403.214,348
635,1686017638.796,-83.984,47.363,-2.441,-62.5,119403.218,346
636,1686017638.799,-84.961,-94.238,6.836,-72.754,119403.224,346
637,1686017638.803,-63.477,229.492,155.273,-48.34,119403.228,346
638,1686017638.807,-58.105,299.805,139.16,-38.086,119403.232,345
639,1686017638.811,-66.406,-119.629,-41.504,-50.781,119403.236,345
640,1686017638.815,-67.871,-186.035,-14.648,-61.035,119403.24,345
641,1686017638.819,-55.664,-113.281,22.949,-47.852,119403.244,343
642,1686017638.823,-38.086,-108.398,55.664,-22.949,119403.247,343
643,1686017638.826,-46.387,-510.742,-162.598,-25.879,119403.251,343
644,1686017638.83,-57.129,-752.93,-241.699,-48.828,119403.255,343
645,1686017638.834,-57.617,74.219,145.02,-44.922,119403.259,343
646,1686017638.838,-52.734,154.785,101.074,-24.902,119403.263,341
647,1686017638.842,-44.434,-441.406,-102.051,-17.09,119403.267,341
648,1686017638.844,-48.34,-272.461,5.859,-34.18,119403.265,341
649,1686017638.848,-45.41,258.301,155.762,-41.016,119403.269,336
650,1686017638.852,-39.062,79.59,22.461,-27.832,119403.273,336
651,1686017638.856,-34.18,14.16,27.832,-14.16,119403.276,336
652,1686017638.86,-40.527,117.676,59.082,-19.531,119403.28,333
653,1686017638.864,-59.57,-177.246,-118.164,-45.41,119403.284,333
654,1686017638.868,-52.246,-385.254,-202.637,-31.25,119403.288,333
655,1686017638.871,-35.645,-844.238,-336.426,1.953,119403.292,333
656,1686017638.875,-44.434,-403.809,-28.809,-11.719,119403.296,333
657,1686017638.879,-52.734,252.441,132.324,-33.691,119403.3,330
658,1686017638.883,-38.086,-87.891,-29.297,-22.461,119403.304,330
659,1686017638.887,-36.621,-9.766,74.219,-10.254,119403.308,330
660,1686017638.889,-44.434,338.379,154.785,-17.09,119403.354,328
661,1686017638.893,-39.551,265.137,100.098,-21.484,119403.358,328
662,1686017638.897,-41.016,-106.934,-47.363,-27.344,119403.362,328
663,1686017638.901,-27.344,-18.555,51.758,-16.113,119403.366,324
664,1686017638.905,-25.391,320.312,154.297,-6.836,119403.37,324
665,1686017638.909,-47.852,55.664,-0.488,-27.344,119403.373,324
666,1686017638.913,-44.434,-657.227,-311.523,-20.02,119403.377,324
667,1686017638.916,-30.762,-604.98,-210.449,2.441,119403.381,324
668,1686017638.92,-28.809,56.641,127.441,0.488,119403.385,320
669,1686017638.924,-34.668,-29.297,13.672,-17.578,119403.389,320
670,1686017638.928,-38.086,-547.852,-183.105,-28.809,119403.393,320
671,1686017638.932,-29.785,-443.359,-43.945,-16.113,119403.397,316
672,1686017638.935,-24.902,314.941,215.82,-9.277,119403.368,316
673,1686017638.939,-40.039,243.164,69.336,-26.855,119403.372,316
674,1686017638.943,-49.316,-261.719,-53.223,-40.039,119403.376,316
675,1686017638.947,-37.598,-40.039,81.543,-30.762,119403.38,313
676,1686017638.951,-30.762,359.375,167.969,-10.254,119403.384,313
677,1686017638.955,-26.855,-97.656,-17.578,1.953,119403.388,313
678,1686017638.959,-26.855,-581.055,-192.871,-4.883,119403.392,311
679,1686017638.962,-32.715,-135.254,57.129,-22.949,119403.396,311
680,1686017638.966,-40.527,312.5,195.801,-28.32,119403.4,311
681,1686017638.97,-54.199,50.781,-0.977,-31.738,119403.404,311
682,1686017638.974,-62.988,-220.215,-109.375,-40.527,119403.407,309
683,1686017638.978,-63.477,-212.402,-27.344,-50.293,119403.411,309
684,1686017638.98,-53.711,16.602,60.059,-36.133,119403.414,309
685,1686017638.984,-49.805,-93.262,21.973,-22.461,119403.418,309
686,1686017638.988,-50.781,-218.75,-5.859,-32.715,119403.422,306
687,1686017638.992,-51.758,94.727,60.547,-37.598,119403.426,306
688,1686017638.996,-45.41,186.035,104.004,-22.949,119403.43,306
689,1686017639.0,-30.273,-434.57,-202.148,2.93,119403.434,302
690,1686017639.004,-38.086,-760.254,-263.672,1.953,119403.438,302
691,1686017639.007,-42.969,-29.297,101.562,-19.531,119403.442,302
692,1686017639.011,-43.457,42.969,4.883,-24.902,119403.446,298
693,1686017639.015,-33.691,-233.398,-70.312,-9.277,119403.449,298
694,1686017639.019,-24.902,-296.875,-33.691,-8.789,119403.453,298
695,1686017639.023,-38.086,-101.074,56.152,-38.086,119403.457,298
696,1686017639.039,-42.48,-1.953,37.109,-41.016,119403.461,293
697,1686017639.043,-35.645,-541.016,-183.594,-21.484,119403.465,291
698,1686017639.047,-34.668,-317.871,0.488,-15.137,119403.469,291
699,1686017639.051,-41.016,304.688,173.828,-34.18,119403.473,291
700,1686017639.055,-42.48,-0.488,-32.715,-32.715,119403.477,287
701,1686017639.059,-32.715,-643.066,-239.746,-12.695,119403.481,287
702,1686017639.063,-30.762,-330.078,4.883,-17.09,119403.485,287
703,1686017639.066,-44.922,375.977,219.727,-30.762,119403.489,287
704,1686017639.07,-53.711,-100.098,-106.934,-33.691,119403.493,283
705,1686017639.074,-47.852,-543.945,-200.684,-20.508,119403.496,283
706,1686017639.078,-41.504,94.238,147.461,-11.719,119403.5,283
707,1686017639.082,-51.27,349.121,141.602,-17.578,119403.504,279
708,1686017639.084,-58.594,-55.176,-43.457,-29.785,119403.505,279
709,1686017639.088,-43.457,-140.137,-11.23,-24.902,119403.509,279
710,1686017639.092,-28.809,253.418,159.668,-6.836,119403.513,279
711,1686017639.096,-32.227,301.758,119.629,-10.254,119403.517,279
712,1686017639.1,-38.086,-203.125,-105.469,-27.344,119403.521,275
713,1686017639.104,-44.434,-538.574,-234.863,-20.02,119403.525,275
714,1686017639.108,-42.969,-167.969,-10.254,-8.789,119403.529,275
715,1686017639.111,-45.41,260.254,181.152,0.488,119403.533,272
716,1686017639.115,-50.781,-444.824,-249.023,7.812,119403.536,272
717,1686017639.119,-51.758,-755.371,-302.734,1.465,119403.54,272
718,1686017639.123,-34.18,-126.465,93.75,12.695,119403.544,270
719,1686017639.127,-17.578,-80.566,60.547,17.578,119403.548,270
720,1686017639.129,-27.832,-439.941,-105.469,-3.906,119403.549,270
721,1686017639.133,-37.598,-311.523,-3.906,-18.066,119403.553,270
722,1686017639.137,-40.039,242.188,167.969,-7.324,119403.557,270
723,1686017639.141,-31.25,143.555,50.781,9.277,119403.561,269
724,1686017639.145,-31.25,-8.301,26.367,-7.324,119403.565,269
725,1686017639.149,-41.504,-123.535,-13.184,-23.438,119403.569,269
726,1686017639.153,-42.48,-291.992,-72.266,-15.137,119403.573,267
727,1686017639.156,-32.715,-270.996,-53.223,3.906,119403.577,267
728,1686017639.16,-30.273,-809.082,-317.383,11.719,119403.581,267
729,1686017639.164,-38.574,-531.25,-81.543,-15.625,119403.585,265
730,1686017639.168,-35.156,195.312,156.738,-28.809,119403.588,265
731,1686017639.172,-29.785,-54.199,24.902,-8.789,119403.592,265
732,1686017639.173,-27.832,24.902,114.746,4.883,119403.595,265
733,1686017639.177,-31.25,296.387,139.648,-16.113,119403.598,265
734,1686017639.181,-42.969,160.156,63.965,-48.828,119403.602,264
735,1686017639.185,-39.062,-103.027,-17.578,-39.062,119403.606,264
736,1686017639.189,-29.297,20.996,25.391,-11.23,119403.61,264
737,1686017639.193,-36.621,-16.113,34.668,-19.043,119403.614,264
738,1686017639.197,-42.48,-183.105,-8.301,-34.668,119403.618,264
739,1686017639.2,-33.691,-606.445,-214.355,-13.184,119403.622,264
740,1686017639.204,-27.344,-535.645,-138.184,8.789,119403.626,265
741,1686017639.208,-24.414,60.547,120.117,-10.742,119403.63,265
742,1686017639.212,-33.203,-185.547,-30.273,-34.668,119403.634,265
743,1686017639.216,-47.363,-351.074,-46.387,-32.227,119403.638,265
744,1686017639.219,-48.828,23.926,134.766,-14.16,119403.64,265
745,1686017639.223,-40.527,377.93,215.332,-8.789,119403.643,265
746,1686017639.227,-38.086,152.832,24.414,-24.414,119403.647,265
747,1686017639.231,-43.457,-587.402,-242.676,-29.785,119403.651,265
748,1686017639.235,-41.504,-315.918,-5.859,-18.555,119403.655,265
749,1686017639.239,-32.715,136.23,135.742,-5.371,119403.659,265
750,1686017639.243,-33.691,-323.73,-97.656,-2.441,119403.663,265
751,1686017639.246,-50.781,-682.129,-265.625,-20.02,119403.667,265
752,1686017639.25,-49.316,-156.25,35.645,-26.367,119403.671,265
753,1686017639.254,-44.434,377.93,195.801,-19.531,119403.675,265
754,1686017639.258,-54.688,104.98,35.156,-27.832,119403.679,265
755,1686017639.262,-50.293,-142.578,-49.316,-41.992,119403.683,267
756,1686017639.264,-46.387,-82.031,52.734,-40.039,119403.688,267
757,1686017639.268,-48.828,227.539,178.711,-25.391,119403.692,267
758,1686017639.272,-39.551,-125.0,-16.602,-22.461,119403.696,267
759,1686017639.276,-47.852,-359.375,-64.453,-38.086,119403.7,269
760,1686017639.28,-57.129,79.59,62.5,-47.852,119403.704,269
761,1686017639.284,-41.992,38.086,61.035,-23.438,119403.708,269
762,1686017639.288,-37.109,-537.598,-195.312,-7.324,119403.712,269
763,1686017639.291,-47.363,-609.863,-203.613,-34.668,119403.716,272
764,1686017639.295,-45.41,142.09,133.789,-47.852,119403.72,272
765,1686017639.299,-40.527,201.172,50.781,-28.809,119403.724,272
766,1686017639.303,-40.039,-143.066,-20.02,-15.625,119403.728,274
767,1686017639.307,-31.25,-38.086,58.105,-20.996,119403.731,274
768,1686017639.324,-32.227,267.09,122.559,-38.574,119403.746,276
769,1686017639.328,-32.715,50.293,37.109,-25.879,119403.749,276
770,1686017639.332,-31.25,-365.234,-111.816,-2.93,119403.753,277
771,1686017639.336,-27.344,-74.219,25.391,-11.23,119403.757,277
772,1686017639.34,-26.855,203.613,96.191,-29.785,119403.761,277
773,1686017639.344,-39.062,-230.957,-160.156,-31.25,119403.765,280
774,1686017639.348,-35.645,-872.07,-401.855,1.953,119403.769,280
775,1686017639.351,-31.25,-437.988,-61.523,11.719,119403.773,280
776,1686017639.355,-46.875,273.926,177.246,-23.926,119403.777,280
777,1686017639.359,-62.988,-75.195,-36.133,-42.969,119403.781,282
778,1686017639.363,-48.34,-92.773,12.695,-28.809,119403.785,282
779,1686017639.367,-41.504,266.113,153.809,-28.32,119403.789,282
780,1686017639.369,-54.199,237.305,95.215,-43.945,119403.79,282
781,1686017639.373,-55.176,-118.164,-61.523,-52.246,119403.794,285
782,1686017639.377,-37.598,-79.102,-5.859,-29.297,119403.798,285
783,1686017639.381,-20.508,301.27,155.762,-8.789,119403.801,285
784,1686017639.385,-29.785,235.352,70.801,-17.578,119403.805,286
785,1686017639.389,-51.758,-312.012,-197.754,-35.156,119403.809,286
786,1686017639.393,-53.711,-545.898,-182.617,-35.156,119403.813,286
787,1686017639.396,-46.875,-109.375,71.289,-25.879,119403.817,287
788,1686017639.4,-53.711,203.125,104.492,-42.48,119403.821,287
789,1686017639.404,-59.082,-497.07,-299.805,-56.641,119403.825,287
790,1686017639.408,-52.734,-910.645,-401.855,-51.758,119403.829,287
791,1686017639.412,-44.922,-174.316,62.988,-30.273,119403.833,287
792,1686017639.414,-38.574,205.078,121.094,-12.695,119403.835,288
793,1686017639.418,-45.898,-394.043,-166.016,-21.973,119403.839,288
794,1686017639.422,-50.293,-356.934,-28.809,-28.809,119403.843,288
795,1686017639.426,-37.109,283.691,197.266,-21.484,119403.847,290
796,1686017639.43,-29.785,160.645,62.012,-17.578,119403.851,290
797,1686017639.434,-34.668,-299.316,-143.066,-31.738,119403.855,290
798,1686017639.438,-40.527,-245.117,-72.754,-42.969,119403.859,290
799,1686017639.441,-40.039,41.992,98.633,-25.391,119403.862,290
800,1686017639.445,-30.273,-219.238,-91.309,-4.883,119403.866,293
801,1686017639.449,-30.762,-820.801,-349.609,-17.09,119403.87,293
802,1686017639.453,-40.527,-362.793,-2.93,-41.016,119403.874,293
803,1686017639.457,-35.156,224.121,125.0,-32.715,119403.878,295
804,1686017639.459,-25.879,-6.348,44.922,-16.113,119403.88,295
805,1686017639.463,-31.738,89.844,127.441,-21.973,119403.883,295
806,1686017639.467,-34.18,271.973,116.699,-32.227,119403.887,295
807,1686017639.471,-28.809,166.016,62.5,-28.32,119403.891,295
808,1686017639.475,-29.297,-41.016,8.301,-12.207,119403.895,295
809,1686017639.479,-24.414,-188.965,-16.602,-29.297,119403.899,295
810,1686017639.483,-24.902,-185.059,26.367,-49.805,119403.903,295
811,1686017639.486,-41.504,18.066,43.457,-50.293,119403.907,295
812,1686017639.49,-48.828,-471.68,-191.406,-30.273,119403.911,295
813,1686017639.494,-47.852,-553.223,-102.051,-20.996,119403.915,295
814,1686017639.498,-46.387,-62.988,87.891,-26.367,119403.919,296
815,1686017639.502,-55.176,-233.398,-36.133,-41.016,119403.923,296
816,1686017639.503,-61.035,-726.562,-260.742,-37.598,119403.925,296
817,1686017639.507,-43.457,-503.418,-102.539,-15.137,119403.929,297
818,1686017639.511,-26.367,323.73,202.637,-25.879,119403.932,297
819,1686017639.515,-31.738,77.637,9.277,-49.805,119403.936,297
820,1686017639.519,-54.688,-193.359,-97.168,-58.105,119403.94,297
821,1686017639.523,-41.992,-162.598,19.043,-38.574,119403.944,297
822,1686017639.527,-29.297,91.309,145.02,-21.484,119403.948,299
823,1686017639.53,-36.621,-53.223,-40.527,-25.391,119403.952,299
824,1686017639.534,-36.133,-663.086,-291.016,-44.434,119403.956,299
825,1686017639.538,-39.062,-85.449,55.664,-46.387,119403.96,301
826,1686017639.542,-45.41,438.965,206.055,-33.691,119403.964,301
827,1686017639.546,-42.969,74.707,33.203,-32.227,119403.968,301
828,1686017639.549,-49.805,-261.719,-68.848,-34.18,119403.973,301
829,1686017639.553,-52.246,-71.289,57.617,-29.785,119403.977,301
830,1686017639.557,-42.969,317.383,170.898,-10.254,119403.981,301
831,1686017639.561,-45.41,-164.551,-55.176,-10.254,119403.985,301
832,1686017639.565,-49.805,-449.219,-109.375,-31.738,119403.989,301
833,1686017639.569,-47.852,-177.246,2.441,-25.879,119403.993,301
834,1686017639.573,-34.18,-71.289,78.125,-4.395,119403.997,301
835,1686017639.576,-35.645,-482.91,-163.574,-9.277,119404.001,301
836,1686017639.58,-47.852,-635.254,-190.43,-27.344,119404.005,303
837,1686017639.584,-58.105,96.68,139.16,-40.527,119404.008,303
838,1686017639.588,-48.34,138.184,83.984,-24.414,119404.012,303
839,1686017639.592,-34.668,-429.199,-84.961,-9.766,119404.016,303
840,1686017639.593,-52.734,-329.59,4.395,-34.668,119404.015,307
841,1686017639.597,-62.012,213.867,143.066,-50.293,119404.019,307
842,1686017639.601,-46.387,91.797,76.66,-32.715,119404.023,307
843,1686017639.605,-33.203,-174.805,15.137,-21.484,119404.027,312
844,1686017639.609,-37.598,-32.715,20.508,-27.344,119404.031,312
845,1686017639.613,-45.898,-118.164,-17.09,-30.762,119404.034,312
846,1686017639.617,-46.387,-331.543,-91.309,-21.973,119404.038,312
847,1686017639.62,-41.504,-778.32,-289.062,-3.418,119404.042,317
848,1686017639.624,-38.086,-408.203,-35.645,-11.719,119404.046,317
849,1686017639.628,-39.551,307.129,193.359,-35.156,119404.05,317
850,1686017639.632,-41.504,4.395,8.301,-21.484,119404.054,317
851,1686017639.636,-39.062,41.016,56.152,0.488,119404.058,322
852,1686017639.639,-40.039,330.566,156.25,-11.23,119404.06,322
853,1686017639.643,-38.086,219.238,96.68,-25.391,119404.064,322
854,1686017639.647,-29.785,-117.188,-56.152,-23.926,119404.067,327
855,1686017639.651,-32.715,8.301,43.457,-9.277,119404.071,327
856,1686017639.655,-40.527,250.488,115.723,-11.23,119404.075,327
857,1686017639.659,-51.758,-101.074,-90.82,-37.109,119404.079,331
858,1686017639.663,-50.781,-690.918,-367.188,-30.762,119404.083,331
859,1686017639.666,-35.645,-770.02,-257.324,-3.906,119404.087,331
860,1686017639.67,-33.203,76.172,179.688,-5.371,119404.091,331
861,1686017639.674,-51.27,189.453,43.945,-26.367,119404.095,331
862,1686017639.678,-62.012,-333.984,-178.223,-38.574,119404.099,335
863,1686017639.682,-48.34,-230.957,-12.207,-28.32,119404.103,335
864,1686017639.684,-38.574,293.945,205.566,-22.949,119404.12,335
865,1686017639.688,-45.898,247.559,63.477,-29.297,119404.124,337
866,1686017639.692,-55.664,-473.145,-206.055,-40.039,119404.127,337
867,1686017639.696,-53.711,-312.988,-25.391,-36.133,119404.131,337
868,1686017639.7,-31.738,285.156,167.48,-11.719,119404.135,337
869,1686017639.704,-31.738,-90.82,-36.133,-9.766,119404.139,337
870,1686017639.708,-53.711,-687.012,-247.07,-24.414,119404.143,337
871,1686017639.711,-54.199,-262.695,-22.461,-26.855,119404.147,337
872,1686017639.715,-45.41,176.758,154.297,-15.625,119404.151,336
873,1686017639.719,-39.062,-252.93,-82.52,-14.16,119404.155,336
874,1686017639.723,-45.898,-393.555,-167.48,-35.645,119404.159,336
875,1686017639.727,-54.688,91.797,95.215,-40.039,119404.163,336
876,1686017639.731,-34.668,257.324,123.535,-20.02,119404.163,335
877,1686017639.735,-38.086,38.086,70.312,-20.996,119404.167,335
878,1686017639.739,-57.129,20.02,70.801,-38.574,119404.171,335
879,1686017639.743,-60.547,161.133,77.148,-44.922,119404.175,335
880,1686017639.747,-47.363,173.828,56.641,-22.949,119404.179,334
881,1686017639.751,-35.645,-334.961,-105.957,-6.836,119404.183,334
882,1686017639.755,-41.016,-463.379,-57.129,-19.043,119404.187,334
883,1686017639.758,-45.898,48.34,88.867,-33.203,119404.191,333
884,1686017639.762,-37.109,60.547,19.043,-26.367,119404.195,333
885,1686017639.766,-25.879,-247.559,-88.867,-7.812,119404.199,333
886,1686017639.77,-31.25,-302.734,-4.883,-15.625,119404.202,332
887,1686017639.774,-53.711,-176.27,19.531,-38.086,119404.206,332
888,1686017639.789,-58.105,-275.879,-96.68,-31.25,119404.209,329
889,1686017639.793,-39.551,-249.512,11.23,-3.906,119404.213,329
890,1686017639.797,-33.203,120.605,145.508,-1.465,119404.217,329
891,1686017639.801,-33.691,294.922,117.188,-19.043,119404.221,327
892,1686017639.805,-37.109,84.961,19.043,-21.973,119404.225,327
893,1686017639.809,-36.133,-774.902,-393.066,-2.441,119404.229,327
894,1686017639.813,-32.715,-719.727,-220.215,6.836,119404.233,324
895,1686017639.816,-26.855,240.234,204.59,-9.277,119404.237,324
896,1686017639.82,-23.926,-61.523,-46.875,-22.949,119404.241,324
897,1686017639.824,-29.297,-200.684,-37.109,-11.23,119404.245,324
898,1686017639.828,-27.832,232.422,143.066,-2.441,119404.248,322
899,1686017639.832,-27.832,198.73,79.59,-10.742,119404.252,322
900,1686017639.834,-37.598,-81.055,-28.809,-26.855,119404.258,322
901,1686017639.838,-37.109,-332.031,-65.43,-21.973,119404.262,322
902,1686017639.842,-26.855,-60.059,70.801,-9.277,119404.266,321
903,1686017639.846,-26.855,313.965,146.484,-13.184,119404.27,321
904,1686017639.85,-32.715,-291.504,-159.18,-22.949,119404.274,321
905,1686017639.854,-33.203,-839.844,-340.332,-25.879,119404.278,319
906,1686017639.858,-24.414,-199.707,27.344,-4.883,119404.282,319
907,1686017639.861,-13.672,338.867,184.082,-2.93,119404.286,319
908,1686017639.865,-33.691,-379.883,-196.289,-35.645,119404.29,319
909,1686017639.869,-34.18,-608.887,-180.664,-43.457,119404.293,315
910,1686017639.873,-21.973,-54.199,100.098,-29.785,119404.297,315
911,1686017639.877,-29.297,-104.004,34.668,-20.02,119404.301,315
912,1686017639.878,-22.949,-418.457,-83.496,-11.23,119404.314,315
913,1686017639.882,-17.578,-281.738,-6.836,-14.16,119404.318,311
914,1686017639.886,-16.602,284.18,158.203,-16.113,119404.322,311
915,1686017639.89,-10.742,142.578,62.012,3.418,119404.326,311
916,1686017639.894,-15.625,-181.152,-17.09,4.395,119404.33,308
917,1686017639.898,-32.227,-307.617,-62.988,-19.531,119404.334,308
918,1686017639.902,-34.18,-145.996,22.949,-25.391,119404.338,308
919,1686017639.905,-22.461,-15.625,38.574,-9.766,119404.342,308
920,1686017639.909,-17.09,-729.492,-297.852,1.953,119404.345,306
921,1686017639.913,-24.902,-441.895,-44.922,-23.926,119404.349,306
922,1686017639.917,-27.832,242.676,160.156,-42.48,119404.353,306
923,1686017639.921,-26.855,18.066,21.484,-23.926,119404.357,303
924,1686017639.924,-22.949,98.145,85.938,-14.16,119404.359,303
925,1686017639.928,-31.25,342.285,149.902,-26.855,119404.363,303
926,1686017639.932,-41.016,218.262,87.402,-27.344,119404.367,303
927,1686017639.936,-37.598,-24.902,-4.883,-21.973,119404.371,303
928,1686017639.94,-27.832,39.551,10.254,-13.184,119404.375,301
929,1686017639.944,-28.809,-45.41,28.32,-12.695,119404.379,301
930,1686017639.948,-38.086,-365.723,-134.277,-28.809,119404.382,301
931,1686017639.951,-36.133,-478.027,-205.078,-20.508,119404.386,298
932,1686017639.955,-38.574,-110.84,34.668,-1.953,119404.39,298
933,1686017639.959,-43.945,263.672,136.23,-3.906,119404.394,298
934,1686017639.963,-48.828,-39.551,-41.992,-23.438,119404.398,295
935,1686017639.967,-45.41,-746.582,-366.211,-20.02,119404.402,295
936,1686017639.968,-37.109,-886.23,-345.215,4.883,119404.39,295
937,1686017639.972,-45.898,13.672,115.234,-5.859,119404.394,295
938,1686017639.976,-51.758,161.621,79.102,-22.949,119404.398,295
939,1686017639.98,-43.457,-170.41,-78.613,-20.02,119404.402,293
940,1686017639.984,-37.109,70.312,57.617,-11.23,119404.406,293
941,1686017639.988,-25.391,83.984,118.164,-5.859,119404.41,293
942,1686017639.992,-23.438,-309.082,-80.078,-9.277,119404.413,293
943,1686017639.995,-37.598,-516.602,-175.781,-25.391,119404.417,293
944,1686017639.999,-35.645,-11.719,103.516,-27.832,119404.421,293
945,1686017640.003,-26.367,204.102,164.551,-4.395,119404.425,293
946,1686017640.007,-31.25,-295.898,-114.258,-5.371,119404.429,293
947,1686017640.011,-45.41,-810.059,-357.91,-26.855,119404.433,293
948,1686017640.013,-58.105,-215.82,30.762,-31.25,119404.435,293
949,1686017640.017,-58.105,303.711,196.777,-13.184,119404.439,293
950,1686017640.021,-50.293,30.762,34.668,-13.672,119404.443,292
951,1686017640.025,-48.828,37.598,46.875,-29.297,119404.447,292
952,1686017640.029,-48.34,163.086,63.965,-24.902,119404.451,292
953,1686017640.033,-32.227,8.301,73.73,-14.648,119404.455,292
954,1686017640.037,-24.414,-564.941,-167.969,-3.418,119404.459,292
955,1686017640.04,-38.086,-638.184,-211.914,-14.16,119404.463,292
956,1686017640.044,-40.527,137.207,154.297,-34.668,119404.467,292
957,1686017640.048,-34.18,217.773,103.027,-20.02,119404.47,292
958,1686017640.052,-35.645,-151.367,-55.664,-4.883,119404.474,292
959,1686017640.056,-38.086,-143.555,-20.508,-15.625,119404.478,292
960,1686017640.059,-46.387,-33.691,33.691,-39.062,119404.494,292
961,1686017640.063,-53.223,-5.371,7.812,-45.41,119404.497,293
962,1686017640.067,-46.875,-458.008,-129.883,-21.484,119404.501,293
963,1686017640.071,-49.316,-306.152,14.16,-20.508,119404.505,293
964,1686017640.075,-55.664,243.652,136.719,-48.34,119404.509,294
965,1686017640.079,-48.34,-171.387,-85.938,-48.34,119404.513,294
966,1686017640.083,-38.574,-668.945,-229.492,-26.367,119404.517,294
967,1686017640.086,-43.457,-143.066,58.105,-22.949,119404.521,294
968,1686017640.09,-57.129,337.891,148.926,-41.016,119404.525,296
969,1686017640.094,-61.523,-89.355,-62.012,-41.992,119404.529,296
970,1686017640.098,-45.41,-77.148,23.438,-22.461,119404.533,296
971,1686017640.102,-30.273,351.074,167.48,-20.996,119404.537,298
972,1686017640.134,-35.645,287.109,83.984,-28.809,119404.555,299
973,1686017640.138,-33.691,-132.324,-66.406,-31.738,119404.559,299
974,1686017640.142,-24.414,-333.008,-99.609,-18.555,119404.563,301
975,1686017640.146,-24.414,-25.879,51.27,-9.277,119404.567,301
976,1686017640.15,-33.203,321.777,158.691,-28.32,119404.571,301
977,1686017640.154,-45.898,-396.484,-237.793,-41.016,119404.575,304
978,1686017640.158,-55.664,-813.477,-315.43,-33.203,119404.578,304
979,1686017640.161,-50.293,50.293,150.391,-18.555,119404.582,304
980,1686017640.163,-38.086,141.602,69.336,-7.812,119404.585,304
981,1686017640.165,-36.133,300.293,97.168,-17.09,119404.586,304
982,1686017640.167,-44.434,-438.965,-195.312,-23.926,119404.589,304
983,1686017640.169,-43.457,-247.559,-120.605,-33.203,119404.59,304
984,1686017640.171,-42.48,-403.32,-53.711,-35.156,119404.592,306
985,1686017640.173,-48.34,-520.02,-192.383,-37.109,119404.594,306
986,1686017640.175,-39.551,229.004,156.25,-24.414,119404.596,306
987,1686017640.177,-35.156,-111.328,-12.207,-18.066,119404.598,306
988,1686017640.179,-44.922,83.008,35.156,-24.902,119404.6,306
989,1686017640.183,-53.223,-323.73,-159.668,-46.875,119404.604,307
990,1686017640.187,-49.316,-392.578,-141.113,-49.316,119404.608,307
991,1686017640.19,-39.551,-59.57,65.43,-37.109,119404.612,307
992,1686017640.194,-36.133,-54.688,-20.02,-26.367,119404.616,307
993,1686017640.198,-38.574,-273.438,-116.211,-30.273,119404.62,307
994,1686017640.202,-45.41,46.387,62.988,-42.969,119404.624,307
995,1686017640.206,-49.316,253.906,141.602,-31.25,119404.628,307
996,1686017640.209,-38.086,-135.742,-51.27,-3.418,119404.633,307
997,1686017640.213,-30.273,-882.324,-379.883,0.0,119404.637,308
998,1686017640.217,-36.621,-380.859,-32.715,-27.832,119404.641,308
999,1686017640.221,-36.621,166.504,122.559,-36.621,119404.645,308
1000,1686017640.225,-21.484,0.977,65.43,-5.371,119404.649,310
1001,1686017640.229,-20.508,-165.039,63.477,2.93,119404.653,310
1002,1686017640.233,-37.109,-144.043,18.555,-19.531,119404.657,310
1003,1686017640.236,-42.969,-9.766,50.781,-34.18,119404.661,312
1004,1686017640.24,-36.133,-585.449,-223.145,-22.949,119404.665,312
1005,1686017640.244,-29.297,-708.496,-221.191,-3.906,119404.668,312
1006,1686017640.248,-32.227,-27.832,118.652,-29.297,119404.672,312
1007,1686017640.252,-35.156,-174.805,-30.762,-37.598,119404.676,312
1008,1686017640.254,-38.086,-577.148,-163.574,-18.066,119404.675,313
1009,1686017640.258,-32.227,-135.742,80.566,-6.348,119404.679,313
1010,1686017640.262,-22.461,451.172,224.121,-19.531,119404.683,313
1011,1686017640.266,-31.738,129.883,22.949,-41.992,119404.687,313
1012,1686017640.27,-32.227,-182.129,-54.199,-24.414,119404.691,313
1013,1686017640.274,-32.715,-189.453,4.883,0.977,119404.695,313
1014,1686017640.278,-35.645,26.855,110.352,-2.93,119404.699,313
1015,1686017640.281,-38.574,-87.402,-16.602,-20.02,119404.702,312
1016,1686017640.285,-45.898,-638.672,-275.879,-20.996,119404.706,312
1017,1686017640.289,-36.621,-136.719,34.18,-13.672,119404.71,312
1018,1686017640.293,-38.086,227.051,139.648,-15.137,119404.714,312
1019,1686017640.297,-51.27,-348.145,-144.043,-27.832,119404.718,313
1020,1686017640.299,-46.387,-456.543,-159.18,-31.738,119404.72,313
1021,1686017640.303,-41.992,196.777,156.738,-20.508,119404.723,313
1022,1686017640.307,-36.133,365.234,173.828,-11.719,119404.727,314
1023,1686017640.311,-42.969,57.129,9.766,-26.367,119404.731,314
1024,1686017640.315,-51.758,-10.254,-22.461,-41.016,119404.735,314
1025,1686017640.319,-43.945,-97.168,-3.906,-28.32,119404.739,314
1026,1686017640.323,-33.691,-71.289,67.871,-11.719,119404.743,316
1027,1686017640.326,-35.645,-488.77,-188.965,-17.09,119404.747,316
1028,1686017640.33,-43.945,-733.398,-252.93,-34.18,119404.751,316
1029,1686017640.334,-34.18,102.051,143.066,-35.156,119404.755,316
1030,1686017640.338,-27.832,186.035,102.539,-21.973,119404.759,316
1031,1686017640.342,-34.18,-406.25,-103.516,-16.113,119404.763,316
1032,1686017640.345,-42.48,-359.375,-62.988,-29.785,119404.768,316
1033,1686017640.349,-48.34,10.254,87.891,-40.039,119404.772,315
1034,1686017640.353,-38.086,14.16,41.016,-16.602,119404.776,315
1035,1686017640.357,-29.297,-136.719,26.367,-7.324,119404.78,315
1036,1686017640.361,-42.969,-58.594,55.664,-27.832,119404.784,315
1037,1686017640.365,-47.852,-121.582,-77.637,-37.598,119404.788,315
1038,1686017640.369,-41.992,-324.219,-109.375,-23.926,119404.792,315
1039,1686017640.372,-43.457,-617.188,-203.613,-18.555,119404.796,315
1040,1686017640.376,-46.387,-151.855,36.621,-25.391,119404.8,316
1041,1686017640.38,-33.203,288.086,134.766,-15.625,119404.804,316
1042,1686017640.384,-31.25,-68.359,-29.297,-18.066,119404.807,316
1043,1686017640.388,-36.621,-20.996,40.527,-20.996,119404.811,317
1044,1686017640.389,-47.363,327.148,152.832,-28.32,119404.823,317
1045,1686017640.393,-55.664,240.723,90.332,-40.527,119404.827,317
1046,1686017640.397,-39.062,-101.562,-52.246,-33.691,119404.831,317
1047,1686017640.401,-33.691,-208.008,-24.902,-27.344,119404.834,317
1048,1686017640.405,-39.551,29.785,76.66,-26.855,119404.838,317
1049,1686017640.409,-41.504,-27.344,-42.48,-41.016,119404.842,317
1050,1686017640.413,-39.062,-648.926,-350.098,-45.41,119404.846,317
1051,1686017640.416,-35.156,-810.059,-319.336,-27.344,119404.85,317
1052,1686017640.42,-29.785,46.875,118.164,-20.508,119404.854,318
1053,1686017640.424,-31.25,296.875,89.844,-28.809,119404.858,318
1054,1686017640.428,-39.551,-283.203,-188.965,-42.969,119404.862,318
1055,1686017640.432,-37.598,-288.086,-90.332,-34.668,119404.866,318
1056,1686017640.434,-27.832,239.746,159.668,-12.207,119404.883,316
1057,1686017640.438,-28.809,171.387,50.293,-22.461,119404.887,316
1058,1686017640.442,-42.48,-313.965,-155.273,-43.457,119404.891,316
1059,1686017640.446,-49.316,-109.863,0.0,-34.668,119404.895,316
1060,1686017640.45,-38.574,324.707,181.152,-19.531,119404.899,316
1061,1686017640.454,-34.18,-29.297,2.441,-19.043,119404.903,316
1062,1686017640.458,-43.945,-658.691,-279.785,-31.738,119404.907,317
1063,1686017640.461,-41.504,-536.621,-171.387,-31.738,119404.911,317
1064,1686017640.465,-27.344,145.508,154.297,-9.277,119404.915,317
1065,1686017640.469,-20.508,-17.09,-27.344,-1.953,119404.919,317
1066,1686017640.473,-33.203,-502.441,-227.051,-20.508,119404.922,317
1067,1686017640.477,-41.992,-13.184,82.52,-28.32,119404.926,318
1068,1686017640.494,-26.855,341.309,159.18,-10.254,119404.914,319
1069,1686017640.498,-20.02,-123.535,-49.316,0.0,119404.918,318
1070,1686017640.502,-31.738,-357.422,-105.957,-10.254,119404.922,318
1071,1686017640.506,-43.457,104.492,98.633,-29.297,119404.926,318
1072,1686017640.51,-41.016,207.52,75.195,-22.949,119404.93,318
1073,1686017640.514,-40.527,-313.477,-100.586,-4.395,119404.934,318
1074,1686017640.518,-38.574,-451.66,-49.805,-17.09,119404.938,317
1075,1686017640.521,-36.621,45.41,88.379,-40.527,119404.942,317
1076,1686017640.525,-43.945,-46.875,1.465,-38.086,119404.946,317
1077,1686017640.529,-37.598,-556.641,-169.922,-8.789,119404.95,317
1078,1686017640.533,-33.203,-665.527,-115.723,-3.418,119404.954,317
1079,1686017640.537,-43.945,-189.941,47.852,-29.785,119404.957,317
1080,1686017640.539,-45.41,8.789,54.688,-37.598,119404.96,317
1081,1686017640.543,-42.48,-675.293,-250.0,-21.484,119404.964,318
1082,1686017640.547,-41.504,-722.656,-197.754,-7.324,119404.968,318
1083,1686017640.551,-46.387,179.199,191.406,-18.066,119404.972,318
1084,1686017640.555,-48.828,79.102,35.156,-31.25,119404.976,319
1085,1686017640.559,-39.551,-363.77,-138.184,-24.902,119404.98,319
1086,1686017640.563,-38.574,-145.996,49.805,-11.23,119404.983,319
1087,1686017640.566,-34.18,323.73,211.426,-15.625,119404.987,319
1088,1686017640.57,-36.621,-49.805,-66.895,-28.809,119404.991,319
1089,1686017640.574,-44.922,-647.461,-274.414,-22.949,119404.995,319
1090,1686017640.578,-34.18,-85.449,75.195,-8.789,119404.999,319
1091,1686017640.582,-28.809,150.879,121.582,-8.789,119405.003,319
1092,1686017640.585,-38.086,-448.242,-150.879,-21.484,119405.012,318
1093,1686017640.589,-34.668,-431.152,-109.863,-16.602,119405.015,318
1094,1686017640.593,-21.484,263.672,179.688,-7.324,119405.019,318
1095,1686017640.597,-24.414,347.168,156.25,-12.207,119405.023,317
1096,1686017640.601,-35.156,-30.273,-50.293,-21.973,119405.027,317
1097,1686017640.605,-35.156,-360.84,-198.73,-26.855,119405.031,317
1098,1686017640.609,-34.668,-114.746,18.066,-16.602,119405.035,318
1099,1686017640.612,-27.344,326.66,185.547,-8.789,119405.039,318
1100,1686017640.616,-30.762,-397.949,-204.102,-18.066,119405.043,318
1101,1686017640.62,-40.527,-741.699,-260.742,-22.949,119405.047,318
1102,1686017640.624,-29.297,-114.746,97.656,-13.184,119405.051,318
1103,1686017640.628,-15.625,-47.363,61.035,0.488,119405.055,319
1104,1686017640.629,-21.484,-389.648,-97.168,-5.371,119405.053,319
1105,1686017640.633,-33.691,-449.707,-70.312,-24.414,119405.057,319
1106,1686017640.637,-36.621,47.852,123.047,-25.391,119405.061,319
1107,1686017640.641,-30.762,182.129,109.863,-8.789,119405.064,320
1108,1686017640.645,-28.32,-88.379,-10.254,-15.625,119405.068,320
1109,1686017640.649,-33.203,-295.41,-76.172,-40.527,119405.072,320
1110,1686017640.653,-37.598,-143.066,11.719,-41.504,119405.076,320
1111,1686017640.656,-33.691,80.566,100.586,-19.531,119405.08,320
1112,1686017640.66,-24.902,-758.789,-326.66,-2.93,119405.084,320
1113,1686017640.664,-30.273,-633.789,-178.223,-11.719,119405.088,320
1114,1686017640.668,-40.527,172.852,138.184,-32.227,119405.092,318
1115,1686017640.672,-31.738,-92.285,-3.906,-29.785,119405.096,318
1116,1686017640.689,-20.996,50.293,83.008,-23.926,119405.11,318
1117,1686017640.693,-30.762,369.141,147.461,-36.621,119405.114,318
1118,1686017640.697,-38.086,266.113,108.887,-39.062,119405.118,318
1119,1686017640.701,-31.738,13.672,9.766,-24.414,119405.122,318
1120,1686017640.705,-24.414,-68.359,4.395,-14.648,119405.126,318
1121,1686017640.709,-30.762,-104.492,35.645,-27.344,119405.13,319
1122,1686017640.713,-43.457,-97.168,17.578,-44.922,119405.134,319
1123,1686017640.716,-34.668,-549.316,-252.93,-19.531,119405.138,319
1124,1686017640.719,-24.902,-89.355,48.34,-10.254,119405.14,319
1125,1686017640.72,-18.555,-760.742,-228.516,5.859,119405.141,320
1126,1686017640.723,-23.438,438.477,204.59,-14.648,119405.144,320
1127,1686017640.724,-29.785,146.973,184.082,-18.066,119405.145,320
1128,1686017640.727,-31.738,159.668,35.156,-21.484,119405.147,320
1129,1686017640.728,-40.039,124.512,58.105,-48.828,119405.149,320
1130,1686017640.731,-29.785,-266.602,-115.723,-20.996,119405.151,320
1131,1686017640.732,-36.621,-478.516,-126.953,-35.645,119405.153,320
1132,1686017640.735,-21.973,20.996,45.41,-13.672,119405.155,320
1133,1686017640.739,-23.438,179.688,106.934,-5.371,119405.159,320
1134,1686017640.743,-25.391,-303.711,-109.863,-7.324,119405.163,320
1135,1686017640.746,-29.297,-473.145,-169.434,-18.555,119405.167,320
1136,1686017640.75,-40.039,45.41,100.098,-15.625,119405.171,319
1137,1686017640.754,-32.715,473.145,237.793,3.906,119405.175,319
1138,1686017640.758,-18.066,54.199,-69.336,9.766,119405.179,319
1139,1686017640.762,-31.25,-837.891,-412.598,-0.488,119405.183,318
1140,1686017640.764,-36.621,-283.203,20.02,-8.301,119405.184,318
1141,1686017640.768,-21.973,422.363,212.891,-0.977,119405.188,318
1142,1686017640.772,-30.273,134.766,44.434,-7.324,119405.192,318
1143,1686017640.776,-36.133,26.855,15.625,-18.555,119405.196,318
1144,1686017640.78,-33.691,153.32,57.617,-15.625,119405.2,319
1145,1686017640.784,-31.25,89.844,77.148,3.906,119405.204,319
1146,1686017640.788,-29.297,-530.762,-216.797,18.066,119405.208,319
1147,1686017640.791,-32.227,-660.645,-222.656,-8.789,119405.212,320
1148,1686017640.795,-37.109,94.727,134.766,-32.227,119405.216,320
1149,1686017640.799,-41.504,108.887,41.992,-16.602,119405.22,320
1150,1686017640.803,-36.621,-483.887,-131.836,-6.836,119405.224,320
1151,1686017640.807,-35.645,-421.875,-17.09,-16.602,119405.227,320
1152,1686017640.808,-44.922,208.984,132.812,-25.879,119405.244,320
1153,1686017640.812,-46.387,132.812,33.691,-18.066,119405.247,320
1154,1686017640.816,-33.203,-197.754,13.672,2.93,119405.251,320
1155,1686017640.82,-29.297,61.035,120.605,0.488,119405.255,319
1156,1686017640.824,-38.086,279.785,97.168,-26.855,119405.259,319
1157,1686017640.828,-36.621,-197.754,-111.328,-27.344,119405.263,319
1158,1686017640.832,-40.039,-714.355,-266.602,-3.418,119405.267,318
1159,1686017640.835,-40.527,-178.711,38.574,-9.766,119405.271,318
1160,1686017640.839,-38.574,354.98,173.34,-27.832,119405.275,318
1161,1686017640.843,-45.41,-67.383,-21.484,-30.273,119405.279,317
1162,1686017640.847,-40.527,-81.543,28.809,-18.555,119405.283,317
1163,1686017640.851,-32.715,279.297,148.926,-3.906,119405.287,317
1164,1686017640.854,-39.551,53.223,8.789,-22.461,119405.288,317
1165,1686017640.858,-42.48,-541.992,-270.02,-35.156,119405.292,317
1166,1686017640.862,-42.969,-468.262,-141.602,-21.973,119405.296,318
1167,1686017640.866,-37.109,243.164,181.641,-12.695,119405.3,318
1168,1686017640.87,-35.645,244.629,60.059,-20.02,119405.304,318
1169,1686017640.874,-34.668,-435.059,-197.754,-21.973,119405.308,319
1170,1686017640.878,-32.715,-615.723,-127.441,-14.16,119405.312,319
1171,1686017640.881,-34.668,57.617,136.23,-15.137,119405.316,319
1172,1686017640.885,-41.504,242.676,91.309,-26.367,119405.32,318
1173,1686017640.889,-49.316,-293.457,-132.812,-34.18,119405.324,318
1174,1686017640.893,-40.039,-493.164,-85.449,-32.715,119405.328,318
1175,1686017640.897,-43.457,-73.242,102.051,-20.508,119405.331,318
1176,1686017640.914,-39.551,229.492,119.629,-10.254,119405.335,317
1177,1686017640.918,-35.156,-322.266,-125.488,-22.461,119405.338,317
1178,1686017640.922,-46.875,-511.719,-76.66,-31.25,119405.342,317
1179,1686017640.926,-36.133,63.965,151.855,-20.996,119405.346,317
1180,1686017640.93,-26.855,168.945,58.105,-8.789,119405.35,316
1181,1686017640.934,-32.227,-623.535,-270.996,-17.09,119405.354,316
1182,1686017640.938,-36.621,-559.082,-125.0,-38.574,119405.358,316
1183,1686017640.941,-35.645,238.281,171.875,-34.18,119405.362,317
1184,1686017640.945,-32.227,40.527,-10.254,-10.254,119405.366,317
1185,1686017640.949,-35.645,-317.871,-131.348,-16.602,119405.37,317
1186,1686017640.953,-49.805,101.562,123.535,-47.852,119405.374,318
1187,1686017640.957,-50.781,236.816,104.492,-40.039,119405.377,318
1188,1686017640.958,-30.273,2.93,36.133,-13.672,119405.38,318
1189,1686017640.962,-30.273,41.504,67.871,-11.719,119405.384,318
1190,1686017640.966,-38.574,204.102,78.613,-22.949,119405.387,318
1191,1686017640.97,-42.969,166.504,73.73,-29.297,119405.391,318
1192,1686017640.974,-41.992,-65.918,-46.875,-23.438,119405.395,318
1193,1686017640.978,-37.109,-203.613,-53.711,-20.02,119405.399,318
1194,1686017640.982,-38.574,-270.02,-51.758,-34.18,119405.403,317
1195,1686017640.985,-43.945,-280.273,-156.738,-43.945,119405.407,317
1196,1686017640.989,-37.109,-635.254,-316.406,-22.461,119405.411,317
1197,1686017640.993,-35.156,-729.98,-197.754,-8.789,119405.415,317
1198,1686017640.997,-44.922,-117.188,110.84,-25.879,119405.419,316
1199,1686017641.001,-46.387,-160.156,-28.32,-47.363,119405.423,316
1200,1686017641.004,-41.016,-526.367,-128.906,-34.18,119405.425,316
1201,1686017641.008,-29.297,-190.918,66.895,-6.348,119405.428,316
1202,1686017641.012,-25.879,362.793,215.332,-9.277,119405.432,316
1203,1686017641.016,-36.621,92.773,16.602,-32.715,119405.436,316
1204,1686017641.02,-39.551,-122.07,-64.941,-34.18,119405.44,316
1205,1686017641.024,-27.344,-146.973,23.438,-13.184,119405.444,317
1206,1686017641.028,-33.203,14.16,113.281,-15.137,119405.448,317
1207,1686017641.031,-46.387,-69.824,-31.738,-32.227,119405.452,317
1208,1686017641.035,-41.504,-864.258,-383.789,-21.484,119405.456,317
1209,1686017641.039,-25.391,-386.719,-21.973,7.324,119405.46,317
1210,1686017641.043,-14.16,452.148,240.723,11.23,119405.464,317
1211,1686017641.047,-30.762,14.648,-6.836,-22.461,119405.467,317
1212,1686017641.049,-44.922,-163.574,-16.113,-38.086,119405.469,317
1213,1686017641.053,-39.062,251.465,137.695,-21.484,119405.473,317
1214,1686017641.057,-31.25,330.566,146.484,-10.254,119405.477,317
1215,1686017641.061,-29.297,60.059,26.367,-14.648,119405.481,317
1216,1686017641.065,-40.039,-99.121,-46.875,-34.668,119405.485,316
1217,1686017641.069,-38.574,-140.137,-8.789,-30.762,119405.489,316
1218,1686017641.073,-27.832,-20.508,78.125,-9.766,119405.493,316
1219,1686017641.076,-33.691,-460.938,-181.152,-14.16,119405.497,315
1220,1686017641.08,-37.109,-660.645,-230.957,-20.996,119405.501,315
1221,1686017641.084,-36.133,36.133,99.121,-6.348,119405.505,315
1222,1686017641.088,-27.344,75.684,78.125,3.906,119405.509,315
1223,1686017641.092,-14.16,-567.383,-205.566,8.789,119405.512,315
1224,1686017641.094,-30.273,-635.254,-176.758,-8.789,119405.516,315
1225,1686017641.098,-44.434,116.211,158.691,-25.879,119405.52,315
1226,1686017641.102,-31.738,105.469,75.195,-8.301,119405.524,315
1227,1686017641.106,-15.137,-60.059,53.223,6.348,119405.528,316
1228,1686017641.11,-25.879,177.734,128.418,-17.09,119405.532,316
1229,1686017641.114,-43.945,24.902,34.668,-40.527,119405.536,316
1230,1686017641.118,-32.715,-265.137,-65.43,-14.648,119405.54,316
1231,1686017641.121,-19.043,-580.078,-179.688,9.766,119405.544,316
1232,1686017641.125,-21.484,-165.527,32.715,2.93,119405.547,316
1233,1686017641.129,-27.344,319.824,161.133,-11.719,119405.551,316
1234,1686017641.133,-26.855,-46.875,-15.625,-13.184,119405.555,315
1235,1686017641.137,-16.602,-35.645,13.672,0.977,119405.559,315
1236,1686017641.14,-12.695,234.863,134.766,4.883,119405.564,315
1237,1686017641.144,-19.531,-42.48,7.812,-8.789,119405.567,315
1238,1686017641.148,-28.809,-452.148,-138.672,-13.184,119405.571,314
1239,1686017641.152,-30.762,-166.992,45.41,1.465,119405.575,314
1240,1686017641.156,-31.738,256.836,134.766,-2.93,119405.579,314
1241,1686017641.16,-34.668,-75.195,-74.219,-24.414,119405.583,314
1242,1686017641.164,-38.574,-679.199,-355.957,-20.996,119405.587,314
1243,1686017641.167,-37.109,-695.801,-228.027,-2.441,119405.591,314
1244,1686017641.171,-30.762,171.875,188.477,0.488,119405.595,314
1245,1686017641.175,-31.738,254.883,66.406,-8.789,119405.599,315
1246,1686017641.179,-36.133,-333.008,-143.066,-17.578,119405.603,315
1247,1686017641.183,-46.875,-287.109,-32.227,-19.531,119405.607,315
1248,1686017641.184,-40.527,267.578,167.969,-7.324,119405.618,315
1249,1686017641.188,-27.344,189.941,53.711,2.441,119405.622,315
1250,1686017641.192,-41.016,-332.52,-143.555,-20.02,119405.626,315
1251,1686017641.196,-51.27,-333.008,-41.016,-27.344,119405.63,315
1252,1686017641.2,-42.969,43.945,105.469,-9.277,119405.634,315
1253,1686017641.204,-41.992,-23.926,24.902,-16.602,119405.638,315
1254,1686017641.208,-46.875,-794.922,-354.492,-32.227,119405.642,315
1255,1686017641.211,-43.945,-624.023,-198.242,-32.227,119405.646,315
1256,1686017641.215,-30.273,256.836,216.797,-13.184,119405.65,314
1257,1686017641.219,-26.855,143.555,63.477,1.465,119405.653,314
1258,1686017641.223,-28.32,-88.867,-22.461,-18.555,119405.657,314
1259,1686017641.227,-24.414,137.207,104.004,-23.926,119405.661,313
1260,1686017641.244,-26.367,229.98,118.652,-9.277,119405.665,313
1261,1686017641.248,-26.855,24.902,59.082,-3.906,119405.669,313
1262,1686017641.252,-25.879,-37.598,26.367,-14.16,119405.673,313
1263,1686017641.256,-26.367,122.559,64.453,-20.996,119405.677,314
1264,1686017641.26,-29.785,140.137,62.988,-14.648,119405.68,314
1265,1686017641.264,-26.367,-333.984,-62.012,1.465,119405.684,314
1266,1686017641.268,-26.855,-555.176,-91.797,7.812,119405.688,314
1267,1686017641.271,-31.25,-187.988,6.348,-2.441,119405.692,314
1268,1686017641.275,-29.297,110.352,95.703,-8.789,119405.696,314
1269,1686017641.279,-26.367,-409.668,-158.203,3.418,119405.7,314
1270,1686017641.283,-20.02,-772.461,-205.078,10.742,119405.704,314
1271,1686017641.287,-35.156,-117.676,93.262,-22.461,119405.708,314
1272,1686017641.289,-36.621,76.172,47.852,-27.832,119405.71,314
1273,1686017641.293,-22.461,-413.574,-131.348,3.418,119405.713,314
1274,1686017641.297,-22.949,-224.121,21.484,1.953,119405.717,313
1275,1686017641.301,-31.25,268.555,149.414,-19.531,119405.721,313
1276,1686017641.305,-39.062,10.742,-4.883,-28.32,119405.725,313
1277,1686017641.309,-33.203,-438.477,-123.535,-16.602,119405.729,313
1278,1686017641.313,-20.996,-272.461,35.156,-0.977,119405.733,313
1279,1686017641.316,-21.484,210.449,168.457,-12.695,119405.737,312
1280,1686017641.32,-39.062,-83.008,-62.988,-25.391,119405.741,312
1281,1686017641.324,-43.945,-895.996,-383.301,0.0,119405.745,312
1282,1686017641.328,-31.738,-332.031,30.273,10.742,119405.749,312
1283,1686017641.332,-36.133,423.34,247.559,-11.23,119405.753,312
1284,1686017641.334,-43.945,-6.836,-17.09,-32.227,119405.755,312
1285,1686017641.338,-42.48,-157.227,-1.465,-25.391,119405.759,313
1286,1686017641.342,-34.668,251.953,161.621,-15.625,119405.763,313
1287,1686017641.346,-30.273,335.938,151.855,-23.926,119405.766,313
1288,1686017641.35,-32.227,-39.551,-51.27,-35.645,119405.77,313
1289,1686017641.354,-30.273,-448.73,-208.984,-32.227,119405.774,313
1290,1686017641.358,-26.367,-220.703,2.93,-12.695,119405.778,313
1291,1686017641.361,-25.391,269.531,175.293,-4.883,119405.782,313
1292,1686017641.365,-27.832,-380.859,-197.266,-16.113,119405.786,313
1293,1686017641.369,-35.156,-654.785,-226.074,-26.855,119405.79,313
1294,1686017641.373,-26.855,-137.207,74.219,-10.254,119405.794,313
1295,1686017641.377,-22.461,-115.234,73.242,4.883,119405.798,313
