,timestamps,TP9,AF7,AF8,TP10,Secondary Timestamp,emg_signal
0,1686623840.97,-31.25,-45.41,130.859,-74.707,3218.894,370.2777926482057
1,1686623840.97,21.484,216.797,131.348,10.742,3218.898,367.2824067787638
2,1686623840.98,46.387,68.359,41.016,60.059,3218.901,364.628710486031
3,1686623840.98,4.395,-140.137,41.992,-8.301,3218.905,363.28055568353966
4,1686623840.98,-17.09,-312.5,-7.324,-70.312,3218.909,366.4850718332872
5,1686623840.99,25.391,-321.777,85.449,-13.184,3218.913,364.64976636339327
6,1686623840.99,45.898,-562.988,-0.977,60.547,3218.917,364.6007386155041
7,1686623840.99,4.883,-768.066,-23.438,16.113,3218.921,365.6890399875569
8,1686623841.0,-33.203,-194.336,173.34,-67.871,3218.925,365.5477535603065
9,1686623841.0,-7.324,-18.555,109.863,-33.203,3218.929,369.8019780332605
10,1686623841.01,30.762,-576.66,-26.855,58.594,3218.933,369.45841021545345
11,1686623841.01,4.883,-692.871,6.348,31.738,3218.937,369.96586306305517
12,1686623841.01,-38.574,2.441,173.828,-72.754,3218.909,365.05112013661795
13,1686623841.02,-26.855,-56.641,59.57,-62.012,3218.913,370.63074793643807
14,1686623841.02,14.648,-279.297,81.055,25.879,3218.917,371.76884237294934
15,1686623841.02,17.09,28.809,154.785,36.621,3218.921,367.11225954531926
16,1686623841.03,-29.785,91.309,5.371,-45.41,3218.925,371.95893764240066
17,1686623841.03,-54.199,-351.562,-89.844,-87.891,3218.928,372.34406947549815
18,1686623841.04,-10.742,-693.848,27.832,-7.812,3218.932,365.64958771674674
19,1686623841.04,14.16,-225.098,165.527,41.504,3218.936,373.6627144357401
20,1686623841.04,-0.977,56.641,40.527,1.953,3218.939,362.5983627457403
21,1686623841.04,-25.879,282.227,128.906,-27.344,3218.94,368.6272839342221
22,1686623841.05,-46.875,-561.523,-134.277,-83.984,3218.943,372.67965769720735
23,1686623841.05,-67.871,-172.852,-73.242,-88.379,3218.944,371.9572222124954
24,1686623841.05,-41.992,-531.25,-29.785,-70.801,3218.946,365.1738516601501
25,1686623841.05,-28.809,-522.949,-22.949,-45.898,3218.948,372.7121735066552
26,1686623841.05,0.0,143.066,189.941,13.184,3218.95,370.50106933643497
27,1686623841.06,22.461,8.789,191.406,28.809,3218.952,372.8804210286937
28,1686623841.06,-0.977,36.133,22.461,17.09,3218.954,368.7501678726379
29,1686623841.06,-44.434,-645.02,-98.633,-61.035,3218.958,368.2758068452043
30,1686623841.06,-45.898,-783.691,90.82,-68.848,3218.962,373.6122393417287
31,1686623841.07,3.906,-104.492,206.055,21.484,3218.966,361.5329507973871
32,1686623841.07,8.789,286.133,113.281,44.434,3218.97,369.61068343647173
33,1686623841.08,-51.27,-354.004,-112.793,-50.293,3218.974,370.93239900522764
34,1686623841.08,-78.613,-1000.0,-125.488,-92.285,3218.978,368.092047796746
35,1686623841.08,-21.484,-613.281,191.406,-11.719,3218.982,375.259434256102
36,1686623841.09,1.465,248.535,160.645,30.273,3218.985,369.8832124270332
37,1686623841.09,-50.781,-350.586,-83.008,-39.062,3218.989,363.7132516114552
38,1686623841.1,-78.125,-799.805,32.715,-105.469,3218.993,370.59986282612476
39,1686623841.1,-33.691,-184.082,183.105,-61.523,3218.997,368.895605316793
40,1686623841.1,6.836,204.59,88.867,16.602,3219.001,369.06815072473387
41,1686623841.11,-25.879,-341.797,-49.316,-12.695,3219.004,371.5657141616874
42,1686623841.11,-68.359,-561.523,80.566,-94.727,3219.008,371.3321650621431
43,1686623841.11,-56.152,48.828,172.852,-80.078,3219.012,365.88397556154297
44,1686623841.12,-7.324,199.219,55.176,9.766,3219.016,369.5719583561743
45,1686623841.12,-11.719,-451.66,-37.109,10.742,3219.02,369.46579389028017
46,1686623841.13,-59.57,-359.863,136.23,-87.891,3219.024,362.3366955543283
47,1686623841.13,-70.801,158.691,126.465,-102.051,3219.028,362.72537611404715
48,1686623841.13,-28.32,-41.504,66.895,-16.602,3219.03,365.5070224904823
49,1686623841.14,-12.207,9.277,109.863,13.184,3219.034,368.86234822852776
50,1686623841.14,-47.363,186.523,83.496,-47.852,3219.038,366.0860354565
51,1686623841.14,-61.523,108.398,42.48,-92.285,3219.042,373.6456272095821
52,1686623841.15,-32.715,-413.574,-35.156,-23.926,3219.045,364.20278108876295
53,1686623841.15,3.418,-651.367,28.809,48.34,3219.049,370.5511672506264
54,1686623841.16,-20.508,-301.758,95.703,-12.695,3219.053,364.73238954283516
55,1686623841.16,-60.547,-347.656,58.594,-92.285,3219.057,372.2736424726098
56,1686623841.16,-31.738,-666.504,-25.879,-41.016,3219.061,367.2418007759467
57,1686623841.17,10.254,-925.781,28.32,46.875,3219.065,359.7146332301857
58,1686623841.17,-9.766,-270.996,249.512,12.207,3219.069,373.1245969972471
59,1686623841.18,-59.082,9.277,61.523,-82.52,3219.073,365.1853523887262
60,1686623841.18,-56.152,-199.707,15.625,-74.707,3219.076,374.6351012718403
61,1686623841.18,-6.836,95.215,145.508,16.113,3219.08,367.6094974943961
62,1686623841.19,0.0,336.914,96.68,21.973,3219.084,375.7710138882442
63,1686623841.19,-53.711,49.316,-11.719,-72.266,3219.088,361.9264352921331
64,1686623841.2,-67.871,-236.328,10.742,-101.074,3219.092,364.9884049068241
65,1686623841.2,-22.461,-232.91,120.605,-25.391,3219.096,371.20039908948706
66,1686623841.2,-9.766,-18.066,153.32,9.277,3219.1,358.2367431074696
67,1686623841.21,-53.711,12.695,8.301,-57.129,3219.104,368.08769860115274
68,1686623841.21,-69.336,-805.176,-156.738,-101.074,3219.108,374.81767815562785
69,1686623841.21,-16.602,-645.02,139.16,-36.133,3219.112,370.53263971893324
70,1686623841.22,21.484,354.492,216.309,34.668,3219.115,366.04387493909127
71,1686623841.22,-9.766,78.125,-77.148,-14.648,3219.119,372.28314721208005
72,1686623841.24,-53.223,-318.848,-60.059,-85.938,3219.134,368.72700749952435
73,1686623841.24,-23.438,24.902,165.039,-35.156,3219.138,367.0422811155897
74,1686623841.25,22.461,340.332,136.23,51.27,3219.142,360.76025729714326
75,1686623841.25,0.0,58.105,-6.836,22.949,3219.145,372.70942000492073
76,1686623841.25,-41.992,-457.031,-30.273,-60.547,3219.149,370.488899779303
77,1686623841.26,-30.273,-530.273,81.543,-50.781,3219.153,373.597123484723
78,1686623841.26,14.16,-218.75,169.434,31.738,3219.157,372.98996487182046
79,1686623841.26,17.578,-391.113,-12.207,47.363,3219.161,368.27478736076836
80,1686623841.27,-19.043,-202.148,108.887,-31.25,3219.166,372.6894861205022
81,1686623841.27,-39.062,-1000.0,-125.488,-38.574,3219.165,369.9462200844279
82,1686623841.27,-55.176,-473.145,153.809,-88.867,3219.169,375.9475057920772
83,1686623841.27,-53.711,125.488,98.633,-96.68,3219.17,370.0844165768721
84,1686623841.28,7.812,86.426,137.695,-6.836,3219.173,369.27823856171085
85,1686623841.28,-18.066,9.766,69.824,-30.762,3219.174,375.435132809602
86,1686623841.28,35.156,-266.113,72.266,56.152,3219.177,371.8903737638339
87,1686623841.28,24.902,-45.41,120.605,38.574,3219.178,375.6944824484391
88,1686623841.28,-2.441,123.047,98.633,-1.465,3219.181,372.17651214518895
89,1686623841.29,-48.828,-156.738,-67.383,-87.402,3219.185,361.8884836712729
90,1686623841.29,-23.438,-400.391,26.855,-59.082,3219.189,370.8703725348319
91,1686623841.3,20.996,-427.734,157.715,38.574,3219.193,371.50555925911846
92,1686623841.3,15.137,-123.047,138.184,32.227,3219.197,374.6941228350177
93,1686623841.3,-28.32,170.41,113.281,-52.734,3219.201,361.7431743238501
94,1686623841.31,-30.273,-184.082,-38.574,-61.035,3219.205,376.0372961581067
95,1686623841.31,24.902,-660.156,13.672,31.738,3219.209,366.898318054576
96,1686623841.31,35.645,-169.922,214.844,56.641,3219.212,364.39336375948267
97,1686623841.32,-9.277,2.441,12.695,-27.344,3219.216,356.62109006007273
98,1686623841.32,-22.949,-634.766,-82.031,-73.73,3219.22,353.25841926217277
99,1686623841.32,11.23,-543.457,0.488,-1.465,3219.224,362.51653363023837
100,1686623841.33,30.273,-59.57,122.07,53.711,3219.228,367.7193426423562
101,1686623841.33,-17.09,-240.723,39.551,-13.672,3219.232,366.07600661589754
102,1686623841.34,-55.176,-703.125,-125.488,-84.961,3219.236,372.35387732928604
103,1686623841.34,-20.996,-982.422,-6.348,-40.039,3219.239,366.7778944844141
104,1686623841.34,29.297,-208.984,257.812,34.668,3219.243,369.437166392321
105,1686623841.35,8.789,261.719,84.961,1.953,3219.247,367.5892880437271
106,1686623841.35,-45.898,-210.449,-29.785,-87.891,3219.251,371.9081822393069
107,1686623841.36,-32.227,-138.184,114.746,-67.871,3219.255,376.2744783381037
108,1686623841.36,19.043,310.547,147.461,26.367,3219.267,366.6397079530833
109,1686623841.36,21.484,247.07,32.227,24.902,3219.271,367.5774524694498
110,1686623841.37,-18.066,-149.902,-5.371,-59.57,3219.275,366.6654215298853
111,1686623841.37,-19.531,-282.715,80.566,-77.637,3219.279,368.34634296091946
112,1686623841.38,27.344,-200.195,105.469,1.953,3219.283,366.1146676052752
113,1686623841.38,31.738,-102.539,106.445,37.598,3219.287,367.8343111517478
114,1686623841.38,-27.832,-684.082,-77.148,-40.039,3219.291,369.22882634588643
115,1686623841.39,-54.688,-801.758,0.0,-93.262,3219.295,373.8556745472587
116,1686623841.39,-7.324,62.012,222.656,-33.203,3219.298,361.50784562633714
117,1686623841.39,17.09,158.691,24.414,28.32,3219.302,360.43215377492805
118,1686623841.4,-25.391,-97.656,-68.359,-38.574,3219.306,368.729830718532
119,1686623841.4,-51.758,29.297,117.188,-105.469,3219.31,368.1138800865539
120,1686623841.4,-19.043,-15.625,85.938,-54.688,3219.314,360.23689840304394
121,1686623841.41,7.324,-295.898,-8.301,9.766,3219.318,367.6107479072384
122,1686623841.41,-22.461,-195.312,56.641,-25.879,3219.322,372.38641239189695
123,1686623841.42,-64.453,-7.324,62.5,-98.145,3219.326,372.8725334010926
124,1686623841.42,-39.551,-208.496,26.367,-77.637,3219.329,368.0078606045238
125,1686623841.42,6.836,-571.777,-19.043,-5.371,3219.333,367.4779286918375
126,1686623841.43,7.812,-955.566,-53.223,1.465,3219.337,368.68717474729453
127,1686623841.43,-32.227,-545.41,172.852,-76.172,3219.341,372.1704071145633
128,1686623841.43,-46.875,55.176,156.738,-94.238,3219.345,371.87900291905544
129,1686623841.44,-8.301,-414.551,-20.996,-6.348,3219.349,369.97787531645474
130,1686623841.44,11.23,-521.973,81.543,41.992,3219.353,370.78444902591093
131,1686623841.45,-25.879,173.34,147.461,-37.598,3219.357,370.10571925327775
132,1686623841.46,-41.992,46.387,27.832,-85.938,3219.36,364.39940083074544
133,1686623841.47,9.277,-124.023,92.773,-4.395,3219.364,357.25791517956293
134,1686623841.47,36.133,142.09,158.691,57.617,3219.368,369.5978220023738
135,1686623841.48,2.93,239.258,46.875,9.766,3219.372,366.3627780455159
136,1686623841.48,-33.203,-49.316,-61.035,-65.43,3219.376,369.041347135963
137,1686623841.48,-19.043,-466.797,5.859,-29.785,3219.38,371.1847292900982
138,1686623841.49,17.09,-219.238,156.738,53.711,3219.384,371.8499017256689
139,1686623841.49,-1.465,270.508,142.09,18.555,3219.388,367.598641876901
140,1686623841.49,-54.688,-59.082,-57.617,-80.078,3219.392,369.94736285724093
141,1686623841.5,-55.664,-809.57,-113.281,-72.266,3219.395,370.4113029133609
142,1686623841.5,-2.441,-384.766,164.551,22.949,3219.399,370.33762419258767
143,1686623841.51,11.23,366.211,166.504,36.621,3219.403,374.6245632620048
144,1686623841.51,-40.527,-111.816,-86.914,-58.594,3219.404,367.74543741345076
145,1686623841.51,-54.199,-440.918,-44.434,-105.469,3219.408,368.23965372621745
146,1686623841.52,8.789,44.434,177.246,-26.367,3219.412,361.099428039362
147,1686623841.52,33.691,323.73,106.934,26.855,3219.416,368.26995577962265
148,1686623841.52,-31.25,-182.617,-32.715,-45.41,3219.42,366.1275961602048
149,1686623841.53,-73.242,-706.543,24.414,-115.723,3219.424,372.46922126454643
150,1686623841.53,-39.062,-510.254,133.301,-56.152,3219.428,372.4060171654986
151,1686623841.54,2.93,-2.93,159.18,18.555,3219.432,365.3364337320329
152,1686623841.54,-12.207,-336.426,-78.613,-21.973,3219.435,363.56897294887415
153,1686623841.54,-61.035,-961.426,-7.324,-95.215,3219.439,372.4334450262161
154,1686623841.55,-49.805,-274.902,276.855,-68.848,3219.443,362.9239351485043
155,1686623841.55,1.953,109.375,109.375,15.625,3219.447,372.11307941727597
156,1686623841.57,-4.883,-348.145,43.945,10.254,3219.464,367.99705614614476
157,1686623841.57,-54.199,-364.258,122.07,-72.266,3219.468,365.76349482926537
158,1686623841.58,-49.805,18.066,154.297,-88.379,3219.472,356.32564225316946
159,1686623841.58,-9.766,32.227,78.613,-8.789,3219.475,363.10640651727016
160,1686623841.58,-5.371,-97.168,23.926,19.043,3219.479,369.8552250431488
161,1686623841.59,-40.527,-346.68,-27.344,-54.199,3219.483,365.33609101163125
162,1686623841.59,-56.152,-337.402,75.684,-94.238,3219.487,373.0019680394947
163,1686623841.59,-10.254,-47.363,109.375,-24.902,3219.491,360.78958394284143
164,1686623841.6,10.254,-504.883,-4.395,36.133,3219.495,366.85830412131594
165,1686623841.6,1.953,-116.211,140.137,20.508,3219.497,372.38364751361644
166,1686623841.6,-31.25,-330.078,135.254,-28.809,3219.499,375.33538261924355
167,1686623841.6,-24.902,156.25,37.109,-17.09,3219.501,361.34249910283086
168,1686623841.61,-58.105,-33.203,44.922,-97.168,3219.503,366.91949873814104
169,1686623841.61,-77.637,-184.57,-82.031,-92.773,3219.505,365.38903823114185
170,1686623841.61,-30.273,-395.996,6.348,-44.434,3219.507,373.50220318587907
171,1686623841.61,-54.199,-605.469,-44.922,-65.43,3219.509,370.5452094690097
172,1686623841.61,1.953,-634.277,2.93,20.02,3219.512,365.5234780425078
173,1686623841.62,-10.742,-307.129,90.82,6.348,3219.516,364.92843606338903
174,1686623841.62,-61.035,-316.406,67.383,-87.402,3219.52,369.7543335480099
175,1686623841.62,-62.988,-713.867,-64.453,-95.703,3219.524,363.844728613655
176,1686623841.63,-8.301,-797.363,50.293,2.441,3219.528,360.21671523089276
177,1686623841.63,9.277,3.418,250.977,20.996,3219.532,370.26813715637877
178,1686623841.64,-36.133,274.414,52.734,-66.895,3219.536,362.495779110882
179,1686623841.64,-64.453,-572.266,-133.301,-89.355,3219.54,369.23306171943017
180,1686623841.64,-34.668,-646.484,55.664,-16.602,3219.541,366.26751506999284
181,1686623841.65,-4.883,286.133,195.801,29.785,3219.545,368.936034223862
182,1686623841.65,-24.902,187.988,-26.855,-13.672,3219.549,366.1205000799542
183,1686623841.66,-40.039,-231.445,-10.254,-59.082,3219.553,375.846624984897
184,1686623841.66,-29.785,-208.008,129.883,-26.367,3219.557,366.7270121955671
185,1686623841.66,-10.742,-110.352,118.164,26.855,3219.56,359.14456303303916
186,1686623841.67,-29.297,-155.762,66.895,-5.371,3219.564,364.53447521809943
187,1686623841.67,-64.941,-761.23,-90.332,-68.359,3219.568,376.3254180324653
188,1686623841.68,-54.199,-745.117,77.637,-54.199,3219.572,372.5159121758723
189,1686623841.68,-12.695,177.246,238.77,21.484,3219.576,369.88853114609833
190,1686623841.68,-19.043,137.695,-4.395,36.621,3219.58,363.6113857157018
191,1686623841.69,-82.031,-33.203,130.371,-88.379,3219.584,364.8711434361163
192,1686623841.69,-80.078,-227.051,-66.895,-57.617,3219.584,367.7628263076818
193,1686623841.69,-36.133,198.73,130.859,-14.16,3219.588,360.9459388985377
194,1686623841.7,-23.438,31.738,15.625,18.066,3219.592,368.0115505255369
195,1686623841.7,-64.453,-139.16,28.32,-48.828,3219.596,367.12799743669575
196,1686623841.7,-98.633,-277.832,14.648,-94.727,3219.599,364.7426833817276
197,1686623841.71,-61.523,-352.539,90.82,-27.832,3219.603,365.59892893236264
198,1686623841.71,-19.531,-483.887,33.203,40.527,3219.607,362.0788335476073
199,1686623841.71,-41.504,-1000.0,-159.18,-1.953,3219.611,360.02593910160664
200,1686623841.72,-73.73,-725.098,86.426,-74.707,3219.615,369.866113229134
201,1686623841.72,-43.457,-25.391,186.523,-31.25,3219.619,360.9868662403788
202,1686623841.73,9.766,3.906,65.918,68.359,3219.623,371.1973661656496
203,1686623841.73,-0.977,37.109,100.586,48.34,3219.627,369.89535318465664
204,1686623841.73,-41.504,109.375,120.117,-36.621,3219.643,360.370943647263
205,1686623841.74,-24.902,-7.812,56.152,-27.832,3219.646,367.46517969894325
206,1686623841.74,40.527,-95.703,98.145,77.637,3219.65,363.0389936442183
207,1686623841.75,47.363,91.309,122.559,92.285,3219.654,364.92371659582267
208,1686623841.75,-1.953,35.156,-40.527,1.465,3219.658,362.18930908863865
209,1686623841.75,-7.324,-378.418,-75.684,-21.484,3219.662,362.4374813299707
210,1686623841.76,33.203,-750.488,42.48,61.523,3219.666,367.84642817464453
211,1686623841.76,53.223,-307.617,175.293,100.586,3219.67,366.79967259588364
212,1686623841.76,-0.488,221.68,109.863,13.184,3219.674,361.18985482808995
213,1686623841.77,-40.527,-259.766,-114.746,-52.734,3219.678,356.4514747130726
214,1686623841.77,4.883,-466.309,-16.113,18.066,3219.682,356.6855904260926
215,1686623841.78,35.645,104.492,153.809,85.938,3219.685,364.8274311636677
216,1686623841.79,2.93,309.082,95.215,30.762,3219.689,366.6787275870684
217,1686623841.8,-32.227,-258.301,-83.496,-41.504,3219.693,359.5711008391914
218,1686623841.8,-5.371,-476.074,-48.828,-10.254,3219.697,365.23039253641275
219,1686623841.8,38.086,147.461,154.785,74.219,3219.7,366.3336907839708
220,1686623841.81,26.367,75.195,13.672,62.012,3219.704,367.0236960128143
221,1686623841.81,-21.973,-609.375,-170.41,-31.25,3219.708,362.90134004806634
222,1686623841.82,-16.113,-997.07,-7.812,-29.297,3219.712,364.35418121213104
223,1686623841.82,42.48,-339.355,278.809,56.152,3219.716,362.6904778592246
224,1686623841.82,42.969,325.195,96.191,63.965,3219.72,367.81867564064737
225,1686623841.82,39.062,55.664,39.551,62.5,3219.733,356.6329845582005
226,1686623841.83,-5.859,-330.078,-67.871,-22.461,3219.724,365.57699826527136
227,1686623841.83,-0.977,-480.469,0.0,-3.906,3219.737,366.4245262825561
228,1686623841.83,-16.113,-543.945,113.77,-58.105,3219.728,359.79094781739593
229,1686623841.83,-37.598,-468.262,94.727,-67.383,3219.741,363.12641402393
230,1686623841.84,23.926,100.586,163.086,18.066,3219.732,365.587443763324
231,1686623841.84,-3.906,46.387,172.852,-24.902,3219.744,362.65425639576995
232,1686623841.84,30.762,138.184,70.801,49.316,3219.748,367.1294845066565
233,1686623841.84,-0.488,-430.176,-24.414,4.395,3219.752,369.3770674693565
234,1686623841.85,-45.898,-571.777,113.281,-90.82,3219.756,358.30253315015204
235,1686623841.85,-33.203,-53.711,187.012,-59.082,3219.76,360.76207759067273
236,1686623841.86,5.859,30.762,60.547,45.898,3219.764,367.768476444423
237,1686623841.86,-11.719,-564.941,-41.992,38.574,3219.768,356.01746951316426
238,1686623841.86,-55.176,-458.984,120.605,-52.734,3219.772,366.0013972980601
239,1686623841.87,-54.199,33.691,150.879,-68.848,3219.776,360.91706486248034
240,1686623841.88,-1.953,-126.465,35.645,18.555,3219.779,359.28724535497287
241,1686623841.89,14.16,-132.324,54.688,57.617,3219.783,361.0680114984156
242,1686623841.89,-26.855,-30.273,57.617,-25.879,3219.787,363.58031770163115
243,1686623841.89,-37.109,-330.566,-28.32,-67.383,3219.791,364.1381581775351
244,1686623841.9,10.254,-674.316,-65.43,23.926,3219.795,362.21145033148593
245,1686623841.9,35.156,-940.43,-73.242,90.332,3219.799,369.5727121844283
246,1686623841.9,-4.883,-599.121,179.688,18.066,3219.803,355.30374501412456
247,1686623841.91,-41.992,-104.492,166.992,-73.242,3219.807,365.6256336543057
248,1686623841.91,-13.184,-532.715,-25.879,-17.09,3219.811,359.9010585076857
249,1686623841.92,32.715,-569.336,61.035,63.477,3219.815,362.4875636851629
250,1686623841.92,21.484,200.684,153.32,12.207,3219.818,367.038427207844
251,1686623841.92,-28.32,17.578,-0.977,-82.52,3219.822,368.8908434246355
252,1686623841.94,-25.391,-319.824,30.762,-57.617,3219.84,363.6225659390443
253,1686623841.95,14.648,-1.465,142.578,38.574,3219.844,358.7512224539205
254,1686623841.95,12.695,279.785,103.516,29.297,3219.848,366.0491161011475
255,1686623841.96,-29.785,-40.039,-17.09,-59.57,3219.852,361.73236635903976
256,1686623841.96,-30.273,-395.996,-19.043,-75.195,3219.856,355.9168560868924
257,1686623841.96,16.113,-341.797,121.582,9.766,3219.86,357.88690198999234
258,1686623841.97,23.438,-261.719,105.957,41.016,3219.864,373.06453723151634
259,1686623841.97,-27.832,-368.164,10.742,-41.504,3219.868,365.15639228644136
260,1686623841.97,-40.039,-422.363,-62.988,-103.027,3219.869,363.939213499361
261,1686623841.97,-63.477,-866.211,-96.68,-88.379,3219.872,351.64645975203445
262,1686623841.98,-11.23,-24.902,161.621,-53.711,3219.873,365.3841999815309
263,1686623841.98,-10.254,-698.73,109.375,-20.02,3219.876,364.4888002374437
264,1686623841.98,21.484,248.535,127.93,33.203,3219.877,368.50106562322196
265,1686623841.98,30.762,185.547,212.402,36.621,3219.879,364.9501940316706
266,1686623841.98,3.906,-91.309,-19.043,7.812,3219.88,361.70516571019675
267,1686623841.99,-10.254,-41.992,-59.57,-24.414,3219.883,358.59692408126
268,1686623841.99,-40.039,-558.594,-56.641,-78.613,3219.884,360.54188932625357
269,1686623841.99,-27.344,-574.219,79.59,-65.43,3219.888,363.88973688531695
270,1686623842.0,18.555,-303.711,161.621,28.809,3219.892,361.6772443714523
271,1686623842.0,8.789,-554.199,-32.227,31.738,3219.896,357.92524749144974
272,1686623842.0,-36.133,-854.492,-12.695,-41.016,3219.9,363.9397881927069
273,1686623842.01,-45.41,-259.277,187.012,-69.824,3219.904,353.4195398613915
274,1686623842.01,12.695,61.523,132.324,10.254,3219.908,364.4099830781204
275,1686623842.02,30.762,-467.285,-57.617,59.57,3219.912,355.8996062819866
276,1686623842.02,-28.809,-973.145,-40.527,-29.297,3219.916,355.42809170533843
277,1686623842.02,-47.852,-379.395,210.449,-95.703,3219.92,354.6939811719725
278,1686623842.03,7.324,-15.137,93.75,-22.461,3219.924,357.6026872633148
279,1686623842.03,34.668,-68.359,82.031,42.969,3219.928,360.3722492179552
280,1686623842.04,-7.324,5.371,76.66,-16.113,3219.932,356.616756631827
281,1686623842.04,-46.875,-304.688,-61.523,-91.309,3219.935,366.3913438965606
282,1686623842.04,-22.949,-476.562,50.293,-52.734,3219.939,359.01218085679403
283,1686623842.05,19.043,-627.441,106.445,22.461,3219.943,353.56450977627924
284,1686623842.05,3.906,-293.457,143.555,-1.953,3219.947,359.4641068927652
285,1686623842.05,-41.016,141.602,92.285,-91.797,3219.951,362.0275088542631
286,1686623842.06,-46.875,-295.898,-42.969,-100.098,3219.955,353.8697984207952
287,1686623842.06,3.418,-353.516,21.484,-4.883,3219.959,360.0818843037949
288,1686623842.06,10.742,128.418,121.094,13.672,3219.959,354.3168259190239
289,1686623842.07,-36.133,169.434,49.316,-64.941,3219.963,357.985927593706
290,1686623842.07,-47.852,-400.879,-73.73,-96.191,3219.966,357.48360327346717
291,1686623842.08,0.488,-520.996,-18.066,-15.625,3219.97,358.3645970817798
292,1686623842.08,33.203,-150.391,126.465,52.246,3219.974,358.30282461227773
293,1686623842.08,-10.254,-325.195,64.941,-19.043,3219.978,364.38526462271585
294,1686623842.09,-40.527,-714.355,-87.891,-88.867,3219.982,354.77969895273793
295,1686623842.09,-7.324,-1000.0,-40.527,-32.227,3219.986,358.9246982186915
296,1686623842.09,27.344,-278.32,231.445,41.992,3219.99,355.1106776449939
297,1686623842.1,5.859,183.594,79.102,4.883,3219.994,348.628754796801
298,1686623842.1,-41.992,-278.809,-51.27,-83.008,3219.998,343.2713046238487
299,1686623842.11,-27.344,-234.863,112.305,-55.176,3220.002,361.2369855672412
300,1686623842.12,17.578,160.645,150.391,32.715,3220.024,353.52859279075403
301,1686623842.13,5.371,-26.367,-2.441,30.273,3220.028,357.7784467437868
302,1686623842.13,-45.898,-604.492,-45.41,-52.734,3220.032,363.1480776883348
303,1686623842.14,-40.527,-471.191,136.23,-65.918,3220.036,352.95815845024975
304,1686623842.14,10.254,56.152,134.277,12.207,3220.04,353.2023367928304
305,1686623842.14,8.301,-140.625,-47.363,26.367,3220.044,354.67132515393746
306,1686623842.15,-41.504,-743.164,-56.641,-65.43,3220.048,354.51927956381303
307,1686623842.15,-59.082,-554.199,135.742,-100.098,3220.052,353.76280658259327
308,1686623842.15,-21.973,49.805,134.766,-41.016,3220.063,359.7703715414355
309,1686623842.16,-9.277,83.496,183.594,-2.441,3220.056,361.39796295341426
310,1686623842.16,19.531,-94.727,39.551,47.363,3220.067,354.9192094260412
311,1686623842.16,18.066,29.785,6.348,45.898,3220.06,356.3443882109232
312,1686623842.16,-9.277,-258.301,-7.324,5.859,3220.071,354.7863157190145
313,1686623842.16,-56.152,-257.812,0.977,-91.309,3220.075,353.7061390622066
314,1686623842.16,-26.855,-265.137,-45.41,-29.785,3220.064,352.4943645952995
315,1686623842.17,-32.715,-421.387,19.531,-62.988,3220.079,344.9231137519424
316,1686623842.17,-59.082,-164.551,118.164,-97.656,3220.067,352.2635509517783
317,1686623842.17,15.137,-622.559,62.5,37.598,3220.083,348.3833313176528
318,1686623842.18,-0.488,-697.266,73.73,33.203,3220.087,361.9879898153764
319,1686623842.18,-48.828,-420.898,115.234,-68.848,3220.091,348.4155846386979
320,1686623842.18,-48.34,-138.184,133.301,-95.703,3220.095,342.6067643782604
321,1686623842.19,-1.465,-445.312,-15.137,-1.465,3220.098,355.089918268832
322,1686623842.19,5.371,-1000.0,-142.578,47.363,3220.102,350.8451449736
323,1686623842.2,-35.645,-653.32,106.445,-34.18,3220.106,350.43593821740365
324,1686623842.22,-56.152,-153.809,124.512,-84.473,3220.116,353.6123282421948
325,1686623842.22,-11.719,-223.145,100.098,-6.836,3220.12,350.6591437268702
326,1686623842.22,23.926,60.547,168.945,49.316,3220.124,345.5554825724503
327,1686623842.23,-21.973,207.031,71.777,-13.184,3220.128,359.6033735424531
328,1686623842.23,-67.871,-195.312,-50.293,-82.52,3220.132,355.26192941646525
329,1686623842.24,-38.086,-625.488,28.32,-28.32,3220.136,354.4092716044794
330,1686623842.24,9.766,-486.816,126.953,52.246,3220.14,359.72239326193863
331,1686623842.24,-1.953,-140.625,130.859,14.16,3220.144,350.8267954355119
332,1686623842.25,-46.387,-186.035,0.977,-77.148,3220.148,354.3935431117684
333,1686623842.25,-44.434,-796.875,-111.816,-67.871,3220.152,347.62862311706044
334,1686623842.26,10.742,-493.652,144.043,21.973,3220.156,351.57411012070276
335,1686623842.26,-40.039,-183.594,-61.035,-59.57,3220.154,355.77706036456317
336,1686623842.26,16.602,210.449,167.969,29.785,3220.159,351.64388230943007
337,1686623842.26,-52.246,-468.262,-25.391,-84.473,3220.158,356.5556397636586
338,1686623842.27,0.0,2.441,162.109,1.465,3220.162,346.90923103773656
339,1686623842.27,13.672,218.75,92.285,42.48,3220.166,355.2533716009473
340,1686623842.27,-34.668,-398.926,-149.902,-33.203,3220.17,365.24163144625993
341,1686623842.28,-60.547,-921.875,-97.656,-85.449,3220.174,359.4696519314057
342,1686623842.28,-17.09,-534.18,171.387,-16.113,3220.178,355.95953765106316
343,1686623842.28,20.508,77.148,176.27,49.805,3220.181,358.1698236533914
344,1686623842.29,-19.531,-349.121,-126.953,-2.93,3220.185,346.69875394374003
345,1686623842.29,-59.082,-990.723,-32.227,-81.055,3220.189,353.5622553265634
346,1686623842.3,-31.738,-270.996,285.645,-47.363,3220.193,360.05600190038945
347,1686623842.3,7.812,179.688,90.82,42.48,3220.197,363.9112805512003
348,1686623842.3,-8.301,-180.664,-26.855,22.949,3220.201,352.3243233571712
349,1686623842.31,-51.758,-352.539,43.457,-66.406,3220.205,354.0489965389389
350,1686623842.31,-40.527,-98.145,135.254,-64.941,3220.209,354.5856296902109
351,1686623842.32,8.789,18.555,79.102,25.879,3220.213,361.42835944971773
352,1686623842.32,10.742,-160.156,0.977,33.691,3220.217,350.72090814181826
353,1686623842.32,-41.016,-507.324,-58.105,-60.547,3220.22,359.1325665851451
354,1686623842.33,-54.688,-485.352,76.66,-93.262,3220.224,353.3421821067651
355,1686623842.33,-4.883,-165.039,121.582,-5.859,3220.228,359.3391791473623
356,1686623842.34,14.16,-565.918,-10.254,50.781,3220.232,353.36959153221784
357,1686623842.34,-35.156,-473.145,115.234,-42.969,3220.236,354.72551469578
358,1686623842.34,-56.152,-41.016,120.117,-114.258,3220.24,358.6965779648264
359,1686623842.35,-0.977,-341.797,20.508,-34.18,3220.244,362.6274080435547
360,1686623842.35,40.527,-378.906,16.602,48.34,3220.244,355.74348409227093
361,1686623842.35,1.953,4.395,122.559,-0.488,3220.248,366.26357253990267
362,1686623842.36,-41.992,-11.719,69.824,-90.332,3220.251,369.50864277680836
363,1686623842.36,-15.137,-419.922,-25.391,-49.316,3220.255,351.46658062184815
364,1686623842.36,31.25,-571.289,48.828,32.715,3220.259,363.4735426653567
365,1686623842.37,12.695,-356.934,65.43,13.184,3220.263,354.0918683795385
366,1686623842.37,-37.598,-515.137,-27.344,-59.082,3220.267,363.03210230258895
367,1686623842.37,-37.598,-804.688,-92.773,-72.754,3220.271,363.25006487901146
368,1686623842.38,5.371,-967.285,-6.836,20.02,3220.275,352.7329482255887
369,1686623842.38,20.02,-269.043,215.332,49.316,3220.279,365.51267801321194
370,1686623842.39,-19.531,74.219,46.387,-39.551,3220.283,367.1115023823979
371,1686623842.39,-33.203,-348.145,-34.18,-75.684,3220.287,354.2398518923656
372,1686623842.41,20.02,-141.113,131.836,6.348,3220.311,348.7329810109459
373,1686623842.41,43.945,202.637,117.676,59.082,3220.315,353.2460407215651
374,1686623842.42,-2.441,-167.969,-47.363,-5.371,3220.319,350.20164630150225
375,1686623842.42,-37.109,-687.012,-30.762,-75.684,3220.322,351.77906427602124
376,1686623842.43,-4.395,-439.941,110.352,-19.043,3220.326,350.2608316074489
377,1686623842.43,30.762,-179.199,116.699,64.941,3220.33,344.78937741019564
378,1686623842.43,-1.465,-381.348,25.879,22.461,3220.334,359.2313068949431
379,1686623842.44,-40.527,-747.559,-23.438,-72.754,3220.338,353.31486868840574
380,1686623842.44,-14.648,-483.398,162.598,-62.5,3220.342,355.8886533610877
381,1686623842.44,30.273,177.734,185.547,31.738,3220.346,355.35770650412087
382,1686623842.45,11.719,-62.988,-41.504,34.18,3220.35,352.523418189181
383,1686623842.45,-42.48,-143.555,154.785,-72.754,3220.349,350.4453742544123
384,1686623842.45,-44.434,-409.668,-53.223,-59.082,3220.354,347.4592514209982
385,1686623842.46,13.184,129.883,136.719,21.484,3220.353,355.1383539973025
386,1686623842.46,22.461,-73.73,-2.93,51.27,3220.357,352.83748693034266
387,1686623842.46,-22.949,-343.262,-30.273,-28.32,3220.361,354.5822007768756
388,1686623842.47,-48.828,-423.828,20.508,-78.613,3220.365,355.959374619521
389,1686623842.47,-11.23,-436.523,78.613,-18.555,3220.369,346.27554403742596
390,1686623842.48,25.391,-563.965,56.152,52.734,3220.372,353.2474967637177
391,1686623842.48,-12.695,-702.148,65.43,-6.348,3220.376,347.3641198884596
392,1686623842.48,-53.711,-333.008,112.793,-83.496,3220.38,346.9774754200556
393,1686623842.49,-20.508,-36.133,112.305,-35.645,3220.384,345.49366784827475
394,1686623842.49,17.578,-411.133,-30.273,38.086,3220.388,350.0646620045747
395,1686623842.5,-13.672,-1000.0,-134.277,4.395,3220.392,353.1766620857352
396,1686623842.5,-57.129,-669.922,127.441,-83.496,3220.407,348.0008903341042
397,1686623842.5,-44.922,-162.109,134.277,-68.848,3220.411,351.44424852990613
398,1686623842.51,5.371,-178.223,87.891,32.227,3220.415,350.76675308841203
399,1686623842.51,9.277,36.621,127.441,33.203,3220.419,350.6410888394701
400,1686623842.52,-40.039,66.406,46.875,-58.594,3220.423,346.10850436154135
401,1686623842.52,-47.363,-378.418,-60.547,-73.73,3220.427,351.01293695276485
402,1686623842.52,2.441,-523.438,59.082,7.812,3220.431,350.5404604317153
403,1686623842.53,21.973,-297.852,131.836,50.781,3220.435,360.0558859558371
404,1686623842.53,-11.719,108.887,173.34,-3.418,3220.438,348.8785846641706
405,1686623842.53,-14.648,-175.293,83.984,-18.066,3220.439,350.8318343432955
406,1686623842.53,-48.34,-286.133,-61.035,-80.078,3220.442,355.4755727939586
407,1686623842.53,-41.016,-264.648,-8.789,-76.66,3220.442,348.3855647120424
408,1686623842.54,-16.602,-410.645,17.09,-38.086,3220.446,355.9866715489437
409,1686623842.54,-0.977,-890.625,-125.0,1.465,3220.446,352.67984689762744
410,1686623842.54,32.227,123.535,141.602,38.086,3220.45,356.9308599724406
411,1686623842.54,28.809,-605.469,133.789,65.918,3220.45,349.9816472999314
412,1686623842.54,14.16,-88.379,-36.133,4.883,3220.454,348.6789885954105
413,1686623842.55,-34.668,-689.453,-66.406,-81.055,3220.458,346.3458274305079
414,1686623842.55,-29.785,-740.234,104.492,-72.754,3220.462,356.4668976435269
415,1686623842.55,16.602,-172.363,182.129,15.625,3220.466,347.50723224987877
416,1686623842.56,21.973,215.82,104.492,28.32,3220.469,346.0012289549072
417,1686623842.56,-32.715,-458.008,-169.434,-52.246,3220.473,338.7810957872587
418,1686623842.57,-49.805,-1000.0,5.371,-86.426,3220.477,343.5644266741272
419,1686623842.57,7.324,-266.113,296.387,-7.812,3220.481,338.6460765773852
420,1686623842.6,33.691,265.137,93.75,45.898,3220.499,349.926109886155
421,1686623842.61,-19.531,-482.422,-151.855,-17.578,3220.503,345.3085575128767
422,1686623842.61,-48.828,-798.828,24.414,-80.078,3220.507,346.4129552779749
423,1686623842.62,-2.93,-14.16,218.75,-24.414,3220.511,343.0207107680755
424,1686623842.62,28.809,174.805,55.664,53.223,3220.514,337.4518498386866
425,1686623842.62,-8.301,-349.609,-69.824,4.395,3220.518,346.5191995547393
426,1686623842.63,-44.922,-536.133,23.438,-85.449,3220.522,345.2417690118391
427,1686623842.63,-21.973,-102.051,183.105,-55.664,3220.526,337.74218235367715
428,1686623842.63,11.719,-239.746,15.137,25.391,3220.588,335.19182894466485
429,1686623842.63,16.113,-24.414,60.059,31.738,3220.53,341.24356182134693
430,1686623842.64,11.23,-370.605,-9.766,40.527,3220.592,335.06589286465965
431,1686623842.64,-3.418,-537.598,-45.898,11.719,3220.534,344.79063232203293
432,1686623842.64,-36.621,-98.145,104.004,-42.969,3220.596,339.6460756430163
433,1686623842.64,-56.641,-441.406,124.023,-67.871,3220.538,339.77810409736963
434,1686623842.64,-47.363,-83.008,107.422,-76.172,3220.599,334.9061970271218
435,1686623842.65,-43.457,-18.066,149.902,-61.035,3220.542,337.6137680722579
436,1686623842.65,-3.418,-515.625,-43.457,-0.977,3220.603,336.32308063150305
437,1686623842.65,11.719,-843.75,-36.621,56.152,3220.607,333.07195480600626
438,1686623842.66,-37.109,-541.504,146.973,-19.531,3220.611,335.16195249120403
439,1686623842.66,-63.477,-367.188,90.332,-90.332,3220.615,342.15096120296994
440,1686623842.66,-19.531,-509.277,87.402,-34.18,3220.619,340.2791259341505
441,1686623842.67,20.02,-355.469,128.418,39.551,3220.623,337.032402308637
442,1686623842.67,0.977,41.016,107.91,-1.953,3220.627,339.52702418773976
443,1686623842.68,-40.527,-24.902,39.551,-88.379,3220.631,328.0287753221389
444,1686623842.7,-24.414,-654.785,-82.031,-47.852,3220.593,338.93187133347175
445,1686623842.7,23.926,-643.066,104.492,43.945,3220.597,355.332296686847
446,1686623842.7,8.301,48.828,170.898,13.184,3220.601,351.51792642132887
447,1686623842.71,-37.109,-287.109,-51.27,-74.219,3220.605,349.8951512576194
448,1686623842.71,-30.762,-696.777,-1.465,-72.266,3220.608,348.78648290751244
449,1686623842.72,28.32,-595.215,128.418,20.508,3220.612,355.3312700753278
450,1686623842.72,34.18,-141.602,180.176,41.992,3220.616,348.85772872708515
451,1686623842.72,-14.16,-120.117,2.441,-49.805,3220.62,352.67850031210605
452,1686623842.72,-49.316,-640.137,-96.191,-78.125,3220.619,350.70340599123745
453,1686623842.73,-31.738,-708.008,-62.012,-81.543,3220.624,346.66224911760617
454,1686623842.73,-13.184,-224.609,168.945,-30.762,3220.623,359.57503249015303
455,1686623842.73,6.348,-374.023,169.434,3.418,3220.628,357.93397416903804
456,1686623842.73,28.809,224.609,155.273,36.133,3220.627,357.8424698261355
457,1686623842.73,-5.371,-221.68,-93.75,4.883,3220.631,360.5929545797841
458,1686623842.73,33.691,277.832,170.898,54.688,3220.632,359.1434316918521
459,1686623842.74,-62.012,-919.434,-120.605,-83.008,3220.634,358.811560374681
460,1686623842.74,-12.207,-125.488,-79.102,-11.719,3220.636,354.9135873433071
461,1686623842.74,-40.527,-650.391,148.438,-66.895,3220.638,359.3035978531124
462,1686623842.74,20.02,-283.691,109.863,35.156,3220.642,356.0197515478169
463,1686623842.75,12.207,-517.578,21.973,21.973,3220.646,364.4153700908477
464,1686623842.75,-41.016,-495.605,89.355,-69.824,3220.65,362.0617705167146
465,1686623842.76,-41.504,-152.832,133.301,-81.543,3220.654,361.8938981915898
466,1686623842.76,9.766,80.078,117.188,12.207,3220.658,367.0553280688999
467,1686623842.76,17.578,-292.969,-56.152,52.246,3220.662,362.7549531350094
468,1686623842.77,-34.18,-1000.0,-173.34,-29.785,3220.666,355.72135766995825
469,1686623842.77,-51.758,-729.98,127.93,-81.055,3220.67,369.82041914301806
470,1686623842.78,-2.93,-151.855,171.387,-6.836,3220.674,365.1440624173469
471,1686623842.78,28.809,-104.492,98.145,65.43,3220.678,360.87997290143517
472,1686623842.78,-11.719,-36.133,90.332,-0.488,3220.682,361.2695166962379
473,1686623842.79,-55.176,-355.957,-72.266,-86.914,3220.686,358.75158776663653
474,1686623842.79,-30.273,-451.66,35.156,-49.805,3220.69,359.24017717385374
475,1686623842.8,9.766,-592.773,78.613,39.551,3220.694,364.8406359689615
476,1686623842.8,-6.348,-629.395,125.0,7.324,3220.698,364.6973266209054
477,1686623842.8,-48.828,-118.652,161.133,-88.379,3220.702,357.45572930298886
478,1686623842.81,-34.668,-221.191,28.32,-62.988,3220.706,367.4236480289089
479,1686623842.81,15.137,1.953,149.902,29.297,3220.709,358.8572339532966
480,1686623842.81,14.16,-421.387,45.41,23.438,3220.709,359.68016729369907
481,1686623842.82,-40.039,73.73,65.43,-59.57,3220.713,366.22594908482034
482,1686623842.82,-57.617,-300.781,-25.391,-90.82,3220.717,362.0956673391946
483,1686623842.82,1.953,-240.723,43.457,2.441,3220.721,370.3684966417988
484,1686623842.83,18.555,-84.473,69.824,42.969,3220.724,362.89297288445204
485,1686623842.83,-28.32,-367.676,-36.621,-32.715,3220.728,366.52392241003747
486,1686623842.84,-51.758,-710.449,-94.727,-84.961,3220.732,367.9988321161813
487,1686623842.84,-18.066,-1000.0,-26.367,-23.926,3220.736,364.1320362309802
488,1686623842.84,20.996,-318.359,217.285,48.828,3220.74,365.2236188829926
489,1686623842.85,-7.324,211.426,90.82,-3.418,3220.744,357.1290622403639
490,1686623842.85,-45.41,-404.297,-75.684,-87.891,3220.748,358.63951203212457
491,1686623842.86,-23.926,-486.816,97.168,-50.781,3220.752,355.2137344047292
492,1686623842.86,22.949,192.871,198.242,41.016,3220.767,353.9030922586556
493,1686623842.86,12.695,280.273,35.645,19.531,3220.771,365.68252363510476
494,1686623842.87,-45.898,-424.805,-82.031,-70.312,3220.775,358.3372895112889
495,1686623842.87,-41.992,-447.266,135.254,-67.871,3220.779,350.2119103627515
496,1686623842.88,15.137,136.23,128.906,21.973,3220.783,355.2760882602114
497,1686623842.88,15.137,-60.059,-79.59,38.574,3220.787,350.67677804460794
498,1686623842.88,-41.992,-690.43,-64.941,-42.48,3220.79,357.4481035668657
499,1686623842.89,-47.363,-564.941,131.348,-70.312,3220.794,353.4828228160538
500,1686623842.89,8.301,106.934,198.73,-6.836,3220.798,356.0628794885143
501,1686623842.89,19.043,82.52,4.883,18.066,3220.802,360.6409867105379
502,1686623842.9,-28.809,-216.797,-69.824,-53.711,3220.806,350.70321132124417
503,1686623842.9,-48.34,-132.812,92.285,-94.727,3220.81,354.57831330577017
504,1686623842.9,3.906,51.27,140.625,-18.555,3220.812,346.4691222056378
505,1686623842.91,44.434,-243.652,-36.133,43.457,3220.816,353.9297081055261
506,1686623842.91,2.93,-580.078,-103.027,-18.555,3220.82,350.51314527159764
507,1686623842.92,-45.41,-204.102,125.977,-109.375,3220.824,356.0350561020455
508,1686623842.92,-29.297,-203.125,87.891,-73.242,3220.828,359.1169364496686
509,1686623842.92,23.438,-644.531,-70.312,32.227,3220.832,360.8932884515223
510,1686623842.93,20.508,-955.566,-72.266,31.738,3220.836,355.71636369750524
511,1686623842.93,-30.762,-441.406,155.273,-72.754,3220.839,358.7144813988563
512,1686623842.93,-31.738,-49.805,127.441,-88.867,3220.843,356.6224868906133
513,1686623842.94,20.996,-250.977,63.477,17.09,3220.847,357.8484261831727
514,1686623842.94,27.832,-123.535,109.863,35.645,3220.851,347.4811533535961
515,1686623842.95,-15.625,77.637,91.309,-61.523,3220.855,348.98621585338566
516,1686623842.96,-27.832,-115.723,36.621,-94.238,3220.86,361.5098274251974
517,1686623842.97,18.066,-261.23,74.219,-9.766,3220.864,350.19620590975074
518,1686623842.97,50.781,-28.32,160.645,59.57,3220.868,357.5353533261437
519,1686623842.97,2.441,-21.484,31.25,-3.906,3220.872,364.00779505484365
520,1686623842.98,-46.875,-424.316,-84.473,-86.914,3220.876,361.697613779493
521,1686623842.98,-17.578,-899.902,-72.754,-25.391,3220.88,357.64045041942927
522,1686623842.98,28.32,-667.969,110.352,58.594,3220.884,364.201202343651
523,1686623842.99,8.789,50.781,155.273,9.766,3220.887,363.84625863729326
524,1686623842.99,-43.457,-246.582,-95.703,-73.242,3220.891,371.1536237933721
525,1686623843.0,-20.508,-515.625,21.973,-39.551,3220.895,378.0847211906059
526,1686623843.0,37.109,-55.664,164.551,49.316,3220.899,367.0565227792448
527,1686623843.0,24.902,205.566,106.445,31.25,3220.903,371.8017239094711
528,1686623843.01,-32.227,-251.465,-61.523,-68.848,3220.904,381.97144928915196
529,1686623843.01,-36.621,-550.293,-48.34,-72.754,3220.908,378.3733099543114
530,1686623843.02,24.902,-63.965,166.504,28.32,3220.912,380.4907982309542
531,1686623843.02,34.18,210.449,129.395,59.082,3220.915,379.31528995362106
532,1686623843.02,-28.809,-380.859,-125.0,-29.297,3220.919,377.6897351855868
533,1686623843.03,-47.852,-957.031,-81.543,-74.707,3220.923,390.8465402599939
534,1686623843.03,1.465,-629.395,140.137,2.93,3220.927,386.7503734975797
535,1686623843.03,29.785,-293.945,127.441,61.035,3220.931,375.80819506686714
536,1686623843.04,-10.254,-592.773,-67.383,-8.789,3220.935,398.8853460793438
537,1686623843.04,-53.223,-995.605,-84.473,-86.426,3220.939,397.5884920625103
538,1686623843.05,-18.555,-387.207,222.656,-45.41,3220.943,400.947983562954
539,1686623843.05,23.438,142.09,121.582,38.086,3220.947,405.11737065338684
540,1686623843.05,-2.93,-74.707,-22.461,10.742,3220.951,390.3086298153196
541,1686623843.06,-42.48,-188.965,86.426,-80.566,3220.955,402.2261747305721
542,1686623843.06,-26.367,-15.625,141.602,-57.617,3220.959,403.29625914946666
543,1686623843.07,27.832,58.105,65.918,46.875,3220.962,410.60559459042264
544,1686623843.07,29.297,-172.852,51.758,39.062,3220.966,416.81923414277105
545,1686623843.07,-30.762,-535.156,9.766,-54.688,3220.97,413.5142086878073
546,1686623843.08,-45.898,-460.449,79.59,-68.848,3220.974,424.5363709581787
547,1686623843.08,15.625,-111.816,114.258,18.555,3220.978,420.3363711103996
548,1686623843.08,31.25,-541.016,-14.16,58.105,3220.982,419.4799306779483
549,1686623843.09,-16.113,-758.789,114.746,-25.879,3220.986,425.312671987327
550,1686623843.09,-33.691,-264.648,169.922,-80.566,3220.99,419.6081019253305
551,1686623843.1,0.977,-249.023,51.758,0.977,3220.994,430.9168918409176
552,1686623843.1,26.855,-387.207,10.254,66.895,3220.994,426.1370151783705
553,1686623843.1,-5.371,-109.375,97.168,-0.488,3220.998,426.08954937779583
554,1686623843.1,-43.945,-16.113,113.281,-77.637,3221.002,433.95676686219264
555,1686623843.11,-20.02,-406.738,-12.695,-33.203,3221.006,417.8766066943913
556,1686623843.11,22.461,-711.426,-45.898,48.828,3221.01,436.27089091360426
557,1686623843.12,-4.395,-447.266,97.656,16.602,3221.013,447.78611120498397
558,1686623843.12,-49.316,-484.375,101.562,-79.102,3221.017,440.51219614675415
559,1686623843.12,-41.504,-748.047,-5.371,-70.312,3221.021,438.58137833618946
560,1686623843.13,4.395,-972.168,8.789,32.715,3221.025,434.80557876022846
561,1686623843.13,17.09,-297.852,220.215,42.48,3221.029,437.44794667363703
562,1686623843.14,-36.621,62.988,37.109,-57.617,3221.033,444.8198846254171
563,1686623843.14,-55.664,-468.75,-53.711,-86.426,3221.037,439.383188158513
564,1686623843.16,-6.836,-374.023,128.418,0.0,3221.055,440.68814026994517
565,1686623843.16,15.625,165.039,178.711,48.828,3221.059,447.29249485417364
566,1686623843.16,-21.484,70.801,7.812,-26.855,3221.063,446.3865941687574
567,1686623843.17,-57.129,-549.316,-66.406,-90.332,3221.067,444.29478098435084
568,1686623843.17,-20.508,-494.141,105.957,-20.02,3221.071,447.6662854869926
569,1686623843.18,19.043,-217.285,117.676,52.246,3221.075,444.92640274389333
570,1686623843.18,-8.789,-362.793,41.992,2.93,3221.079,446.54665071856886
571,1686623843.18,-48.828,-713.867,4.395,-79.102,3221.083,452.6249988092478
572,1686623843.19,-23.926,-513.672,153.809,-39.551,3221.087,444.73634745139134
573,1686623843.19,21.973,150.879,180.664,49.805,3221.09,437.6713539953106
574,1686623843.2,5.859,-3.906,-22.949,23.438,3221.094,442.70702501929514
575,1686623843.2,-45.41,-341.797,-60.547,-78.613,3221.098,441.0408793244612
576,1686623843.2,-38.086,-158.691,121.094,-83.008,3221.102,436.4137661498689
577,1686623843.21,18.066,156.738,170.41,20.996,3221.106,433.6450314607529
578,1686623843.21,25.879,-221.191,-78.613,38.574,3221.11,441.93750457621354
579,1686623843.22,-19.531,-685.059,-110.84,-48.828,3221.114,440.54475576298296
580,1686623843.22,-41.992,-504.395,100.098,-80.566,3221.118,435.95281085823063
581,1686623843.22,4.395,-369.629,126.465,2.441,3221.121,434.47068970071234
582,1686623843.23,33.691,-603.027,10.254,57.617,3221.125,439.43804807832896
583,1686623843.23,-14.16,-753.418,-32.227,-15.625,3221.129,434.36239828789695
584,1686623843.23,-41.992,-229.98,160.645,-84.473,3221.133,432.0167064707279
585,1686623843.23,-45.898,-211.914,190.918,-84.473,3221.131,435.4918611776776
586,1686623843.24,-9.766,92.773,143.066,-21.484,3221.137,431.4865382366265
587,1686623843.24,-27.344,-115.723,76.66,-50.293,3221.135,428.43122404609966
588,1686623843.24,20.02,-400.879,-55.176,64.941,3221.141,431.13528056752415
589,1686623843.24,19.531,-176.27,122.07,54.199,3221.139,427.2561360957534
590,1686623843.25,5.371,12.207,117.676,28.809,3221.143,424.74869962451146
591,1686623843.25,-0.488,-809.57,2.93,22.461,3221.145,426.5931270497887
592,1686623843.25,-30.273,-93.262,-24.414,-59.082,3221.146,431.83935130158505
593,1686623843.25,-33.691,-437.012,-19.043,-62.012,3221.15,421.5082268563832
594,1686623843.26,-16.602,-504.395,115.234,-10.742,3221.154,414.6874102615966
595,1686623843.26,-12.207,-123.047,151.367,-4.883,3221.158,419.9947452787631
596,1686623843.26,-39.551,50.293,74.219,-69.336,3221.162,422.1792288387066
597,1686623843.27,-56.641,-258.789,-66.406,-98.145,3221.166,408.02361962144676
598,1686623843.27,-24.902,-865.234,-115.723,-17.578,3221.17,409.58150250224446
599,1686623843.28,-40.039,95.703,178.223,-39.551,3221.188,416.1831144792021
600,1686623843.28,-2.93,-636.719,125.977,37.109,3221.174,410.78335485969154
601,1686623843.28,-75.195,-326.66,-48.828,-104.98,3221.192,410.5248996424024
602,1686623843.28,-47.363,-443.359,37.598,-54.199,3221.196,403.05960893013344
603,1686623843.29,-3.906,118.652,151.855,23.926,3221.2,404.05003003921667
604,1686623843.29,-20.996,-52.734,8.301,-1.953,3221.204,408.9513365050219
605,1686623843.3,-62.5,-654.785,-143.555,-82.031,3221.208,413.4919501072711
606,1686623843.3,-46.387,-1000.0,-100.098,-57.617,3221.212,398.7867936792352
607,1686623843.3,7.324,-580.566,193.848,35.156,3221.215,403.16841825196053
608,1686623843.31,-2.441,40.039,143.066,29.297,3221.219,400.0991078296665
609,1686623843.31,-53.711,-379.395,-34.668,-62.988,3221.223,391.1158968097865
610,1686623843.32,-56.641,-560.059,79.59,-82.031,3221.227,392.8867796608232
611,1686623843.32,0.977,104.004,173.828,13.184,3221.231,390.58028708667445
612,1686623843.34,21.973,187.5,69.336,45.41,3221.235,388.8392619375533
613,1686623843.34,-30.762,-163.086,-24.414,-41.016,3221.239,374.4305000271817
614,1686623843.35,-57.129,-262.207,69.824,-97.168,3221.243,377.5171542222317
615,1686623843.35,-9.277,31.25,167.48,-20.508,3221.247,377.1873980883592
616,1686623843.35,22.461,115.723,72.266,46.387,3221.251,368.97832480400047
617,1686623843.36,-9.766,-402.832,-59.57,-12.207,3221.255,355.90946050902113
618,1686623843.36,-44.434,-575.195,60.059,-83.008,3221.259,363.4943390790634
619,1686623843.36,-20.996,-105.469,170.898,-46.875,3221.263,363.26765291981985
620,1686623843.37,17.09,-0.488,46.875,36.621,3221.266,351.99952881773856
621,1686623843.37,-6.836,-564.941,-59.57,14.16,3221.27,356.66568897982324
622,1686623843.38,-51.758,-693.848,117.676,-75.684,3221.274,352.1820923073444
623,1686623843.38,-36.621,-142.578,219.238,-62.988,3221.278,352.44641163644997
624,1686623843.38,15.137,-135.254,14.648,35.156,3221.279,349.46871729228525
625,1686623843.39,15.137,-484.375,-70.801,48.828,3221.283,358.64680280555353
626,1686623843.39,-30.273,-265.137,108.887,-37.598,3221.287,347.72193722464743
627,1686623843.39,-30.273,-87.402,128.418,-73.73,3221.291,344.16831838547694
628,1686623843.4,16.113,-488.77,-18.066,12.207,3221.295,343.44573001094864
629,1686623843.4,28.809,-772.461,-57.129,62.5,3221.299,344.2443642379797
630,1686623843.4,-7.812,-493.164,116.699,-10.742,3221.303,340.2066871233329
631,1686623843.41,-36.621,-182.617,154.297,-63.477,3221.306,337.5402157872742
632,1686623843.41,-13.184,-504.883,-25.391,-7.812,3221.31,346.58342950923395
633,1686623843.42,14.16,-794.434,2.441,59.082,3221.314,335.8265193947744
634,1686623843.42,-9.766,-78.613,204.59,10.254,3221.318,327.9829275736982
635,1686623843.42,-50.781,-44.922,46.875,-70.312,3221.322,336.98792288471225
636,1686623843.43,-23.438,-481.934,-11.719,-37.598,3221.326,329.9608748297138
637,1686623843.43,27.832,-257.812,108.887,51.27,3221.33,326.1302666919498
638,1686623843.44,7.812,146.973,140.625,33.203,3221.334,327.5384629923324
639,1686623843.44,-47.852,-72.266,-1.465,-50.781,3221.338,326.09021083444077
640,1686623843.44,-48.34,-625.977,-66.406,-39.551,3221.342,320.22746656816526
641,1686623843.45,5.371,-644.531,104.004,33.203,3221.346,319.7088058204497
642,1686623843.45,14.648,-196.777,205.566,43.457,3221.35,318.1794814601722
643,1686623843.46,-31.25,-207.52,32.715,-39.062,3221.354,320.35465521137354
644,1686623843.46,-37.598,-711.426,-53.223,-66.895,3221.357,310.88786203250714
645,1686623843.46,4.883,-438.477,180.664,21.973,3221.361,316.43423122795343
646,1686623843.47,2.441,168.457,145.02,39.551,3221.365,326.73557851076254
647,1686623843.47,-48.34,-167.969,-68.359,-47.363,3221.369,329.4854759833323
648,1686623843.47,-69.824,-496.582,-46.875,-113.77,3221.369,321.1808777135786
649,1686623843.48,-32.715,-160.645,138.184,-63.477,3221.373,325.2378399002933
650,1686623843.48,8.789,127.93,132.812,32.715,3221.377,324.2246692877225
651,1686623843.48,-21.484,-353.027,-88.379,0.0,3221.381,328.89879333205164
652,1686623843.49,-68.359,-928.711,-99.609,-91.797,3221.385,322.34953361058956
653,1686623843.49,-39.551,-629.395,151.855,-53.223,3221.389,312.0755422239545
654,1686623843.5,5.371,-279.785,155.762,35.645,3221.393,319.7214515684019
655,1686623843.5,-1.953,-557.129,-54.199,16.113,3221.396,322.3453215824636
656,1686623843.5,-53.223,-1000.0,-98.633,-70.801,3221.4,324.5259317476025
657,1686623843.51,-50.293,-453.125,187.5,-71.777,3221.404,328.88507296899786
658,1686623843.51,13.672,144.531,152.832,33.203,3221.408,318.99450050552343
659,1686623843.52,20.508,0.977,26.367,60.059,3221.412,327.91889843663296
660,1686623843.52,-28.809,-119.141,83.984,-33.203,3221.417,326.64082333229004
661,1686623843.52,-42.969,-3.906,138.672,-77.148,3221.421,317.71375654223743
662,1686623843.53,0.977,21.484,83.008,-0.977,3221.425,322.4224919433036
663,1686623843.53,23.926,7.324,98.145,49.316,3221.428,323.1556386379371
664,1686623843.54,-15.625,-58.105,69.824,-20.508,3221.432,320.2144085595656
665,1686623843.54,-52.246,-419.922,-35.156,-81.055,3221.436,322.4405308628457
666,1686623843.54,-21.973,-416.992,97.656,-33.203,3221.44,324.4558697116068
667,1686623843.55,14.16,-741.699,1.953,50.781,3221.444,331.95746256146856
668,1686623843.55,-1.465,-730.957,41.504,16.602,3221.448,337.51402834817327
669,1686623843.55,-35.156,-49.316,166.992,-81.055,3221.452,332.631397068504
670,1686623843.56,-26.367,-199.707,40.039,-57.617,3221.456,329.3553358747985
671,1686623843.56,23.438,-161.133,77.148,37.598,3221.46,336.7874445107285
672,1686623843.59,23.926,191.406,114.746,30.762,3221.489,327.97993337015197
673,1686623843.6,-28.809,127.93,56.641,-56.641,3221.493,338.1219307842521
674,1686623843.6,-32.715,-315.918,-14.648,-62.988,3221.497,332.2035241189041
675,1686623843.6,22.461,-289.062,60.059,21.973,3221.501,329.52633527337383
676,1686623843.61,40.527,-60.059,89.844,55.664,3221.505,330.9437326092052
677,1686623843.61,32.715,229.492,183.105,41.016,3221.517,330.42540688138826
678,1686623843.61,-13.184,-377.93,14.648,-13.672,3221.509,329.9911975061482
679,1686623843.62,-48.34,-704.59,-74.219,-59.57,3221.513,339.9599507811946
680,1686623843.62,11.23,183.594,20.02,27.344,3221.521,339.05813421224707
681,1686623843.62,-4.883,-1000.0,-76.66,7.812,3221.516,331.3712604775797
682,1686623843.62,-38.574,-296.387,-54.688,-59.57,3221.525,342.5525620424855
683,1686623843.62,26.855,-688.965,164.551,55.664,3221.52,338.99608597523434
684,1686623843.62,-34.668,-251.465,128.906,-64.941,3221.529,341.55168125859274
685,1686623843.63,18.555,145.996,111.328,23.438,3221.533,342.0300412514853
686,1686623843.63,-4.883,-42.969,101.562,-10.742,3221.524,338.07318071363756
687,1686623843.63,-37.598,-428.223,-49.805,-76.172,3221.528,333.983441692439
688,1686623843.63,19.531,-151.367,-51.758,45.898,3221.537,341.58895473918443
689,1686623843.64,-28.32,-469.238,54.199,-47.852,3221.541,335.5178105659884
690,1686623843.64,-8.789,-460.449,117.676,-36.621,3221.532,339.06475366758355
691,1686623843.64,-30.273,-215.82,142.578,-80.566,3221.545,344.39754386180164
692,1686623843.64,20.996,134.277,154.785,18.555,3221.549,344.3983746176585
693,1686623843.65,38.086,67.871,28.32,57.617,3221.553,349.03448199083516
694,1686623843.65,-19.531,-467.773,-78.613,-28.809,3221.556,338.0284262498934
695,1686623843.65,-3.418,-47.852,225.586,-30.762,3221.563,341.89170971534924
696,1686623843.66,-52.246,-550.781,98.145,-97.168,3221.56,334.76746448507356
697,1686623843.66,32.715,-26.367,4.395,45.41,3221.567,350.20055411214634
698,1686623843.66,-8.789,-812.5,-186.035,-6.836,3221.571,341.5478706383277
699,1686623843.66,-48.34,-660.645,114.746,-89.355,3221.575,345.80226073636817
700,1686623843.67,-7.812,-176.27,202.148,-49.805,3221.579,345.61736894449666
701,1686623843.67,35.156,-539.551,-39.062,50.781,3221.583,351.2604880015255
702,1686623843.68,12.207,-907.715,-81.543,27.344,3221.586,348.5352883418627
703,1686623843.68,-32.227,-413.086,172.852,-79.59,3221.59,336.4454766010427
704,1686623843.68,-23.926,-35.645,127.93,-65.43,3221.594,351.6729962647116
705,1686623843.69,17.578,-184.082,83.496,36.621,3221.598,347.54635074682034
706,1686623843.69,11.719,-148.926,107.91,45.898,3221.602,353.80784309811645
707,1686623843.7,-38.574,5.371,100.098,-50.293,3221.606,365.55348167513847
708,1686623843.72,-54.688,-60.059,47.852,-91.797,3221.616,363.46185266283396
709,1686623843.72,-2.93,-308.105,73.73,1.953,3221.619,353.23570182750575
710,1686623843.72,18.066,-164.062,148.926,48.828,3221.623,354.1378896187605
711,1686623843.73,-35.156,77.148,106.934,-37.109,3221.627,361.31590133819765
712,1686623843.73,-64.453,-78.613,40.039,-89.355,3221.631,357.92085789765474
713,1686623843.74,-21.484,-725.098,-66.895,-22.949,3221.635,359.6660386642741
714,1686623843.74,10.742,-672.852,103.027,39.062,3221.639,354.37666287577287
715,1686623843.74,-20.508,105.469,177.246,-17.09,3221.643,355.3047020963332
716,1686623843.75,-65.43,-179.199,-54.199,-100.098,3221.647,357.20193652433784
717,1686623843.75,-42.969,-482.91,-4.883,-67.383,3221.651,356.64264499194815
718,1686623843.75,9.766,-86.914,166.992,25.391,3221.655,359.1523206930205
719,1686623843.76,-50.781,-217.773,-58.594,-81.543,3221.657,351.01965281156225
720,1686623843.76,-1.465,149.902,101.562,8.301,3221.658,351.7797592409222
721,1686623843.76,-51.758,-408.691,-35.156,-81.543,3221.661,351.9575812665786
722,1686623843.76,-5.859,22.461,146.484,5.371,3221.665,359.60129662087564
723,1686623843.77,-1.953,165.039,98.145,32.227,3221.668,359.53718459846044
724,1686623843.77,-54.688,-449.219,-128.906,-52.734,3221.672,354.80266141671024
725,1686623843.78,-71.777,-908.203,-62.988,-96.191,3221.676,360.02986132511734
726,1686623843.78,-24.902,-505.859,147.949,-22.949,3221.68,361.34077434683104
727,1686623843.78,-2.441,-244.141,130.859,19.531,3221.684,357.8687548637992
728,1686623843.79,-38.086,-555.176,-72.266,-50.293,3221.688,370.13553314040263
729,1686623843.79,-69.824,-1000.0,-160.645,-109.863,3221.692,361.060125620732
730,1686623843.8,-31.25,-657.715,177.734,-46.875,3221.696,365.14955822205764
731,1686623843.8,15.625,140.625,168.457,29.297,3221.7,367.4701152198946
732,1686623843.8,-13.184,-20.02,-29.297,-8.789,3221.701,357.97613685015114
733,1686623843.81,-58.105,-207.031,49.805,-97.656,3221.705,366.40124058892474
734,1686623843.81,-24.902,6.836,135.742,-61.035,3221.709,369.4977419017013
735,1686623843.82,30.762,116.699,73.73,44.434,3221.713,372.1763674304451
736,1686623843.82,19.043,-72.266,51.27,30.762,3221.717,365.1393383306629
737,1686623843.82,-41.992,-409.18,10.742,-61.035,3221.721,360.04220206878125
738,1686623843.83,-54.199,-541.992,0.0,-57.129,3221.724,366.89436732020886
739,1686623843.83,2.441,-263.184,139.648,22.461,3221.728,368.50179130885397
740,1686623843.84,18.066,-654.297,-18.066,41.016,3221.732,361.4319599600496
741,1686623843.84,-26.855,-788.086,20.996,-28.809,3221.736,364.611368587833
742,1686623843.84,-44.922,-104.492,174.316,-75.684,3221.74,370.61577293448346
743,1686623843.85,-6.348,-169.434,58.105,-4.395,3221.744,363.8488619745053
744,1686623843.85,19.043,-138.184,101.074,52.246,3221.744,357.148211512082
745,1686623843.85,-11.719,106.934,83.984,-15.137,3221.748,370.9004582181056
746,1686623843.86,-46.387,28.809,52.246,-96.68,3221.752,371.7134370478803
747,1686623843.86,-21.484,-256.836,40.039,-41.016,3221.756,376.8978265947776
748,1686623843.86,5.371,-414.551,32.715,26.367,3221.759,363.97421753636127
749,1686623843.87,-20.996,-328.125,68.848,-5.371,3221.763,367.9560959085348
750,1686623843.87,-57.129,-455.078,24.414,-70.312,3221.767,363.89438379085897
751,1686623843.87,-49.805,-746.094,-41.504,-60.059,3221.771,367.46600432223204
752,1686623843.88,-0.977,-963.379,-17.09,28.809,3221.775,371.38428005501703
753,1686623843.88,7.324,-538.086,181.152,29.785,3221.779,373.0972225412081
754,1686623843.89,-41.504,-78.125,124.512,-63.965,3221.783,375.10621502863575
755,1686623843.89,-52.246,-446.777,32.715,-71.289,3221.787,363.5044916485895
756,1686623843.89,-0.488,-331.055,147.461,23.926,3221.791,369.7206379065248
757,1686623843.9,17.09,253.906,149.902,46.875,3221.795,369.84298210084967
758,1686623843.9,-32.227,17.578,-6.836,-45.898,3221.799,366.4700878451547
759,1686623843.91,-53.223,-256.348,24.414,-82.031,3221.803,363.8691166684174
760,1686623843.91,0.977,-152.832,133.789,11.23,3221.807,359.58849609222835
761,1686623843.91,29.297,-166.992,78.613,72.266,3221.811,368.7025866935861
762,1686623843.92,-8.301,-309.57,27.344,4.395,3221.815,366.85143033054095
763,1686623843.92,-47.852,-696.777,-7.324,-75.195,3221.819,366.1061810778516
764,1686623843.92,-24.902,-453.125,156.25,-33.691,3221.823,360.8983618925498
765,1686623843.93,17.09,251.953,175.781,48.828,3221.827,368.71157308217323
766,1686623843.93,-12.695,69.336,-39.062,22.949,3221.83,356.3679127513065
767,1686623843.94,-57.617,-467.285,-128.418,-71.777,3221.834,368.8413255794753
768,1686623843.94,-40.527,-423.828,81.055,-78.125,3221.837,364.51468581704955
769,1686623843.94,3.906,147.461,194.336,12.695,3221.841,368.5947454286839
770,1686623843.95,-2.93,-67.383,-81.543,27.832,3221.845,363.70659174388726
771,1686623843.95,-54.199,-629.395,-149.902,-53.223,3221.849,362.91437419982304
772,1686623843.95,-62.012,-519.043,79.102,-83.008,3221.853,359.8136008336412
773,1686623843.96,-7.812,-327.637,151.367,-2.441,3221.857,360.22705045884123
774,1686623843.96,16.113,-507.324,0.0,47.363,3221.861,363.6459862855805
775,1686623843.96,-30.762,-1000.0,-139.648,-28.32,3221.865,361.6094972533278
776,1686623843.97,-54.688,-563.965,117.676,-90.82,3221.869,363.37648696881485
777,1686623843.97,-12.207,-3.418,161.621,-20.02,3221.873,367.5377625007644
778,1686623843.98,20.996,-25.391,74.219,48.828,3221.876,362.58421368685146
779,1686623843.98,-13.184,-20.02,75.684,-17.09,3221.88,366.6308141459889
780,1686623843.98,-50.293,24.414,84.961,-96.191,3221.893,362.31115499250524
781,1686623843.99,-23.926,-62.988,58.594,-54.199,3221.897,368.3057017077122
782,1686623843.99,12.695,-274.414,56.152,26.855,3221.901,364.0945061107549
783,1686623844.0,-1.953,-153.809,122.07,4.883,3221.905,359.7180510595537
784,1686623844.0,-51.27,-98.633,13.672,-80.566,3221.908,365.8259494114308
785,1686623844.0,-45.41,-396.973,-37.598,-70.312,3221.912,364.6824184484196
786,1686623844.01,3.418,-826.172,-61.035,28.809,3221.916,367.48874127309955
787,1686623844.01,-2.93,-715.82,25.391,36.621,3221.92,369.9846377808067
788,1686623844.02,-52.734,-35.156,182.129,-64.941,3221.924,372.8390822559932
789,1686623844.02,-62.988,-230.469,-6.836,-99.609,3221.928,369.4736191135157
790,1686623844.02,0.488,-314.453,16.602,-9.277,3221.932,375.6560274202908
791,1686623844.03,30.762,68.359,134.766,41.016,3221.936,364.81258005838515
792,1686623844.03,-12.207,109.375,62.012,-34.18,3221.953,370.63248117644116
793,1686623844.03,-44.922,-297.363,-60.547,-92.285,3221.957,366.06977207236093
794,1686623844.04,-10.742,-365.723,20.508,-35.156,3221.961,372.38295459369004
795,1686623844.04,29.785,87.402,107.91,41.504,3221.965,371.80868909131493
796,1686623844.04,5.859,-160.156,-36.621,10.254,3221.969,368.2067263146149
797,1686623844.05,-39.551,-725.098,-160.156,-75.684,3221.973,367.251809121246
798,1686623844.05,-26.367,-969.727,-91.309,-51.758,3221.977,378.7918070813347
799,1686623844.05,20.508,-535.645,233.887,28.809,3221.981,370.3605357206367
800,1686623844.06,11.719,63.477,172.363,16.113,3221.985,364.1993722819333
801,1686623844.06,-40.527,-494.629,-123.047,-66.895,3221.989,364.3818056408384
802,1686623844.07,-41.992,-778.32,-2.93,-73.242,3221.992,368.2191776287121
803,1686623844.07,9.766,31.25,225.586,12.695,3221.996,362.85801751950936
804,1686623844.12,17.09,167.48,55.176,33.203,3222.015,368.4560407693196
805,1686623844.12,-35.645,-271.484,-74.707,-56.641,3222.019,375.20247112701855
806,1686623844.12,13.184,-188.965,27.344,28.32,3222.027,367.6372853496174
807,1686623844.12,-57.129,-377.93,75.195,-105.469,3222.023,375.7012842812584
808,1686623844.13,7.324,-724.609,-51.758,44.434,3222.031,375.4891480475309
809,1686623844.13,-10.254,-1.953,170.898,-23.926,3222.027,372.14171459220216
810,1686623844.13,-37.109,-501.953,149.414,-44.922,3222.035,373.1383745477966
811,1686623844.13,19.531,121.094,49.316,42.969,3222.031,380.1949112968838
812,1686623844.13,-32.227,-14.16,149.414,-66.895,3222.039,374.18298337423903
813,1686623844.14,-22.949,-413.574,-91.309,-24.414,3222.035,371.64478214128485
814,1686623844.14,20.02,-439.941,-17.09,17.578,3222.043,364.9936802637392
815,1686623844.14,-58.105,-545.898,39.062,-96.191,3222.039,374.0009618356956
816,1686623844.14,35.645,-732.422,-28.809,59.57,3222.047,363.6687875974353
817,1686623844.14,-15.137,-240.234,147.461,-32.715,3222.043,369.1209282454411
818,1686623844.14,-8.789,-500.488,87.402,-17.578,3222.051,370.63450233149183
819,1686623844.15,26.367,-296.387,71.289,47.852,3222.047,374.94462790103313
820,1686623844.15,-31.25,-315.43,97.168,-73.73,3222.055,369.031545640476
821,1686623844.15,-1.465,-376.953,70.801,-0.488,3222.051,372.13481593765516
822,1686623844.15,12.207,-412.109,74.219,0.977,3222.059,372.68104135919737
823,1686623844.16,-45.898,-345.703,97.656,-84.473,3222.055,376.8858288423405
824,1686623844.16,42.969,-328.125,86.914,66.406,3222.063,373.7944449651512
825,1686623844.16,-31.738,-186.523,110.352,-67.383,3222.058,375.0460110439426
826,1686623844.16,12.207,-153.809,93.262,-0.488,3222.066,368.0187932651486
827,1686623844.16,-32.227,-253.906,62.5,-80.566,3222.07,370.56488299216426
828,1686623844.22,-8.301,-436.035,47.852,-37.109,3222.122,370.63814725862295
829,1686623844.23,36.621,-217.285,126.953,43.457,3222.126,374.58974113291515
830,1686623844.23,-52.734,-588.867,-100.098,-96.191,3222.164,373.7494474642878
831,1686623844.23,10.742,152.832,125.488,16.113,3222.13,376.77281524910615
832,1686623844.23,-14.16,-318.359,138.184,-16.113,3222.167,376.0478167333716
833,1686623844.24,-43.457,-43.457,49.316,-79.102,3222.133,372.3892688377784
834,1686623844.24,20.02,263.184,178.223,39.551,3222.171,374.57942550274333
835,1686623844.24,-32.715,-612.305,-123.047,-65.43,3222.137,376.8886554173057
836,1686623844.24,-22.461,-130.371,-103.027,-33.691,3222.175,381.79430387675274
837,1686623844.24,19.043,-1000.0,1.465,39.062,3222.141,374.3128610386333
838,1686623844.24,-76.172,-874.023,-141.113,-101.562,3222.179,372.10274677219843
839,1686623844.25,16.113,-419.922,236.816,38.086,3222.145,375.3059493575177
840,1686623844.25,-42.969,-623.535,136.23,-51.758,3222.183,380.6210746581253
841,1686623844.25,0.977,-253.418,114.258,23.438,3222.187,378.3850711032719
842,1686623844.25,-41.016,-90.82,34.668,-59.082,3222.149,368.706805318017
843,1686623844.26,-21.484,-477.051,19.531,6.836,3222.191,381.2831528752793
844,1686623844.26,-50.293,-555.176,48.34,-86.426,3222.153,375.3721005184594
845,1686623844.26,-64.941,-490.234,63.965,-76.66,3222.195,370.06326136055037
846,1686623844.26,-5.371,-203.613,218.262,-1.465,3222.157,371.136694870696
847,1686623844.26,-59.082,-95.215,142.578,-85.449,3222.199,380.8190429438831
848,1686623844.26,10.254,331.543,117.676,34.18,3222.161,370.08580553064877
849,1686623844.27,-27.832,-41.504,-75.195,-46.875,3222.165,372.59820443597135
850,1686623844.27,-6.348,101.074,109.375,1.465,3222.203,374.0271129035615
851,1686623844.27,-51.758,-350.586,70.312,-64.941,3222.169,372.11932548902826
852,1686623844.27,-2.441,-185.059,36.133,19.531,3222.207,380.62005749182845
853,1686623844.27,-61.035,-89.844,110.352,-100.586,3222.172,374.92367418091226
854,1686623844.28,-8.301,-83.496,46.387,-21.484,3222.176,380.51320501281646
855,1686623844.28,16.113,-376.953,19.531,41.016,3222.18,377.4244556538448
856,1686623844.29,-29.297,-368.652,66.895,-35.156,3222.184,378.03466140010113
857,1686623844.29,-62.5,-437.988,-36.133,-103.516,3222.188,375.29124482978904
858,1686623844.29,-31.738,-478.516,93.75,-35.645,3222.192,376.9318621051609
859,1686623844.3,8.301,-636.23,23.438,55.664,3222.196,375.33490758303367
860,1686623844.3,-15.137,-1000.0,-78.613,9.277,3222.2,382.14884667629855
861,1686623844.3,-57.129,-546.875,173.828,-89.355,3222.204,373.1998171683013
862,1686623844.31,-31.738,-183.594,88.379,-57.129,3222.208,370.511980798927
863,1686623844.31,18.555,-283.691,32.227,37.109,3222.212,375.4293620288571
864,1686623844.31,9.766,23.438,130.371,26.367,3222.209,378.5794553818284
865,1686623844.32,-39.062,111.816,100.098,-59.082,3222.213,373.2837069395298
866,1686623844.32,-36.621,-333.984,-8.789,-58.105,3222.216,375.1640994579331
867,1686623844.32,14.16,-396.973,2.93,34.18,3222.22,375.6000314620219
868,1686623844.33,17.578,-45.898,75.195,44.922,3222.224,370.11802298842235
869,1686623844.33,-30.762,-342.773,-47.852,-53.711,3222.228,374.97492370864086
870,1686623844.34,-50.293,-666.504,-61.035,-106.445,3222.232,377.0352062724437
871,1686623844.34,-0.977,-1000.0,-102.539,-15.625,3222.236,375.3879813076465
872,1686623844.34,30.273,-828.125,207.52,49.316,3222.24,373.5061539402257
873,1686623844.35,-9.277,-130.371,213.379,-31.25,3222.244,370.6225972843286
874,1686623844.35,-42.48,-212.402,-18.555,-93.262,3222.248,377.62840911078246
875,1686623844.36,-13.184,-141.113,106.445,-17.09,3222.252,372.32380435310137
876,1686623844.36,17.09,319.336,144.043,62.5,3222.267,364.54681547220287
877,1686623844.36,-12.207,231.934,6.836,9.277,3222.271,377.89539305614613
878,1686623844.37,-52.734,-229.98,-92.285,-81.543,3222.275,375.44797022931795
879,1686623844.37,-28.32,-186.523,98.633,-48.34,3222.279,382.9661579780626
880,1686623844.38,30.762,150.879,129.883,49.805,3222.283,374.915810265152
881,1686623844.38,21.484,-57.129,-46.875,46.875,3222.287,381.6440831633589
882,1686623844.38,-39.062,-707.52,-85.938,-41.016,3222.291,372.83545941917674
883,1686623844.39,-35.156,-583.984,104.004,-64.453,3222.295,375.47124419793414
884,1686623844.39,28.809,-39.062,181.641,20.996,3222.299,373.4640968422912
885,1686623844.39,33.691,-160.645,41.992,47.363,3222.302,371.6651885614777
886,1686623844.4,-25.879,-459.473,15.137,-33.203,3222.306,385.12198978353075
887,1686623844.4,-48.828,-254.395,136.719,-76.66,3222.31,378.01377018019065
888,1686623844.4,-2.93,95.703,143.066,-6.348,3222.313,373.9088454274021
889,1686623844.41,19.531,-86.914,21.484,52.734,3222.317,371.8134819059946
890,1686623844.41,-11.23,-233.887,-15.625,-5.371,3222.321,374.0633117509663
891,1686623844.41,-37.598,-83.496,94.727,-74.219,3222.325,377.3916394477889
892,1686623844.42,-5.859,-169.434,110.352,-25.879,3222.329,379.2201185095326
893,1686623844.42,25.391,-571.777,-54.688,50.781,3222.333,372.51209625944415
894,1686623844.42,-8.301,-949.707,-106.445,12.695,3222.337,373.5569252912377
895,1686623844.43,-57.129,-412.109,190.918,-83.984,3222.341,373.3345371605474
896,1686623844.43,-48.828,79.102,120.605,-79.102,3222.345,373.5345488855025
897,1686623844.44,-3.906,-116.699,52.246,11.719,3222.349,378.7583313594702
898,1686623844.44,-5.371,-118.652,98.145,12.207,3222.352,374.0585326938693
899,1686623844.44,-52.246,-168.457,44.434,-67.383,3222.356,375.9392529675152
900,1686623844.45,-56.641,-183.594,61.523,-69.336,3222.358,378.61081628239674
901,1686623844.45,-11.23,-377.93,76.172,11.719,3222.362,372.96578417170804
902,1686623844.46,-1.465,-291.992,123.535,40.527,3222.366,374.1508614269784
903,1686623844.46,-43.457,53.711,96.191,-35.645,3222.37,371.64599871247947
904,1686623844.47,-67.871,-121.094,41.504,-94.238,3222.374,368.56132619745705
905,1686623844.47,-29.785,-448.242,56.641,-28.809,3222.378,376.9590833095698
906,1686623844.47,2.93,-269.043,157.715,41.504,3222.382,377.09156970148354
907,1686623844.48,-39.551,144.531,109.863,-22.461,3222.385,372.4712343998255
908,1686623844.48,-80.566,-169.922,-72.754,-108.398,3222.389,376.55805425769586
909,1686623844.48,-39.551,-661.133,-9.277,-59.082,3222.393,369.83207359023737
910,1686623844.49,10.742,-253.418,178.711,27.832,3222.397,373.84558212473854
911,1686623844.49,-10.742,208.984,128.906,5.859,3222.401,376.3874104653945
912,1686623844.51,-53.223,-195.801,-26.855,-71.289,3222.405,378.94962043420463
913,1686623844.51,-37.598,-572.754,-21.484,-56.152,3222.409,375.34530854542567
914,1686623844.52,15.625,-178.223,151.367,24.414,3222.413,375.0539984348871
915,1686623844.52,14.648,232.422,154.785,17.578,3222.417,378.14436198408794
916,1686623844.52,-44.922,-335.449,-119.629,-69.824,3222.421,367.40525917454835
917,1686623844.53,-72.266,-1000.0,-135.742,-93.75,3222.425,377.99137671714266
918,1686623844.53,-22.461,-609.863,195.801,-13.672,3222.429,377.36856726380535
919,1686623844.53,5.371,103.027,183.594,30.762,3222.433,380.95311640439434
920,1686623844.54,-49.316,-360.84,-88.867,-44.922,3222.437,372.3600804264106
921,1686623844.54,-83.496,-770.996,-73.73,-104.004,3222.441,367.58544506951284
922,1686623844.55,-38.574,-205.078,188.965,-40.527,3222.445,376.0782720571774
923,1686623844.55,-1.465,1.465,116.211,31.738,3222.448,368.2223451498237
924,1686623844.57,-22.949,-121.094,3.418,-13.672,3222.466,369.96132810000296
925,1686623844.57,-56.641,-231.445,59.57,-91.797,3222.47,373.6308755390025
926,1686623844.58,-32.715,14.648,160.645,-57.129,3222.473,372.923639136381
927,1686623844.58,9.766,127.441,96.68,14.648,3222.477,375.65748982572757
928,1686623844.58,2.93,-258.789,-52.246,0.488,3222.481,372.91353937655003
929,1686623844.59,-39.551,-631.348,-16.602,-77.637,3222.485,379.33602354183574
930,1686623844.59,-49.316,-400.879,134.766,-84.961,3222.489,375.1212320580891
931,1686623844.6,-0.977,13.672,96.191,4.883,3222.493,379.8501202529718
932,1686623844.6,5.859,-594.727,-89.844,23.926,3222.497,372.70613950592207
933,1686623844.6,-38.574,-736.816,92.773,-73.73,3222.501,380.6574539582237
934,1686623844.61,-56.641,-47.852,187.012,-123.047,3222.505,376.5716244717415
935,1686623844.61,-18.066,-96.68,53.711,-41.504,3222.509,371.31080256118804
936,1686623844.63,-0.488,-130.859,48.34,19.043,3222.524,376.0560532849746
937,1686623844.63,-42.48,12.695,83.008,-41.016,3222.528,376.3133342903966
938,1686623844.64,-66.895,-20.508,75.195,-113.77,3222.532,373.79465607458405
939,1686623844.64,-46.387,-226.074,33.203,-77.148,3222.536,372.9620371118822
940,1686623844.64,-9.277,-401.855,42.969,2.441,3222.539,372.4086207089734
941,1686623844.64,-1.953,-1000.0,-62.988,11.23,3222.541,375.3509130917446
942,1686623844.65,-22.461,-348.145,77.148,-25.391,3222.543,372.4235582123559
943,1686623844.65,18.066,-519.043,182.129,33.691,3222.545,371.1702064389344
944,1686623844.65,-67.871,-466.309,36.133,-98.633,3222.547,375.0555717443536
945,1686623844.65,-39.551,38.574,105.469,-68.359,3222.549,377.2790833514395
946,1686623844.66,-49.316,-727.539,44.434,-75.195,3222.551,370.84760756769816
947,1686623844.66,-68.848,-273.926,34.18,-111.816,3222.553,373.11965376629445
948,1686623844.66,8.789,-427.734,116.211,10.742,3222.555,373.0349333566202
949,1686623844.66,-15.625,-113.77,131.348,-36.621,3222.557,374.48663038527377
950,1686623844.66,-6.836,111.816,131.836,2.441,3222.559,375.3275296833176
951,1686623844.66,12.695,17.578,104.004,25.391,3222.561,375.9331212183035
952,1686623844.67,-61.523,20.508,32.715,-89.355,3222.563,371.12409174562663
953,1686623844.67,-33.203,-266.113,15.625,-26.367,3222.565,370.66943433655575
954,1686623844.67,-69.824,-477.539,80.078,-97.168,3222.569,374.5035871353071
955,1686623844.67,-59.082,-541.504,-120.605,-91.309,3222.567,384.74173791145273
956,1686623844.68,-38.574,-180.664,165.527,-52.734,3222.572,364.59303325357
957,1686623844.68,5.859,13.184,102.539,25.391,3222.576,369.05752185218705
958,1686623844.68,-20.996,-303.711,-3.418,-15.137,3222.58,369.8725975667495
959,1686623844.69,-63.965,-522.461,-0.977,-93.262,3222.584,366.8455965767417
960,1686623844.69,-47.363,-212.402,148.926,-70.801,3222.584,371.8982512184025
961,1686623844.69,0.0,179.688,171.387,13.184,3222.588,366.68471744262297
962,1686623844.7,-4.883,-54.199,-73.73,10.254,3222.591,368.0204478034579
963,1686623844.7,-64.941,-857.422,-213.867,-87.891,3222.595,380.1731880471935
964,1686623844.7,-73.242,-807.129,98.633,-109.375,3222.599,366.41369460827434
965,1686623844.71,-13.184,-265.137,192.383,-20.508,3222.603,370.7786423838737
966,1686623844.71,6.836,-452.637,-12.695,23.438,3222.607,368.96107888154353
967,1686623844.71,-49.805,-1000.0,-146.484,-43.945,3222.611,374.6749458947883
968,1686623844.72,-77.637,-488.77,143.066,-98.633,3222.615,376.7101823814548
969,1686623844.72,-32.227,173.828,166.992,-30.273,3222.619,371.1246620863558
970,1686623844.73,-4.395,77.637,70.801,33.203,3222.623,372.84747344187497
971,1686623844.73,-33.203,-69.824,41.504,-36.133,3222.627,372.74952752825766
972,1686623844.74,-71.777,-205.566,3.418,-105.469,3222.635,376.3884077427174
973,1686623844.74,-43.457,-53.223,89.844,-54.199,3222.639,376.44751316326324
974,1686623844.74,6.836,-211.914,73.242,25.879,3222.643,366.99552835210625
975,1686623844.75,-8.301,-185.547,100.098,-0.488,3222.647,370.9531246717285
976,1686623844.75,-51.758,-54.199,24.902,-86.426,3222.651,379.1834027054386
977,1686623844.76,-43.457,-306.641,31.738,-84.961,3222.655,378.6995118321178
978,1686623844.76,2.441,-663.086,29.785,6.836,3222.659,378.15071780480963
979,1686623844.76,5.371,-384.766,102.539,29.785,3222.663,371.28378813692404
980,1686623844.77,-36.133,145.508,92.773,-61.035,3222.667,374.23891354155455
981,1686623844.77,-42.48,-208.496,-20.508,-83.008,3222.671,373.09644633954383
982,1686623844.77,-4.395,-215.82,64.453,-13.184,3222.674,372.2435247384978
983,1686623844.78,-25.391,182.129,76.172,-37.109,3222.688,375.26469812840446
984,1686623844.78,9.277,157.715,120.117,24.414,3222.678,372.4622387092492
985,1686623844.78,-56.152,-289.551,-62.5,-97.656,3222.692,374.21305581026644
986,1686623844.78,-20.02,-550.781,-12.695,-32.715,3222.696,376.1041559855725
987,1686623844.79,10.742,-119.629,153.32,27.344,3222.7,371.79007112570434
988,1686623844.79,-27.344,-120.117,24.902,-29.785,3222.704,367.3125784894647
989,1686623844.8,-62.5,-627.441,-156.738,-102.051,3222.708,372.41389055425265
990,1686623844.8,-34.18,-1000.0,-166.016,-60.547,3222.712,375.412548930788
991,1686623844.8,10.254,-653.809,158.691,28.809,3222.716,371.0320169302999
992,1686623844.81,-0.488,120.117,187.5,-1.465,3222.719,371.79866849405244
993,1686623844.81,-51.758,-178.223,-16.113,-106.934,3222.723,372.78451227025425
994,1686623844.82,-50.781,-265.625,105.469,-97.168,3222.727,373.44499819857526
995,1686623844.82,-3.418,143.066,175.781,-3.906,3222.731,378.04425050587275
996,1686623844.84,-4.395,187.012,52.246,14.648,3222.735,377.0223842590113
997,1686623844.84,-43.457,-136.23,-37.109,-62.012,3222.739,370.94893900707035
998,1686623844.85,-51.27,-187.5,83.008,-96.191,3222.743,372.93505737114447
999,1686623844.85,0.0,94.238,148.926,-2.441,3222.747,375.5457341227722
1000,1686623844.85,20.996,97.168,49.316,48.34,3222.751,366.6080395941591
1001,1686623844.86,-25.879,-420.898,-74.707,-36.621,3222.755,372.05674746461784
1002,1686623844.86,-52.734,-763.184,43.457,-98.145,3222.759,368.3416795692938
1003,1686623844.86,-9.277,-340.82,197.266,-25.391,3222.763,362.6901030757644
1004,1686623844.87,26.855,74.707,87.891,47.363,3222.767,366.78164775820846
1005,1686623844.87,-10.742,-606.445,-111.328,1.465,3222.77,362.50879819671076
1006,1686623844.88,-58.594,-716.309,99.609,-87.402,3222.774,376.79134009398587
1007,1686623844.88,-42.48,-13.672,185.059,-69.336,3222.778,375.5885719867072
1008,1686623844.88,1.953,-45.898,43.457,20.508,3222.779,369.402909696651
1009,1686623844.89,-6.348,-166.504,31.738,-0.488,3222.783,372.4735097384647
1010,1686623844.89,-44.922,-103.027,73.242,-81.055,3222.787,368.12244739493957
1011,1686623844.89,-42.969,-15.625,129.883,-86.914,3222.79,367.1157832051472
1012,1686623844.9,2.441,-318.359,-17.09,1.465,3222.794,366.4793125444416
1013,1686623844.9,17.09,-726.074,-73.242,41.992,3222.798,373.88446439195206
1014,1686623844.9,-34.18,-545.41,99.609,-45.41,3222.802,372.0758702257165
1015,1686623844.91,-62.988,-410.645,98.145,-102.051,3222.806,380.06668033473346
1016,1686623844.91,-16.602,-631.836,-10.742,-20.996,3222.81,376.73793222095793
1017,1686623844.92,14.648,-988.281,-31.738,49.805,3222.814,376.81180712343587
1018,1686623844.92,-19.531,-386.23,179.199,-16.602,3222.818,375.1956453456281
1019,1686623844.92,-56.641,-72.754,82.031,-85.938,3222.822,364.7829040764111
1020,1686623844.93,-24.414,-321.777,36.621,-32.227,3222.826,373.544794007732
1021,1686623844.93,18.555,-40.039,135.742,43.457,3222.83,369.48102867249327
1022,1686623844.94,-11.719,186.523,92.285,-2.93,3222.834,365.8437959657351
1023,1686623844.94,-70.801,-95.215,-20.996,-95.703,3222.838,362.7321796083777
1024,1686623844.94,-50.293,-402.832,-2.93,-70.801,3222.842,375.10443138742875
1025,1686623844.95,12.695,-416.992,100.098,28.32,3222.845,366.96845886901843
1026,1686623844.95,-9.766,-221.191,141.602,22.461,3222.849,368.57440633293294
1027,1686623844.96,-64.453,-171.875,39.551,-76.172,3222.853,375.89965739453174
1028,1686623844.96,-67.871,-697.754,-49.316,-97.168,3222.857,364.43727474520284
1029,1686623844.96,-13.672,-457.52,169.922,0.488,3222.861,369.41299608192986
1030,1686623844.97,6.348,-46.875,138.672,41.992,3222.865,366.4327893440962
1031,1686623844.97,-59.57,-628.418,8.789,-91.309,3222.869,372.0826191114475
1032,1686623844.97,-41.016,-477.539,-52.246,-43.457,3222.869,361.39808757073325
1033,1686623844.98,-21.484,-158.203,161.133,-20.508,3222.873,366.02992885647444
1034,1686623844.98,4.395,194.336,139.648,31.738,3222.877,366.6512034820455
1035,1686623844.98,-24.902,-185.059,-74.219,-15.625,3222.881,372.4815969762389
1036,1686623844.99,-58.105,-755.859,-101.562,-89.844,3222.884,374.40465438055435
1037,1686623844.99,-35.156,-610.352,127.93,-56.641,3222.888,380.5008632778651
1038,1686623845.0,8.301,-319.336,159.18,21.484,3222.892,369.2751363793187
1039,1686623845.0,-8.301,-573.73,-28.809,-7.324,3222.896,374.41814809983794
1040,1686623845.0,-64.453,-1000.0,-124.512,-82.52,3222.9,366.5832980927172
1041,1686623845.01,-51.758,-463.867,181.641,-75.684,3222.904,362.78832122241573
1042,1686623845.01,4.395,149.902,162.109,14.16,3222.908,367.8317130460677
1043,1686623845.02,-3.906,-26.855,25.879,19.043,3222.912,373.44939974569616
1044,1686623845.02,-58.594,-315.918,0.0,-65.43,3222.926,375.73644725199676
1045,1686623845.03,-57.129,-345.703,98.145,-72.754,3222.93,364.01638109612384
1046,1686623845.03,0.0,-41.992,135.742,11.23,3222.934,368.16646610415046
1047,1686623845.04,9.277,-244.629,37.598,49.316,3222.938,363.1226171441467
1048,1686623845.04,-36.133,-453.125,49.805,-29.297,3222.942,363.3165053196688
1049,1686623845.04,-62.988,-514.16,31.738,-79.59,3222.946,361.2580783091399
1050,1686623845.05,-26.367,-477.539,106.445,-15.625,3222.95,370.9811818192679
1051,1686623845.05,4.883,-635.742,56.641,49.805,3222.954,374.57459581961876
1052,1686623845.06,-27.832,-481.445,92.773,-1.465,3222.958,370.52499673312866
1053,1686623845.06,-66.406,-6.836,137.207,-86.914,3222.961,374.57883950613297
1054,1686623845.06,-10.742,62.012,98.145,19.043,3222.959,369.28526094056264
1055,1686623845.06,-50.293,-226.074,39.551,-51.758,3222.965,373.2636764015214
1056,1686623845.07,-60.547,17.578,42.969,-72.754,3222.963,363.1586104434237
1057,1686623845.07,-3.418,-224.121,55.664,35.156,3222.969,368.8635716644331
1058,1686623845.07,-54.688,-312.988,14.16,-83.008,3222.967,370.2727242767855
1059,1686623845.08,-2.93,-471.68,55.176,15.137,3222.971,374.37136873390153
1060,1686623845.08,-5.371,-303.223,112.793,30.762,3222.975,367.5767247275221
1061,1686623845.08,-51.27,-399.414,45.41,-66.895,3222.978,369.86230614331333
1062,1686623845.09,-62.988,-698.242,-52.246,-94.238,3222.982,378.6831261733003
1063,1686623845.09,-19.043,-1000.0,-119.141,3.906,3222.986,364.6270977814249
1064,1686623845.09,3.418,-666.504,149.414,46.387,3222.99,366.2694167729783
1065,1686623845.1,-39.551,-3.418,163.086,-45.898,3222.994,366.398434847574
1066,1686623845.1,-72.266,-303.223,-17.578,-104.492,3222.998,372.0938909136921
1067,1686623845.11,-31.738,-247.07,111.816,-37.109,3223.002,369.35002772581856
1068,1686623845.11,18.555,145.02,164.551,42.969,3223.018,372.76369300429394
1069,1686623845.11,-3.418,55.176,34.668,4.883,3223.022,364.94994909579566
1070,1686623845.12,-41.992,-321.777,-53.223,-70.801,3223.026,375.253681888334
1071,1686623845.12,-25.391,-232.422,116.699,-40.039,3223.03,367.88546764655064
1072,1686623845.12,21.484,167.969,132.812,38.574,3223.033,372.1762457639185
1073,1686623845.13,13.184,-83.008,-76.172,25.391,3223.037,374.2207953458256
1074,1686623845.13,-44.434,-775.879,-120.117,-59.57,3223.041,366.79192499979297
1075,1686623845.14,-51.758,-725.586,130.859,-72.754,3223.045,370.16409479131886
1076,1686623845.14,7.812,32.227,239.746,17.578,3223.049,375.9478416596518
1077,1686623845.14,10.742,44.922,4.883,41.992,3223.053,372.06116234873764
1078,1686623845.15,-37.598,-506.348,-29.297,-54.199,3223.057,364.41125470150286
1079,1686623845.15,-36.133,-383.301,146.484,-89.844,3223.061,375.1975183454058
1080,1686623845.15,10.254,40.039,157.227,-1.465,3223.063,363.70685533482435
1081,1686623845.16,29.785,-70.801,30.762,58.105,3223.067,368.74300851564516
1082,1686623845.16,-16.113,-311.523,-52.734,-4.883,3223.071,370.8593382972874
1083,1686623845.16,-58.105,-212.402,57.129,-80.078,3223.075,368.8839352865249
1084,1686623845.17,-18.066,-298.34,118.164,-34.18,3223.079,364.30685290695067
1085,1686623845.17,20.508,-623.535,-9.277,34.668,3223.083,370.0003093652042
1086,1686623845.18,-20.02,-960.449,-88.379,-8.301,3223.087,366.8798065706148
1087,1686623845.18,-66.406,-614.258,151.855,-105.957,3223.091,370.88147654365247
1088,1686623845.18,-42.48,-201.66,158.203,-88.867,3223.095,363.8833091604074
1089,1686623845.19,0.0,-635.254,-13.184,21.973,3223.098,364.0841450772114
1090,1686623845.19,-12.207,-738.77,-5.371,26.855,3223.102,369.79589665484855
1091,1686623845.2,-48.34,-166.016,147.461,-65.918,3223.106,363.2464762785409
1092,1686623845.21,-41.992,-177.246,61.523,-84.473,3223.112,377.17407854040636
1093,1686623845.22,14.16,-292.48,123.535,4.395,3223.115,369.8591570077906
1094,1686623845.22,32.227,-52.246,162.598,38.574,3223.119,374.61689586194467
1095,1686623845.23,-27.344,67.871,67.871,-62.988,3223.123,378.6328585953494
1096,1686623845.23,-60.059,-131.836,-0.977,-102.539,3223.127,375.6655854480845
1097,1686623845.23,-7.812,-525.879,48.34,-12.207,3223.131,369.1317087637121
1098,1686623845.24,32.715,-364.258,160.156,52.734,3223.135,372.4521540041405
1099,1686623845.24,-6.836,28.32,115.234,-18.555,3223.139,370.63567485518314
1100,1686623845.24,-48.828,-236.328,-32.715,-100.586,3223.143,369.9700071616256
1101,1686623845.25,-21.973,-682.129,-19.531,-44.434,3223.147,366.3880034861846
1102,1686623845.25,24.902,-325.195,163.574,36.133,3223.151,371.12901334263904
1103,1686623845.26,1.953,-119.629,94.727,-3.906,3223.155,374.20386866940845
1104,1686623845.26,-48.34,-583.496,-63.477,-82.52,3223.154,368.2161084392576
1105,1686623845.26,-29.297,-641.113,37.598,-71.777,3223.158,366.41290449372195
1106,1686623845.27,19.531,-89.844,203.125,11.719,3223.162,367.4635387596988
1107,1686623845.27,9.766,117.188,83.496,17.578,3223.166,370.08478210306606
1108,1686623845.27,-37.598,-497.559,-142.578,-66.895,3223.169,371.961218790168
1109,1686623845.28,-45.898,-901.367,-75.684,-78.613,3223.173,367.8927799153759
1110,1686623845.28,-7.812,-502.93,186.035,13.184,3223.177,365.506551550221
1111,1686623845.28,10.742,6.836,154.297,41.992,3223.181,367.8931215135115
1112,1686623845.29,-31.25,-387.207,-116.699,-47.852,3223.185,367.91909775943566
1113,1686623845.29,-59.57,-1000.0,-90.82,-91.309,3223.189,365.04858863674957
1114,1686623845.3,-12.695,-364.746,225.098,-23.438,3223.193,369.2231580938863
1115,1686623845.3,20.02,186.035,128.418,41.016,3223.197,370.8747965198658
1116,1686623845.3,-23.438,-101.562,-29.785,-19.531,3223.205,367.81791040336617
1117,1686623845.31,-68.359,-409.668,15.137,-99.609,3223.209,373.43213677239703
1118,1686623845.31,-39.062,-324.707,126.465,-62.5,3223.213,378.12334337208245
1119,1686623845.32,12.207,47.852,109.375,22.949,3223.217,377.5244568983186
1120,1686623845.32,-7.324,-307.129,-48.34,2.441,3223.221,376.9485910078031
1121,1686623845.32,-59.082,-797.363,12.695,-79.59,3223.225,373.5598352307772
1122,1686623845.33,-49.316,-511.719,157.715,-72.266,3223.229,372.21757234082196
1123,1686623845.33,4.883,-77.148,108.398,23.438,3223.233,367.064416678801
1124,1686623845.34,10.742,-527.832,-30.273,40.039,3223.236,370.4841015921158
1125,1686623845.34,-35.156,-557.617,112.793,-57.617,3223.24,367.8495308517993
1126,1686623845.34,-51.758,-86.426,133.301,-99.609,3223.244,365.5295544469352
1127,1686623845.35,26.367,-145.508,52.246,48.34,3223.244,363.74624009801687
1128,1686623845.35,-7.812,-188.965,57.617,-12.695,3223.248,363.81277911903044
1129,1686623845.35,-20.996,11.719,73.73,-30.273,3223.248,366.4819897209179
1130,1686623845.36,-55.664,-61.523,78.125,-96.68,3223.252,365.1934069059599
1131,1686623845.36,-8.789,-307.129,24.414,-32.227,3223.256,366.4815155160339
1132,1686623845.36,22.461,-462.402,13.672,42.48,3223.26,372.22204884883365
1133,1686623845.37,-24.414,-417.48,45.898,-2.93,3223.264,369.5294614757067
1134,1686623845.37,-61.035,-589.844,36.621,-78.613,3223.267,376.9504147426939
1135,1686623845.37,-26.367,-771.484,-11.23,-44.922,3223.271,375.2941038461174
1136,1686623845.38,13.184,-1000.0,-126.953,44.434,3223.275,369.1394554388949
1137,1686623845.38,2.441,-680.664,107.91,17.578,3223.279,370.51619782370364
1138,1686623845.39,-49.316,-274.902,98.633,-90.82,3223.283,370.2647375242314
1139,1686623845.39,-53.711,-480.469,7.324,-92.773,3223.287,373.592399520217
1140,1686623845.41,1.465,-117.188,148.926,11.719,3223.309,369.10990795386584
1141,1686623845.41,2.93,204.59,136.719,26.367,3223.313,368.5540659106029
1142,1686623845.42,-51.27,3.906,10.742,-62.5,3223.317,365.0359229376099
1143,1686623845.42,-62.5,-295.41,6.836,-98.145,3223.321,362.6800140122607
1144,1686623845.42,-12.695,-125.488,119.629,-29.785,3223.324,367.75732431198117
1145,1686623845.43,14.648,-135.254,10.254,21.973,3223.328,366.6088565975521
1146,1686623845.43,-19.531,-429.688,-60.059,-32.715,3223.332,364.4916016367591
1147,1686623845.44,-58.105,-861.816,-135.254,-91.797,3223.336,364.323826564777
1148,1686623845.44,-46.875,-224.121,129.883,-58.105,3223.334,361.81062275576215
1149,1686623845.44,-26.855,-729.004,50.293,-37.109,3223.34,372.1965611312224
1150,1686623845.44,10.254,134.277,136.719,37.109,3223.338,366.4187033419099
1151,1686623845.44,21.484,102.539,225.586,34.18,3223.344,367.51098081114964
1152,1686623845.44,0.977,-69.336,-21.484,25.879,3223.342,367.2585975556049
1153,1686623845.45,-9.277,-30.762,-35.645,-7.812,3223.348,367.9744615105796
1154,1686623845.45,-44.434,-420.898,-66.406,-69.336,3223.345,367.10310279377376
1155,1686623845.45,-62.988,-462.891,-41.016,-85.938,3223.352,363.877222480025
1156,1686623845.45,-40.527,-437.988,93.75,-87.402,3223.349,369.2251319419809
1157,1686623845.46,10.254,-372.07,112.793,-1.465,3223.353,371.2489164718245
1158,1686623845.46,26.855,-534.18,20.508,43.457,3223.357,366.9408733930786
1159,1686623845.46,-25.391,-592.773,23.926,-33.203,3223.361,371.30040194612536
1160,1686623845.47,-52.734,-250.488,102.051,-86.914,3223.365,367.5348950679685
1161,1686623845.47,-1.953,-221.68,117.188,-14.648,3223.369,362.3169097249526
1162,1686623845.48,38.086,-567.871,-32.715,55.664,3223.373,368.3782740283452
1163,1686623845.48,-16.602,-1000.0,-183.594,-10.742,3223.377,368.87139755324836
1164,1686623845.48,-65.918,-740.723,122.559,-99.121,3223.392,369.17978756820656
1165,1686623845.49,-25.879,-170.898,164.062,-52.246,3223.396,359.4979314869611
1166,1686623845.49,11.719,-183.594,103.516,43.945,3223.4,369.9057199300314
1167,1686623845.5,2.93,-75.195,157.715,35.156,3223.404,367.6182147301446
1168,1686623845.5,-36.133,-74.707,39.551,-50.781,3223.408,371.46959957867097
1169,1686623845.5,-20.996,-354.492,-14.16,-40.527,3223.412,364.2760038286861
1170,1686623845.51,29.297,-743.164,5.371,53.223,3223.416,364.65005516977396
1171,1686623845.51,13.184,-491.699,119.629,43.457,3223.42,377.595060511529
1172,1686623845.52,-34.18,54.199,135.254,-56.641,3223.424,370.72900761764373
1173,1686623845.52,-49.316,-198.73,3.418,-84.961,3223.428,360.10432330116805
1174,1686623845.52,0.977,-259.277,38.574,11.23,3223.431,377.85815032942014
1175,1686623845.53,21.484,24.902,103.027,43.457,3223.435,374.99908833920705
1176,1686623845.53,-33.203,-210.938,-25.879,-34.668,3223.437,370.5605589524035
1177,1686623845.53,-64.453,-673.828,-86.914,-77.148,3223.441,364.87714099284636
1178,1686623845.54,-21.484,-600.586,39.551,-11.719,3223.445,370.3279679226075
1179,1686623845.54,20.02,-31.738,137.207,43.945,3223.449,365.5464270814742
1180,1686623845.54,-12.207,-136.23,12.207,-13.184,3223.453,370.6831751085377
1181,1686623845.55,-52.246,-684.082,-145.996,-77.637,3223.457,370.03392074175616
1182,1686623845.55,-29.297,-977.051,-10.254,-34.18,3223.461,367.49701188428475
1183,1686623845.56,10.254,-312.012,254.883,37.109,3223.464,362.9481934250671
1184,1686623845.56,-1.953,217.773,70.801,8.789,3223.468,367.1393751000869
1185,1686623845.56,-53.223,-494.629,-115.234,-82.52,3223.472,370.0662297291994
1186,1686623845.57,-43.945,-633.301,52.246,-69.336,3223.476,364.4563950443209
1187,1686623845.57,9.277,88.379,207.031,28.32,3223.48,372.8940210599195
1188,1686623845.59,3.418,142.09,39.551,28.32,3223.485,368.4358116061751
1189,1686623845.59,-42.48,-251.953,-69.824,-58.594,3223.489,367.0303835308113
1190,1686623845.6,-59.57,-517.09,55.664,-82.031,3223.493,372.5041127888156
1191,1686623845.6,-18.066,-298.828,144.531,-6.348,3223.497,368.2116766580126
1192,1686623845.6,10.742,-60.059,81.055,31.738,3223.501,369.7736247410993
1193,1686623845.61,-32.227,-668.457,-129.395,-25.391,3223.505,370.54987422491064
1194,1686623845.61,-63.965,-871.094,-6.836,-84.961,3223.509,366.76288520200745
1195,1686623845.61,-15.137,-129.883,219.727,-30.762,3223.513,372.0986393748315
1196,1686623845.62,28.32,35.156,65.43,43.945,3223.517,370.9010897880265
1197,1686623845.62,-7.324,-300.781,-5.371,-3.418,3223.521,369.0226669100866
1198,1686623845.63,-47.363,-251.465,99.609,-84.961,3223.524,361.29779824774164
1199,1686623845.63,-24.902,-82.031,115.723,-56.152,3223.528,376.87455340338164
1200,1686623845.63,18.066,-174.805,47.363,40.039,3223.529,363.29163001400457
1201,1686623845.64,11.719,-265.625,-12.695,22.949,3223.533,364.1618500392673
1202,1686623845.64,-20.996,-194.336,80.566,-61.523,3223.537,367.73342774792644
1203,1686623845.64,-7.812,-125.488,124.023,-46.387,3223.541,363.66201465361536
1204,1686623845.65,32.715,-449.707,-13.184,41.504,3223.545,364.6226858013771
1205,1686623845.65,31.25,-825.195,-56.641,55.176,3223.548,367.0698219505388
1206,1686623845.66,-14.648,-647.461,75.195,-34.18,3223.552,370.2351776338252
1207,1686623845.66,-26.367,-625.977,95.703,-70.312,3223.556,366.149672117592
1208,1686623845.66,20.02,-736.816,23.926,12.207,3223.56,369.58158879154877
1209,1686623845.67,39.062,-969.727,-43.945,51.27,3223.564,359.0187758915605
1210,1686623845.67,-0.977,-441.406,157.227,-27.344,3223.568,359.5625989216028
1211,1686623845.68,-35.156,-98.633,99.609,-88.379,3223.572,366.39321192352486
1212,1686623845.68,-8.301,-311.523,57.129,-16.113,3223.576,374.0407235142401
1213,1686623845.68,25.391,-119.141,104.492,63.965,3223.58,361.02955298726334
1214,1686623845.69,-2.93,32.715,79.59,4.395,3223.584,370.19917627619543
1215,1686623845.69,-44.922,-198.73,16.113,-81.543,3223.588,364.3546685292671
1216,1686623845.7,-17.09,-431.152,17.578,-47.363,3223.592,370.9941465219148
1217,1686623845.7,44.922,-432.129,108.887,45.41,3223.596,365.9289799060293
1218,1686623845.7,27.832,-257.812,123.047,44.434,3223.599,367.35513221845645
1219,1686623845.71,-35.156,-248.047,22.461,-46.387,3223.603,367.544570286269
1220,1686623845.71,-41.504,-837.891,-124.023,-51.758,3223.607,374.6058681599464
1221,1686623845.71,13.184,-728.027,71.777,36.621,3223.611,365.3747945550382
1222,1686623845.72,22.949,85.449,189.941,55.176,3223.615,369.4334133265656
1223,1686623845.72,-31.25,-204.59,-49.316,-36.621,3223.619,370.690787638849
1224,1686623845.72,-41.504,-604.98,-44.434,-84.473,3223.619,359.3942266009012
1225,1686623845.73,3.906,-194.824,151.367,-13.672,3223.623,363.9288468017225
1226,1686623845.73,30.273,142.578,160.645,47.363,3223.627,365.7741794255307
1227,1686623845.74,-13.672,-201.66,-57.129,-16.113,3223.631,370.01837518435616
1228,1686623845.74,-51.758,-778.809,-90.82,-94.727,3223.635,357.12874962139483
1229,1686623845.74,-2.441,-686.035,124.023,-33.691,3223.639,368.9647967835473
1230,1686623845.75,47.363,-395.02,146.484,49.805,3223.643,365.61414688372844
1231,1686623845.75,14.16,-608.398,-34.668,21.484,3223.647,361.4643870428788
1232,1686623845.75,-45.898,-1000.0,-131.348,-55.176,3223.651,369.4756278186189
1233,1686623845.76,-28.809,-570.801,168.457,-44.922,3223.654,361.3621900444722
1234,1686623845.76,23.438,-138.672,160.645,41.016,3223.658,365.6436270535381
1235,1686623845.77,13.184,-533.691,10.254,34.18,3223.662,371.9370281886055
1236,1686623845.77,-32.715,-535.156,81.055,-58.105,3223.666,371.79236294458605
1237,1686623845.77,-32.227,-113.77,157.715,-77.148,3223.67,365.8726707115704
1238,1686623845.78,25.391,-58.105,75.195,20.02,3223.674,366.9229502991769
1239,1686623845.78,32.715,-147.949,95.215,58.105,3223.678,369.38407155832726
1240,1686623845.78,-17.09,-183.105,93.262,-32.715,3223.682,366.9247313911582
1241,1686623845.79,-33.691,-464.355,-44.922,-75.684,3223.686,363.6960400846907
1242,1686623845.79,9.277,-523.926,82.52,0.0,3223.69,365.5514980704124
1243,1686623845.8,41.504,-731.445,28.809,67.383,3223.693,371.35656284163224
1244,1686623845.8,5.371,-679.199,44.922,8.789,3223.697,361.02764807218216
1245,1686623845.8,-35.156,-106.445,157.715,-77.148,3223.701,365.4502281676453
1246,1686623845.81,-11.23,-288.086,33.691,-30.273,3223.705,366.2272950060301
1247,1686623845.81,36.133,-273.926,59.082,59.57,3223.709,366.84763317032827
1248,1686623845.81,16.113,-39.062,74.219,25.391,3223.712,367.4638682287236
1249,1686623845.82,-35.645,-251.953,-6.348,-66.406,3223.716,365.80893091992635
1250,1686623845.82,-26.367,-511.719,-9.277,-56.152,3223.72,360.3633304143344
1251,1686623845.82,20.508,-531.738,15.625,37.598,3223.724,367.18523062656175
1252,1686623845.83,23.438,-316.406,50.781,57.617,3223.727,372.36548898634953
1253,1686623845.83,-25.391,-509.766,-32.227,-32.715,3223.731,366.935854334093
1254,1686623845.84,-39.551,-762.207,-67.383,-65.918,3223.735,355.60745999648776
1255,1686623845.84,9.766,-1000.0,-67.871,22.949,3223.739,369.54844587923947
1256,1686623845.84,35.156,-455.078,166.504,65.918,3223.743,359.7369762516254
1257,1686623845.85,-4.395,33.203,88.867,-11.23,3223.747,363.3324578228183
1258,1686623845.85,-35.156,-410.645,-31.738,-70.312,3223.751,371.17828365827904
1259,1686623845.86,-1.953,-308.105,110.352,-2.441,3223.755,367.62475790598677
1260,1686623845.86,30.273,166.992,161.133,58.594,3223.756,363.73501398136824
1261,1686623845.86,-4.395,58.105,39.062,2.93,3223.76,364.71630172350467
1262,1686623845.87,-51.758,-358.398,-54.199,-75.195,3223.764,368.74230157276884
1263,1686623845.87,-24.902,-478.516,85.938,-41.016,3223.768,366.4998355831391
1264,1686623845.88,23.438,-240.234,147.949,52.734,3223.772,376.5133494515185
1265,1686623845.88,9.766,-196.289,27.344,35.156,3223.776,369.8059299801192
1266,1686623845.88,-35.645,-777.344,-146.973,-59.082,3223.78,365.2219211292633
1267,1686623845.89,-26.367,-834.473,28.32,-64.453,3223.783,365.56057399738086
1268,1686623845.89,30.762,-49.805,249.023,34.668,3223.787,357.8801814256244
1269,1686623845.89,15.137,26.367,18.066,44.922,3223.791,370.08545921617514
1270,1686623845.9,-49.805,-362.793,-51.27,-55.664,3223.795,360.199533169921
1271,1686623845.9,-62.012,-263.184,110.352,-85.938,3223.799,356.88858593975993
1272,1686623845.92,-8.301,-6.348,157.227,5.371,3223.814,362.02768880382894
1273,1686623845.92,13.184,-126.465,22.949,54.199,3223.818,363.97005909240727
1274,1686623845.92,-29.785,-334.961,-64.453,-16.602,3223.822,368.8012500296909
1275,1686623845.93,-53.711,-238.77,64.941,-69.336,3223.826,360.3924410379398
1276,1686623845.93,-16.602,-344.238,125.0,-12.207,3223.83,363.90070893063495
1277,1686623845.94,7.812,-614.746,2.93,54.688,3223.834,364.5398228532777
1278,1686623845.94,-33.203,-1000.0,-152.344,2.441,3223.838,363.8992563736299
1279,1686623845.94,-59.57,-837.891,128.418,-87.402,3223.842,365.32783442192846
1280,1686623845.95,-25.879,-162.109,219.238,-51.758,3223.845,367.22389725677806
1281,1686623845.95,7.812,-385.742,12.207,38.574,3223.849,361.62101776831764
1282,1686623845.96,-9.766,-549.316,38.086,14.16,3223.853,365.003373928707
1283,1686623845.96,-50.293,-110.84,125.488,-89.844,3223.857,365.673667009622
1284,1686623845.96,-50.293,-178.223,70.312,-90.332,3223.861,358.05021096129514
1285,1686623845.97,-11.23,-263.184,106.934,4.395,3223.865,369.7593421829054
1286,1686623845.97,5.371,-98.145,102.539,24.414,3223.869,367.7839428127286
1287,1686623845.98,-24.414,-62.5,42.969,-45.41,3223.873,367.06497483149695
1288,1686623845.98,-46.875,-250.488,27.344,-85.938,3223.877,366.96021320102585
1289,1686623845.98,-19.043,-522.461,40.527,-24.414,3223.88,366.92207705947845
1290,1686623845.99,-6.836,-408.203,132.812,27.832,3223.884,360.9378051604966
1291,1686623845.99,-35.645,-152.344,81.543,-31.25,3223.888,362.4540668574114
1292,1686623846.0,-69.336,-347.168,-40.039,-104.492,3223.892,358.30583292513705
1293,1686623846.0,-50.781,-890.137,-87.402,-43.457,3223.896,363.1062260455666
1294,1686623846.0,-2.93,-723.633,121.582,42.969,3223.9,367.4317611600177
1295,1686623846.01,-31.738,13.672,188.477,-1.953,3223.904,362.7959001431793
1296,1686623846.01,-86.914,-342.773,-72.754,-92.773,3223.903,370.2777926482057
1297,1686623846.01,-58.105,-603.516,-28.32,-69.824,3223.907,367.2824067787638
1298,1686623846.02,-5.371,-67.383,161.133,26.367,3223.911,364.628710486031
1299,1686623846.02,-5.371,81.055,81.543,22.949,3223.915,363.28055568353966
1300,1686623846.02,-53.223,-493.164,-117.676,-64.941,3223.919,366.4850718332872
1301,1686623846.03,-56.152,-905.762,-42.48,-72.754,3223.923,364.64976636339327
1302,1686623846.03,7.812,-622.07,139.648,19.531,3223.927,364.6007386155041
1303,1686623846.03,19.531,-190.43,170.898,41.992,3223.931,365.6890399875569
1304,1686623846.04,-32.227,-452.637,-63.965,-40.039,3223.935,365.5477535603065
1305,1686623846.04,-51.27,-1000.0,-131.348,-79.59,3223.939,369.8019780332605
1306,1686623846.05,-1.953,-499.512,223.633,-1.953,3223.942,369.45841021545345
1307,1686623846.05,38.086,-120.605,138.184,66.406,3223.946,369.96586306305517
