,timestamps,TP9,AF7,AF8,TP10,Secondary Timestamp,emg_signal
0,1685585936.87,-109.375,-289.062,0.0,-22.949,2558.766,319.2305837827735
1,1685585936.87,87.891,-183.594,76.172,20.508,2558.77,310.8275015951718
2,1685585936.88,80.566,145.508,140.137,-21.973,2558.773,315.19226044872
3,1685585936.88,-112.305,41.016,89.844,-70.312,2558.777,313.1361317754796
4,1685585936.89,-127.441,-308.105,-40.039,-35.156,2558.781,312.55074869655857
5,1685585936.89,62.988,-496.582,-114.746,28.809,2558.785,317.93425342998887
6,1685585936.89,91.309,-399.902,-41.016,9.766,2558.789,313.04109961131564
7,1685585936.9,-64.941,-391.602,-27.832,-47.363,2558.793,316.8432911825554
8,1685585936.9,-152.344,-705.566,-252.93,-25.879,2558.797,311.65524842419944
9,1685585936.9,-24.414,-1000.0,-381.836,26.855,2558.801,310.36118743394735
10,1685585936.91,97.656,-394.043,35.645,5.859,2558.805,311.44463716543504
11,1685585936.91,-14.648,-45.898,90.82,-56.641,2558.809,314.07309552485714
12,1685585936.92,-146.484,-308.594,-54.199,-73.73,2558.813,316.30259965074447
13,1685585936.92,-41.504,-63.477,114.746,-15.137,2558.817,312.0969914429664
14,1685585936.92,115.723,182.617,162.109,5.859,2558.821,312.7121851343267
15,1685585936.93,30.762,-84.473,5.371,-38.086,2558.825,313.5835345513324
16,1685585936.93,-136.719,-304.199,-56.641,-62.5,2558.829,314.4487897704905
17,1685585936.94,-100.586,-327.148,-2.441,-18.555,2558.833,320.43853872350445
18,1685585936.94,82.52,-202.148,88.867,24.414,2558.837,311.1094033890072
19,1685585936.94,88.379,-280.762,-37.598,-1.465,2558.841,309.5400833153054
20,1685585936.95,-118.652,-902.344,-339.844,-44.434,2558.845,316.3101364556337
21,1685585936.95,-154.785,-462.402,-22.949,-30.762,2558.849,319.2442137335043
22,1685585936.96,55.664,154.785,183.105,28.32,2558.852,317.82654407066224
23,1685585936.96,98.633,-413.086,-107.422,20.02,2558.856,312.3012116184153
24,1685585936.96,-84.961,-648.926,-168.945,-51.27,2558.856,313.99178247404
25,1685585936.96,-159.18,-79.59,105.469,-71.289,2558.86,313.7625222770852
26,1685585936.97,-7.812,69.824,150.879,-4.395,2558.864,311.9080761444979
27,1685585936.97,114.746,-134.277,23.438,18.555,2558.867,318.51109542630894
28,1685585936.98,-10.742,-387.207,-34.668,-34.18,2558.871,307.29649057568923
29,1685585936.98,-164.551,-496.582,-52.246,-56.152,2558.875,312.5224324702216
30,1685585936.98,-80.566,-401.367,-8.301,-27.344,2558.879,309.24399419387294
31,1685585936.99,77.637,-663.086,-206.543,3.906,2558.883,320.9642020456238
32,1685585936.99,-4.395,-989.258,-345.215,-24.902,2558.887,315.5438488092557
33,1685585937.0,-163.574,-339.355,61.523,-82.031,2558.891,311.77377476365814
34,1685585937.0,-126.953,-70.312,59.082,-50.293,2558.895,313.74990494395956
35,1685585937.0,55.664,-335.938,4.395,10.742,2558.899,310.8778482394201
36,1685585937.02,71.289,-70.801,124.023,-21.484,2558.922,312.6439317439249
37,1685585937.03,-103.516,165.039,137.207,-75.684,2558.925,316.3762034425365
38,1685585937.03,-159.18,-117.188,11.719,-48.34,2558.929,310.5271679939454
39,1685585937.04,7.812,-332.031,-29.785,11.719,2558.933,313.69469262899554
40,1685585937.04,111.328,-30.273,125.488,7.324,2558.937,314.69895495998566
41,1685585937.04,-31.738,-165.039,48.34,-47.852,2558.941,310.87427338050423
42,1685585937.05,-150.391,-602.051,-204.59,-58.594,2558.945,312.87856920654406
43,1685585937.05,-39.062,-773.926,-274.414,-5.859,2558.949,316.4825644891339
44,1685585937.05,105.957,137.207,155.273,2.441,2558.95,307.401370085505
45,1685585937.05,102.539,-225.586,58.594,-5.859,2558.953,315.72101665910276
46,1685585937.06,63.965,-15.137,29.785,-31.738,2558.954,316.5809889520745
47,1685585937.06,22.461,175.293,167.48,-66.406,2558.957,313.904696897737
48,1685585937.06,-131.836,-577.637,-113.281,-75.684,2558.958,309.47810341098585
49,1685585937.06,-144.043,-219.727,1.953,-87.891,2558.961,318.94388258253633
50,1685585937.06,-131.836,-434.57,27.832,-51.27,2558.962,309.43708837610075
51,1685585937.07,-84.473,-262.207,49.805,-38.086,2558.965,313.97440574365305
52,1685585937.07,59.57,-129.395,94.727,2.93,2558.966,315.8058367893704
53,1685585937.07,84.961,-379.883,-64.941,-3.906,2558.97,317.13704756300393
54,1685585937.07,-102.051,-702.148,-178.223,-51.758,2558.974,314.56801387791995
55,1685585937.08,-173.34,-483.398,-15.625,-50.293,2558.977,309.0252071420456
56,1685585937.08,10.254,12.695,126.465,6.836,2558.981,311.2888746445468
57,1685585937.09,131.348,68.359,118.652,15.625,2558.985,315.9928803157519
58,1685585937.09,-28.809,-564.453,-255.859,-25.879,2558.989,309.6714330610626
59,1685585937.09,-199.707,-1000.0,-417.969,-38.086,2558.993,308.8199809957538
60,1685585937.1,-66.406,-313.477,83.496,-11.719,2559.019,307.72412479366494
61,1685585937.1,110.352,-21.484,74.707,5.859,2559.023,312.31253815996985
62,1685585937.1,18.555,-251.465,-51.27,-42.48,2559.027,310.4330395340105
63,1685585937.11,-123.535,-94.727,72.266,-71.777,2559.031,312.5719665886469
64,1685585937.11,-69.336,-125.0,52.246,-14.648,2559.035,308.57336565242684
65,1685585937.12,102.051,-422.363,-64.453,39.551,2559.039,310.66603218158843
66,1685585937.12,49.805,-900.391,-338.379,20.996,2559.043,314.12134538307004
67,1685585937.12,-139.648,-573.73,-133.301,-48.828,2559.047,303.69992649896966
68,1685585937.13,-121.582,53.711,153.809,-35.156,2559.051,310.83325230540026
69,1685585937.13,55.664,-163.086,-1.465,22.949,2559.055,308.6647125904126
70,1685585937.14,99.609,-226.074,-4.395,6.348,2559.059,311.40683497846845
71,1685585937.14,-55.176,15.625,103.027,-49.316,2559.062,306.19673151101296
72,1685585937.16,-141.602,11.719,67.383,-57.617,2559.051,307.6449044645731
73,1685585937.16,1.465,-242.188,-3.906,4.883,2559.055,301.817510258423
74,1685585937.16,116.211,-190.918,54.688,13.184,2559.059,306.18205131809503
75,1685585937.17,-3.418,41.016,119.629,-53.223,2559.063,305.0789881041061
76,1685585937.17,-139.16,-171.875,15.625,-66.406,2559.067,304.1022683872396
77,1685585937.18,-61.523,-711.426,-277.344,11.23,2559.071,308.8407874088288
78,1685585937.18,87.402,-853.027,-301.27,43.945,2559.075,311.47247034704395
79,1685585937.18,28.809,-456.055,2.441,-26.855,2559.079,300.5520082324611
80,1685585937.19,-136.719,-355.957,-19.043,-64.941,2559.083,304.7277847158595
81,1685585937.19,-106.445,-643.066,-154.785,-22.949,2559.086,310.18037590505577
82,1685585937.19,81.543,-447.266,-15.625,22.949,2559.09,301.7813955883666
83,1685585937.2,95.703,102.539,139.648,-10.254,2559.094,302.5530284824868
84,1685585937.2,-91.309,-13.184,31.25,-62.5,2559.109,299.6160417275267
85,1685585937.2,-151.855,-558.105,-122.07,-41.504,2559.113,305.6190732414457
86,1685585937.21,34.668,-339.844,56.641,17.09,2559.117,306.5640975805397
87,1685585937.21,117.188,153.32,158.691,9.766,2559.121,311.85353123439705
88,1685585937.22,-57.129,-136.719,-19.043,-48.34,2559.125,304.0538606257254
89,1685585937.22,-166.016,-561.523,-162.598,-50.781,2559.129,307.66759280841256
90,1685585937.22,-9.277,-334.961,-1.465,8.301,2559.133,304.5810725843996
91,1685585937.23,142.578,197.266,215.332,27.344,2559.137,311.35223538067197
92,1685585937.23,10.254,-185.547,-65.918,-17.09,2559.14,302.88129108759324
93,1685585937.24,-171.875,-935.547,-350.586,-35.645,2559.144,312.5396353335538
94,1685585937.24,-78.125,-420.41,34.668,2.93,2559.148,302.5729416035473
95,1685585937.24,122.07,264.648,199.707,36.133,2559.152,307.22852193640733
96,1685585937.24,57.129,-295.898,-95.703,7.324,2559.141,307.8629293931147
97,1685585937.25,-129.883,-625.488,-150.391,-37.598,2559.145,312.93050609307375
98,1685585937.25,-91.309,-24.902,124.023,-16.602,2559.149,303.8767918064226
99,1685585937.26,103.516,141.602,117.188,30.273,2559.152,308.4210802971777
100,1685585937.26,103.516,-300.293,-65.43,13.672,2559.156,303.86119736406357
101,1685585937.26,-88.867,-611.328,-162.109,-33.203,2559.16,305.576679690568
102,1685585937.27,-142.578,-454.102,-75.195,-25.879,2559.164,308.11694811114313
103,1685585937.27,39.062,-59.082,112.305,28.32,2559.168,305.2513163483972
104,1685585937.28,114.746,-499.023,-176.758,27.832,2559.172,306.33232960750786
105,1685585937.28,-49.316,-790.039,-241.699,-38.574,2559.176,311.77337429483106
106,1685585937.28,-134.277,-46.387,152.832,-64.453,2559.18,310.9098466820156
107,1685585937.29,-0.977,-11.719,80.078,-1.953,2559.184,309.84331346195563
108,1685585937.29,127.441,-381.836,-40.527,35.156,2559.188,308.66358100322356
109,1685585937.3,28.809,-200.195,47.363,-28.809,2559.192,308.0023322314911
110,1685585937.3,-128.906,112.793,145.508,-69.336,2559.196,304.1690660828035
111,1685585937.3,-75.195,-108.887,21.973,-11.23,2559.2,306.7163296349827
112,1685585937.31,100.586,-358.887,-64.941,31.25,2559.204,310.1607018729847
113,1685585937.31,57.129,-385.742,-21.973,-9.766,2559.208,308.0602545211149
114,1685585937.31,-130.371,-220.703,70.801,-59.57,2559.211,311.85173544248653
115,1685585937.32,-125.0,-300.293,-37.109,-30.273,2559.215,304.30774240503195
116,1685585937.32,52.734,-749.512,-248.047,24.414,2559.219,309.03697122473477
117,1685585937.33,94.727,-230.469,62.5,-11.23,2559.223,307.7291326595356
118,1685585937.33,-77.637,111.816,136.23,-73.242,2559.227,314.19903569148556
119,1685585937.33,-170.898,-271.484,-14.16,-62.5,2559.231,315.88559396225014
120,1685585937.34,-13.184,-200.684,57.129,-1.953,2559.231,306.4728639449609
121,1685585937.34,105.469,109.863,125.977,8.789,2559.235,309.8364606529853
122,1685585937.34,-27.344,-101.074,21.484,-42.969,2559.239,310.52123008497597
123,1685585937.35,-166.504,-622.07,-171.387,-55.664,2559.243,305.0096416587348
124,1685585937.35,-63.965,-731.445,-145.508,-1.953,2559.247,305.6219059623079
125,1685585937.36,101.074,-428.711,1.465,15.625,2559.251,306.8517898908591
126,1685585937.36,26.367,-397.949,-1.465,-41.992,2559.254,313.8758444500743
127,1685585937.36,-168.457,-750.977,-260.742,-72.754,2559.258,319.9047733429681
128,1685585937.37,-144.531,-916.504,-329.102,-35.156,2559.262,307.7967939281864
129,1685585937.37,66.895,-194.824,98.145,-9.766,2559.266,306.35848427682237
130,1685585937.37,62.012,12.695,70.801,-31.25,2559.27,310.2577885248572
131,1685585937.38,-119.141,-329.102,-42.48,-68.848,2559.274,312.6508057080819
132,1685585937.38,-125.488,-134.277,82.52,-56.152,2559.278,308.57153219427533
133,1685585937.38,62.012,151.855,169.434,4.883,2559.282,308.9321383948847
134,1685585937.39,113.281,-40.039,43.945,0.0,2559.286,311.0719947402286
135,1685585937.39,-57.617,-278.809,-47.852,-56.152,2559.29,309.70874470931454
136,1685585937.4,-138.672,-161.621,55.176,-53.711,2559.294,314.410643472024
137,1685585937.4,19.531,-227.539,46.387,-0.488,2559.298,311.42779742848114
138,1685585937.4,125.488,-507.324,-114.258,10.742,2559.302,310.51131767889933
139,1685585937.41,-25.879,-939.453,-376.465,-33.691,2559.306,310.65375146898623
140,1685585937.41,-157.715,-558.105,-88.867,-62.988,2559.309,317.1228939176548
141,1685585937.42,-37.109,54.688,156.25,-15.625,2559.313,310.8045931269564
142,1685585937.42,131.836,-155.273,28.809,36.133,2559.317,308.78963093232767
143,1685585937.42,56.641,-232.422,28.32,-15.625,2559.321,308.0338468420781
144,1685585937.42,-113.281,17.09,110.84,-72.754,2559.334,312.64096426890876
145,1685585937.43,-67.383,15.137,102.051,-30.273,2559.338,313.2912761383009
146,1685585937.43,122.07,-226.074,6.836,30.762,2559.342,310.6846079169773
147,1685585937.44,120.117,-184.57,48.828,-3.418,2559.346,309.46856936631787
148,1685585937.44,-77.637,-256.836,7.324,-59.57,2559.35,308.94479950383584
149,1685585937.44,-116.211,-458.496,-68.359,-27.832,2559.354,309.85543661382746
150,1685585937.45,52.734,-679.688,-267.09,40.039,2559.358,313.5399554228264
151,1685585937.45,101.562,-1000.0,-418.945,37.598,2559.362,307.7727469380157
152,1685585937.46,-34.18,-526.855,1.465,-34.668,2559.366,314.5052018776085
153,1685585937.46,-117.676,-90.82,81.055,-38.086,2559.369,315.9580063922269
154,1685585937.46,4.883,-298.828,0.488,24.414,2559.373,313.31017816076957
155,1685585937.47,137.207,-130.859,93.75,43.945,2559.377,318.5985877971341
156,1685585937.47,34.668,110.84,138.184,-9.277,2559.379,307.2430898622454
157,1685585937.48,-125.0,-104.004,31.25,-35.645,2559.383,319.89525486280775
158,1685585937.48,-64.453,-441.406,-43.945,16.113,2559.387,313.85849570370624
159,1685585937.48,112.793,-117.676,138.184,48.828,2559.391,310.8529931448315
160,1685585937.49,82.52,133.789,131.348,-4.883,2559.395,319.2339536623462
161,1685585937.49,-114.746,-428.711,-155.273,-50.293,2559.399,312.2026618350685
162,1685585937.49,-127.93,-723.145,-237.305,-12.695,2559.403,313.7864121089979
163,1685585937.5,76.172,-150.391,88.379,24.902,2559.407,315.0557420416351
164,1685585937.5,110.352,191.895,177.246,3.418,2559.411,320.69641753067333
165,1685585937.51,-74.707,-265.137,-41.992,-45.898,2559.415,318.39177364977394
166,1685585937.51,-135.742,-677.246,-208.008,-38.086,2559.419,310.2219760240603
167,1685585937.51,42.969,-241.699,19.531,12.207,2559.422,319.5360601363784
168,1685585937.54,132.324,158.203,183.594,9.766,2559.441,316.4285950163785
169,1685585937.55,-24.902,-417.969,-90.82,-38.574,2559.444,313.760182076343
170,1685585937.55,-140.137,-665.039,-124.512,-43.945,2559.448,319.08746120444107
171,1685585937.56,-20.02,-31.738,140.137,2.93,2559.452,316.4031331657672
172,1685585937.56,122.07,-79.102,65.43,33.203,2559.456,318.61713968608456
173,1685585937.56,23.926,-693.848,-275.391,-3.906,2559.46,315.2570141986411
174,1685585937.57,-155.273,-876.465,-333.984,-36.133,2559.464,316.52870044856604
175,1685585937.57,-75.684,-208.496,86.914,-12.207,2559.468,319.9193856994378
176,1685585937.58,86.426,-56.152,24.902,23.438,2559.472,323.0811253985495
177,1685585937.58,124.023,61.523,100.098,14.16,2559.472,310.5918495455787
178,1685585937.58,113.281,-349.609,-16.602,14.16,2559.476,313.3449511349107
179,1685585937.58,87.891,-213.379,-11.719,-24.902,2559.476,311.46698365646233
180,1685585937.58,-59.57,-172.363,102.051,-49.805,2559.48,315.81593255472467
181,1685585937.58,-98.145,-161.621,63.477,-74.219,2559.48,317.344353919485
182,1685585937.59,-132.324,39.551,117.188,-37.109,2559.484,317.86559117387264
183,1685585937.59,-99.609,98.633,143.066,-44.434,2559.484,318.61584253219354
184,1685585937.59,27.832,-182.617,9.277,27.832,2559.488,311.9491843538288
185,1685585937.6,118.652,-565.918,-166.504,37.598,2559.492,321.0771809077785
186,1685585937.6,-15.137,-580.078,-174.805,-23.438,2559.496,316.63242298118234
187,1685585937.6,-128.418,-229.004,25.391,-48.34,2559.499,314.16175770320524
188,1685585937.61,-22.949,-322.754,-48.828,9.277,2559.503,317.4386946468138
189,1685585937.61,127.93,-535.156,-174.316,21.973,2559.507,316.776345353655
190,1685585937.61,47.363,-122.07,57.617,-39.551,2559.511,314.4729396777705
191,1685585937.62,-115.234,62.012,136.719,-65.43,2559.515,306.62261680266096
192,1685585937.62,-77.637,-449.219,-127.441,5.371,2559.515,316.6108426299121
193,1685585937.62,88.867,-757.324,-208.008,62.988,2559.519,322.4941344001894
194,1685585937.63,97.656,-109.863,121.582,20.02,2559.523,309.80323907574734
195,1685585937.63,-78.613,-139.16,8.301,-29.297,2559.527,317.2874268241271
196,1685585937.64,-127.93,-737.793,-284.18,-4.395,2559.531,320.7255004864858
197,1685585937.64,37.109,-880.371,-299.316,39.062,2559.535,319.85449591662007
198,1685585937.64,96.68,-485.84,-19.531,3.906,2559.539,312.9630964468075
199,1685585937.65,-43.945,-149.902,78.613,-60.059,2559.543,312.2017889677805
200,1685585937.65,-150.391,-614.746,-252.93,-47.852,2559.547,319.43848928756836
201,1685585937.66,-16.602,-750.488,-232.91,9.277,2559.551,315.8598984805479
202,1685585937.66,143.555,63.477,172.363,10.254,2559.555,320.318969231718
203,1685585937.66,26.855,41.504,56.152,-37.598,2559.558,320.8059672289445
204,1685585937.67,-146.484,-310.547,-36.133,-61.523,2559.563,315.11072459770475
205,1685585937.67,-58.105,-114.746,102.051,-11.23,2559.567,316.25845812372467
206,1685585937.67,122.559,150.391,149.902,24.414,2559.571,312.8342010947231
207,1685585937.68,51.27,-80.566,14.648,-21.484,2559.575,324.24189959911706
208,1685585937.68,-136.23,-332.031,-59.57,-66.406,2559.579,318.7382246909509
209,1685585937.69,-105.469,-368.164,-22.461,-25.391,2559.583,327.2467798767457
210,1685585937.69,83.008,-370.117,4.395,23.926,2559.587,315.7197204241246
211,1685585937.69,89.844,-529.785,-167.969,3.906,2559.591,315.3446792429257
212,1685585937.7,-111.816,-955.078,-414.551,-39.062,2559.595,320.63353505282265
213,1685585937.7,-151.367,-510.742,-66.895,-41.992,2559.598,321.42370707679646
214,1685585937.7,55.664,81.543,145.508,2.441,2559.602,313.89688394151153
215,1685585937.71,137.207,-152.832,24.902,8.789,2559.606,317.203070660533
216,1685585937.71,-7.812,-243.164,10.254,-43.945,2559.606,313.9944852646584
217,1685585937.71,-104.492,14.16,110.352,-53.711,2559.609,318.06440177092685
218,1685585937.72,19.531,34.668,90.332,10.742,2559.613,320.48939476316104
219,1685585937.72,141.602,-192.871,-1.465,24.902,2559.617,315.17627568229807
220,1685585937.73,27.832,-373.047,-25.879,-45.41,2559.621,317.94201516879457
221,1685585937.73,-139.16,-477.051,-116.699,-69.824,2559.625,323.11494666866855
222,1685585937.73,-72.266,-398.926,-70.801,-18.555,2559.629,324.7437149129612
223,1685585937.74,91.797,-615.723,-188.965,32.227,2559.633,319.08979759481394
224,1685585937.74,25.391,-1000.0,-415.527,-2.441,2559.637,315.1898392842646
225,1685585937.74,-129.883,-470.703,-29.297,-79.59,2559.641,318.6281111482847
226,1685585937.75,-96.191,-14.648,97.656,-43.457,2559.645,323.34770414264796
227,1685585937.75,71.777,-359.375,-64.941,24.902,2559.648,322.20119589285264
228,1685585937.76,98.145,-225.586,22.949,-4.883,2559.656,328.805688696496
229,1685585937.76,-71.777,82.031,100.098,-62.012,2559.66,325.9632152790859
230,1685585937.76,-141.602,-121.582,5.859,-46.387,2559.664,324.0544877023584
231,1685585937.77,28.32,-240.234,-29.785,13.672,2559.668,321.3392926851517
232,1685585937.77,130.371,-19.043,73.73,9.766,2559.672,324.8372089358535
233,1685585937.78,-15.137,-226.074,-25.391,-49.805,2559.676,328.6927402249547
234,1685585937.78,-154.297,-569.824,-219.238,-58.594,2559.68,323.2954305780191
235,1685585937.78,-48.828,-736.816,-255.859,2.93,2559.683,323.1939076651891
236,1685585937.79,119.629,-211.426,72.266,19.531,2559.687,323.2945462713807
237,1685585937.79,41.016,205.566,158.203,-30.273,2559.691,331.6688627564329
238,1685585937.8,-135.254,-239.258,-21.973,-50.781,2559.695,321.9691887947858
239,1685585937.8,-87.402,-580.078,-138.184,-3.906,2559.699,320.532489748607
240,1685585937.8,104.492,-157.715,40.527,28.809,2559.697,324.4531163484839
241,1685585937.8,83.496,138.184,143.555,-11.719,2559.701,326.2062568735144
242,1685585937.81,-120.605,-388.672,-32.715,-63.965,2559.705,321.36150745905513
243,1685585937.81,-142.578,-504.883,-18.066,-50.781,2559.709,320.67848786442875
244,1685585937.82,59.082,-235.352,51.758,-0.977,2559.713,318.2701728861141
245,1685585937.82,108.398,-382.324,-22.949,1.953,2559.716,322.464071835787
246,1685585937.82,-81.055,-690.918,-280.273,-40.527,2559.72,321.6699251408668
247,1685585937.83,-192.871,-1000.0,-498.047,-34.18,2559.724,323.2054967369886
248,1685585937.83,-8.301,-543.945,-118.652,7.812,2559.728,320.12487462688125
249,1685585937.84,136.23,17.09,103.027,11.719,2559.732,322.00985097704506
250,1685585937.84,-0.977,-156.25,20.996,-34.18,2559.736,323.7369893114291
251,1685585937.84,-127.93,-77.148,107.422,-49.316,2559.74,317.03443696819636
252,1685585937.85,-26.367,129.395,132.324,2.441,2559.755,326.9548867048573
253,1685585937.85,121.094,-56.641,15.625,28.32,2559.759,321.5010182845399
254,1685585937.86,37.109,-375.0,-42.48,-18.066,2559.763,324.17655797012355
255,1685585937.86,-134.277,-144.531,82.031,-59.57,2559.767,316.92730698467597
256,1685585937.86,-84.961,67.383,93.262,-16.113,2559.771,324.11639187418683
257,1685585937.87,95.703,-321.289,-93.262,39.062,2559.775,322.2136215525033
258,1685585937.87,63.965,-841.797,-252.93,20.508,2559.778,324.7779190901053
259,1685585937.87,-99.609,-428.711,-6.348,-41.992,2559.782,322.24863951164394
260,1685585937.88,-102.051,73.73,123.047,-30.762,2559.786,318.23887087237256
261,1685585937.88,63.477,-151.855,11.719,28.32,2559.79,317.0571724783455
262,1685585937.89,114.258,-248.047,-14.16,8.789,2559.794,322.2917681904323
263,1685585937.89,-41.016,-23.438,101.074,-51.27,2559.798,321.3610429287594
264,1685585937.9,-131.836,16.602,102.051,-51.27,2559.847,313.8066803592053
265,1685585937.91,7.812,-245.605,-13.672,16.113,2559.851,318.75790221517144
266,1685585937.91,130.859,-210.938,46.387,34.18,2559.855,318.48922504890714
267,1685585937.92,20.996,-69.824,55.176,-26.855,2559.859,321.3956784030056
268,1685585937.92,-127.93,-347.656,-70.801,-47.363,2559.863,311.9739483134675
269,1685585937.92,-69.824,-731.445,-297.852,16.602,2559.867,310.16455570429906
270,1685585937.93,72.754,-939.941,-376.953,56.641,2559.871,315.046720618187
271,1685585937.93,38.086,-406.738,29.297,-10.254,2559.875,313.4006439269574
272,1685585937.94,-114.746,-55.176,80.078,-65.43,2559.879,313.17109928328404
273,1685585937.94,-109.375,-556.641,-135.742,-10.742,2559.882,318.7085090614993
274,1685585937.94,80.078,-399.902,29.297,44.922,2559.886,313.24404891614563
275,1685585937.95,118.652,173.34,177.734,4.395,2559.89,309.60810865231866
276,1685585937.95,-68.848,-41.504,9.277,-52.734,2559.856,313.3621085965355
277,1685585937.96,-132.324,-287.109,-29.785,-35.156,2559.859,306.7075080382821
278,1685585937.96,49.316,-41.016,118.652,23.438,2559.863,318.8787035101629
279,1685585937.96,143.066,173.828,161.621,15.137,2559.867,314.7344983197067
280,1685585937.97,-21.484,-130.859,8.789,-35.645,2559.871,313.82190442813163
281,1685585937.97,-132.324,-556.641,-174.316,-38.574,2559.875,312.2930721921277
282,1685585937.98,3.418,-506.836,-115.723,8.789,2559.879,309.87707592051873
283,1685585937.98,136.719,-172.363,78.613,17.578,2559.883,305.54674911101057
284,1685585937.98,36.133,-377.93,-81.543,-24.414,2559.887,312.1905446263928
285,1685585937.99,-131.836,-699.707,-206.055,-41.992,2559.891,310.463868757323
286,1685585937.99,-62.5,-178.223,101.074,2.441,2559.895,309.31053156681975
287,1685585938.0,65.43,-382.812,-63.965,11.719,2559.891,308.4902014853142
288,1685585938.0,123.047,83.984,119.629,45.41,2559.898,303.83481875498256
289,1685585938.0,-125.977,-553.711,-105.469,-48.34,2559.895,302.59665444175306
290,1685585938.0,-91.797,-75.195,115.234,-33.691,2559.899,304.22678680990145
291,1685585938.01,104.492,15.625,81.543,26.367,2559.902,307.8028926865222
292,1685585938.01,108.398,-476.074,-115.723,19.531,2559.906,305.747596847862
293,1685585938.02,-93.262,-759.277,-178.223,-40.039,2559.91,300.03068843049004
294,1685585938.02,-153.809,-558.105,-144.043,-49.316,2559.914,306.24213564766484
295,1685585938.02,22.949,-406.738,-40.527,5.371,2559.918,307.4785555523881
296,1685585938.03,115.723,-604.492,-194.824,29.297,2559.922,311.06501316338955
297,1685585938.03,-56.152,-1000.0,-554.688,-6.348,2559.926,304.41845120956606
298,1685585938.03,-174.805,-751.465,-299.316,-42.48,2559.93,306.8804943463416
299,1685585938.04,-23.438,-177.246,21.484,-9.766,2559.934,298.8669999885257
300,1685585938.04,125.977,-127.93,58.105,28.809,2559.949,304.59036448464315
301,1685585938.04,32.715,-39.551,85.449,-28.32,2559.953,303.04793156163214
302,1685585938.05,-128.906,76.172,86.914,-70.801,2559.957,300.4236603664305
303,1685585938.05,-78.125,-64.453,32.227,-20.02,2559.961,307.0021156593429
304,1685585938.06,107.91,-205.078,-42.48,22.461,2559.965,303.53769249210075
305,1685585938.06,80.566,-269.531,-25.879,-8.789,2559.969,300.181332647893
306,1685585938.06,-108.887,-232.422,29.297,-59.082,2559.972,304.8770876323505
307,1685585938.07,-125.977,-301.758,-53.223,-33.203,2559.976,299.3490369437366
308,1685585938.07,50.293,-715.332,-231.934,27.344,2559.98,304.8956748686582
309,1685585938.08,108.887,-222.656,54.688,-1.465,2559.984,300.59151512454326
310,1685585938.08,-42.969,182.129,159.18,-57.617,2559.988,302.2498104283837
311,1685585938.08,-133.301,-203.613,9.277,-52.246,2559.992,300.34023335161794
312,1685585938.08,10.742,-411.133,0.488,7.812,2559.982,302.4333959015011
313,1685585938.09,125.488,-19.531,139.648,19.531,2559.986,305.82714363503356
314,1685585938.09,-8.789,154.785,131.836,-41.504,2559.99,307.4800414376298
315,1685585938.1,-135.742,-379.883,-71.289,-48.34,2559.994,309.7194420432375
316,1685585938.1,-23.438,-658.691,-163.086,9.277,2559.998,300.74853876079703
317,1685585938.1,116.699,-371.094,-35.156,28.32,2560.002,305.1553642928528
318,1685585938.11,41.016,-267.09,45.41,-19.531,2560.005,309.6366723742975
319,1685585938.11,-134.277,-645.508,-222.168,-46.387,2560.009,308.1997808495987
320,1685585938.12,-116.211,-916.016,-334.961,-10.254,2560.013,303.47473700593656
321,1685585938.12,85.449,-151.367,110.84,15.625,2560.017,305.881714194312
322,1685585938.12,86.914,137.695,98.633,-0.977,2560.021,306.712241157251
323,1685585938.13,-108.398,-224.609,-8.789,-51.758,2560.025,307.3111056390662
324,1685585938.15,-140.137,-92.285,99.121,-40.527,2560.043,309.5949600318707
325,1685585938.15,49.805,178.711,129.883,12.695,2560.047,303.17240418422983
326,1685585938.15,117.676,-47.363,14.16,0.488,2560.051,303.99118306057824
327,1685585938.16,-45.41,-348.633,-18.555,-51.27,2560.055,302.7905389562947
328,1685585938.16,-135.254,-133.789,85.938,-55.176,2560.059,308.90762816457385
329,1685585938.17,6.836,-141.602,43.457,-3.418,2560.062,303.66319355322184
330,1685585938.17,133.301,-467.285,-129.395,9.766,2560.066,312.3352340542204
331,1685585938.17,-4.395,-837.402,-303.711,-47.363,2560.07,311.2341829473998
332,1685585938.17,-116.211,29.785,86.914,-84.473,2560.071,307.6351493168099
333,1685585938.18,-147.461,-403.809,19.043,-83.984,2560.074,316.3453404183583
334,1685585938.18,-93.262,72.754,130.371,-45.898,2560.075,308.85118120160934
335,1685585938.18,-42.48,147.461,181.152,-32.227,2560.078,303.84269764618784
336,1685585938.18,87.402,-155.273,29.297,9.277,2560.079,308.610371893306
337,1685585938.18,117.676,-90.332,28.809,0.977,2560.082,306.2040817854361
338,1685585938.19,98.145,-185.547,25.391,-18.066,2560.083,312.91059311566426
339,1685585938.19,52.246,-216.309,-23.438,-44.434,2560.086,299.216497002574
340,1685585938.19,-91.309,-302.734,3.906,-69.336,2560.086,313.1722162383742
341,1685585938.19,-146.484,-505.371,-124.512,-48.34,2560.09,308.4657590121829
342,1685585938.2,19.043,-655.762,-171.875,17.578,2560.094,302.936325055209
343,1685585938.2,97.168,-601.074,-72.754,15.625,2560.098,312.1044928315913
344,1685585938.2,-34.668,-149.414,68.848,-48.34,2560.102,307.7750956924885
345,1685585938.21,-145.508,-3.418,108.398,-75.195,2560.106,309.2072662007412
346,1685585938.21,-43.457,-587.402,-240.723,-14.16,2560.11,311.80895589805726
347,1685585938.22,69.824,-1000.0,-394.531,19.043,2560.114,310.0013370063124
348,1685585938.22,-15.137,-369.629,28.809,-58.594,2560.145,313.26552048959354
349,1685585938.22,-144.043,-133.301,12.207,-97.656,2560.149,313.55317463629666
350,1685585938.23,-82.031,-348.633,-79.59,-46.387,2560.152,313.12613885004663
351,1685585938.23,97.656,-17.09,112.793,-13.184,2560.156,310.3190090996089
352,1685585938.24,54.688,174.316,157.227,-52.246,2560.16,313.90585815467784
353,1685585938.24,-141.113,-306.152,-120.605,-81.543,2560.164,306.9401101969029
354,1685585938.24,-155.762,-777.832,-270.508,-45.898,2560.168,315.3836265350385
355,1685585938.25,41.992,-422.363,-24.414,-10.742,2560.172,311.9502608452092
356,1685585938.25,102.051,7.324,115.234,-31.25,2560.176,310.5901168529891
357,1685585938.26,-72.754,-282.715,-86.914,-71.289,2560.18,311.6333341245284
358,1685585938.26,-156.738,-566.406,-169.434,-62.012,2560.184,316.9734421664249
359,1685585938.26,18.066,-5.859,129.395,-9.766,2560.188,317.78804389040306
360,1685585938.28,122.07,164.062,109.863,1.953,2560.176,319.50283335529116
361,1685585938.28,-31.25,-195.312,0.488,-49.316,2560.18,320.18690185321145
362,1685585938.29,-151.855,-251.953,14.648,-67.871,2560.184,315.32308983491356
363,1685585938.29,-27.344,54.688,139.648,-0.977,2560.187,315.9588570120923
364,1685585938.3,121.582,-86.914,80.566,36.621,2560.191,322.98532953617035
365,1685585938.3,14.648,-688.965,-278.809,-2.441,2560.195,313.5868507121446
366,1685585938.3,-166.504,-880.371,-327.148,-37.109,2560.199,319.2638504967196
367,1685585938.31,-102.539,-179.199,97.168,-21.973,2560.203,320.07451687504584
368,1685585938.31,92.285,144.531,110.84,21.973,2560.207,319.249764566209
369,1685585938.32,80.566,-251.465,-66.895,3.906,2560.211,317.7979465053787
370,1685585938.32,-104.004,-497.07,-107.91,-51.758,2560.215,317.13455947061004
371,1685585938.32,-120.605,-179.688,42.969,-44.922,2560.219,318.244251152052
372,1685585938.32,69.336,52.734,76.172,10.254,2560.222,321.62008703301683
373,1685585938.33,100.098,-538.574,-152.344,5.371,2560.226,322.78209900108226
374,1685585938.33,-65.918,-563.965,-41.016,-56.641,2560.23,320.6060808883264
375,1685585938.34,-135.742,-1.953,128.418,-59.57,2560.234,320.79206490497916
376,1685585938.34,14.16,-65.918,31.25,6.348,2560.238,315.78893344031695
377,1685585938.34,121.582,-407.227,-110.352,21.484,2560.242,316.0660353834224
378,1685585938.35,-10.742,-339.355,-12.695,-47.852,2560.246,317.83649272048433
379,1685585938.35,-139.648,29.297,166.504,-65.918,2560.249,310.9552663672084
380,1685585938.36,-49.316,-203.125,-32.715,8.301,2560.253,320.08916874818715
381,1685585938.36,94.238,-706.543,-246.582,39.551,2560.257,324.03189891786093
382,1685585938.36,42.969,-233.398,48.828,-28.32,2560.261,323.40102246145307
383,1685585938.37,-107.422,109.863,142.09,-74.219,2560.265,309.23265936590263
384,1685585938.37,-79.59,-275.879,-36.621,-18.555,2560.267,320.4990863109384
385,1685585938.37,93.262,-421.875,-20.996,23.438,2560.271,317.58830058748583
386,1685585938.38,95.703,-55.664,122.559,-34.668,2560.275,319.71467053289916
387,1685585938.38,-78.613,93.75,113.77,-82.52,2560.279,315.2669577229759
388,1685585938.39,-123.535,-502.93,-170.41,-24.414,2560.283,314.5610246927908
389,1685585938.39,42.48,-843.262,-259.766,38.574,2560.287,317.10603584622334
390,1685585938.39,122.559,-433.105,-13.672,15.625,2560.291,323.01645946185863
391,1685585938.4,-18.066,-124.023,59.57,-48.34,2560.295,312.0284564141752
392,1685585938.4,-148.926,-571.289,-213.867,-44.434,2560.299,311.0503180491036
393,1685585938.4,-34.668,-765.625,-246.094,15.625,2560.303,320.9600436936322
394,1685585938.41,129.883,28.32,148.926,7.324,2560.306,316.6871218754523
395,1685585938.41,22.949,46.875,50.781,-45.41,2560.31,313.31522186828624
396,1685585938.42,-138.184,-244.141,-12.207,-58.594,2560.313,318.6125633068115
397,1685585938.42,-54.688,-51.758,101.562,-10.254,2560.317,318.98799140479855
398,1685585938.42,125.488,176.758,127.441,24.414,2560.321,316.6634484214146
399,1685585938.43,73.73,-124.023,-14.16,-13.184,2560.325,311.7708984214109
400,1685585938.43,-117.676,-491.211,-139.648,-58.105,2560.329,311.1623657364775
401,1685585938.44,-115.723,-461.426,-85.938,-28.32,2560.332,310.9034289875972
402,1685585938.44,81.055,-331.055,21.973,20.508,2560.336,310.5519473904042
403,1685585938.44,117.188,-457.52,-147.949,9.277,2560.34,310.1583738198196
404,1685585938.45,-84.473,-882.812,-364.746,-34.668,2560.344,319.20062255513443
405,1685585938.45,-134.766,-384.277,40.039,-45.41,2560.348,309.5334265991434
406,1685585938.46,46.387,194.824,192.871,5.371,2560.352,314.9232349537596
407,1685585938.46,123.535,-91.797,18.555,15.137,2560.356,318.3499756122478
408,1685585938.48,-20.508,-250.977,2.93,-44.922,2560.371,311.24481868442246
409,1685585938.48,-137.207,-6.836,90.82,-63.477,2560.375,309.9087807094068
410,1685585938.48,-16.113,88.379,118.652,-2.93,2560.379,306.3348091467355
411,1685585938.49,124.023,-81.055,58.105,25.879,2560.383,309.376322923287
412,1685585938.49,18.555,-334.961,-27.344,-29.785,2560.387,305.19771482628823
413,1685585938.5,-137.695,-441.895,-50.781,-54.199,2560.391,310.4818515047289
414,1685585938.5,-69.336,-385.742,-22.461,4.395,2560.395,311.66305056911267
415,1685585938.5,97.168,-645.996,-241.699,57.129,2560.399,314.4309344459467
416,1685585938.51,43.457,-1000.0,-462.891,24.414,2560.403,307.4142354667001
417,1685585938.51,114.746,-18.066,111.816,6.348,2560.403,300.36248935867934
418,1685585938.51,-128.906,-517.09,-70.312,-60.547,2560.407,306.47312884163813
419,1685585938.51,-53.223,119.141,106.445,-46.875,2560.407,305.79481995399715
420,1685585938.51,-113.77,-55.176,90.332,-42.48,2560.411,315.10275052363096
421,1685585938.51,-126.465,-110.84,18.555,-21.973,2560.411,306.00543952152606
422,1685585938.52,77.148,-181.641,24.414,25.391,2560.414,304.04566221605944
423,1685585938.52,23.926,-246.094,7.324,37.109,2560.415,311.5390390977142
424,1685585938.52,129.883,3.418,95.703,26.855,2560.419,308.12459019068774
425,1685585938.53,-8.301,-172.852,-13.184,-34.668,2560.422,306.18797031220805
426,1685585938.53,-147.949,-560.547,-192.383,-50.781,2560.426,313.04096513178064
427,1685585938.53,-38.086,-438.477,-107.91,4.395,2560.43,302.6661671961854
428,1685585938.54,137.695,-189.941,32.715,31.25,2560.434,307.0957096575053
429,1685585938.54,56.641,-137.207,67.871,-16.602,2560.438,313.94862134356254
430,1685585938.54,-134.277,-335.938,-65.918,-60.059,2560.442,307.3512376319429
431,1685585938.55,-119.629,-970.703,-405.762,-2.441,2560.446,310.50596154623764
432,1685585938.55,80.078,-502.93,-58.594,29.785,2560.46,306.01333454041173
433,1685585938.55,92.773,72.266,127.441,-23.926,2560.464,305.42351046292663
434,1685585938.56,-93.262,-207.52,-22.949,-74.707,2560.468,303.538241344938
435,1685585938.56,-118.164,-244.141,20.508,-48.34,2560.472,307.72498259145095
436,1685585938.57,66.406,-181.641,41.504,18.066,2560.476,300.21347266971844
437,1685585938.57,118.652,-328.613,24.414,13.184,2560.48,308.7725997304771
438,1685585938.57,-64.453,-702.637,-250.488,-30.762,2560.484,308.96124567100503
439,1685585938.58,-179.688,-961.914,-362.305,-33.203,2560.487,309.15788873907513
440,1685585938.58,-14.648,-250.488,95.215,0.0,2560.491,311.05388098000896
441,1685585938.58,130.859,106.934,91.309,14.648,2560.495,308.6186570050751
442,1685585938.59,2.441,-204.59,-30.273,-25.879,2560.499,310.9524669397974
443,1685585938.59,-145.02,-375.488,-21.484,-44.922,2560.503,308.5095009806717
444,1685585938.6,-50.293,-113.77,62.012,-4.883,2560.497,306.76241716977955
445,1685585938.6,124.023,0.488,61.523,26.367,2560.5,312.3463594782457
446,1685585938.61,53.223,-435.547,-100.586,-14.648,2560.504,303.5630299819983
447,1685585938.61,-128.418,-286.621,20.996,-69.824,2560.508,308.97976715331595
448,1685585938.61,-93.262,30.762,115.234,-36.621,2560.512,307.3179970743823
449,1685585938.62,89.844,-366.699,-83.496,21.973,2560.516,307.41015668969214
450,1685585938.62,85.449,-549.805,-108.398,-1.953,2560.52,308.8355770091196
451,1685585938.62,-97.656,-125.488,95.703,-62.5,2560.524,309.92668616592914
452,1685585938.63,-136.23,94.238,160.156,-52.734,2560.528,313.2806570583025
453,1685585938.63,46.387,-238.77,-41.016,14.16,2560.532,313.77701021711187
454,1685585938.64,116.211,-686.035,-193.359,21.973,2560.536,317.07838847283125
455,1685585938.64,-30.762,-302.246,54.199,-39.551,2560.539,309.6776076370229
456,1685585938.66,-127.441,27.344,116.699,-44.922,2560.554,314.99029493471215
457,1685585938.66,-7.324,-311.523,-42.969,9.277,2560.558,315.0118493113045
458,1685585938.66,120.117,-352.539,-8.789,28.809,2560.562,319.16436730995844
459,1685585938.67,21.973,-1.953,84.473,-22.461,2560.566,319.11827929499117
460,1685585938.67,-133.301,-244.141,-38.574,-55.176,2560.57,318.9330343366741
461,1685585938.68,-70.312,-683.105,-240.234,0.977,2560.574,317.8077941854971
462,1685585938.68,75.195,-1000.0,-467.285,44.434,2560.578,316.4648366522816
463,1685585938.68,43.945,-557.129,-114.746,-20.02,2560.582,325.25932199300604
464,1685585938.69,-104.004,-29.297,94.727,-75.684,2560.586,326.9727921972754
465,1685585938.69,-108.887,-192.871,33.203,-35.645,2560.589,324.4850734513275
466,1685585938.69,76.66,-33.691,111.328,20.02,2560.593,327.234624328917
467,1685585938.7,110.352,160.645,143.555,1.953,2560.597,326.2720225161834
468,1685585938.7,-70.801,-9.277,55.176,-50.293,2560.597,322.80845298517966
469,1685585938.7,-131.836,-240.723,-13.184,-40.039,2560.601,324.4419456936297
470,1685585938.71,45.898,-29.297,123.535,19.531,2560.605,335.1463384146959
471,1685585938.71,141.602,134.766,132.812,19.043,2560.609,335.7890393545233
472,1685585938.72,-9.766,-234.375,-50.781,-35.645,2560.613,333.2602229231766
473,1685585938.72,-146.484,-736.816,-229.004,-45.41,2560.617,337.6336286469644
474,1685585938.72,-28.809,-583.496,-78.613,0.977,2560.621,336.5449214789721
475,1685585938.73,125.977,-36.133,144.531,13.672,2560.625,337.97517720340494
476,1685585938.73,30.762,-235.84,-54.688,-26.367,2560.629,336.15524862097493
477,1685585938.74,-164.062,-964.844,-381.836,-36.621,2560.632,345.22477786399764
478,1685585938.74,-102.051,-479.492,-10.254,-8.301,2560.636,340.76567781799736
479,1685585938.74,103.516,132.812,180.176,23.926,2560.64,342.06739208977734
480,1685585938.74,67.871,-171.387,12.207,-0.977,2560.641,346.6790449689702
481,1685585938.75,-115.723,-325.195,14.648,-53.711,2560.645,349.25014362548103
482,1685585938.75,-122.559,-27.832,127.441,-31.738,2560.649,345.6964114721714
483,1685585938.76,74.707,96.191,135.254,21.484,2560.652,341.1839359435924
484,1685585938.76,109.375,-343.262,-47.852,10.254,2560.656,349.68464787820614
485,1685585938.76,-75.195,-634.277,-156.738,-45.41,2560.66,349.9571016416692
486,1685585938.77,-151.367,-543.457,-96.68,-43.457,2560.664,353.23859623633194
487,1685585938.77,0.977,-400.879,13.672,22.461,2560.668,349.7133106852297
488,1685585938.78,102.539,-636.23,-201.66,39.062,2560.672,349.8833522658982
489,1685585938.78,-46.387,-987.793,-371.582,-18.555,2560.676,349.1196808370311
490,1685585938.78,-154.297,-354.492,53.223,-57.617,2560.68,342.6847824381361
491,1685585938.79,-24.414,0.0,89.844,-0.488,2560.684,347.08253924386804
492,1685585938.79,130.371,-147.461,11.23,31.738,2560.688,348.64601387243835
493,1685585938.8,52.246,-5.859,111.328,-30.762,2560.692,344.12145474998704
494,1685585938.8,-120.605,110.352,132.812,-72.754,2560.696,346.3757481852837
495,1685585938.8,-90.332,-102.539,30.762,-22.461,2560.7,349.0518105289189
496,1685585938.81,85.938,-249.023,-11.719,23.926,2560.704,347.85560002809507
497,1685585938.81,68.359,-328.613,-24.902,-11.719,2560.707,348.188186680036
498,1685585938.81,-119.629,-299.316,34.668,-62.988,2560.711,345.9203386064736
499,1685585938.82,-137.695,-295.898,-1.953,-32.227,2560.715,348.47407359581746
500,1685585938.82,35.156,-695.801,-215.332,40.527,2560.719,346.8664929863183
501,1685585938.83,103.516,-482.422,-34.18,20.996,2560.723,346.4732018637082
502,1685585938.83,-51.27,-112.305,109.863,-53.711,2560.727,349.92019338724805
503,1685585938.83,-159.668,-417.48,-94.727,-42.48,2560.731,343.87709048772837
504,1685585938.83,-5.371,-540.527,-125.488,26.367,2560.731,351.34634290611064
505,1685585938.84,138.672,68.359,155.762,23.926,2560.734,339.7421783800709
506,1685585938.84,16.113,91.797,88.867,-38.086,2560.738,345.97317105936634
507,1685585938.85,-132.812,-217.773,-6.348,-61.523,2560.742,352.2392414384436
508,1685585938.85,-41.992,-426.27,-38.574,-3.906,2560.746,345.002514198352
509,1685585938.85,119.629,-385.742,9.277,35.156,2560.75,338.12055656027337
510,1685585938.86,51.758,-386.719,-7.324,-5.859,2560.754,350.29158118985043
511,1685585938.86,-138.672,-754.395,-295.41,-36.621,2560.758,348.5838651841474
512,1685585938.86,-124.512,-927.734,-314.941,-11.719,2560.762,342.59811725647086
513,1685585938.87,81.055,-177.734,133.301,5.859,2560.766,346.05827204021665
514,1685585938.87,104.492,100.098,103.027,-11.23,2560.77,341.81754768604367
515,1685585938.88,-69.336,-266.113,-17.09,-45.898,2560.774,346.0219520012432
516,1685585938.88,-130.859,-338.379,64.453,-31.25,2560.782,345.84058241504346
517,1685585938.89,37.109,20.508,157.715,26.367,2560.786,343.0425318183314
518,1685585938.89,122.07,40.527,59.57,30.273,2560.79,346.8632050648577
519,1685585938.9,-49.805,-437.5,-54.688,-40.527,2560.793,342.6530707569487
520,1685585938.9,-161.133,-277.832,57.617,-54.688,2560.797,342.3919637741472
521,1685585938.9,-27.344,-158.203,82.031,2.93,2560.801,340.9756012656027
522,1685585938.91,116.699,-465.82,-87.891,9.766,2560.805,342.4673549563043
523,1685585938.91,0.0,-782.227,-240.723,-44.922,2560.809,342.78642960664644
524,1685585938.91,-149.414,-380.859,22.461,-83.984,2560.813,342.303071877614
525,1685585938.92,-48.828,70.312,137.695,-31.25,2560.817,342.2004101249996
526,1685585938.92,123.535,-130.859,22.461,20.996,2560.821,341.4654275458335
527,1685585938.92,-92.285,37.598,136.23,-70.312,2560.821,340.32752142060093
528,1685585938.93,80.078,-193.848,12.207,-21.973,2560.825,337.9952182730111
529,1685585938.93,-92.773,57.617,149.414,-38.574,2560.825,346.90438619775165
530,1685585938.93,74.707,-264.16,10.254,12.695,2560.828,347.7144051644966
531,1685585938.94,102.539,-332.031,13.672,-7.812,2560.832,342.77673909587764
532,1685585938.94,-67.383,-258.789,48.34,-55.664,2560.836,343.0518532276602
533,1685585938.94,-150.391,-440.43,-14.16,-53.223,2560.84,342.5155881268917
534,1685585938.95,-3.906,-673.828,-198.242,7.812,2560.844,349.70466055001594
535,1685585938.95,74.219,-1000.0,-437.5,34.668,2560.848,342.1540036153944
536,1685585938.96,-46.875,-550.781,-74.707,-46.387,2560.852,338.4795422553014
537,1685585938.96,-129.395,-6.836,115.234,-74.219,2560.856,349.6177708138951
538,1685585938.96,-23.926,-121.582,65.918,-4.883,2560.86,341.0215225142918
539,1685585938.97,111.328,12.695,131.836,20.02,2560.864,343.50143372406353
540,1685585938.99,27.832,145.508,125.0,-21.973,2560.9,344.3020815157678
541,1685585938.99,-134.766,-32.715,46.387,-49.805,2560.904,340.2798223259299
542,1685585938.99,-84.961,-221.68,-9.277,-10.742,2560.908,335.76666504911657
543,1685585939.0,101.074,31.25,142.09,32.227,2560.912,343.5122783773253
544,1685585939.0,74.219,75.684,121.094,-6.348,2560.916,344.39470223907483
545,1685585939.01,-120.605,-392.578,-111.328,-54.199,2560.919,340.3781424539466
546,1685585939.01,-158.691,-876.465,-262.695,-28.809,2560.923,339.71064588810793
547,1685585939.01,24.902,-489.746,17.578,-4.883,2560.927,338.82664913183055
548,1685585939.01,121.094,172.852,146.484,-3.418,2560.925,336.38725970790557
549,1685585939.02,101.562,187.988,219.727,-33.691,2560.931,336.57675816747263
550,1685585939.02,-25.391,-191.406,8.789,-61.523,2560.929,338.15965459730114
551,1685585939.02,-79.59,-288.086,-92.773,-79.59,2560.935,336.4404925185131
552,1685585939.02,-164.062,-317.383,17.578,-79.102,2560.933,338.1088751895424
553,1685585939.02,-177.246,-685.547,-183.105,-78.125,2560.939,329.9951448025256
554,1685585939.03,-50.293,-15.625,140.137,-20.508,2560.937,331.87751707367295
555,1685585939.03,1.953,-45.898,156.738,-18.066,2560.943,338.4033598816555
556,1685585939.03,108.887,-125.0,80.566,18.555,2560.941,333.16109459629973
557,1685585939.03,22.461,-634.277,-135.742,-21.484,2560.945,338.9513857689551
558,1685585939.04,-150.391,-733.887,-131.836,-73.73,2560.949,331.795063750259
559,1685585939.04,-110.84,-340.82,-1.953,-35.645,2560.952,327.64028913296494
560,1685585939.04,79.59,-217.773,42.969,21.484,2560.956,332.71977226112415
561,1685585939.05,65.918,-612.793,-187.012,6.836,2560.96,330.192514500971
562,1685585939.05,-144.531,-1000.0,-432.617,-32.227,2560.964,329.8493513114771
563,1685585939.06,-161.621,-545.898,-82.52,-43.457,2560.968,327.3692997713849
564,1685585939.08,52.246,-84.961,86.426,7.324,2560.984,325.842342734888
565,1685585939.08,116.211,-147.461,61.523,11.23,2560.988,327.5042597670795
566,1685585939.08,-57.617,-1.465,120.117,-59.57,2560.992,323.5139100272893
567,1685585939.09,-154.785,137.207,137.207,-57.617,2560.996,322.78944131898817
568,1685585939.09,-13.184,-46.387,55.664,20.508,2561.0,321.424145048646
569,1685585939.1,106.934,-513.184,-110.84,39.062,2561.004,321.3184238029727
570,1685585939.1,-3.906,-383.301,10.254,-35.645,2561.008,328.0393436892147
571,1685585939.1,-142.09,83.008,184.082,-69.336,2561.011,322.44762028693316
572,1685585939.11,-55.664,-168.457,-1.953,-1.465,2561.015,317.8846674359219
573,1685585939.11,98.633,-574.707,-123.047,39.551,2561.019,318.67283713064
574,1685585939.11,41.016,-330.566,38.574,-23.438,2561.023,319.00730465355264
575,1685585939.12,-136.23,-108.887,104.004,-63.477,2561.027,316.4978282495017
576,1685585939.12,-133.789,-402.832,-64.453,-11.719,2561.016,321.09326905380846
577,1685585939.12,57.617,-531.25,-116.699,36.621,2561.019,315.2523766873765
578,1685585939.13,99.121,20.508,141.113,0.0,2561.023,312.74838168097324
579,1685585939.13,-73.242,24.902,87.402,-53.223,2561.027,313.4252404748578
580,1685585939.14,-135.254,-491.699,-90.332,-29.297,2561.031,315.36192801744295
581,1685585939.14,33.203,-703.125,-107.422,28.32,2561.035,310.9790098091545
582,1685585939.14,117.676,-357.91,58.594,14.648,2561.039,316.7634693184612
583,1685585939.15,-32.227,-97.656,141.113,-52.734,2561.043,302.7514330183472
584,1685585939.15,-172.852,-584.961,-196.289,-52.734,2561.047,308.230304765543
585,1685585939.16,-47.852,-745.117,-196.289,18.066,2561.051,314.0886485233357
586,1685585939.16,130.371,50.293,206.055,23.926,2561.055,313.29493759908615
587,1685585939.16,15.625,41.016,77.148,-47.852,2561.059,311.6747207678339
588,1685585939.17,-165.527,-375.0,-4.395,-81.543,2561.064,310.50062313292716
589,1685585939.17,-100.098,-378.418,57.617,-36.133,2561.068,302.51463081147216
590,1685585939.18,85.449,15.625,169.922,-10.254,2561.072,312.09341529964803
591,1685585939.18,41.016,-12.695,84.473,-45.898,2561.076,309.92568542200837
592,1685585939.18,-158.203,-521.484,-94.238,-84.473,2561.08,314.50012236450436
593,1685585939.19,-154.785,-610.352,-40.527,-53.223,2561.084,301.9231842085597
594,1685585939.19,53.223,-184.57,134.766,4.883,2561.088,312.6010734126487
595,1685585939.19,94.727,-169.434,10.254,-10.254,2561.091,310.5213792201647
596,1685585939.2,-103.027,-728.027,-239.746,-71.289,2561.095,311.2570661828138
597,1685585939.2,-160.645,-359.863,44.434,-70.312,2561.099,309.13645917208356
598,1685585939.21,20.996,122.07,169.434,-4.395,2561.103,305.70931458104883
599,1685585939.21,117.676,-123.047,47.363,-0.977,2561.107,305.73033723014254
600,1685585939.21,-20.996,-242.676,28.32,-72.754,2561.106,312.2129632647774
601,1685585939.21,-148.438,-11.23,98.633,-101.562,2561.11,310.3440770320849
602,1685585939.22,-32.227,89.355,123.535,-28.809,2561.114,304.5646366680735
603,1685585939.22,116.699,-300.293,-24.414,28.32,2561.118,307.0512567643471
604,1685585939.23,16.602,-625.488,-93.75,-21.484,2561.122,306.82918159313033
605,1685585939.23,-148.926,-509.766,-62.988,-69.336,2561.125,307.56292665122504
606,1685585939.23,-88.867,-415.527,1.953,-22.949,2561.129,298.1333648903438
607,1685585939.24,90.332,-656.25,-183.594,38.574,2561.133,301.2860010939396
608,1685585939.24,44.434,-988.281,-350.586,10.742,2561.137,299.0139272538432
609,1685585939.24,-126.953,-360.352,59.57,-63.477,2561.141,290.60865554600304
610,1685585939.25,-134.766,-12.695,98.633,-41.504,2561.145,302.057517338107
611,1685585939.25,41.992,-179.688,49.316,14.648,2561.149,298.14873993709284
612,1685585939.29,104.492,-41.504,109.863,5.371,2561.186,292.14432264032354
613,1685585939.29,-55.664,70.801,125.488,-43.945,2561.19,291.46744306335097
614,1685585939.29,-137.695,-129.395,34.18,-46.875,2561.194,292.7482393584013
615,1685585939.3,16.113,-238.77,-5.371,7.812,2561.197,285.3293187589225
616,1685585939.3,106.445,114.258,167.969,24.902,2561.196,290.3463019074553
617,1685585939.3,131.836,-3.906,88.379,21.973,2561.201,291.8932094860856
618,1685585939.3,110.84,133.301,125.977,5.859,2561.2,286.4108574746132
619,1685585939.31,3.418,-314.453,-53.223,-37.109,2561.205,287.32498582737634
620,1685585939.31,-81.055,-241.211,-17.09,-39.551,2561.203,284.72433735206465
621,1685585939.31,-144.043,-672.852,-210.938,-67.871,2561.209,287.0990373178297
622,1685585939.31,-123.047,-293.945,30.762,-22.949,2561.207,290.43436638805645
623,1685585939.31,-75.195,-957.031,-358.398,2.441,2561.213,284.9342051521024
624,1685585939.32,58.105,-211.914,76.66,28.809,2561.211,283.78530294905346
625,1685585939.32,100.586,-520.508,-26.855,26.367,2561.217,282.91055565018235
626,1685585939.32,132.324,-329.102,12.695,19.531,2561.215,281.65861433024105
627,1685585939.32,67.871,146.484,202.148,-38.086,2561.221,284.6292460995705
628,1685585939.32,-49.805,-719.238,-229.98,-30.273,2561.219,281.4024172408349
629,1685585939.32,-121.094,-232.91,-25.879,-71.289,2561.225,286.7650953724198
630,1685585939.33,-145.02,-676.27,-175.293,-43.457,2561.223,285.73512451657894
631,1685585939.33,-96.68,-309.082,1.465,-29.785,2561.229,291.1909361728965
632,1685585939.33,31.25,-114.258,80.078,6.348,2561.227,283.11588730198395
633,1685585939.33,146.973,-232.91,-22.949,26.855,2561.231,281.0178841434974
634,1685585939.34,19.531,-453.613,-62.012,-34.668,2561.235,281.90134816065506
635,1685585939.34,-116.211,-260.254,59.082,-58.105,2561.239,287.49386622200313
636,1685585939.35,-14.648,33.691,146.973,12.695,2561.254,283.1424083690398
637,1685585939.35,131.836,31.738,92.285,29.785,2561.258,284.80263114592844
638,1685585939.35,27.832,-653.32,-256.348,-21.484,2561.262,282.95351627662717
639,1685585939.36,-169.434,-917.969,-306.641,-61.523,2561.266,291.1785332229585
640,1685585939.36,-120.117,-159.18,104.98,-53.223,2561.27,284.89022526374566
641,1685585939.37,68.359,-246.582,-15.137,12.695,2561.274,281.26454862718214
642,1685585939.37,56.641,-796.875,-194.824,-4.395,2561.278,281.6081657521697
643,1685585939.37,-113.281,-359.375,53.223,-88.379,2561.282,289.68072723011016
644,1685585939.38,-159.668,145.508,174.316,-90.332,2561.286,282.3753374802477
645,1685585939.38,19.531,-104.98,21.973,-15.137,2561.289,285.82748852746215
646,1685585939.38,108.887,-237.305,-1.953,2.93,2561.293,280.35877391054066
647,1685585939.39,-53.711,-280.273,-8.301,-63.965,2561.297,279.28259800321615
648,1685585939.4,-159.668,-172.852,78.613,-85.938,2561.302,284.099495756787
649,1685585939.41,-32.227,-370.117,-19.531,-10.254,2561.306,286.9820746126403
650,1685585939.41,109.375,-496.582,-95.215,21.484,2561.31,288.97235735930894
651,1685585939.42,27.344,21.484,145.508,-48.828,2561.314,289.66232171007715
652,1685585939.42,-130.371,-138.672,92.773,-71.289,2561.317,289.1682298253411
653,1685585939.42,-84.473,-681.152,-173.34,1.465,2561.321,285.82220908207955
654,1685585939.43,84.473,-890.625,-266.113,46.387,2561.325,286.8928190978941
655,1685585939.43,75.195,-187.5,88.867,-7.324,2561.329,282.63040239483615
656,1685585939.44,-98.633,34.18,90.332,-53.711,2561.333,293.0021098130104
657,1685585939.44,-113.281,-249.512,10.254,-26.367,2561.337,292.60878304331493
658,1685585939.44,79.102,-54.688,134.766,19.043,2561.341,291.8069803026037
659,1685585939.45,121.582,192.871,177.734,2.93,2561.345,290.04003544619354
660,1685585939.45,-52.734,22.949,63.477,-50.781,2561.352,291.24243209652843
661,1685585939.46,-126.465,-321.289,-18.555,-26.855,2561.356,288.13981709886616
662,1685585939.46,29.297,-266.602,65.918,32.715,2561.36,286.18349254712604
663,1685585939.46,138.672,103.027,163.086,26.855,2561.364,287.741967088998
664,1685585939.47,7.324,-11.719,59.57,-29.297,2561.368,287.0316634125938
665,1685585939.47,-146.484,-667.48,-173.34,-38.086,2561.371,285.7980059767637
666,1685585939.48,-44.922,-545.41,-45.898,3.418,2561.375,295.9378111654034
667,1685585939.48,120.117,110.84,199.707,5.371,2561.379,286.58011590676165
668,1685585939.48,34.18,-169.922,-27.344,-37.598,2561.383,287.45090428972725
669,1685585939.49,-153.32,-826.172,-260.254,-52.246,2561.387,290.1818435455616
670,1685585939.49,-105.469,-438.965,15.625,-14.648,2561.391,286.2518699309996
671,1685585939.5,93.262,-20.508,136.23,26.367,2561.395,285.6334751745423
672,1685585939.5,76.66,-178.223,58.105,-12.207,2561.391,281.3985390840969
673,1685585939.5,-113.281,-241.211,48.34,-61.523,2561.395,287.01641728195546
674,1685585939.5,-127.441,14.16,144.531,-32.715,2561.399,283.72220794383793
675,1685585939.51,76.172,82.031,99.121,19.531,2561.403,288.5022309763365
676,1685585939.51,122.07,-345.215,-45.898,21.973,2561.406,294.8255628476582
677,1685585939.52,-59.57,-617.188,-100.098,-37.598,2561.41,287.8945684869971
678,1685585939.52,-149.414,-520.996,-131.836,-48.828,2561.414,286.91666083556106
679,1685585939.52,12.207,-387.207,-14.648,19.531,2561.418,285.053297101595
680,1685585939.53,118.652,-629.395,-189.941,49.316,2561.422,292.73306913834494
681,1685585939.53,-36.133,-996.582,-371.094,-12.207,2561.426,281.1429513088365
682,1685585939.53,-154.297,-328.613,81.543,-60.059,2561.43,282.37402699502144
683,1685585939.54,-35.156,32.715,109.863,-10.254,2561.434,291.7773944592535
684,1685585939.54,127.441,-154.297,20.02,29.785,2561.438,279.8642785501369
685,1685585939.54,62.012,-25.879,108.398,-25.391,2561.442,282.4026795345209
686,1685585939.55,-114.746,86.914,143.555,-64.453,2561.446,279.8693001903972
687,1685585939.55,-83.984,-68.848,68.359,-11.23,2561.45,286.35142352400055
688,1685585939.56,97.656,-194.824,-0.977,33.691,2561.454,279.3146365995094
689,1685585939.56,94.727,-233.398,33.203,9.277,2561.458,281.9807676318196
690,1685585939.56,-83.496,-339.355,49.316,-41.992,2561.462,282.5923003466638
691,1685585939.57,-117.188,-443.848,-26.367,-29.297,2561.466,287.87134097096015
692,1685585939.57,50.293,-906.738,-308.594,43.457,2561.47,284.43908090796793
693,1685585939.58,127.93,-525.879,-52.246,21.484,2561.474,284.99635487847206
694,1685585939.58,-3.906,86.426,168.457,-52.246,2561.478,288.2127447735786
695,1685585939.58,-115.723,-258.301,-4.395,-42.48,2561.481,281.8781404364678
696,1685585939.58,12.207,-267.578,32.227,19.043,2561.481,284.60208842987015
697,1685585939.59,147.949,130.371,139.648,33.691,2561.485,285.3926820337399
698,1685585939.59,32.715,108.398,110.352,-21.484,2561.489,284.9272179982894
699,1685585939.6,-125.488,-268.066,-21.973,-48.34,2561.493,284.27488501215157
700,1685585939.6,-57.617,-456.055,-32.227,-5.371,2561.496,286.10871469874456
701,1685585939.6,107.91,-367.676,43.945,24.414,2561.5,283.91874989935286
702,1685585939.61,60.059,-351.562,45.898,-8.301,2561.504,285.15136993090437
703,1685585939.61,-130.859,-690.43,-221.68,-44.922,2561.508,280.54308592182184
704,1685585939.62,-146.973,-959.961,-344.238,-17.09,2561.512,288.79471525144925
705,1685585939.62,61.035,-399.902,29.785,16.602,2561.516,286.7196946366275
706,1685585939.62,104.98,-175.781,55.176,-9.766,2561.52,294.672837450964
707,1685585939.63,-79.102,-470.703,-64.941,-61.035,2561.524,280.0301008653432
708,1685585939.63,-136.23,-238.281,72.266,-50.293,2561.528,292.7210429836161
709,1685585939.64,41.016,172.363,184.082,11.719,2561.532,284.59859156860847
710,1685585939.64,123.047,16.602,45.41,21.973,2561.536,287.5295176344425
711,1685585939.64,-32.715,-174.805,11.719,-34.18,2561.54,286.59788566348846
712,1685585939.65,-147.949,-43.457,96.68,-40.039,2561.544,288.9241371278792
713,1685585939.65,-21.484,-149.902,50.781,17.578,2561.548,291.5169781432287
714,1685585939.65,121.094,-398.438,-61.523,40.527,2561.552,294.2424037959342
715,1685585939.66,14.648,-718.262,-173.828,5.371,2561.556,295.6520423442179
716,1685585939.66,-138.672,-320.312,70.801,-41.992,2561.559,293.71042476674137
717,1685585939.67,-53.223,195.312,189.941,-10.254,2561.563,286.6524776092233
718,1685585939.67,129.395,-64.453,22.949,38.086,2561.567,287.0700578833301
719,1685585939.67,73.73,-182.617,20.02,-8.301,2561.571,287.8671673355123
720,1685585939.68,-122.07,-206.055,52.246,-64.453,2561.585,291.2616249871209
721,1685585939.68,-131.348,-61.523,114.258,-40.527,2561.589,299.21250767144863
722,1685585939.68,49.316,-300.781,-20.508,19.531,2561.593,296.7706091465362
723,1685585939.69,87.402,-473.145,-56.641,2.441,2561.596,297.7159997812723
724,1685585939.69,-83.496,-236.328,34.18,-57.129,2561.6,289.0176777440696
725,1685585939.7,-161.621,-362.305,-1.953,-60.547,2561.604,290.94328814791527
726,1685585939.7,-5.859,-642.578,-159.668,9.277,2561.608,292.31423774935996
727,1685585939.7,86.426,-963.379,-322.266,28.32,2561.612,297.59004121392996
728,1685585939.71,-21.484,-317.871,65.43,-58.105,2561.616,296.7121846503955
729,1685585939.71,-137.207,-21.973,94.727,-76.66,2561.62,297.42877266340616
730,1685585939.71,-40.039,-190.918,52.246,-11.23,2561.624,294.0652100124771
731,1685585939.72,125.0,48.828,155.762,11.23,2561.628,306.9360737601594
732,1685585939.72,47.363,216.309,162.109,-33.691,2561.629,292.56204146100964
733,1685585939.72,-117.676,-12.207,52.246,-60.059,2561.633,293.91955891318474
734,1685585939.73,-89.355,-393.066,-57.617,-21.973,2561.637,304.844177885758
735,1685585939.73,82.031,-233.887,73.242,13.672,2561.641,301.7369011582228
736,1685585939.74,79.59,56.152,121.582,-22.949,2561.645,304.31418601391624
737,1685585939.74,-114.258,-269.531,-40.527,-70.801,2561.649,297.6382413510912
738,1685585939.74,-168.457,-928.223,-360.352,-37.109,2561.653,298.85220548941146
739,1685585939.75,20.508,-695.801,-188.477,18.555,2561.657,300.9178178370718
740,1685585939.75,119.629,167.48,230.957,-1.953,2561.66,300.6202288583723
741,1685585939.76,-41.992,-218.262,-61.523,-42.969,2561.664,300.0887260998649
742,1685585939.76,-151.367,-630.371,-146.973,-47.852,2561.668,298.0867810237446
743,1685585939.76,7.812,-70.801,155.762,-6.348,2561.672,302.12016845812167
744,1685585939.76,136.719,131.348,132.324,9.766,2561.676,305.36194025301944
745,1685585939.77,0.977,-211.426,24.414,-47.363,2561.679,304.8622433176499
746,1685585939.77,-145.996,-262.207,44.434,-74.707,2561.683,304.30091779527294
747,1685585939.78,-41.992,17.578,100.586,-17.09,2561.687,302.97420158475546
748,1685585939.78,126.953,-190.43,44.434,22.949,2561.691,301.01172550358854
749,1685585939.78,41.992,-672.363,-200.195,-17.578,2561.695,300.0922536507027
750,1685585939.79,-160.645,-992.188,-372.559,-51.758,2561.699,304.8419205792545
751,1685585939.79,-120.117,-495.117,-0.977,-22.949,2561.703,299.65584258623744
752,1685585939.8,99.121,93.75,139.648,26.367,2561.707,303.2385784540279
753,1685585939.8,88.379,-400.391,-90.82,9.766,2561.711,312.89572158016955
754,1685585939.8,-94.727,-516.602,-19.531,-64.453,2561.715,301.14880605535546
755,1685585939.81,-117.188,94.727,172.852,-63.477,2561.719,300.2519431372096
756,1685585939.82,58.105,43.945,72.754,14.16,2561.722,307.2718531227453
757,1685585939.83,128.418,-286.621,34.668,13.672,2561.726,305.2172396173138
758,1685585939.83,-31.25,-208.496,92.773,-61.523,2561.729,306.38083590621767
759,1685585939.84,-140.137,19.531,117.676,-68.848,2561.733,304.33174291288236
760,1685585939.84,-18.066,-141.113,37.109,-0.488,2561.737,312.2005953166727
761,1685585939.84,105.469,-567.383,-97.656,28.32,2561.741,312.08477595789384
762,1685585939.85,14.16,-415.527,20.996,-29.297,2561.745,314.63982292672415
763,1685585939.85,-129.395,-103.516,90.82,-62.988,2561.749,311.34050742865486
764,1685585939.86,-80.078,-416.016,-103.516,-14.648,2561.753,307.4963807813564
765,1685585939.86,67.383,-853.027,-251.465,33.203,2561.757,309.5354940396957
766,1685585939.86,31.738,-331.543,59.082,-23.438,2561.761,306.2600696544013
767,1685585939.87,-134.766,118.652,139.16,-83.496,2561.765,311.0522860282754
768,1685585939.87,-150.879,-252.93,1.465,-43.945,2561.766,319.47461087474596
769,1685585939.87,48.34,-223.633,70.801,5.859,2561.77,309.3873555039362
770,1685585939.88,93.262,144.531,163.086,-22.461,2561.774,312.75031331869917
771,1685585939.88,-80.566,61.035,104.492,-71.777,2561.777,315.96060451434215
772,1685585939.88,-144.043,-515.137,-111.328,-43.945,2561.781,309.05292567681596
773,1685585939.89,5.859,-681.152,-124.023,19.531,2561.785,316.08264798871767
774,1685585939.89,97.168,-365.723,25.391,19.531,2561.789,314.2758678684246
775,1685585939.9,-41.992,-108.887,96.68,-47.852,2561.793,314.32612761946206
776,1685585939.9,-185.547,-565.43,-192.871,-52.246,2561.797,317.0502501731465
777,1685585939.9,-78.613,-749.023,-226.562,1.465,2561.801,318.87210564367814
778,1685585939.91,92.773,-168.945,116.211,2.441,2561.805,309.36546061821304
779,1685585939.91,0.977,-325.684,-7.812,-45.41,2561.809,312.9927464628542
780,1685585939.92,-180.176,-589.844,-95.703,-79.59,2561.813,321.60778631726413
781,1685585939.92,-116.211,-285.156,72.754,-55.176,2561.817,315.2761266194793
782,1685585939.92,87.891,137.695,176.758,-11.23,2561.821,315.78811134899274
783,1685585939.93,59.57,-63.477,34.18,-35.156,2561.825,311.7391469781623
784,1685585939.93,-121.582,-312.012,-50.293,-80.078,2561.829,309.23687111107256
785,1685585939.94,-121.582,-408.203,-22.461,-41.016,2561.832,312.7034267545433
786,1685585939.94,68.359,-195.801,114.746,4.883,2561.836,310.43329603707224
787,1685585939.94,114.746,-202.148,26.855,-5.859,2561.84,309.97938592722414
788,1685585939.95,-85.449,-762.695,-227.539,-56.641,2561.844,308.7463259383273
789,1685585939.95,-163.086,-335.449,44.434,-77.148,2561.848,316.46305059499286
790,1685585939.96,18.066,125.0,177.734,-8.301,2561.852,312.0461979729797
791,1685585939.96,124.023,-128.418,20.508,15.137,2561.856,314.4169241029664
792,1685585939.96,0.0,-300.781,-31.738,-41.504,2561.861,311.2811466626791
793,1685585939.96,-132.812,-319.824,26.367,-65.918,2561.865,315.7914081262926
794,1685585939.97,-32.227,-85.449,121.094,-19.531,2561.869,317.47662984651333
795,1685585939.97,104.98,-354.004,-53.223,22.949,2561.873,314.7226999866351
796,1685585939.98,5.859,-808.594,-229.98,-22.461,2561.877,321.3803981821033
797,1685585939.98,-153.809,-585.938,-87.891,-71.777,2561.881,322.2725795442497
798,1685585939.98,-113.281,-389.648,15.137,-45.898,2561.885,316.0182661732335
799,1685585939.99,74.707,-644.531,-177.734,14.16,2561.888,314.05334536507013
800,1685585939.99,49.316,-958.496,-306.641,-1.953,2561.892,318.4213205273146
801,1685585940.0,-119.141,-331.543,67.871,-75.195,2561.896,312.8621996190606
802,1685585940.0,-130.371,-47.363,70.312,-63.477,2561.9,311.77964793330585
803,1685585940.0,45.41,-179.199,30.762,-3.418,2561.904,312.57861926830816
804,1685585940.01,103.516,23.926,148.438,-16.602,2561.903,315.36104045927175
805,1685585940.01,-56.641,125.977,135.742,-76.172,2561.907,314.5895260767696
806,1685585940.01,-149.902,-104.492,26.855,-66.895,2561.911,313.1705570530938
807,1685585940.02,-2.441,-391.113,-55.664,-0.977,2561.915,309.8083459025253
808,1685585940.02,130.371,-291.992,9.277,5.371,2561.919,315.54345380710527
809,1685585940.03,10.254,-292.48,6.348,-47.363,2561.923,320.70510784155766
810,1685585940.03,-140.625,-484.375,-102.051,-70.312,2561.927,308.7179925796099
811,1685585940.03,-88.379,-901.367,-357.91,-14.648,2561.931,315.8727056766081
812,1685585940.04,75.684,-554.688,-122.559,12.695,2561.935,307.39482185840933
813,1685585940.04,44.434,163.574,189.453,-43.457,2561.939,316.2450465198306
814,1685585940.04,-136.719,-176.27,-18.555,-81.055,2561.943,309.5148763358963
815,1685585940.05,-113.281,-286.621,-11.23,-48.34,2561.946,316.76598921364956
816,1685585940.05,77.637,35.156,116.699,-1.953,2561.946,308.37059743553243
817,1685585940.05,94.727,39.551,97.656,-27.344,2561.95,318.4688309383965
818,1685585940.06,-92.285,-261.23,10.742,-81.055,2561.954,313.18567109695266
819,1685585940.06,-146.484,-259.766,35.645,-67.871,2561.958,317.10235906285146
820,1685585940.07,38.086,-214.844,39.062,0.977,2561.962,315.9270717453531
821,1685585940.07,122.07,-431.641,-66.406,19.531,2561.966,318.4525782484645
822,1685585940.07,-40.039,-683.105,-253.906,-25.879,2561.969,319.36634421272134
823,1685585940.08,-178.711,-1000.0,-479.492,-31.25,2561.973,314.1956585053664
824,1685585940.08,-30.273,-583.008,-117.188,3.418,2561.977,314.9759516584999
825,1685585940.08,143.066,43.945,116.211,17.578,2561.981,312.3269367275466
826,1685585940.09,25.391,-145.996,24.414,-32.227,2561.985,319.1809928004461
827,1685585940.09,-140.625,-151.367,85.938,-71.777,2561.989,319.4287244854086
828,1685585940.1,-67.383,93.75,145.508,-21.484,2562.004,310.38230461229676
829,1685585940.1,108.398,51.27,89.844,25.391,2562.008,311.79785472360226
830,1685585940.1,67.871,-166.504,33.691,-5.371,2562.012,315.230356492309
831,1685585940.11,-116.211,-75.684,99.121,-62.012,2562.016,319.516848888205
832,1685585940.11,-109.863,57.617,126.953,-43.945,2562.02,316.51173846461154
833,1685585940.12,75.195,-227.051,-10.254,24.414,2562.024,317.1387300880895
834,1685585940.12,79.59,-754.883,-194.336,6.836,2562.028,311.12887889921467
835,1685585940.12,-87.402,-404.297,20.02,-67.871,2562.032,318.9615927563114
836,1685585940.13,-136.23,-22.461,105.957,-52.246,2562.035,311.3531351139603
837,1685585940.13,16.113,-468.262,-128.418,21.973,2562.039,317.9856856183319
838,1685585940.14,107.91,-602.051,-147.949,20.996,2562.043,316.45724895967294
839,1685585940.14,-26.855,-82.031,127.93,-59.082,2562.047,307.37990631215604
840,1685585940.16,-145.508,53.223,109.863,-79.102,2562.064,318.6160021316614
841,1685585940.16,-37.598,-235.352,6.836,-13.672,2562.068,306.9576658847819
842,1685585940.16,121.582,-163.574,80.566,15.625,2562.072,318.28366438737095
843,1685585940.17,37.598,91.797,132.812,-35.645,2562.076,318.2200926940134
844,1685585940.17,-146.484,-172.363,11.719,-69.824,2562.08,312.947281532398
845,1685585940.18,-101.074,-716.797,-275.879,2.441,2562.084,316.7665241392159
846,1685585940.18,77.148,-925.293,-300.781,59.57,2562.088,318.438967030862
847,1685585940.18,68.848,-243.164,92.773,-11.719,2562.092,317.78429099302923
848,1685585940.19,-91.797,41.504,100.586,-64.941,2562.096,313.7480537559414
849,1685585940.19,-109.375,-266.602,-28.809,-31.738,2562.099,311.85461067290527
850,1685585940.19,63.477,-119.141,58.105,16.113,2562.103,313.32633229853934
851,1685585940.2,106.445,-92.285,38.086,0.977,2562.107,316.002188660856
852,1685585940.2,-66.895,-356.934,-62.988,-55.176,2562.102,310.90668423093587
853,1685585940.21,-162.109,-543.457,-83.984,-59.57,2562.105,312.13245362472753
854,1685585940.21,0.0,-254.395,62.012,0.0,2562.109,312.61903319533167
855,1685585940.21,120.605,130.859,163.574,11.23,2562.113,310.4108634879098
856,1685585940.22,-23.438,-86.426,26.855,-49.316,2562.117,312.31618594554476
857,1685585940.22,-158.691,-520.996,-178.223,-62.988,2562.121,316.87047201836714
858,1685585940.22,-58.594,-415.039,-49.805,-14.16,2562.125,313.52293235243576
859,1685585940.23,109.375,125.977,208.496,6.836,2562.129,309.51852306051666
860,1685585940.23,36.621,-184.57,-28.809,-29.297,2562.133,319.50410956577724
861,1685585940.24,-168.457,-819.336,-282.227,-66.406,2562.137,307.95279796482924
862,1685585940.24,-123.535,-317.871,65.918,-41.016,2562.141,310.26603653705234
863,1685585940.24,92.773,166.992,203.125,15.137,2562.145,309.2477060406311
864,1685585940.25,88.867,-209.961,2.93,-2.441,2562.147,317.62008662602165
865,1685585940.25,-96.191,-460.938,-66.406,-57.129,2562.151,314.8279187262524
866,1685585940.26,-133.789,-271.484,53.711,-35.156,2562.155,313.96151329247886
867,1685585940.26,54.688,-7.812,128.906,19.531,2562.159,312.57988814894316
868,1685585940.27,118.652,-340.332,-25.391,21.484,2562.163,316.5856361444798
869,1685585940.27,-48.34,-752.93,-189.941,-25.391,2562.167,320.91177713501605
870,1685585940.27,-135.254,-580.078,-127.93,-39.551,2562.171,311.79377491768184
871,1685585940.28,16.113,-223.633,66.895,11.719,2562.175,313.1262215541904
872,1685585940.28,137.695,-458.008,-137.695,44.922,2562.178,312.8686809861588
873,1685585940.28,-12.207,-1000.0,-461.426,7.324,2562.182,318.50614745791245
874,1685585940.29,-151.367,-547.852,-100.586,-45.41,2562.186,312.6644082145393
875,1685585940.29,140.625,-150.879,60.059,45.898,2562.188,316.76598742573117
876,1685585940.29,-41.016,-77.148,85.449,-6.836,2562.19,316.3412986064204
877,1685585940.3,99.609,-16.602,125.977,5.371,2562.192,313.3575298852284
878,1685585940.3,-82.031,99.609,125.977,-41.016,2562.196,310.3141438346824
879,1685585940.3,-85.938,-62.988,61.523,-3.906,2562.2,318.87827538817174
880,1685585940.31,96.191,-344.238,-25.391,45.898,2562.204,315.8797664191106
881,1685585940.31,115.723,-346.191,19.531,18.555,2562.207,313.81183337676794
882,1685585940.31,-67.383,-347.656,20.996,-41.504,2562.211,313.88467275067774
883,1685585940.32,-116.699,-417.969,-68.848,-31.25,2562.215,310.87213309190753
884,1685585940.32,42.48,-875.488,-320.312,43.457,2562.219,310.01979543890934
885,1685585940.33,126.953,-535.156,-74.219,31.25,2562.223,310.36281978887536
886,1685585940.33,0.488,148.926,175.293,-41.992,2562.227,314.37825724419577
887,1685585940.33,-127.93,-360.352,-112.305,-46.387,2562.231,311.49770917423785
888,1685585940.35,-7.812,-400.879,-44.434,6.836,2562.246,307.9824630234031
889,1685585940.35,152.344,81.055,164.062,28.809,2562.25,307.4758935143019
890,1685585940.36,48.34,55.664,100.586,-21.484,2562.254,309.2111969527311
891,1685585940.36,-120.605,-205.078,15.625,-56.152,2562.258,310.7522995226867
892,1685585940.37,-58.105,-386.719,-8.301,-15.625,2562.262,316.5956484829551
893,1685585940.37,119.141,-318.848,30.762,22.461,2562.265,309.68837544554725
894,1685585940.37,76.172,-335.449,26.367,-23.926,2562.269,316.83176771284985
895,1685585940.38,-121.582,-663.574,-193.359,-66.406,2562.273,312.23289892081056
896,1685585940.38,-137.695,-127.441,58.105,-60.547,2562.278,309.7033131550603
897,1685585940.38,-152.832,-1000.0,-433.594,-26.855,2562.277,313.8389765348585
898,1685585940.38,49.805,-483.398,-43.945,0.977,2562.281,315.2886881283768
899,1685585940.38,30.762,201.66,165.039,-2.93,2562.282,313.7987388893602
900,1685585940.39,118.652,118.164,137.695,-24.902,2562.285,308.8072792967313
901,1685585940.39,122.559,44.434,74.219,5.859,2562.286,314.87989919197327
902,1685585940.39,-67.383,-225.098,-55.664,-71.777,2562.289,311.080838473241
903,1685585940.39,-32.227,-206.055,17.578,-51.758,2562.29,308.32359873619725
904,1685585940.4,-157.715,-142.578,75.684,-76.172,2562.294,311.9936678474272
905,1685585940.4,-48.34,-187.012,57.129,-16.113,2562.298,316.65368119703106
906,1685585940.4,103.516,-404.297,-62.988,10.742,2562.302,315.69580717953795
907,1685585940.41,16.113,-448.242,-79.59,-42.48,2562.305,314.0367529482049
908,1685585940.41,-145.02,-112.305,74.219,-83.496,2562.309,310.33949839156105
909,1685585940.42,-83.496,-53.223,83.984,-39.062,2562.313,309.79070652919506
910,1685585940.42,95.703,-452.637,-123.047,13.672,2562.317,313.21537567374617
911,1685585940.42,43.457,-914.551,-309.57,-5.371,2562.321,315.5465751306801
912,1685585940.42,-148.926,-415.039,23.438,-76.172,2562.335,318.5396678466301
913,1685585940.43,-145.508,98.145,153.32,-68.848,2562.339,320.3982604360805
914,1685585940.43,48.828,-169.922,41.016,3.418,2562.342,312.64476866950235
915,1685585940.44,112.305,-131.348,62.988,5.859,2562.346,311.8489077386475
916,1685585940.44,-57.617,-186.035,22.461,-55.176,2562.35,318.1446799794493
917,1685585940.44,-147.461,-372.07,9.277,-72.266,2562.354,308.0686421376843
918,1685585940.45,-6.836,-648.438,-182.617,-6.836,2562.358,314.98492084862835
919,1685585940.45,89.844,-958.008,-325.195,2.93,2562.362,306.95320817177986
920,1685585940.46,-10.742,-320.312,72.266,-80.078,2562.366,318.55133498013885
921,1685585940.46,-128.906,11.23,121.582,-94.727,2562.37,313.4726699877451
922,1685585940.46,-45.898,-149.902,59.57,-29.785,2562.374,317.6368574835651
923,1685585940.47,125.488,-2.93,140.625,8.301,2562.378,315.6261845006411
924,1685585940.47,63.965,-97.168,49.805,-32.227,2562.372,310.45945615796904
925,1685585940.48,-118.164,-236.328,-6.348,-75.684,2562.376,307.4060108219028
926,1685585940.48,-92.285,-404.785,-39.062,-34.668,2562.38,310.9601187242813
927,1685585940.48,91.309,-209.473,58.105,10.254,2562.384,315.31568922387146
928,1685585940.49,103.516,84.961,152.344,-16.602,2562.388,316.0317482443361
929,1685585940.49,-88.379,-323.242,-83.496,-62.988,2562.392,313.982804390809
930,1685585940.5,-169.434,-819.824,-259.277,-50.293,2562.396,314.109843202787
931,1685585940.5,8.789,-384.277,40.039,-6.348,2562.4,315.8912267483396
932,1685585940.5,102.051,207.031,199.219,-17.578,2562.403,316.02856166272835
933,1685585940.51,-62.012,-263.184,-84.961,-61.523,2562.407,313.7157891394364
934,1685585940.51,-172.852,-640.625,-167.969,-66.406,2562.411,311.59337121273944
935,1685585940.52,-24.414,-79.59,148.926,-17.578,2562.415,307.7379013875048
936,1685585940.52,123.535,151.855,150.879,4.883,2562.426,314.6694147675786
937,1685585940.52,2.93,-179.688,29.785,-45.898,2562.43,314.0344431882478
938,1685585940.52,-158.203,-384.766,-36.621,-59.57,2562.434,316.7886393242067
939,1685585940.53,-73.73,-270.508,-3.906,-7.812,2562.437,310.5932744738073
940,1685585940.53,96.191,-256.348,40.527,22.461,2562.441,311.96553691078054
941,1685585940.54,36.133,-597.168,-166.016,-5.371,2562.445,314.4323593392177
942,1685585940.54,-161.133,-1000.0,-525.879,-32.715,2562.449,314.4840009339366
943,1685585940.54,-145.02,-622.559,-184.082,-30.273,2562.453,311.1494361848103
944,1685585940.55,69.824,77.148,167.969,5.371,2562.457,314.20036496162766
945,1685585940.55,94.238,-74.219,67.871,-9.277,2562.461,314.3789052170889
946,1685585940.55,-85.938,-103.516,85.938,-75.684,2562.465,314.9018078814343
947,1685585940.56,-137.695,43.945,96.191,-59.082,2562.469,317.85811543225003
948,1685585940.58,29.297,-27.832,35.645,10.742,2562.472,310.27605753892345
949,1685585940.58,116.211,-165.039,23.438,8.789,2562.476,310.1050273601115
950,1685585940.58,-24.414,-57.617,85.938,-51.758,2562.48,310.1769165003383
951,1685585940.59,-139.648,95.215,130.859,-60.059,2562.483,310.07160177674575
952,1685585940.59,-13.184,-103.516,31.738,11.23,2562.487,318.32642850277875
953,1685585940.6,131.348,-497.07,-121.582,38.086,2562.491,314.39382903378544
954,1685585940.6,32.227,-527.832,-70.312,-22.461,2562.495,315.8095490723226
955,1685585940.6,-120.605,-236.328,73.242,-57.617,2562.499,306.03157507691134
956,1685585940.61,-57.129,-225.098,-8.789,-9.766,2562.503,315.63858836957644
957,1685585940.61,97.656,-791.504,-270.508,41.016,2562.507,308.3078364446083
958,1685585940.61,61.523,-392.578,26.367,-21.484,2562.511,305.34521225322186
959,1685585940.62,-102.051,98.145,146.484,-82.031,2562.515,314.33594068445257
960,1685585940.62,-120.117,-226.074,-2.441,-39.062,2562.519,313.8547363800707
961,1685585940.63,62.012,-195.312,55.176,20.02,2562.523,315.23033681282993
962,1685585940.63,117.676,77.637,136.23,6.348,2562.527,311.06305826746666
963,1685585940.64,-60.059,26.855,58.594,-53.711,2562.53,312.88828477769096
964,1685585940.64,-162.598,-438.965,-100.098,-43.945,2562.534,316.56822785570097
965,1685585940.64,-18.555,-709.473,-125.977,16.602,2562.538,316.8238871212515
966,1685585940.65,98.633,-432.129,2.441,19.043,2562.542,315.1035261494252
967,1685585940.65,-18.066,-141.113,101.562,-44.434,2562.546,312.2751795329954
968,1685585940.66,-162.598,-551.758,-213.867,-57.617,2562.55,313.0250940504304
969,1685585940.66,-87.891,-1000.0,-384.766,3.906,2562.554,311.08355740469045
970,1685585940.66,88.867,-311.523,80.078,11.23,2562.558,308.02975750053963
971,1685585940.67,-149.414,-343.262,-45.898,-63.477,2562.563,311.04025768087797
972,1685585940.67,23.438,-19.531,64.941,-37.598,2562.562,309.3578641751007
973,1685585940.67,-95.215,-111.328,110.84,-35.645,2562.567,306.3708132536444
974,1685585940.67,107.422,184.082,156.25,-4.395,2562.571,314.7477328723833
975,1685585940.68,91.797,7.324,40.039,-34.668,2562.575,311.69191808308886
976,1685585940.68,-89.355,-297.363,-80.566,-70.312,2562.578,309.86774832840905
977,1685585940.69,-122.07,-444.824,-104.492,-38.574,2562.582,310.7583812340411
978,1685585940.69,42.969,-255.859,60.547,2.93,2562.586,316.8121563025148
979,1685585940.69,112.793,-202.637,29.785,-8.789,2562.59,317.4755064905274
980,1685585940.7,-62.5,-744.141,-242.188,-58.594,2562.594,313.9992908587557
981,1685585940.7,-157.227,-404.297,-16.113,-61.035,2562.598,307.8126799996933
982,1685585940.7,-7.324,-17.09,96.191,-9.277,2562.602,309.7432198533442
983,1685585940.71,102.539,-526.367,-166.992,1.465,2562.606,306.72406655234954
984,1685585940.71,-21.973,-657.715,-180.176,-48.34,2562.606,311.4688966663874
985,1685585940.71,-152.832,-66.895,133.301,-74.707,2562.61,314.7396150273717
986,1685585940.72,-69.824,83.496,110.84,-24.902,2562.613,311.42992814355506
987,1685585940.72,94.238,-208.496,-0.488,20.02,2562.617,312.65455404931964
988,1685585940.72,35.645,-417.48,-28.809,-13.184,2562.621,308.1687771737882
989,1685585940.73,-141.602,-478.027,-77.637,-53.223,2562.625,309.66062445041285
990,1685585940.73,-114.258,-381.348,-26.855,-40.039,2562.629,310.87330194355593
991,1685585940.74,61.035,-615.723,-197.754,10.742,2562.633,311.7106565331712
992,1685585940.74,59.082,-957.031,-329.59,-0.488,2562.637,315.2424934600205
993,1685585940.74,-97.656,-281.25,75.195,-78.125,2562.641,314.7477507112184
994,1685585940.75,-134.766,41.504,70.312,-59.57,2562.645,307.2403501064042
995,1685585940.75,42.48,-156.25,19.531,11.719,2562.649,313.3157620418631
996,1685585940.76,125.977,-52.734,100.586,8.301,2562.657,315.47955862199825
997,1685585940.76,-32.227,-133.301,30.762,-48.828,2562.661,315.33513113610917
998,1685585940.77,-145.02,-265.625,-24.414,-59.57,2562.665,317.0688202770907
999,1685585940.77,-10.254,-418.945,-42.969,-7.812,2562.669,315.90073468593494
1000,1685585940.77,132.324,-174.805,66.895,10.742,2562.673,317.7947533924761
1001,1685585940.78,20.996,-158.203,42.48,-35.156,2562.677,322.94247409651996
1002,1685585940.78,-148.926,-488.281,-147.461,-49.805,2562.681,309.6014124150397
1003,1685585940.78,-88.379,-766.113,-237.793,14.16,2562.684,311.647507796562
1004,1685585940.79,104.98,-304.688,69.824,41.992,2562.688,315.73681509422806
1005,1685585940.79,84.961,191.895,168.945,-11.23,2562.692,314.59713037342857
1006,1685585940.8,-103.516,-216.797,-23.438,-61.523,2562.696,312.70515018820805
1007,1685585940.8,-101.074,-278.809,0.0,-39.062,2562.7,317.48978235180346
1008,1685585940.82,106.445,83.008,138.672,13.184,2562.711,314.616432951767
1009,1685585940.82,142.578,144.531,104.98,-6.348,2562.715,312.2590366072871
1010,1685585940.82,-51.758,-360.84,-55.176,-45.898,2562.719,320.30260605550677
1011,1685585940.83,-128.906,-629.883,-86.914,-33.203,2562.722,319.16216609560456
1012,1685585940.83,36.621,-358.398,-13.184,17.09,2562.726,311.1088626845628
1013,1685585940.84,123.535,-356.445,7.812,21.484,2562.73,316.5603215393306
1014,1685585940.84,-34.18,-640.137,-177.246,-25.879,2562.734,307.88943940807974
1015,1685585940.84,-179.688,-1000.0,-480.957,-27.344,2562.738,313.61331155918475
1016,1685585940.85,-54.688,-593.75,-132.324,6.348,2562.742,318.4069623126585
1017,1685585940.85,-64.941,113.77,130.371,-14.648,2562.762,316.2695710435531
1018,1685585940.85,105.469,21.973,44.434,27.344,2562.766,313.7393532678831
1019,1685585940.85,120.605,40.039,121.582,15.137,2562.746,309.2854840978736
1020,1685585940.85,67.871,-135.254,58.594,-10.254,2562.77,321.04979523288205
1021,1685585940.85,27.344,-156.738,21.484,-22.949,2562.75,316.344420338591
1022,1685585940.86,-132.324,-98.145,123.047,-54.688,2562.754,311.98968901635334
1023,1685585940.86,-104.004,-50.293,113.281,-58.105,2562.774,311.03612834018946
1024,1685585940.86,-109.375,58.105,119.629,-33.203,2562.778,320.21206236470385
1025,1685585940.87,71.289,-240.234,11.719,27.344,2562.782,312.63244755927445
1026,1685585940.87,100.586,-706.055,-196.289,16.602,2562.786,312.99410593002295
1027,1685585940.87,-77.637,-494.629,-44.434,-55.664,2562.79,315.95153556174176
1028,1685585940.88,-142.578,27.344,177.246,-59.082,2562.793,314.48393500638116
1029,1685585940.88,25.391,-142.09,-37.598,16.602,2562.797,309.30145378268026
1030,1685585940.88,104.492,-868.652,-350.586,37.598,2562.801,310.35345420242606
1031,1685585940.89,-141.602,75.684,153.809,-66.895,2562.8,314.4520870624051
1032,1685585940.89,-38.086,-516.113,-47.852,-42.48,2562.805,312.25666861059335
1033,1685585940.89,-52.734,-155.273,24.414,-11.719,2562.804,314.26273345840826
1034,1685585940.9,99.609,-120.117,62.988,14.648,2562.808,313.855103062843
1035,1685585940.9,37.598,91.797,133.301,-28.32,2562.812,312.29707684260575
1036,1685585940.9,-133.789,-154.785,24.414,-62.012,2562.816,314.1210869182389
1037,1685585940.91,-113.77,-692.871,-275.879,-2.93,2562.82,315.0404405357075
1038,1685585940.91,52.734,-883.789,-305.176,57.617,2562.823,321.22008045559244
1039,1685585940.92,72.266,-189.941,86.426,12.695,2562.827,318.5335842945252
1040,1685585940.92,-85.938,97.656,90.82,-37.598,2562.831,319.3595270393007
1041,1685585940.92,-136.23,-522.949,-144.043,-8.301,2562.835,313.2669583235622
1042,1685585940.93,40.039,-458.008,8.789,33.691,2562.839,316.02710598162406
1043,1685585940.93,124.512,180.664,178.223,13.184,2562.843,315.8530261395135
1044,1685585940.95,-39.551,8.301,17.09,-38.574,2562.847,318.9215721037043
1045,1685585940.96,-145.508,-278.809,-13.184,-41.992,2562.851,320.51750750873055
1046,1685585940.96,2.441,-54.688,111.328,15.137,2562.855,317.2154929247494
1047,1685585940.96,142.09,208.496,144.043,24.902,2562.859,317.48042704903287
1048,1685585940.97,23.438,-21.484,17.09,-32.227,2562.863,309.1410626997985
1049,1685585940.97,-136.23,-581.055,-170.898,-44.922,2562.866,317.54664290486
1050,1685585940.97,-53.223,-540.039,-83.984,-4.395,2562.87,314.13431754664657
1051,1685585940.98,120.117,51.758,148.926,14.648,2562.874,312.32405096285237
1052,1685585940.98,57.129,-108.887,-33.691,-15.625,2562.878,311.7950464598522
1053,1685585940.99,-141.113,-680.176,-248.047,-55.176,2562.882,316.3979159947556
1054,1685585940.99,-108.887,-245.117,39.062,-36.133,2562.886,311.80241140161746
1055,1685585940.99,100.098,22.461,112.305,30.762,2562.89,312.47505481827875
1056,1685585941.0,104.98,-540.527,-178.711,20.02,2562.891,322.0247519317028
1057,1685585941.0,-85.449,-661.133,-187.988,-46.875,2562.895,311.04701743555466
1058,1685585941.0,-138.672,-80.566,141.113,-49.316,2562.899,316.5042082099336
1059,1685585941.01,45.41,63.477,111.328,18.066,2562.902,314.55990954654925
1060,1685585941.01,117.188,-363.281,-46.387,27.832,2562.906,313.8923726665536
1061,1685585941.02,-51.758,-633.301,-138.184,-28.809,2562.91,308.9605207146434
1062,1685585941.02,-152.344,-533.203,-176.27,-41.016,2562.914,311.50010507602263
1063,1685585941.02,-14.16,-154.785,65.43,0.977,2562.918,315.8817392450009
1064,1685585941.03,127.441,-467.285,-126.465,32.227,2562.922,310.23316450342827
1065,1685585941.03,7.324,-858.887,-322.266,-22.949,2562.926,317.92580481965047
1066,1685585941.03,-147.949,-129.883,91.797,-79.59,2562.93,311.7172041046481
1067,1685585941.04,-72.754,-1.953,76.66,-26.855,2562.934,312.2584582963158
1068,1685585941.05,105.469,-172.363,44.434,10.742,2562.951,309.54424914668954
1069,1685585941.06,68.848,-77.148,102.539,-21.484,2562.955,310.668183597596
1070,1685585941.06,-107.422,-180.176,49.316,-65.918,2562.959,308.59264706269806
1071,1685585941.07,-98.145,-229.492,3.418,-40.527,2562.963,314.21189544760864
1072,1685585941.07,78.125,-402.832,-57.617,17.09,2562.966,313.18196123093014
1073,1685585941.07,93.75,-506.348,-73.242,-3.906,2562.97,316.0357350075895
1074,1685585941.08,-71.289,-265.137,-2.441,-70.801,2562.974,304.48431052718416
1075,1685585941.08,-131.836,-228.027,0.488,-67.871,2562.978,320.67181488077676
1076,1685585941.08,15.137,-719.727,-209.473,5.859,2562.982,310.3211971864582
1077,1685585941.08,-28.32,-299.316,4.883,-4.395,2562.981,310.14615692551763
1078,1685585941.09,120.605,-342.285,23.438,12.695,2562.986,309.8933718802616
1079,1685585941.09,135.254,91.797,150.391,24.414,2562.985,312.33322944015885
1080,1685585941.09,-3.418,125.488,145.996,-51.758,2562.99,319.416960900115
1081,1685585941.09,51.27,99.121,119.629,-19.531,2562.988,314.1527547477622
1082,1685585941.1,-132.324,-320.312,-53.711,-51.758,2562.992,308.89220061308515
1083,1685585941.1,-137.207,-286.133,-47.363,-66.895,2562.994,307.8521049083102
1084,1685585941.1,-87.402,-581.543,-160.645,-10.742,2562.996,316.7467671519368
1085,1685585941.1,95.703,-421.387,-94.727,29.785,2563.0,307.2758895444283
1086,1685585941.11,71.777,-370.605,-51.758,-4.883,2563.004,309.6197505403675
1087,1685585941.11,-120.605,-728.027,-290.039,-42.48,2563.008,314.97024604851345
1088,1685585941.12,-153.32,-849.121,-323.242,-21.973,2563.012,313.9312895208391
1089,1685585941.12,58.594,-148.438,102.051,18.066,2563.016,311.72135144714593
1090,1685585941.12,122.559,166.992,155.273,-2.93,2563.02,312.18302015356363
1091,1685585941.13,-74.219,-543.945,-203.125,-50.293,2563.024,313.7400427222107
1092,1685585941.13,-162.598,-648.438,-140.137,-55.176,2563.029,314.68595294890235
1093,1685585941.14,12.207,82.031,174.805,-13.184,2563.032,316.3780934751945
1094,1685585941.14,130.371,-6.836,26.855,2.93,2563.036,315.312723547215
1095,1685585941.14,-6.348,-216.797,0.977,-52.246,2563.04,318.6033384432913
1096,1685585941.15,-139.648,-107.91,74.707,-72.754,2563.044,315.97012071333745
1097,1685585941.15,-40.527,-220.215,8.301,-9.766,2563.048,313.1771816199358
1098,1685585941.15,108.887,-393.555,-32.227,27.344,2563.052,315.6766912548423
1099,1685585941.16,15.137,-863.281,-322.754,-15.137,2563.056,318.17126672690404
1100,1685585941.16,-156.738,-651.367,-171.387,-66.895,2563.06,314.12229525275137
1101,1685585941.17,-94.238,109.375,205.566,-43.457,2563.064,316.812928688018
1102,1685585941.17,88.379,-88.379,8.789,22.949,2563.068,313.7325345445249
1103,1685585941.17,86.914,-298.34,-64.453,4.883,2563.072,308.0967669378663
1104,1685585941.18,-84.961,-13.184,101.074,-62.012,2563.071,313.84285834124114
1105,1685585941.18,-123.047,84.961,113.77,-54.688,2563.075,315.89155299184904
1106,1685585941.18,49.316,-121.094,56.152,4.395,2563.079,316.1173821754635
1107,1685585941.19,112.793,-164.551,25.879,-10.742,2563.083,311.72068183312325
1108,1685585941.19,-41.016,-255.859,-59.57,-71.777,2563.087,311.1638232123508
1109,1685585941.2,-142.578,-384.277,-111.328,-64.941,2563.09,312.79116477363334
1110,1685585941.2,-16.113,-666.992,-270.508,11.23,2563.094,307.90464637020574
1111,1685585941.2,96.68,-960.938,-327.148,32.227,2563.098,316.17078831677134
1112,1685585941.21,-6.348,-333.984,51.27,-41.992,2563.102,313.55262552417605
1113,1685585941.21,-148.438,-88.379,13.672,-71.777,2563.106,314.8934683032566
1114,1685585941.21,-79.102,-352.051,-106.445,-21.973,2563.11,312.9429586664941
1115,1685585941.22,94.727,-126.953,51.758,11.23,2563.114,316.6540278609883
1116,1685585941.22,61.523,171.387,151.367,-23.438,2563.144,311.75869444425894
1117,1685585941.22,-118.652,-36.621,2.441,-64.453,2563.148,314.38330605778384
1118,1685585941.23,-125.977,-366.211,-48.828,-41.504,2563.152,315.8604100595939
1119,1685585941.23,65.43,-75.195,130.371,4.883,2563.156,310.0299599590106
1120,1685585941.24,89.844,113.77,98.145,-8.789,2563.16,318.96263279651845
1121,1685585941.24,-95.703,-324.219,-119.629,-60.059,2563.164,311.57468450490006
1122,1685585941.24,-169.922,-803.711,-255.859,-46.387,2563.167,311.7033873562831
1123,1685585941.25,17.578,-389.16,7.812,0.0,2563.171,321.93943883912834
1124,1685585941.25,131.836,186.035,162.598,-3.906,2563.175,310.50016560267306
1125,1685585941.26,-26.855,-164.062,-44.922,-47.363,2563.179,312.77183439899073
1126,1685585941.26,-154.297,-346.68,-78.125,-52.734,2563.183,312.9698994330487
1127,1685585941.26,-21.973,-1.953,100.586,5.859,2563.187,311.8196896950895
1128,1685585941.26,118.652,-43.945,71.289,29.297,2563.174,309.04139262699516
1129,1685585941.27,-0.488,-611.328,-179.199,-18.066,2563.178,313.9813242026938
1130,1685585941.27,-157.227,-664.551,-185.059,-57.129,2563.182,312.54210822416934
1131,1685585941.28,-72.266,-67.383,96.68,-18.555,2563.186,314.9983890437037
1132,1685585941.28,100.586,-188.477,13.672,28.809,2563.19,313.86377439871893
1133,1685585941.28,46.387,-726.562,-322.754,2.93,2563.194,311.8435284098088
1134,1685585941.29,-154.785,-954.59,-368.164,-42.48,2563.198,316.74921707533406
1135,1685585941.29,-124.512,-314.453,58.594,-32.227,2563.202,312.5032868263754
1136,1685585941.3,84.473,116.211,112.305,20.02,2563.206,314.4817894533906
1137,1685585941.3,93.75,-226.074,-42.48,4.395,2563.21,317.26885536635393
1138,1685585941.3,-81.543,-233.398,12.207,-59.082,2563.213,317.7193258526061
1139,1685585941.31,-128.418,45.898,129.883,-50.293,2563.217,314.3382395914916
1140,1685585941.33,34.668,-36.133,62.5,16.602,2563.222,313.84753533188194
1141,1685585941.33,122.559,-255.371,16.113,20.508,2563.226,318.9080647553144
1142,1685585941.33,-14.16,-243.164,21.973,-46.387,2563.23,313.095755572289
1143,1685585941.34,-137.207,-268.066,-44.922,-67.871,2563.234,318.82601119636047
1144,1685585941.34,-25.879,-235.84,-17.578,-12.207,2563.238,308.404499326402
1145,1685585941.35,107.91,-641.602,-171.387,25.391,2563.242,313.6022072075697
1146,1685585941.35,20.508,-594.727,-94.238,-36.133,2563.246,323.1778724672773
1147,1685585941.35,-125.488,5.859,139.16,-84.961,2563.25,319.19339043170555
1148,1685585941.36,-83.496,-240.234,-38.574,-25.879,2563.253,315.407084337516
1149,1685585941.36,84.961,-557.617,-134.766,21.973,2563.257,312.7106401051563
1150,1685585941.36,69.824,-81.543,148.438,-16.602,2563.261,313.5941292736213
1151,1685585941.37,-108.887,60.547,110.352,-59.57,2563.265,310.8951339310759
1152,1685585941.37,-132.324,-290.527,-53.223,-37.598,2563.266,320.0296007191896
1153,1685585941.37,57.129,-238.281,20.996,8.789,2563.27,318.4565113387395
1154,1685585941.38,125.488,52.734,133.789,-16.113,2563.274,322.4476141421788
1155,1685585941.38,-35.156,8.789,71.289,-69.824,2563.278,314.2977139925978
1156,1685585941.38,-133.789,-516.113,-117.676,-47.852,2563.282,308.4454324723443
1157,1685585941.39,16.602,-689.453,-129.883,10.254,2563.286,315.2393372767155
1158,1685585941.39,141.113,-405.762,2.93,10.254,2563.289,315.1815366754223
1159,1685585941.4,12.207,-414.551,-44.434,-49.316,2563.293,310.59628019919495
1160,1685585941.4,-141.602,-711.426,-310.547,-59.082,2563.297,313.61307715901927
1161,1685585941.4,-67.383,-1000.0,-385.254,12.207,2563.301,318.50310949205755
1162,1685585941.41,112.793,-326.66,52.246,18.555,2563.305,310.3808036713451
1163,1685585941.41,68.359,74.219,81.055,-35.645,2563.309,319.66132503562693
1164,1685585941.43,-100.098,-207.031,4.395,-65.43,2563.328,309.8198889203696
1165,1685585941.44,-64.941,-49.805,135.742,-28.32,2563.332,316.31366074934857
1166,1685585941.44,117.188,178.223,157.227,19.043,2563.336,321.1864709995393
1167,1685585941.44,105.469,7.324,34.18,-1.465,2563.34,310.4614588624084
1168,1685585941.45,-89.844,-309.57,-73.242,-50.781,2563.343,312.3744977786302
1169,1685585941.45,-138.184,-429.199,-32.715,-43.457,2563.347,320.7023876976935
1170,1685585941.45,46.387,-248.535,62.5,10.742,2563.351,322.9782357006041
1171,1685585941.46,116.211,-168.945,26.367,9.766,2563.355,321.72938329895385
1172,1685585941.46,-7.812,-276.367,-33.691,-35.156,2563.356,319.35984159120085
1173,1685585941.46,-75.684,-851.562,-368.652,-32.227,2563.359,313.5531791221978
1174,1685585941.46,-153.809,-1.953,124.023,-64.453,2563.359,314.3325268628585
1175,1685585941.47,-173.34,-638.184,-150.879,-61.523,2563.363,312.1252720150128
1176,1685585941.47,-64.453,92.285,111.816,-11.719,2563.363,313.8214046657965
1177,1685585941.47,-6.348,112.793,192.383,-21.484,2563.367,309.57203352433174
1178,1685585941.47,98.633,-125.488,36.133,20.02,2563.367,315.5693831222591
1179,1685585941.47,120.117,-107.91,-15.625,21.484,2563.371,311.132186703346
1180,1685585941.48,25.391,-433.594,-47.852,-24.902,2563.371,319.79133170093115
1181,1685585941.48,-153.32,-489.746,-117.188,-70.312,2563.375,322.3397653679746
1182,1685585941.48,-125.0,-451.172,-146.484,-24.414,2563.379,317.68858109492567
1183,1685585941.49,63.965,-546.875,-100.586,39.062,2563.383,319.1068923546132
1184,1685585941.49,87.402,-287.598,54.199,6.348,2563.387,321.32769719384845
1185,1685585941.5,-88.867,38.086,91.309,-55.176,2563.391,312.5691147113314
1186,1685585941.5,-146.484,-70.801,54.199,-39.551,2563.395,319.33747547196214
1187,1685585941.5,2.441,-600.586,-189.453,26.855,2563.399,315.67434787378323
1188,1685585941.52,69.336,-1000.0,-362.305,34.668,2563.418,316.26008563885506
1189,1685585941.52,-54.199,-380.859,23.926,-42.48,2563.422,316.41924035647156
1190,1685585941.53,-146.973,-44.434,79.102,-56.152,2563.426,319.1306087025622
1191,1685585941.53,-29.785,-274.414,12.207,4.395,2563.43,313.88783311885413
1192,1685585941.54,125.977,9.277,122.559,26.855,2563.434,321.41696690865615
1193,1685585941.54,24.414,-75.684,21.973,-11.719,2563.438,312.6754790277889
1194,1685585941.54,-144.043,-452.148,-171.875,-40.527,2563.442,319.8848518902427
1195,1685585941.55,-88.867,-761.719,-244.629,10.742,2563.446,314.71302856948853
1196,1685585941.55,81.543,121.582,151.855,26.855,2563.45,315.3096775815354
1197,1685585941.55,91.797,-338.867,42.48,38.086,2563.449,320.8643191017584
1198,1685585941.55,107.91,-21.484,39.551,17.578,2563.454,310.6369125354319
1199,1685585941.56,76.66,192.871,174.316,-10.254,2563.453,313.7900544504327
1200,1685585941.56,-82.52,-583.008,-147.949,-45.41,2563.457,318.7727331142856
1201,1685585941.56,-104.004,-152.344,-11.719,-47.852,2563.457,310.4692405647757
1202,1685585941.56,-146.973,-469.238,-12.207,-51.758,2563.461,312.06704617848726
1203,1685585941.56,-110.352,-264.16,-11.23,-23.926,2563.461,315.91418748071203
1204,1685585941.57,21.973,-153.809,59.082,5.371,2563.465,322.125097335002
1205,1685585941.57,120.117,-295.898,14.16,9.766,2563.469,314.69916555223716
1206,1685585941.57,-24.414,-704.59,-215.332,-32.715,2563.473,312.7486226301468
1207,1685585941.58,-163.574,-755.371,-225.098,-51.758,2563.477,310.8486830969321
1208,1685585941.58,-43.457,-53.711,135.742,-14.16,2563.481,314.5861992703177
1209,1685585941.58,129.395,208.496,135.254,29.785,2563.485,316.9405334640464
1210,1685585941.59,32.715,-486.816,-218.262,0.977,2563.489,314.92487525505146
1211,1685585941.59,-171.387,-933.594,-345.215,-42.48,2563.493,313.7511096331911
1212,1685585941.6,-106.445,-184.082,88.867,-25.879,2563.507,309.13472651680553
1213,1685585941.6,105.957,78.125,92.285,29.297,2563.511,310.49182789762796
1214,1685585941.6,69.336,-166.992,-10.254,6.348,2563.515,314.57897964796257
1215,1685585941.61,-118.652,-210.449,-7.812,-53.711,2563.519,315.8071836857492
1216,1685585941.61,-132.324,-171.387,40.039,-36.133,2563.523,314.5230937513333
1217,1685585941.62,48.828,-183.105,61.035,20.02,2563.527,319.577457214647
1218,1685585941.62,95.703,-790.527,-300.293,41.992,2563.531,325.71899462635895
1219,1685585941.62,-71.289,-695.801,-211.914,-20.02,2563.535,312.7918081942743
1220,1685585941.63,-145.508,53.711,146.484,-59.57,2563.538,317.49388378081517
1221,1685585941.63,0.488,-87.891,28.809,-3.418,2563.542,314.9264753700784
1222,1685585941.64,119.629,-191.895,7.324,7.324,2563.546,311.73412321963883
1223,1685585941.64,-7.812,81.543,131.348,-59.082,2563.55,316.10310867105267
1224,1685585941.64,-154.785,57.129,83.984,-81.055,2563.551,318.46784833723507
1225,1685585941.65,-66.895,-224.609,-0.488,-25.391,2563.555,311.7282982912573
1226,1685585941.65,106.934,-125.488,87.891,7.324,2563.559,309.9946805440278
1227,1685585941.66,54.199,139.16,134.277,-33.203,2563.562,313.08813712508186
1228,1685585941.66,-127.441,-125.977,42.48,-69.824,2563.566,308.4589547781546
1229,1685585941.66,-119.629,-664.062,-245.117,-12.695,2563.57,312.02383837890534
1230,1685585941.67,61.035,-977.051,-376.465,50.781,2563.574,315.811105485798
1231,1685585941.67,83.984,-532.715,-13.184,-6.348,2563.578,312.28598666073265
1232,1685585941.68,-83.496,-29.785,73.73,-77.637,2563.582,314.4329755007338
1233,1685585941.68,-139.16,-479.98,-138.672,-46.387,2563.586,316.61853928474284
1234,1685585941.68,31.738,-531.25,-51.758,6.836,2563.59,317.85309886609576
1235,1685585941.69,122.07,137.695,156.25,-1.465,2563.594,319.71997106437453
1236,1685585941.7,-39.551,62.5,43.945,-43.945,2563.597,315.13007212005294
1237,1685585941.7,-151.855,-215.332,3.418,-46.387,2563.601,314.54827640330154
1238,1685585941.71,-8.301,-40.527,116.699,10.254,2563.605,312.8597282802979
1239,1685585941.71,133.301,160.645,154.297,20.508,2563.609,312.0799599959223
1240,1685585941.72,16.602,-39.062,36.133,-31.25,2563.612,312.6830302951986
1241,1685585941.72,-149.902,-524.414,-112.305,-49.805,2563.616,317.6923493895295
1242,1685585941.72,-74.707,-404.785,0.977,-3.906,2563.62,317.67167426863585
1243,1685585941.73,101.562,113.77,169.434,26.855,2563.624,316.5421569339971
1244,1685585941.73,53.711,-144.043,-23.926,-20.02,2563.628,315.87851090097894
1245,1685585941.74,-145.508,-839.355,-307.129,-54.688,2563.632,319.94963938490525
1246,1685585941.74,-129.883,-424.316,20.508,-36.621,2563.636,318.1546473239254
1247,1685585941.74,85.449,152.344,189.941,8.301,2563.64,312.89591810608323
1248,1685585941.74,95.703,-146.973,-19.531,-5.371,2563.641,309.67623636186715
1249,1685585941.75,-84.961,-320.801,-49.805,-63.965,2563.645,320.61760251213263
1250,1685585941.75,-129.395,-28.32,116.211,-62.5,2563.648,315.26568946456575
1251,1685585941.76,41.016,91.797,111.328,2.93,2563.652,312.63282239127284
1252,1685585941.76,114.258,-424.316,-121.094,22.949,2563.656,313.8560919731263
1253,1685585941.76,-45.41,-818.848,-265.137,-40.039,2563.66,310.18890483893523
1254,1685585941.77,-149.902,-585.449,-120.605,-56.152,2563.664,316.48981563673914
1255,1685585941.77,-15.137,-160.156,77.148,7.812,2563.668,317.0720624817523
1256,1685585941.78,117.676,-517.09,-186.523,45.898,2563.672,313.25287873034455
1257,1685585941.78,13.672,-801.27,-248.047,-5.859,2563.676,312.80692666108087
1258,1685585941.78,-128.418,-103.516,115.723,-56.641,2563.68,316.2102733689584
1259,1685585941.79,-58.105,-98.145,41.992,-5.371,2563.684,317.5867357200926
1260,1685585941.79,118.164,-511.23,-81.543,43.945,2563.688,320.07063779113474
1261,1685585941.8,86.426,-311.035,35.645,-5.859,2563.692,314.36384103920005
1262,1685585941.8,-88.867,55.664,144.531,-55.176,2563.696,316.6761330175855
1263,1685585941.8,-107.422,-123.535,31.25,-26.367,2563.7,318.9197851862976
1264,1685585941.81,62.988,-288.086,-18.555,26.855,2563.704,315.2581713081866
1265,1685585941.81,106.445,-304.688,-9.277,4.395,2563.707,314.5301592717628
1266,1685585941.81,-66.895,-377.93,-80.566,-56.641,2563.711,315.70054883941947
1267,1685585941.82,-144.531,-475.098,-211.426,-42.48,2563.715,313.9919478568599
1268,1685585941.82,-1.953,-794.922,-279.785,13.672,2563.719,312.0430217272502
1269,1685585941.83,115.234,-376.465,10.742,2.441,2563.723,315.5567659343076
1270,1685585941.83,6.348,109.375,149.414,-56.152,2563.727,321.3544113233643
1271,1685585941.83,-141.602,-248.535,-30.762,-62.5,2563.731,322.1507832562766
1272,1685585941.84,-41.504,-284.668,-26.367,-3.906,2563.734,319.2950683069161
1273,1685585941.84,128.418,-4.883,99.609,22.461,2563.738,311.9151637423329
1274,1685585941.84,45.898,-186.035,6.836,-29.785,2563.742,318.8305842296145
1275,1685585941.85,-138.672,-656.25,-230.469,-59.57,2563.746,313.11116093110786
1276,1685585941.85,-114.258,-802.246,-267.09,-15.625,2563.75,313.04200157725205
1277,1685585941.86,75.684,-433.594,-17.578,24.902,2563.754,315.44731158401146
1278,1685585941.86,84.961,-323.73,-7.812,-6.348,2563.758,319.59365115063713
1279,1685585941.86,-102.051,-667.48,-278.32,-42.969,2563.762,311.86013234011915
1280,1685585941.87,-154.297,-973.145,-353.027,-16.113,2563.766,317.12649694415603
1281,1685585941.87,46.875,-286.133,62.5,17.09,2563.77,320.9811366480494
1282,1685585941.88,120.117,89.355,95.703,-2.441,2563.774,307.8864599119963
1283,1685585941.88,-57.617,-223.145,8.789,-56.152,2563.777,309.2743206468794
1284,1685585941.88,-153.809,-124.023,96.191,-53.711,2563.778,317.80690730723774
1285,1685585941.88,-3.906,159.668,147.949,-1.953,2563.782,324.5247072582171
1286,1685585941.89,131.348,50.293,57.617,17.09,2563.786,316.5792705451923
1287,1685585941.89,6.836,-201.172,-22.949,-31.738,2563.79,319.4155709287387
1288,1685585941.9,-149.414,-215.332,21.973,-62.012,2563.793,319.97075306259734
1289,1685585941.9,-60.059,-309.082,-10.742,-17.578,2563.797,315.4755815072042
1290,1685585941.9,109.375,-423.828,-90.82,12.695,2563.801,317.3934172710879
1291,1685585941.91,28.32,-867.676,-360.352,-20.02,2563.805,319.1188665755096
1292,1685585941.91,-150.879,-711.426,-219.238,-76.172,2563.809,316.3227001888704
1293,1685585941.92,-104.492,-10.742,136.719,-62.012,2563.813,311.14169375630723
1294,1685585941.92,75.684,-126.953,13.672,-2.93,2563.817,313.03518457794075
1295,1685585941.92,75.684,-246.582,-45.41,-28.32,2563.821,318.9667344483733
