,timestamps,TP9,AF7,AF8,TP10,Secondary Timestamp,emg_signal
0,1686621187.2,21.484,234.375,9.766,4.395,565.111,365
1,1686621187.204,54.199,2.93,98.633,27.344,565.115,365
2,1686621187.208,-31.738,101.562,100.586,-32.227,565.119,365
3,1686621187.212,-84.473,178.223,-2.441,-68.848,565.122,366
4,1686621187.216,-3.906,138.184,2.93,-6.836,565.126,366
5,1686621187.22,61.035,-50.293,5.859,47.363,565.13,366
6,1686621187.224,-3.906,-166.016,30.762,-13.672,565.134,366
7,1686621187.227,-88.867,27.344,13.672,-78.613,565.138,366
8,1686621187.231,-30.273,-29.297,-2.441,-31.25,565.142,366
9,1686621187.235,55.664,-5.859,83.496,36.621,565.146,366
10,1686621187.239,12.695,302.734,12.695,1.465,565.15,366
11,1686621187.243,-85.938,111.816,-49.316,-77.637,565.154,364
12,1686621187.243,-85.938,111.816,-49.316,-77.637,565.154,364
13,1686621187.245,-76.66,-422.852,-32.715,-67.383,565.142,364
14,1686621187.249,21.484,-826.172,64.941,12.695,565.146,364
15,1686621187.253,32.227,-176.758,162.598,25.391,565.149,363
16,1686621187.257,-64.941,-12.695,-15.137,-41.992,565.153,363
17,1686621187.261,-85.938,-523.926,-50.293,-49.805,565.157,363
18,1686621187.265,17.09,-529.297,208.984,22.949,565.161,363
19,1686621187.269,58.105,119.141,251.465,46.387,565.165,363
20,1686621187.272,-27.832,327.637,0.488,-17.578,565.169,363
21,1686621187.276,-89.844,-339.844,-83.984,-62.012,565.173,363
22,1686621187.28,-17.09,-98.633,62.012,-20.996,565.177,363
23,1686621187.284,65.43,591.797,65.918,31.25,565.181,364
24,1686621187.288,7.812,346.68,-61.035,-9.766,565.185,364
25,1686621187.291,-94.727,-622.07,-31.738,-79.59,565.189,364
26,1686621187.295,-42.48,-335.449,178.711,-46.387,565.193,364
27,1686621187.299,57.129,227.051,83.008,31.25,565.197,365
28,1686621187.303,18.555,-56.152,-50.781,12.695,565.201,365
29,1686621187.307,-79.102,-408.691,120.117,-54.688,565.205,365
30,1686621187.311,-62.988,-309.57,111.328,-46.875,565.209,365
31,1686621187.315,32.715,-6.348,17.578,16.113,565.213,365
32,1686621187.318,40.527,-23.926,-28.32,14.648,565.217,365
33,1686621187.322,-45.898,-662.598,47.363,-48.34,565.22,365
34,1686621187.326,-73.242,-209.961,227.051,-70.312,565.224,364
35,1686621187.33,11.719,389.16,78.125,-11.719,565.228,364
36,1686621187.334,53.711,176.27,6.836,31.738,565.232,364
37,1686621187.335,-37.109,133.301,74.707,-20.996,565.231,364
38,1686621187.339,-102.051,202.148,28.809,-76.172,565.235,362
39,1686621187.343,-24.902,145.02,-40.527,-27.832,565.239,362
40,1686621187.347,49.316,-229.004,-22.949,29.297,565.243,362
41,1686621187.351,1.465,-421.387,122.559,-10.254,565.247,362
42,1686621187.355,-91.797,-341.309,43.945,-75.195,565.251,362
43,1686621187.359,-64.453,-230.957,1.465,-58.105,565.255,362
44,1686621187.362,37.598,-502.441,-81.055,24.414,565.259,362
45,1686621187.366,23.926,-712.402,100.586,20.508,565.263,363
46,1686621187.37,-62.012,10.742,192.383,-53.223,565.266,363
47,1686621187.374,-62.988,134.766,-14.16,-60.547,565.27,363
48,1686621187.378,28.809,-29.785,148.438,8.789,565.274,363
49,1686621187.382,52.734,335.449,174.805,20.508,565.278,364
50,1686621187.386,-37.598,365.723,-22.461,-51.758,565.282,364
51,1686621187.39,-92.773,-1.953,-20.508,-82.52,565.286,364
52,1686621187.394,-7.324,3.418,83.496,-10.742,565.29,364
53,1686621187.398,70.801,314.941,60.059,44.922,565.294,364
54,1686621187.402,-2.93,78.125,-4.395,-15.625,565.298,364
55,1686621187.406,-94.238,-427.734,-29.785,-72.266,565.302,363
56,1686621187.409,-38.574,-854.98,13.184,-19.531,565.306,363
57,1686621187.413,57.129,-112.305,215.82,38.574,565.31,363
58,1686621187.417,23.438,503.418,65.43,3.418,565.314,363
59,1686621187.421,-73.242,-67.871,-59.082,-59.082,565.318,362
60,1686621187.425,-52.734,-305.664,81.055,-42.48,565.321,362
61,1686621187.425,58.594,244.141,84.473,36.133,565.322,362
62,1686621187.429,50.781,457.031,-6.836,33.203,565.326,362
63,1686621187.433,-66.406,-111.328,-65.43,-51.27,565.33,362
64,1686621187.437,-77.148,-409.18,-12.207,-58.105,565.334,363
65,1686621187.441,28.809,30.273,51.758,15.137,565.337,363
66,1686621187.445,57.129,136.719,-4.883,35.645,565.341,363
67,1686621187.449,-39.551,-519.531,-127.441,-28.32,565.345,363
68,1686621187.452,-101.074,-984.863,47.363,-78.125,565.349,364
69,1686621187.456,-13.672,-103.027,294.922,-26.855,565.353,364
70,1686621187.46,54.199,323.73,125.488,28.32,565.357,364
71,1686621187.464,-15.625,-209.473,2.441,-11.23,565.361,365
72,1686621187.468,-95.703,-97.656,31.738,-69.824,565.365,365
73,1686621187.472,-49.805,233.398,23.926,-38.574,565.373,365
74,1686621187.476,38.574,219.727,-26.855,39.551,565.376,364
75,1686621187.48,4.395,-91.797,90.82,15.137,565.38,364
76,1686621187.484,-85.449,-51.27,68.359,-67.383,565.384,364
77,1686621187.488,-63.965,110.84,-7.812,-51.27,565.388,364
78,1686621187.492,26.855,-137.695,1.465,28.809,565.392,362
79,1686621187.496,27.832,-757.324,11.719,36.621,565.396,362
80,1686621187.499,-62.012,-325.195,72.754,-39.062,565.4,362
81,1686621187.503,-90.332,136.719,6.836,-65.43,565.404,361
82,1686621187.507,-1.465,6.836,32.715,2.93,565.408,361
83,1686621187.511,47.852,145.508,111.816,32.715,565.412,361
84,1686621187.515,-39.062,203.613,26.367,-30.273,565.415,361
85,1686621187.516,-98.145,-173.34,-49.805,-76.172,565.425,363
86,1686621187.52,-11.719,-404.785,32.715,-20.996,565.429,363
87,1686621187.524,70.801,-209.961,197.266,37.109,565.433,363
88,1686621187.528,7.812,-186.035,69.336,-5.371,565.437,363
89,1686621187.532,-80.566,-159.668,0.977,-66.406,565.441,364
90,1686621187.536,-38.086,-573.73,-80.078,-33.203,565.445,364
91,1686621187.54,43.457,-976.562,52.246,38.086,565.449,364
92,1686621187.543,23.438,-75.684,197.754,24.414,565.453,364
93,1686621187.547,-78.613,140.625,-4.395,-51.27,565.456,364
94,1686621187.551,-86.914,-337.402,32.715,-55.176,565.46,364
95,1686621187.555,21.973,58.594,116.211,23.438,565.464,364
96,1686621187.559,42.48,395.996,29.297,34.18,565.468,363
97,1686621187.575,-59.082,48.34,-48.828,-42.969,565.472,362
98,1686621187.579,-90.82,-281.738,113.77,-58.105,565.476,362
99,1686621187.583,4.883,-44.922,178.223,12.207,565.48,362
100,1686621187.587,53.711,68.848,28.809,47.852,565.484,362
101,1686621187.591,-25.879,-135.742,-54.688,-19.531,565.488,362
102,1686621187.595,-96.191,-830.566,-20.996,-66.406,565.491,362
103,1686621187.599,-17.09,-535.156,250.488,-19.531,565.495,363
104,1686621187.602,69.824,261.23,194.824,22.949,565.499,363
105,1686621187.606,12.695,-9.766,-35.156,-5.859,565.503,363
106,1686621187.61,-85.938,-491.211,56.641,-67.383,565.507,363
107,1686621187.614,-53.223,-91.797,105.469,-52.246,565.511,365
108,1686621187.618,46.387,244.629,14.648,19.043,565.515,365
109,1686621187.62,25.879,-34.18,-2.93,9.766,565.516,365
110,1686621187.624,-71.289,-131.348,42.969,-58.105,565.52,365
111,1686621187.628,-67.871,-83.008,28.809,-59.57,565.524,365
112,1686621187.632,34.668,-170.898,21.973,9.277,565.528,365
113,1686621187.636,59.082,-430.664,-29.785,28.809,565.532,365
114,1686621187.64,-32.227,-687.5,47.363,-38.086,565.536,365
115,1686621187.644,-70.801,-530.273,46.387,-61.035,565.54,364
116,1686621187.647,16.113,-320.312,8.301,0.488,565.544,364
117,1686621187.651,63.965,-594.238,-88.867,41.016,565.548,364
118,1686621187.655,-23.438,-761.23,100.098,-15.625,565.552,364
119,1686621187.659,-98.633,-130.371,277.344,-73.73,565.556,364
120,1686621187.663,-34.668,66.895,130.371,-27.344,565.559,364
121,1686621187.665,53.223,12.207,131.348,32.227,565.562,364
122,1686621187.669,19.531,207.031,77.637,0.488,565.565,364
123,1686621187.673,-67.871,102.539,-31.738,-66.406,565.569,364
124,1686621187.677,-55.176,-83.984,8.301,-48.34,565.573,364
125,1686621187.681,38.574,-10.254,89.355,27.344,565.577,364
126,1686621187.685,23.926,-100.098,48.34,18.066,565.581,365
127,1686621187.689,-76.172,-172.852,36.621,-68.848,565.585,365
128,1686621187.692,-91.309,-282.715,-30.273,-76.172,565.589,365
129,1686621187.696,-0.488,-863.281,0.488,2.441,565.593,366
130,1686621187.7,46.875,-284.18,226.074,20.996,565.597,366
131,1686621187.704,-30.762,214.844,65.918,-40.039,565.601,366
132,1686621187.708,-86.914,-280.762,-25.391,-67.871,565.604,366
133,1686621187.71,-2.93,-219.727,211.426,-3.418,565.607,366
134,1686621187.714,68.848,270.02,246.094,42.48,565.611,366
135,1686621187.718,-2.441,173.828,9.766,-7.812,565.614,366
136,1686621187.722,-89.844,-569.824,-15.137,-73.242,565.618,366
137,1686621187.726,-36.133,-568.359,252.441,-43.457,565.622,364
138,1686621187.73,62.012,-151.367,154.785,28.32,565.626,364
139,1686621187.734,45.41,-195.312,-32.715,29.297,565.63,364
140,1686621187.737,-58.594,-702.637,-73.242,-34.18,565.634,363
141,1686621187.741,-70.801,-625.977,227.539,-59.57,565.638,363
142,1686621187.745,32.227,173.828,308.594,-0.488,565.642,363
143,1686621187.749,41.504,127.441,31.738,21.484,565.646,363
144,1686621187.753,-69.336,-442.871,89.844,-56.152,565.65,363
145,1686621187.756,-104.492,-269.043,219.238,-82.52,565.653,363
146,1686621187.76,1.465,176.27,172.852,15.137,565.657,363
147,1686621187.764,61.523,120.117,102.051,66.895,565.661,363
148,1686621187.768,-17.09,-268.555,107.422,8.789,565.664,363
149,1686621187.772,-78.125,-225.586,88.867,-34.18,565.668,363
150,1686621187.776,-3.418,-237.305,29.297,23.926,565.672,363
151,1686621187.78,84.473,-355.469,16.602,90.82,565.676,364
152,1686621187.783,24.902,-776.367,18.066,49.316,565.68,364
153,1686621187.787,-55.664,-444.336,193.359,-12.207,565.684,364
154,1686621187.791,-1.465,32.715,115.723,31.738,565.688,364
155,1686621187.795,86.426,-74.707,24.414,92.773,565.692,362
156,1686621187.799,65.43,-16.602,145.02,64.453,565.696,362
157,1686621187.801,-25.879,-61.523,56.152,-5.859,565.699,362
158,1686621187.805,-24.414,-264.648,-10.742,-6.348,565.702,362
159,1686621187.809,74.219,-516.113,20.996,62.012,565.706,360
160,1686621187.813,85.938,-613.281,102.051,69.824,565.71,360
161,1686621187.817,-12.695,-190.918,64.453,-2.441,565.714,360
162,1686621187.821,-62.5,-339.844,-3.906,-27.832,565.718,358
163,1686621187.825,11.23,-828.613,-61.035,35.645,565.722,358
164,1686621187.828,69.824,-792.969,104.004,78.125,565.726,358
165,1686621187.832,-3.906,-83.496,237.305,14.16,565.73,358
166,1686621187.836,-83.008,-34.668,20.996,-42.48,565.734,358
167,1686621187.84,-20.996,-373.535,97.656,3.418,565.738,358
168,1686621187.844,62.988,-49.805,270.02,59.082,565.742,358
169,1686621187.847,23.438,245.605,148.926,25.879,565.743,360
170,1686621187.851,-72.266,-125.977,-21.973,-44.434,565.747,360
171,1686621187.855,-44.434,-339.844,140.625,-30.762,565.751,360
172,1686621187.859,61.035,-45.41,197.754,41.504,565.755,360
173,1686621187.863,52.734,-94.238,32.227,30.762,565.759,360
174,1686621187.867,-48.34,-443.848,-18.555,-40.039,565.763,360
175,1686621187.871,-66.895,-912.598,26.367,-42.969,565.767,360
176,1686621187.874,32.227,-397.461,268.066,21.484,565.771,360
177,1686621187.878,68.359,257.812,181.641,31.738,565.775,357
178,1686621187.882,-19.531,-59.57,-1.465,-51.27,565.779,357
179,1686621187.886,-75.195,-276.367,148.438,-80.566,565.783,357
180,1686621187.89,3.906,73.242,243.652,-9.766,565.786,357
181,1686621187.905,69.336,226.074,163.574,42.48,565.802,355
182,1686621187.909,-0.977,-134.277,39.551,-0.977,565.806,355
183,1686621187.913,-69.824,-393.066,50.293,-56.641,565.81,355
184,1686621187.917,-11.23,-376.465,93.262,-15.625,565.814,356
185,1686621187.921,78.125,54.199,189.941,51.758,565.818,356
186,1686621187.925,20.508,-363.77,-55.176,24.902,565.822,356
187,1686621187.929,-91.797,-1000.0,-17.578,-46.875,565.826,357
188,1686621187.932,-56.152,-501.465,320.801,-43.457,565.829,357
189,1686621187.936,54.199,74.219,221.68,22.461,565.833,357
190,1686621187.94,47.852,-404.297,-11.719,32.227,565.837,357
191,1686621187.944,-55.664,-400.879,73.73,-39.551,565.841,357
192,1686621187.948,-74.219,-7.324,101.074,-57.617,565.845,358
193,1686621187.95,28.809,7.324,36.133,11.719,565.847,358
194,1686621187.954,61.523,-76.66,118.652,33.203,565.851,358
195,1686621187.958,-28.32,-2.441,86.426,-20.996,565.855,360
196,1686621187.962,-84.473,-60.059,2.93,-64.941,565.859,360
197,1686621187.966,-8.301,-107.422,33.691,-13.184,565.863,360
198,1686621187.97,58.105,-285.156,38.086,34.668,565.867,362
199,1686621187.974,-2.93,-334.961,43.945,-18.066,565.871,362
200,1686621187.977,-75.195,-114.258,37.109,-70.801,565.875,362
201,1686621187.981,-31.25,-344.727,-24.414,-31.25,565.879,362
202,1686621187.985,50.293,-887.207,32.715,32.227,565.883,362
203,1686621187.989,26.367,-348.145,224.121,-8.301,565.886,366
204,1686621187.993,-67.383,9.766,72.754,-84.961,565.89,366
205,1686621187.995,-62.5,-380.371,-5.859,-73.242,565.892,366
206,1686621187.999,38.086,-168.945,229.004,5.371,565.895,372
207,1686621188.003,47.363,35.156,167.969,19.043,565.899,372
208,1686621188.007,-59.082,-352.539,-24.902,-59.57,565.903,372
209,1686621188.011,-94.238,-697.754,-20.02,-69.336,565.907,379
210,1686621188.015,2.93,-685.059,196.289,12.207,565.911,379
211,1686621188.019,46.875,-200.195,289.551,41.016,565.915,379
212,1686621188.022,-33.203,74.707,83.008,-18.555,565.919,379
213,1686621188.026,-103.516,-670.898,-109.375,-65.43,565.923,379
214,1686621188.03,-37.109,-724.121,186.523,-19.531,565.927,383
215,1686621188.034,53.711,203.125,286.133,31.738,565.931,383
216,1686621188.038,-1.953,24.414,-28.809,-4.395,565.935,383
217,1686621188.04,-100.586,-734.863,33.691,-59.082,565.936,386
218,1686621188.044,-56.641,-304.688,278.809,-29.785,565.94,386
219,1686621188.048,43.457,277.832,216.309,32.715,565.944,386
220,1686621188.052,12.695,83.984,9.277,3.906,565.948,390
221,1686621188.056,-88.867,-261.23,7.812,-69.336,565.952,390
222,1686621188.06,-87.402,-420.898,39.062,-59.082,565.955,390
223,1686621188.064,15.137,-295.41,43.945,4.395,565.959,390
224,1686621188.067,41.504,-257.812,-2.93,16.113,565.963,390
225,1686621188.071,-58.105,-802.734,32.715,-46.387,565.967,395
226,1686621188.075,-96.191,-430.664,257.324,-83.496,565.971,395
227,1686621188.079,4.395,155.273,218.262,-18.066,565.975,395
228,1686621188.083,50.293,8.789,105.469,22.461,565.979,400
229,1686621188.086,-34.18,-81.543,99.121,-38.086,565.983,400
230,1686621188.09,-106.445,-130.371,20.02,-90.82,565.987,400
231,1686621188.094,-52.734,-242.188,22.461,-44.922,565.991,403
232,1686621188.098,31.25,-490.723,-19.531,20.996,565.995,403
233,1686621188.102,-13.184,-750.0,73.73,-16.602,565.999,403
234,1686621188.106,-107.422,-556.641,111.816,-95.215,566.003,403
235,1686621188.11,-79.102,-425.293,5.859,-66.895,566.007,404
236,1686621188.113,20.02,-606.934,-28.32,18.066,566.011,404
237,1686621188.117,8.301,-460.449,199.707,0.977,566.015,404
238,1686621188.121,-85.449,50.293,160.645,-81.055,566.019,401
239,1686621188.125,-85.938,-59.57,-21.973,-81.543,566.022,401
240,1686621188.129,7.812,-212.402,150.391,-3.906,566.026,401
241,1686621188.132,40.039,136.719,184.082,21.973,566.029,401
242,1686621188.136,-44.434,210.449,-3.906,-47.852,566.033,401
243,1686621188.14,-101.074,-140.137,-38.574,-83.496,566.037,398
244,1686621188.144,-18.066,-220.215,91.797,-26.367,566.041,398
245,1686621188.148,42.48,34.668,82.031,9.766,566.044,398
246,1686621188.152,-40.039,-191.895,-11.719,-54.199,566.048,396
247,1686621188.156,-126.465,-572.266,-34.18,-119.629,566.052,396
248,1686621188.159,-65.43,-941.406,4.395,-61.523,566.056,396
249,1686621188.163,37.598,-490.234,287.598,3.906,566.06,391
250,1686621188.167,-13.184,122.07,152.832,-51.27,566.064,391
251,1686621188.171,-106.934,-212.891,-47.363,-122.559,566.068,391
252,1686621188.175,33.203,149.902,212.402,-3.906,566.072,391
253,1686621188.175,-68.848,-279.785,192.871,-91.797,566.072,391
254,1686621188.179,30.762,243.164,10.742,1.465,566.076,384
255,1686621188.183,-74.219,-322.754,-63.965,-72.266,566.079,384
256,1686621188.187,-100.098,-617.188,23.926,-92.773,566.083,384
257,1686621188.191,-0.488,-121.094,156.738,-14.648,566.087,376
258,1686621188.195,46.387,-51.27,75.684,22.949,566.091,376
259,1686621188.199,-46.875,-651.367,-125.977,-42.969,566.095,376
260,1686621188.202,-114.746,-1000.0,-24.414,-80.078,566.099,376
261,1686621188.206,-23.926,-255.859,272.461,-21.484,566.103,368
262,1686621188.21,45.898,239.258,168.945,29.785,566.107,368
263,1686621188.214,-26.367,-268.555,4.395,-22.461,566.111,368
264,1686621188.218,-108.887,-258.301,24.414,-98.633,566.115,368
265,1686621188.222,-62.5,82.52,27.344,-55.664,566.118,361
266,1686621188.226,34.668,144.531,5.371,27.832,566.122,361
267,1686621188.23,10.742,-77.148,30.762,4.883,566.126,361
268,1686621188.234,-85.938,-103.516,23.438,-67.383,566.13,357
269,1686621188.238,-76.66,-25.391,7.324,-62.012,566.134,357
270,1686621188.242,26.855,-236.816,-22.949,20.02,566.138,357
271,1686621188.246,30.273,-790.527,33.203,32.227,566.142,354
272,1686621188.249,-68.359,-416.992,142.09,-55.176,566.145,354
273,1686621188.253,-91.797,-12.695,31.738,-79.59,566.149,354
274,1686621188.257,7.324,-223.633,11.23,-2.93,566.153,354
275,1686621188.261,57.617,-268.066,50.293,34.18,566.157,353
276,1686621188.265,-11.23,-122.07,60.059,-20.996,566.161,353
277,1686621188.281,-67.383,-99.609,18.066,-63.965,566.177,355
278,1686621188.285,1.465,-319.336,13.672,-10.254,566.181,355
279,1686621188.289,78.613,-356.445,193.359,59.57,566.185,355
280,1686621188.293,20.02,-270.508,86.914,20.996,566.189,359
281,1686621188.297,-68.848,-192.871,5.371,-48.34,566.193,359
282,1686621188.301,-36.133,-568.359,-57.617,-20.508,566.197,359
283,1686621188.305,54.199,-1000.0,59.57,53.223,566.201,367
284,1686621188.308,45.41,-245.117,228.027,30.762,566.205,367
285,1686621188.312,-51.27,0.977,9.277,-52.246,566.208,367
286,1686621188.313,-33.203,-123.047,-79.59,-38.574,566.221,367
287,1686621188.316,-58.105,-405.762,30.762,-54.688,566.212,377
288,1686621188.317,-83.008,-739.746,55.664,-67.383,566.225,377
289,1686621188.32,39.551,-12.207,175.293,21.973,566.216,377
290,1686621188.321,9.277,-208.984,249.512,-4.395,566.229,377
291,1686621188.324,61.523,347.656,50.781,35.645,566.22,377
292,1686621188.325,70.801,284.668,125.488,41.016,566.233,377
293,1686621188.329,-13.184,-121.582,-22.461,-10.742,566.237,377
294,1686621188.333,-84.961,-637.695,-29.785,-61.035,566.241,385
295,1686621188.337,-24.414,-479.492,104.004,-15.625,566.245,385
296,1686621188.34,73.242,151.367,173.34,46.387,566.249,385
297,1686621188.344,20.02,-35.156,-62.012,8.301,566.252,391
298,1686621188.348,-92.773,-867.188,-52.734,-61.035,566.256,391
299,1686621188.352,-60.059,-413.086,242.188,-47.852,566.26,391
300,1686621188.356,47.852,210.938,195.312,23.438,566.264,394
301,1686621188.37,37.598,-59.082,2.441,16.602,566.266,394
302,1686621188.374,-66.895,-195.312,38.574,-63.965,566.27,395
303,1686621188.378,-75.195,-213.867,8.301,-71.289,566.274,395
304,1686621188.382,28.32,-268.555,13.184,5.859,566.278,395
305,1686621188.386,54.688,-502.93,-57.129,26.855,566.282,393
306,1686621188.39,-50.293,-987.793,8.301,-42.969,566.286,393
307,1686621188.394,-91.797,-607.422,244.629,-83.008,566.29,393
308,1686621188.397,3.418,-33.691,161.621,-18.066,566.294,390
309,1686621188.401,65.918,-406.738,-35.156,35.156,566.298,390
310,1686621188.405,0.977,-384.766,120.117,-16.602,566.302,390
311,1686621188.409,-70.312,32.715,91.797,-74.219,566.305,390
312,1686621188.413,-17.09,-82.52,-31.25,-35.156,566.309,385
313,1686621188.415,70.312,-206.055,136.23,30.273,566.312,385
314,1686621188.419,32.715,31.25,148.438,7.324,566.315,385
315,1686621188.423,-69.824,41.504,-21.973,-64.941,566.319,385
316,1686621188.427,-64.453,-159.18,-23.926,-50.781,566.323,376
317,1686621188.431,34.18,-181.641,76.66,26.367,566.327,376
318,1686621188.435,26.855,-274.414,36.621,18.066,566.331,376
319,1686621188.439,-62.012,-411.621,-11.719,-51.27,566.335,367
320,1686621188.442,-80.078,-555.176,-2.93,-66.406,566.339,367
321,1686621188.446,5.371,-893.066,9.277,5.859,566.343,367
322,1686621188.45,56.152,-337.891,185.059,40.527,566.347,367
323,1686621188.454,-32.715,121.094,60.059,-28.32,566.351,358
324,1686621188.458,-106.445,-284.668,-38.574,-82.031,566.355,358
325,1686621188.46,-34.18,-203.613,208.496,-33.203,566.357,358
326,1686621188.464,46.875,274.414,201.172,29.297,566.36,358
327,1686621188.468,-9.277,131.836,-48.828,-6.836,566.364,353
328,1686621188.472,-109.375,-590.332,-38.086,-77.148,566.368,353
329,1686621188.476,-65.43,-580.566,216.309,-46.875,566.372,353
330,1686621188.48,34.18,-192.383,115.723,15.625,566.376,353
331,1686621188.484,7.324,-234.863,-40.527,-4.883,566.38,348
332,1686621188.487,-98.145,-732.91,-96.68,-71.289,566.384,348
333,1686621188.491,-93.262,-843.262,144.531,-70.312,566.388,348
334,1686621188.495,22.949,24.414,300.293,2.441,566.392,343
335,1686621188.499,30.273,238.281,53.711,16.113,566.396,343
336,1686621188.503,-77.148,-573.242,-47.363,-51.758,566.4,343
337,1686621188.506,-104.98,-445.312,90.332,-77.637,566.403,343
338,1686621188.51,-17.09,133.789,67.871,-12.695,566.407,344
339,1686621188.514,32.715,109.863,-20.508,29.297,566.411,344
340,1686621188.518,-48.828,-122.559,34.18,-32.227,566.415,344
341,1686621188.522,-116.699,-169.434,23.438,-83.984,566.419,344
342,1686621188.526,-37.109,-264.648,10.254,-30.273,566.422,347
343,1686621188.53,44.434,-368.652,-18.066,29.297,566.426,347
344,1686621188.533,-14.648,-781.25,69.824,-0.488,566.43,347
345,1686621188.537,-92.773,-421.875,220.703,-64.941,566.434,358
346,1686621188.541,-51.27,55.664,61.035,-38.574,566.438,358
347,1686621188.545,41.016,-132.812,-11.23,28.32,566.442,358
348,1686621188.549,24.902,-215.82,32.715,12.695,566.446,377
349,1686621188.55,-69.824,-96.191,15.625,-47.852,566.46,377
350,1686621188.554,-62.988,-2.93,6.836,-53.223,566.463,377
351,1686621188.558,35.156,-333.496,-16.602,12.695,566.467,377
352,1686621188.562,54.688,-641.602,122.07,29.297,566.471,377
353,1686621188.566,-33.203,-217.285,136.719,-41.504,566.475,396
354,1686621188.57,-80.078,-305.176,-8.789,-71.777,566.479,396
355,1686621188.574,2.93,-763.672,-86.914,-8.301,566.483,396
356,1686621188.577,58.105,-825.195,105.957,34.668,566.487,422
357,1686621188.581,-11.23,-125.488,221.68,-18.066,566.491,422
358,1686621188.585,-80.078,-67.383,-7.812,-64.453,566.495,422
359,1686621188.589,-11.23,-370.117,98.145,-13.184,566.499,446
360,1686621188.593,68.359,42.48,215.82,44.434,566.502,446
361,1686621188.613,8.301,248.535,36.621,-1.465,566.511,469
362,1686621188.617,-88.867,-301.758,-89.844,-73.242,566.515,498
363,1686621188.621,-62.012,-767.09,83.984,-55.664,566.519,498
364,1686621188.625,44.434,-140.137,266.113,4.883,566.523,498
365,1686621188.629,33.203,254.395,83.984,-1.465,566.527,498
366,1686621188.633,-81.543,-430.664,-76.66,-70.312,566.53,498
367,1686621188.637,-99.609,-860.84,92.773,-79.59,566.534,523
368,1686621188.64,8.301,-139.648,276.855,-11.719,566.538,523
369,1686621188.644,44.922,291.992,104.492,15.137,566.542,523
370,1686621188.648,-44.922,-150.391,-52.246,-38.574,566.546,543
371,1686621188.652,-93.75,-433.594,31.738,-63.965,566.55,543
372,1686621188.655,62.5,200.195,-1.953,31.25,566.552,543
373,1686621188.656,-5.371,-44.434,63.965,-10.254,566.554,543
374,1686621188.659,0.0,-128.906,-21.973,-11.23,566.555,559
375,1686621188.663,-74.707,-425.293,47.852,-65.43,566.559,559
376,1686621188.667,-20.996,-484.863,46.387,-20.996,566.563,559
377,1686621188.671,74.219,-297.363,20.996,53.223,566.567,559
378,1686621188.675,32.227,-538.574,-49.316,25.879,566.571,571
379,1686621188.679,-68.848,-630.371,29.297,-54.199,566.575,571
380,1686621188.682,-45.898,-136.23,63.477,-42.48,566.579,571
381,1686621188.686,60.547,93.262,33.203,32.715,566.583,571
382,1686621188.69,59.082,-484.375,-110.84,33.691,566.587,582
383,1686621188.694,-46.387,-1000.0,-31.738,-39.551,566.591,582
384,1686621188.698,-57.129,-439.941,293.945,-61.035,566.594,582
385,1686621188.7,41.016,64.941,203.125,14.648,566.597,588
386,1686621188.704,70.312,-50.293,134.766,41.504,566.601,588
387,1686621188.708,-18.555,64.941,138.184,-31.738,566.604,588
388,1686621188.712,-83.008,71.777,13.184,-72.754,566.608,588
389,1686621188.716,-14.648,-13.184,5.371,-17.09,566.612,592
390,1686621188.72,61.523,-194.824,20.508,39.062,566.616,592
391,1686621188.724,8.301,-358.398,17.09,-0.977,566.62,592
392,1686621188.727,-81.543,-306.641,36.133,-71.289,566.624,592
393,1686621188.731,-39.551,-267.578,-14.648,-43.457,566.628,590
394,1686621188.735,47.852,-802.734,13.672,36.133,566.632,590
395,1686621188.739,22.461,-322.266,211.914,13.184,566.636,590
396,1686621188.743,-71.289,118.652,51.758,-63.477,566.64,584
397,1686621188.745,-62.988,-239.258,-20.508,-58.105,566.642,584
398,1686621188.749,38.574,22.461,210.449,7.812,566.646,584
399,1686621188.753,39.062,182.617,111.816,17.578,566.65,584
400,1686621188.757,-62.988,-262.207,-63.477,-48.34,566.654,576
401,1686621188.761,-97.656,-645.996,-37.598,-73.73,566.657,576
402,1686621188.765,-6.348,-655.273,186.035,-12.207,566.661,576
403,1686621188.769,59.57,-56.152,260.254,27.344,566.665,570
404,1686621188.772,-3.906,210.449,20.508,-26.855,566.669,570
405,1686621188.776,-86.914,-610.352,-117.676,-82.031,566.673,570
406,1686621188.78,-25.391,-753.906,219.238,-34.668,566.677,570
407,1686621188.784,71.777,184.57,290.039,34.18,566.681,570
408,1686621188.788,11.719,233.398,-13.184,-6.348,566.685,558
409,1686621188.79,-93.262,-606.934,-41.016,-79.102,566.687,558
410,1686621188.794,-48.34,-343.262,180.664,-53.223,566.691,558
411,1686621188.798,55.664,291.016,190.43,12.695,566.694,550
412,1686621188.802,29.785,162.598,2.441,-2.93,566.698,550
413,1686621188.806,-75.684,-166.992,2.441,-76.172,566.702,550
414,1686621188.81,-82.031,-411.621,10.742,-74.707,566.706,540
415,1686621188.814,21.973,-220.215,101.562,6.836,566.71,540
416,1686621188.817,54.688,-68.848,40.527,28.32,566.714,540
417,1686621188.821,-51.27,-749.512,-0.977,-36.621,566.718,540
418,1686621188.825,-103.516,-407.227,225.098,-80.078,566.722,540
419,1686621188.829,-16.602,196.289,110.84,-27.344,566.726,527
420,1686621188.833,43.945,-35.156,-7.324,18.555,566.73,527
421,1686621188.835,-25.391,-244.629,32.227,-32.715,566.732,527
422,1686621188.839,-96.68,-86.426,16.602,-88.379,566.736,513
423,1686621188.843,-34.668,51.758,0.977,-45.41,566.74,513
424,1686621188.847,48.828,-343.262,-49.805,31.738,566.743,513
425,1686621188.851,9.766,-637.207,94.727,9.766,566.747,500
426,1686621188.855,-86.914,-456.055,86.426,-71.777,566.751,500
427,1686621188.859,-62.988,-387.695,-3.906,-48.34,566.755,500
428,1686621188.862,40.039,-560.547,-28.809,33.691,566.759,500
429,1686621188.866,36.621,-478.027,104.98,22.949,566.763,500
430,1686621188.87,-62.012,34.668,93.262,-62.012,566.767,489
431,1686621188.874,-80.566,-18.066,-31.738,-69.336,566.771,489
432,1686621188.878,13.184,-191.406,130.859,13.672,566.775,489
433,1686621188.883,47.852,107.422,178.711,33.203,566.783,478
434,1686621188.887,-9.277,208.496,-8.301,-18.555,566.787,478
435,1686621188.891,-74.219,-315.918,-84.473,-64.453,566.791,478
436,1686621188.895,-37.598,-653.32,104.004,-41.992,566.795,465
437,1686621188.899,41.504,-27.832,221.68,18.066,566.799,465
438,1686621188.903,-25.879,-15.625,23.438,-17.578,566.803,465
439,1686621188.907,-120.117,-590.82,-42.969,-80.566,566.807,465
440,1686621188.91,-71.289,-856.934,86.914,-43.457,566.81,450
441,1686621188.914,23.926,-124.023,243.652,19.531,566.814,450
442,1686621188.918,-4.883,309.57,43.945,-0.977,566.818,450
443,1686621188.922,-103.027,-180.664,-53.711,-69.336,566.822,436
444,1686621188.925,15.137,148.926,180.664,12.695,566.822,436
445,1686621188.926,-91.797,-289.551,133.789,-62.012,566.826,436
446,1686621188.929,33.203,300.293,23.926,24.902,566.826,436
447,1686621188.933,-64.453,-230.957,-71.777,-51.27,566.829,421
448,1686621188.937,-86.914,-572.266,17.09,-71.777,566.833,421
449,1686621188.941,23.926,-142.578,119.141,6.836,566.837,421
450,1686621188.945,67.871,-40.527,33.691,40.527,566.841,421
451,1686621188.949,-18.066,-613.77,-130.859,-19.043,566.845,405
452,1686621188.952,-78.613,-1000.0,-14.16,-48.34,566.849,405
453,1686621188.956,3.906,-388.672,278.32,-1.465,566.853,405
454,1686621188.96,91.797,185.547,181.152,41.016,566.857,405
455,1686621188.964,28.32,-82.52,62.988,6.836,566.861,382
456,1686621188.968,-64.941,-80.566,50.293,-53.223,566.865,382
457,1686621188.972,-10.254,143.066,17.09,-22.949,566.868,382
458,1686621188.976,91.797,150.879,7.324,46.875,566.872,382
459,1686621188.98,61.523,-92.773,80.566,28.809,566.876,355
460,1686621188.984,-33.203,-61.035,44.434,-36.621,566.88,355
461,1686621188.988,-28.32,34.18,-9.766,-31.738,566.884,355
462,1686621188.992,60.547,-242.188,-16.602,44.922,566.888,326
463,1686621188.996,82.031,-795.41,-5.859,61.523,566.892,326
464,1686621188.999,-13.184,-585.449,80.078,-17.578,566.896,326
465,1686621189.003,-57.129,-158.203,34.668,-43.457,566.9,297
466,1686621189.007,36.133,-197.754,-4.883,21.484,566.904,297
467,1686621189.011,89.355,-251.953,82.52,55.176,566.907,297
468,1686621189.015,19.531,22.949,53.711,15.625,566.911,297
469,1686621189.015,-39.551,-67.383,-33.203,-24.902,566.925,297
470,1686621189.019,24.414,-242.188,21.973,7.324,566.929,269
471,1686621189.023,103.516,-98.145,117.188,68.848,566.933,269
472,1686621189.027,47.363,-212.402,28.32,46.387,566.937,269
473,1686621189.031,-51.758,-221.68,6.836,-25.879,566.941,240
474,1686621189.035,-18.555,-570.312,-51.758,-0.977,566.945,240
475,1686621189.039,83.008,-998.535,45.898,79.102,566.949,240
476,1686621189.042,78.125,-174.805,222.168,55.176,566.953,240
477,1686621189.046,-16.113,95.703,43.945,-25.391,566.957,212
478,1686621189.05,-33.203,-445.312,-26.367,-33.691,566.961,212
479,1686621189.054,58.105,-293.945,78.125,31.25,566.964,212
480,1686621189.058,90.332,226.074,104.492,54.199,566.968,212
481,1686621189.075,-1.953,75.684,-43.457,-4.883,566.971,163
482,1686621189.079,-59.082,-666.992,24.902,-43.457,566.975,163
483,1686621189.083,26.855,-278.809,270.02,14.648,566.979,163
484,1686621189.087,101.074,344.238,160.645,64.453,566.983,146
485,1686621189.091,29.297,25.391,-47.363,3.906,566.987,146
486,1686621189.095,-61.523,-630.371,32.715,-49.316,566.99,146
487,1686621189.099,-4.395,-435.547,138.184,-4.395,566.994,146
488,1686621189.102,96.191,183.594,76.66,55.176,566.998,138
489,1686621189.106,46.387,-46.875,-74.707,26.855,567.002,138
490,1686621189.11,-60.547,-627.441,98.633,-50.293,567.006,138
491,1686621189.114,-31.738,-237.793,244.629,-41.992,567.01,134
492,1686621189.118,81.055,105.957,98.145,50.293,567.014,134
493,1686621189.12,73.73,-172.852,22.461,56.152,567.017,134
494,1686621189.124,-31.25,-303.711,88.379,-28.32,567.021,134
495,1686621189.128,-30.762,-184.082,44.922,-29.785,567.024,134
496,1686621189.132,71.777,-223.633,-4.395,50.781,567.028,135
497,1686621189.136,104.492,-385.254,-39.062,70.312,567.032,135
498,1686621189.14,15.137,-779.785,16.113,-0.488,567.036,135
499,1686621189.144,-36.621,-520.02,121.094,-35.156,567.04,141
500,1686621189.147,51.27,26.367,131.836,32.227,567.044,141
501,1686621189.151,102.051,-390.137,-22.949,77.148,567.048,141
502,1686621189.155,34.18,-568.359,157.227,23.438,567.052,153
503,1686621189.159,-37.598,-55.664,208.008,-37.109,567.056,153
504,1686621189.163,6.836,-33.691,16.113,2.93,567.06,153
505,1686621189.165,97.168,-120.117,144.531,70.801,567.062,153
506,1686621189.169,64.941,104.98,152.344,49.316,567.065,153
507,1686621189.173,-40.527,47.852,-27.832,-15.137,567.069,173
508,1686621189.177,-34.668,-378.418,-4.395,-1.953,567.073,173
509,1686621189.181,68.848,-549.805,113.281,68.848,567.077,173
510,1686621189.185,58.105,-322.754,66.406,55.664,567.081,200
511,1686621189.189,-52.734,-145.02,-2.441,-28.32,567.085,200
512,1686621189.192,-67.383,-320.312,-65.43,-49.316,567.089,200
513,1686621189.196,33.203,-777.344,35.156,21.484,567.093,228
514,1686621189.2,86.914,-117.188,216.309,61.523,567.097,228
515,1686621189.204,5.859,227.539,13.672,2.441,567.101,228
516,1686621189.208,-61.523,-262.207,-48.828,-37.109,567.105,228
517,1686621189.21,6.348,-194.336,186.035,16.602,567.107,228
518,1686621189.214,86.914,276.855,210.938,65.43,567.111,254
519,1686621189.218,32.227,177.246,-34.668,20.508,567.114,254
520,1686621189.222,-67.383,-528.32,-73.242,-40.527,567.118,254
521,1686621189.226,-26.855,-567.871,162.598,-15.625,567.122,276
522,1686621189.23,84.473,-151.855,100.586,59.082,567.126,276
523,1686621189.234,62.988,-150.391,-28.809,53.711,567.13,276
524,1686621189.237,-60.059,-697.754,-126.953,-22.461,567.134,295
525,1686621189.241,-59.082,-875.488,76.172,-16.602,567.138,295
526,1686621189.245,73.242,49.316,261.719,60.059,567.142,295
527,1686621189.249,98.633,266.113,16.602,64.941,567.146,295
528,1686621189.253,-9.277,-211.426,30.273,-14.648,567.15,312
529,1686621189.257,-55.176,-135.254,79.102,-47.363,567.154,312
530,1686621189.261,33.691,198.242,29.297,18.555,567.157,312
531,1686621189.265,88.379,172.363,-4.883,66.895,567.161,326
532,1686621189.269,9.766,-125.488,29.297,16.602,567.165,326
533,1686621189.273,-64.453,-131.348,17.09,-36.621,567.169,326
534,1686621189.277,4.395,-185.059,-1.953,19.531,567.173,337
535,1686621189.281,93.75,-257.812,-1.465,84.961,567.177,337
536,1686621189.284,33.691,-729.492,-21.484,44.922,567.181,337
537,1686621189.288,-52.734,-659.668,83.496,-28.32,567.185,337
538,1686621189.292,-4.395,-97.168,116.699,-4.883,567.189,337
539,1686621189.296,86.914,-91.797,10.742,64.941,567.193,344
540,1686621189.3,69.336,-266.602,55.664,55.664,567.197,344
541,1686621189.3,-27.344,-107.422,33.691,-19.531,567.197,344
542,1686621189.304,-39.062,-53.711,-9.766,-25.879,567.201,344
543,1686621189.308,55.176,-248.047,-0.977,54.688,567.205,348
544,1686621189.312,86.914,-311.035,-1.465,78.125,567.209,348
545,1686621189.316,-1.953,-103.027,9.277,2.93,567.213,348
546,1686621189.32,-46.875,-361.816,-17.09,-37.598,567.216,348
547,1686621189.324,38.574,-770.508,-71.777,26.855,567.22,351
548,1686621189.327,90.82,-946.777,38.086,74.219,567.224,351
549,1686621189.331,31.738,-249.023,210.449,13.672,567.228,351
550,1686621189.335,-47.852,23.926,38.086,-40.527,567.232,353
551,1686621189.339,-0.977,-410.156,12.695,9.766,567.236,353
552,1686621189.343,96.191,-206.543,131.348,78.125,567.24,353
553,1686621189.36,51.758,223.633,92.285,38.086,567.257,356
554,1686621189.364,-53.223,-89.844,-73.242,-41.016,567.261,356
555,1686621189.368,-37.109,-698.242,54.199,-16.113,567.265,356
556,1686621189.372,67.871,-152.832,263.184,58.594,567.269,356
557,1686621189.376,68.848,274.902,89.355,54.688,567.273,354
558,1686621189.38,-50.781,-328.125,-80.566,-21.973,567.277,354
559,1686621189.384,-83.008,-898.926,17.578,-35.645,567.281,354
560,1686621189.387,30.273,-303.223,246.582,38.574,567.285,351
561,1686621189.391,73.242,263.184,137.207,66.406,567.289,351
562,1686621189.395,-20.02,-34.18,-62.5,-3.418,567.292,351
563,1686621189.399,-72.266,-254.395,9.277,-46.875,567.296,351
564,1686621189.403,10.254,32.715,49.316,15.625,567.3,351
565,1686621189.406,89.844,244.141,-16.113,63.477,567.303,350
566,1686621189.41,33.691,-147.461,-16.602,14.16,567.307,350
567,1686621189.414,-55.176,-558.105,62.988,-41.504,567.311,350
568,1686621189.418,-11.719,-440.918,67.383,-5.371,567.315,350
569,1686621189.422,87.891,63.477,120.117,67.383,567.319,350
570,1686621189.426,61.035,-378.418,-68.848,51.27,567.323,350
571,1686621189.43,-49.316,-787.598,91.797,-33.691,567.327,350
572,1686621189.433,-42.969,-144.531,278.809,-36.621,567.331,350
573,1686621189.437,61.035,211.914,117.188,41.992,567.335,350
574,1686621189.441,64.453,-451.66,-99.609,64.453,567.338,350
575,1686621189.445,-38.574,-775.879,67.383,-8.301,567.342,348
576,1686621189.449,-55.664,-104.004,251.465,-31.25,567.346,348
577,1686621189.481,40.527,50.293,106.445,41.992,567.39,344
578,1686621189.485,81.055,-99.121,97.168,70.312,567.394,344
579,1686621189.489,-0.977,58.594,62.012,5.859,567.398,344
580,1686621189.493,-69.336,-14.648,-25.391,-39.062,567.401,344
581,1686621189.497,1.465,-299.805,8.789,16.113,567.405,344
582,1686621189.497,-59.57,-325.684,-26.855,-28.32,567.395,344
583,1686621189.501,77.637,-392.578,32.227,68.848,567.409,344
584,1686621189.501,42.969,-174.805,201.66,36.621,567.399,344
585,1686621189.505,20.996,-230.957,62.5,27.344,567.413,344
586,1686621189.505,67.871,124.512,131.836,51.758,567.403,344
587,1686621189.508,-62.5,-17.578,39.551,-38.574,567.417,344
588,1686621189.509,-15.137,-274.902,-51.758,-6.348,567.407,344
589,1686621189.512,-28.809,-261.719,-57.129,-10.742,567.421,344
590,1686621189.513,-51.27,-610.352,-29.785,-37.598,567.411,344
591,1686621189.516,55.664,-885.742,-14.16,68.359,567.425,344
592,1686621189.517,33.691,-514.16,22.461,13.672,567.415,344
593,1686621189.52,42.48,-463.379,232.422,47.852,567.429,344
594,1686621189.521,90.332,-249.023,64.453,55.664,567.419,344
595,1686621189.524,12.207,-282.715,-8.301,4.883,567.422,344
596,1686621189.524,-53.223,5.859,113.77,-29.297,567.433,344
597,1686621189.528,-69.336,-716.797,-92.285,-52.734,567.426,343
598,1686621189.532,-2.441,-345.703,139.16,-6.348,567.43,343
599,1686621189.536,101.562,199.707,167.48,58.105,567.434,343
600,1686621189.54,42.48,-195.312,-56.641,18.066,567.438,339
601,1686621189.542,-67.871,-817.871,-53.223,-55.664,567.438,339
602,1686621189.546,-35.645,-465.332,202.637,-36.133,567.442,339
603,1686621189.55,63.965,201.66,240.723,34.668,567.446,339
604,1686621189.554,50.781,40.039,-15.625,29.785,567.45,339
605,1686621189.558,-60.547,-817.871,-108.887,-42.48,567.454,336
606,1686621189.562,-86.426,-951.172,144.043,-60.547,567.458,336
607,1686621189.566,24.902,-257.324,312.012,12.207,567.462,336
608,1686621189.569,68.848,-20.02,88.379,46.875,567.466,333
609,1686621189.573,-35.156,-830.078,-89.355,-15.137,567.47,333
610,1686621189.577,-84.473,-905.273,197.754,-51.758,567.474,333
611,1686621189.581,10.742,-78.125,280.762,10.742,567.477,329
612,1686621189.585,77.148,6.348,88.379,55.176,567.481,329
613,1686621189.585,5.859,-283.691,38.574,-7.812,567.482,329
614,1686621189.589,-73.242,-105.469,31.738,-66.895,567.486,329
615,1686621189.593,-14.16,-5.859,0.488,-20.996,567.49,329
616,1686621189.597,71.777,-263.672,10.254,43.457,567.494,323
617,1686621189.601,28.32,-203.613,118.164,16.602,567.498,323
618,1686621189.605,-65.43,-345.703,18.555,-50.781,567.502,323
619,1686621189.609,-44.922,-487.793,9.277,-45.898,567.505,314
620,1686621189.612,52.734,-583.496,-73.73,30.762,567.509,314
621,1686621189.616,44.434,-944.336,-1.465,42.48,567.513,314
622,1686621189.62,-50.781,-292.48,194.824,-46.387,567.517,314
623,1686621189.624,-66.406,-3.418,35.156,-67.871,567.521,314
624,1686621189.628,27.344,-349.609,76.172,14.16,567.525,306
625,1686621189.632,76.66,-170.41,167.969,51.758,567.53,306
626,1686621189.636,-5.859,145.02,41.016,-16.113,567.534,306
627,1686621189.64,-87.891,-130.859,-62.5,-70.801,567.537,295
628,1686621189.644,-24.902,-600.098,98.145,-22.949,567.541,295
629,1686621189.648,63.965,-128.418,234.375,23.438,567.545,295
630,1686621189.652,-8.789,-88.379,25.879,-46.875,567.549,289
631,1686621189.656,-120.117,-590.82,-58.594,-121.582,567.553,289
632,1686621189.659,-90.82,-852.051,42.48,-93.75,567.557,289
633,1686621189.663,-6.836,-197.266,215.332,-37.109,567.561,289
634,1686621189.667,-38.574,248.047,56.641,-65.918,567.565,282
635,1686621189.671,-145.508,-211.426,-72.266,-148.438,567.569,282
636,1686621189.675,-129.395,-323.242,146.973,-135.254,567.573,282
637,1686621189.676,-20.508,65.918,198.242,-59.57,567.585,282
638,1686621189.68,-12.695,135.254,-15.625,-69.336,567.589,275
639,1686621189.684,-104.98,-416.504,-63.965,-141.602,567.593,275
640,1686621189.688,-120.117,-765.625,129.395,-160.645,567.597,275
641,1686621189.692,-6.836,-344.727,217.285,-88.867,567.601,267
642,1686621189.696,38.574,-121.582,48.34,-48.34,567.605,267
643,1686621189.7,-56.641,-651.855,-129.395,-101.074,567.609,267
644,1686621189.703,-142.578,-1000.0,-14.648,-135.254,567.613,267
645,1686621189.707,-68.848,-326.66,249.512,-93.262,567.617,259
646,1686621189.711,29.297,180.176,154.785,-23.438,567.62,259
647,1686621189.715,-26.855,-194.824,-23.438,-55.664,567.624,259
648,1686621189.719,-117.188,-239.258,0.977,-126.953,567.628,252
649,1686621189.722,-62.5,20.508,24.902,-87.402,567.618,252
650,1686621189.726,52.734,82.031,8.301,-5.371,567.622,252
651,1686621189.73,34.18,-131.348,46.875,-26.855,567.626,252
652,1686621189.734,-74.707,-149.414,19.043,-106.934,567.63,248
653,1686621189.738,-70.801,-145.508,-1.953,-106.934,567.634,248
654,1686621189.742,27.832,-341.797,-1.953,-22.461,567.638,248
655,1686621189.746,50.781,-845.703,3.418,9.766,567.642,248
656,1686621189.749,-26.367,-718.262,97.656,-57.617,567.646,246
657,1686621189.753,-61.035,-199.707,33.203,-91.309,567.65,246
658,1686621189.757,23.926,-266.113,-13.672,-27.344,567.654,246
659,1686621189.761,80.078,-379.883,82.52,20.02,567.657,245
660,1686621189.765,8.789,-75.195,51.27,-32.715,567.661,245
661,1686621189.765,-57.129,-116.699,-35.645,-71.777,567.676,245
662,1686621189.769,0.0,-329.59,22.949,-15.137,567.68,245
663,1686621189.773,68.359,-279.297,114.746,37.598,567.683,244
664,1686621189.777,22.949,-332.031,27.832,4.883,567.687,244
665,1686621189.781,-59.57,-292.48,-4.883,-57.617,567.691,244
666,1686621189.785,-30.273,-658.203,-79.59,-18.555,567.695,244
667,1686621189.789,64.941,-998.535,19.043,71.289,567.699,246
668,1686621189.792,52.246,-400.879,150.879,45.41,567.703,246
669,1686621189.796,-62.5,-392.09,-40.527,-50.293,567.707,246
670,1686621189.8,-81.543,-836.426,-81.055,-66.895,567.711,246
671,1686621189.804,24.902,-323.242,207.52,9.766,567.715,250
672,1686621189.808,73.242,205.566,157.715,53.711,567.719,250
673,1686621189.825,-17.578,-89.844,-61.035,-14.16,567.735,256
674,1686621189.829,-92.773,-484.863,108.398,-60.059,567.738,256
675,1686621189.833,3.906,-185.059,259.766,18.066,567.742,262
676,1686621189.837,82.52,185.547,135.254,75.684,567.746,262
677,1686621189.841,8.301,-158.203,-43.457,30.273,567.75,262
678,1686621189.845,-69.336,-799.316,17.578,-24.414,567.754,267
679,1686621189.849,-8.789,-606.934,209.961,12.695,567.758,267
680,1686621189.852,94.727,7.324,215.82,77.637,567.762,267
681,1686621189.856,48.34,-150.879,-27.832,49.805,567.766,267
682,1686621189.86,-65.918,-776.855,60.547,-28.32,567.77,272
683,1686621189.864,-37.598,-668.945,253.906,-20.508,567.774,272
684,1686621189.868,71.777,-81.543,236.328,53.711,567.777,272
685,1686621189.87,61.523,-186.523,94.238,49.316,567.767,272
686,1686621189.874,-40.527,-519.531,84.473,-28.809,567.771,277
687,1686621189.878,-50.781,-368.652,98.633,-39.551,567.775,277
688,1686621189.882,23.926,-351.074,11.23,25.391,567.779,277
689,1686621189.886,36.133,-536.133,-22.461,36.621,567.783,284
690,1686621189.89,-45.41,-847.656,63.477,-23.926,567.786,284
691,1686621189.894,-96.191,-609.863,202.637,-56.152,567.79,284
692,1686621189.897,-14.16,-183.105,207.52,0.488,567.794,284
693,1686621189.901,54.199,-484.375,82.52,59.082,567.798,291
694,1686621189.905,-10.742,-538.574,172.852,10.742,567.802,291
695,1686621189.909,-86.426,-113.281,211.426,-41.504,567.806,291
696,1686621189.913,-35.645,-140.625,154.297,9.277,567.81,298
697,1686621189.916,61.523,-498.535,140.137,82.031,567.813,298
698,1686621189.92,26.367,-364.258,203.613,31.25,567.817,298
699,1686621189.924,-70.312,-68.848,148.438,-60.547,567.821,303
700,1686621189.928,-61.035,-287.598,-26.367,-43.457,567.825,303
701,1686621189.932,34.18,-607.422,92.285,38.574,567.829,303
702,1686621189.936,52.246,-499.512,162.109,43.457,567.833,303
703,1686621189.94,-42.48,-373.535,45.41,-36.133,567.836,308
704,1686621189.943,-85.449,-458.984,-52.734,-59.57,567.84,308
705,1686621189.947,1.953,-822.754,55.664,19.531,567.844,308
706,1686621189.951,72.266,-255.859,245.605,63.477,567.848,308
707,1686621189.955,6.836,22.949,61.035,5.859,567.852,314
708,1686621189.959,-68.848,-483.398,8.789,-46.875,567.856,314
709,1686621189.96,-0.977,-367.676,234.375,6.348,567.871,314
710,1686621189.964,90.82,59.57,238.77,73.73,567.875,314
711,1686621189.968,32.715,-78.613,-5.371,30.273,567.879,314
712,1686621189.972,-66.406,-723.145,-53.711,-41.504,567.883,320
713,1686621189.976,-21.973,-799.805,187.5,-2.93,567.886,320
714,1686621189.98,73.73,-371.582,236.328,60.059,567.89,320
715,1686621189.984,47.852,-254.395,87.891,33.203,567.894,327
716,1686621189.987,-69.824,-734.375,-118.652,-40.527,567.898,327
717,1686621189.991,-87.402,-921.387,70.801,-54.199,567.902,327
718,1686621189.995,35.645,-74.219,297.852,18.555,567.906,333
719,1686621189.999,69.824,193.848,154.785,49.805,567.91,333
720,1686621190.003,-38.574,-299.316,78.125,-16.602,567.914,333
721,1686621190.006,-82.52,-293.457,63.965,-56.641,567.903,333
722,1686621190.01,8.789,79.102,51.758,4.883,567.907,337
723,1686621190.014,58.594,82.52,-5.371,51.758,567.911,337
724,1686621190.018,-15.137,-239.746,30.762,-10.742,567.915,337
725,1686621190.022,-80.566,-292.969,38.574,-76.172,567.919,340
726,1686621190.026,-25.879,-381.348,32.715,-24.414,567.922,340
727,1686621190.03,52.246,-484.375,0.977,40.039,567.926,340
728,1686621190.033,23.438,-772.949,65.43,14.648,567.93,340
729,1686621190.037,-57.617,-446.289,234.863,-47.363,567.934,345
730,1686621190.041,-34.668,-6.836,169.922,-39.062,567.938,345
731,1686621190.045,58.105,-228.027,14.648,31.738,567.942,345
732,1686621190.049,46.387,-819.336,11.719,27.832,567.946,345
733,1686621190.05,-40.527,-474.609,212.891,-55.176,567.959,345
734,1686621190.054,-59.57,-44.434,158.691,-68.848,567.963,350
735,1686621190.058,28.32,-350.098,20.508,-5.371,567.967,350
736,1686621190.062,61.035,-421.387,181.152,20.02,567.971,350
737,1686621190.066,-29.297,-127.93,147.949,-49.805,567.975,355
738,1686621190.07,-92.773,-378.418,-19.531,-96.191,567.979,355
739,1686621190.074,-24.414,-808.594,-47.852,-30.273,567.983,355
740,1686621190.077,44.434,-868.164,108.887,28.809,567.987,358
741,1686621190.081,-17.578,-375.488,183.594,-30.762,567.991,358
742,1686621190.085,-106.934,-452.637,-27.344,-90.82,567.995,358
743,1686621190.089,-57.129,-808.105,-39.551,-47.363,567.998,358
744,1686621190.093,43.457,-217.773,191.406,11.23,568.002,360
745,1686621190.097,13.672,196.289,146.484,-19.531,567.993,360
746,1686621190.101,-87.891,-189.941,-44.922,-83.008,567.997,360
747,1686621190.105,-78.125,-453.125,129.395,-64.941,568.001,362
748,1686621190.109,36.621,-60.547,267.09,15.625,568.005,362
749,1686621190.113,52.734,166.016,125.977,17.578,568.009,362
750,1686621190.117,-49.805,-436.035,-54.199,-44.922,568.013,366
751,1686621190.121,-78.613,-875.0,58.594,-53.711,568.017,366
752,1686621190.124,22.949,-239.746,286.621,11.23,568.021,366
753,1686621190.128,58.594,189.941,168.457,42.969,568.024,366
754,1686621190.132,-31.738,-183.594,-31.738,-28.809,568.028,366
755,1686621190.136,-90.332,-566.406,-6.348,-80.078,568.032,369
756,1686621190.14,-11.719,-454.59,90.82,-23.926,568.036,369
757,1686621190.141,69.336,-11.23,153.809,37.109,568.05,369
758,1686621190.145,12.207,-198.73,56.152,0.977,568.054,373
759,1686621190.149,-84.473,-665.039,123.535,-75.684,568.058,373
760,1686621190.153,-54.199,-575.684,214.355,-59.57,568.062,373
761,1686621190.157,43.457,-113.281,235.84,7.812,568.066,373
762,1686621190.161,17.578,-404.785,-20.996,2.441,568.07,374
763,1686621190.165,-83.008,-1000.0,-34.668,-67.871,568.074,374
764,1686621190.168,-74.707,-416.504,259.277,-74.707,568.078,374
765,1686621190.172,16.602,14.648,228.027,3.906,568.081,374
766,1686621190.176,28.32,-214.844,17.578,13.184,568.085,375
767,1686621190.18,-53.223,-206.543,-20.996,-52.734,568.089,375
768,1686621190.184,-89.355,-113.281,29.785,-76.66,568.093,375
769,1686621190.188,-1.953,-75.195,37.598,-15.625,568.095,377
770,1686621190.192,52.734,-322.266,58.594,37.598,568.099,377
771,1686621190.196,-18.066,-390.625,71.777,-16.113,568.103,377
772,1686621190.2,-81.055,-176.27,43.457,-69.336,568.107,377
773,1686621190.204,-17.09,-224.121,-12.207,-15.625,568.111,379
774,1686621190.208,57.129,-820.801,-32.227,38.574,568.115,379
775,1686621190.212,2.93,-623.535,208.496,-4.883,568.119,379
776,1686621190.215,-91.309,-100.098,175.781,-77.148,568.123,382
777,1686621190.219,-70.801,-328.613,-48.34,-70.312,568.127,382
778,1686621190.223,25.879,-469.238,139.648,11.23,568.13,382
779,1686621190.227,32.227,-62.012,183.105,15.625,568.134,383
780,1686621190.231,-72.266,-74.707,-22.461,-71.289,568.138,383
781,1686621190.245,-89.355,-400.391,16.602,-86.914,568.141,384
782,1686621190.249,19.531,-201.172,224.609,-3.906,568.145,384
783,1686621190.253,51.758,19.531,124.512,26.367,568.149,384
784,1686621190.257,-49.316,-419.434,-42.48,-46.875,568.153,384
785,1686621190.261,-103.027,-839.355,-55.176,-82.52,568.157,384
786,1686621190.265,-16.113,-1000.0,-10.254,-18.066,568.161,384
787,1686621190.269,49.805,-379.883,261.719,30.273,568.165,385
788,1686621190.272,-20.508,36.133,145.508,-20.508,568.169,385
789,1686621190.276,-100.586,-678.711,-111.328,-76.66,568.173,385
790,1686621190.28,-40.039,-514.16,185.059,-45.41,568.177,385
791,1686621190.284,39.551,153.809,265.625,4.883,568.18,386
792,1686621190.288,-10.742,17.09,-11.719,-19.043,568.184,386
793,1686621190.29,-115.234,-488.281,53.223,-83.008,568.187,386
794,1686621190.294,-87.891,-364.746,218.75,-74.219,568.191,386
795,1686621190.298,21.973,67.871,201.66,0.977,568.195,389
796,1686621190.302,13.672,-15.137,66.406,6.836,568.198,389
797,1686621190.306,-82.031,-429.688,29.297,-61.523,568.202,389
798,1686621190.31,-89.844,-657.227,20.02,-71.777,568.206,389
799,1686621190.314,8.789,-518.555,77.637,-3.418,568.21,390
800,1686621190.317,42.969,-412.598,35.156,22.949,568.214,390
801,1686621190.321,-49.805,-882.812,-45.898,-44.922,568.218,390
802,1686621190.325,-101.074,-640.137,229.004,-95.703,568.222,390
803,1686621190.329,-14.648,-70.801,233.398,-31.25,568.226,390
804,1686621190.333,47.852,-160.645,46.875,20.02,568.23,390
805,1686621190.335,-11.719,-225.586,107.422,-30.273,568.232,390
806,1686621190.339,-95.215,-167.969,74.707,-98.633,568.236,389
807,1686621190.343,-54.688,-155.762,0.0,-62.012,568.239,389
808,1686621190.347,28.809,-479.98,-5.371,16.602,568.243,389
809,1686621190.351,5.859,-624.512,125.488,-9.277,568.247,389
810,1686621190.355,-85.449,-545.898,68.359,-78.613,568.251,389
811,1686621190.359,-79.102,-670.41,-20.996,-66.406,568.255,389
812,1686621190.362,21.973,-777.344,-43.457,11.23,568.259,389
813,1686621190.366,11.719,-640.625,100.586,6.348,568.263,391
814,1686621190.37,-86.426,-374.023,106.445,-65.918,568.267,391
815,1686621190.374,-105.957,-432.129,-15.137,-74.219,568.271,391
816,1686621190.378,-19.531,-692.871,0.488,-4.883,568.275,393
817,1686621190.381,37.598,-277.344,146.484,21.973,568.278,393
818,1686621190.385,-37.109,49.316,39.062,-38.574,568.282,393
819,1686621190.389,-103.027,-341.797,-71.289,-81.055,568.286,393
820,1686621190.393,-42.48,-427.246,140.625,-29.297,568.29,393
821,1686621190.397,37.109,-54.199,225.098,23.926,568.294,393
822,1686621190.401,-9.277,-228.516,12.207,-5.859,568.298,393
823,1686621190.405,-107.422,-726.562,-64.453,-66.895,568.302,393
824,1686621190.408,-72.754,-920.41,32.715,-44.922,568.305,392
825,1686621190.412,41.016,-286.621,230.957,29.785,568.309,392
826,1686621190.416,26.367,118.652,109.863,19.043,568.313,392
827,1686621190.42,-80.078,-274.414,-62.988,-61.523,568.317,391
828,1686621190.424,-80.078,-489.258,24.902,-67.383,568.321,391
829,1686621190.426,23.438,-356.445,41.992,4.395,568.324,391
830,1686621190.43,41.992,-23.438,12.695,20.996,568.328,391
831,1686621190.434,-62.988,-380.371,-76.66,-49.805,568.331,391
832,1686621190.438,-109.863,-873.535,65.918,-79.102,568.335,393
833,1686621190.442,-0.977,-327.637,241.699,-15.137,568.339,393
834,1686621190.446,54.688,-129.883,58.105,16.113,568.343,393
835,1686621190.45,-36.621,-706.055,-118.164,-50.293,568.347,395
836,1686621190.453,-112.793,-968.75,57.617,-99.609,568.351,395
837,1686621190.457,-44.922,-330.566,265.625,-56.152,568.355,395
838,1686621190.461,42.48,24.414,163.574,7.812,568.359,395
839,1686621190.465,-9.277,-268.066,15.137,-24.902,568.363,396
840,1686621190.469,-104.98,-293.457,-11.719,-93.75,568.367,396
841,1686621190.472,-71.289,-97.168,19.531,-71.289,568.368,396
842,1686621190.476,34.18,-67.383,3.906,3.906,568.372,396
843,1686621190.48,21.973,-435.059,18.066,2.93,568.376,396
844,1686621190.484,-80.078,-480.469,36.133,-78.613,568.38,396
845,1686621190.488,-83.496,-233.398,31.738,-85.938,568.384,395
846,1686621190.492,16.113,-431.152,-14.16,12.207,568.388,395
847,1686621190.496,31.738,-912.109,0.0,40.039,568.392,395
848,1686621190.499,-62.012,-635.742,231.445,-42.48,568.396,395
849,1686621190.503,-102.539,-187.5,183.105,-83.984,568.4,395
850,1686621190.507,-22.461,-246.094,40.039,-29.297,568.404,394
851,1686621190.511,43.457,-137.695,72.754,15.625,568.408,394
852,1686621190.515,-25.391,-36.133,9.766,-34.18,568.411,394
853,1686621190.515,-105.469,-240.723,-40.039,-93.262,568.426,394
854,1686621190.519,-56.152,-384.766,24.414,-48.828,568.43,394
855,1686621190.523,28.32,-292.969,140.137,24.414,568.434,394
856,1686621190.527,-2.441,-374.512,50.781,-6.348,568.438,394
857,1686621190.531,-85.449,-380.859,-10.254,-87.891,568.442,395
858,1686621190.535,-76.66,-660.645,-61.035,-86.914,568.445,395
859,1686621190.539,4.883,-1000.0,13.672,-3.906,568.449,395
860,1686621190.542,22.461,-419.434,234.375,3.418,568.453,395
861,1686621190.546,-63.965,-117.676,49.805,-77.148,568.457,395
862,1686621190.55,-100.098,-754.883,-104.98,-83.008,568.461,396
863,1686621190.554,-4.883,-400.391,192.871,-13.672,568.465,396
864,1686621190.558,44.434,219.727,206.055,18.066,568.469,396
865,1686621190.576,-44.434,-62.012,-11.23,-48.828,568.473,393
866,1686621190.58,-115.234,-493.652,94.727,-96.191,568.477,393
867,1686621190.584,-44.434,-258.789,237.305,-32.227,568.481,393
868,1686621190.588,32.227,162.598,188.477,18.066,568.484,393
869,1686621190.592,-32.715,-50.293,-13.672,-36.133,568.488,393
870,1686621190.596,-118.164,-756.348,6.836,-97.656,568.492,393
871,1686621190.6,-69.336,-702.637,177.734,-59.57,568.496,395
872,1686621190.603,25.879,-221.68,151.367,9.766,568.5,395
873,1686621190.607,0.0,-366.211,-34.668,-6.836,568.504,395
874,1686621190.611,-100.586,-892.578,-55.176,-77.148,568.508,395
875,1686621190.615,-85.449,-501.465,233.887,-72.266,568.512,396
876,1686621190.619,30.273,56.152,227.539,2.441,568.516,396
877,1686621190.62,47.852,-164.062,31.738,1.465,568.517,396
878,1686621190.624,-49.805,-251.465,81.543,-74.707,568.52,396
879,1686621190.628,-80.566,-299.805,13.672,-82.52,568.524,396
880,1686621190.632,-3.906,-428.711,12.695,-20.02,568.528,396
881,1686621190.636,20.996,-559.082,0.0,0.488,568.532,396
882,1686621190.64,-52.246,-833.496,39.551,-58.105,568.536,396
883,1686621190.644,-102.539,-629.883,166.016,-114.258,568.54,394
884,1686621190.647,-30.762,-125.488,189.941,-62.5,568.544,394
885,1686621190.651,45.898,-449.219,-40.039,9.766,568.548,394
886,1686621190.655,-22.949,-889.648,41.504,-22.949,568.552,394
887,1686621190.659,-109.375,-502.441,194.336,-89.355,568.556,392
888,1686621190.663,-68.359,-304.199,97.656,-70.312,568.56,392
889,1686621190.665,33.203,-565.918,34.668,-4.883,568.562,392
890,1686621190.669,21.484,-231.445,97.168,-7.324,568.565,392
891,1686621190.673,-82.52,-27.344,16.113,-68.359,568.569,392
892,1686621190.677,-81.543,-277.344,-27.832,-80.078,568.573,392
893,1686621190.681,14.648,-252.93,98.633,-8.301,568.577,394
894,1686621190.685,25.879,-297.852,58.594,16.602,568.581,394
895,1686621190.689,-68.359,-307.129,12.695,-55.664,568.585,394
896,1686621190.692,-106.934,-424.805,-49.316,-77.637,568.589,394
897,1686621190.696,-18.555,-843.262,62.988,-16.113,568.593,394
898,1686621190.7,51.758,-220.703,229.98,9.766,568.597,395
899,1686621190.704,-15.137,140.137,6.836,-36.133,568.601,395
900,1686621190.708,-103.516,-308.105,-18.555,-91.309,568.604,395
901,1686621190.711,-52.246,-396.484,150.879,-52.246,568.608,395
902,1686621190.715,52.734,-150.879,153.809,14.648,568.612,395
903,1686621190.719,20.02,-13.184,79.59,-18.555,568.616,395
904,1686621190.723,-83.984,-566.895,-71.289,-83.984,568.62,394
905,1686621190.727,-58.594,-880.859,100.586,-59.57,568.624,394
906,1686621190.731,42.969,-408.691,271.484,-1.953,568.628,394
907,1686621190.735,31.738,-184.57,52.246,-18.555,568.632,394
908,1686621190.738,-79.59,-666.504,-113.77,-90.82,568.636,394
909,1686621190.742,-89.355,-745.605,152.344,-91.797,568.64,393
910,1686621190.746,10.254,-19.531,291.016,-16.113,568.643,393
911,1686621190.75,33.203,105.957,100.098,7.324,568.647,393
912,1686621190.754,-53.223,-327.637,10.254,-55.176,568.651,394
913,1686621190.756,-106.934,-261.719,30.762,-84.473,568.653,394
914,1686621190.76,-20.02,92.773,41.504,-23.926,568.657,394
915,1686621190.764,47.852,52.246,1.953,22.461,568.661,395
916,1686621190.768,-34.18,-438.477,10.254,-32.227,568.664,395
917,1686621190.772,-117.676,-395.996,62.012,-91.797,568.668,395
918,1686621190.776,-55.664,-289.062,39.062,-48.828,568.672,395
919,1686621190.78,38.086,-386.23,-3.906,14.16,568.676,396
920,1686621190.783,4.883,-827.637,-26.855,-9.766,568.68,396
921,1686621190.787,-89.355,-644.531,219.238,-84.961,568.684,396
922,1686621190.791,-69.824,-60.059,260.254,-77.637,568.688,396
923,1686621190.795,29.297,-51.758,119.629,0.488,568.692,395
924,1686621190.799,32.715,-56.152,58.594,13.184,568.696,395
925,1686621190.8,-62.012,-70.801,-5.371,-57.617,568.697,395
926,1686621190.804,-84.961,-111.328,9.277,-79.59,568.701,395
927,1686621190.808,0.977,-319.336,21.484,-2.93,568.704,394
928,1686621190.812,38.574,-375.488,178.711,25.391,568.708,394
929,1686621190.816,-33.691,-129.883,147.461,-55.664,568.712,394
930,1686621190.82,-97.168,-423.34,-0.977,-100.098,568.716,393
931,1686621190.824,-32.715,-768.555,-41.992,-30.273,568.72,393
932,1686621190.827,35.156,-971.191,27.344,26.367,568.724,393
933,1686621190.831,-18.555,-316.895,239.746,-39.551,568.728,393
934,1686621190.835,-97.656,-38.086,87.891,-108.398,568.732,393
935,1686621190.839,-60.059,-423.34,38.574,-73.73,568.736,393
936,1686621190.843,38.086,-8.789,234.375,-7.324,568.74,393
937,1686621190.847,21.484,285.156,101.074,-19.043,568.744,393
938,1686621190.851,-77.637,-81.543,-57.617,-84.473,568.748,394
939,1686621190.855,-77.148,-431.152,111.328,-90.332,568.752,394
940,1686621190.859,28.809,-91.797,283.691,-14.648,568.756,394
941,1686621190.863,40.039,217.285,167.48,-2.441,568.76,395
942,1686621190.867,-63.477,-301.27,-51.27,-67.383,568.763,395
943,1686621190.871,-99.121,-909.18,-7.812,-78.125,568.767,395
944,1686621190.874,-4.395,-324.219,251.465,-18.066,568.771,394
945,1686621190.878,45.898,89.355,149.414,16.602,568.775,394
946,1686621190.882,-43.945,-398.926,-45.898,-41.504,568.779,394
947,1686621190.886,-110.84,-636.719,119.629,-82.031,568.783,394
948,1686621190.89,-36.621,-133.301,286.621,-21.973,568.787,392
949,1686621190.89,46.875,174.316,171.875,31.25,568.802,392
950,1686621190.894,-6.348,-127.93,37.598,-17.09,568.805,392
951,1686621190.898,-96.68,-380.859,102.051,-76.66,568.809,392
952,1686621190.902,-58.594,-442.383,105.469,-43.457,568.813,392
953,1686621190.906,38.574,-78.125,177.246,16.113,568.817,392
954,1686621190.91,13.672,-369.629,-17.578,0.0,568.821,392
955,1686621190.914,-89.844,-1000.0,-33.691,-75.684,568.825,393
956,1686621190.917,-85.449,-362.305,257.812,-83.984,568.829,393
957,1686621190.921,22.949,114.258,200.195,-7.812,568.833,393
958,1686621190.925,48.828,-125.0,24.414,5.371,568.837,393
959,1686621190.929,-43.457,-152.344,-23.926,-67.871,568.841,393
960,1686621190.933,-85.449,-275.879,53.223,-97.168,568.845,394
961,1686621190.938,-2.441,-207.52,144.043,-36.133,568.846,394
962,1686621190.942,58.105,-430.664,61.035,19.531,568.85,394
963,1686621190.946,-8.789,-248.047,130.859,-26.855,568.854,394
964,1686621190.95,-84.961,-0.977,79.59,-82.031,568.858,394
965,1686621190.954,-36.133,-142.09,-15.137,-38.574,568.862,394
966,1686621190.958,43.457,-401.855,80.078,30.273,568.866,394
967,1686621190.962,1.465,-313.477,180.664,2.441,568.87,392
968,1686621190.965,-91.309,-40.527,63.477,-71.777,568.874,392
969,1686621190.969,-75.684,-314.941,-55.176,-61.523,568.877,392
970,1686621190.973,14.16,-625.977,111.328,12.207,568.881,391
971,1686621190.977,18.066,-48.828,235.84,0.488,568.885,391
972,1686621190.981,-80.078,78.125,28.809,-64.453,568.889,391
973,1686621190.996,-97.656,-322.754,-8.789,-70.312,568.894,391
974,1686621191.0,9.277,-255.371,208.984,-4.395,568.898,393
975,1686621191.004,48.34,-171.387,182.129,21.484,568.901,393
976,1686621191.008,-44.434,-329.102,24.902,-43.945,568.905,393
977,1686621191.012,-107.422,-631.348,-44.922,-83.496,568.909,393
978,1686621191.016,-29.297,-984.375,39.551,-21.973,568.913,394
979,1686621191.02,52.246,-463.379,259.766,19.043,568.917,394
980,1686621191.023,-0.977,27.832,183.105,-36.621,568.921,394
981,1686621191.027,-90.82,-565.43,-57.617,-91.309,568.925,393
982,1686621191.031,-37.109,-497.559,173.828,-54.688,568.929,393
983,1686621191.035,61.523,247.07,289.062,20.508,568.933,393
984,1686621191.039,22.461,177.246,66.895,4.395,568.937,393
985,1686621191.04,-81.055,-284.668,100.098,-72.266,568.937,393
986,1686621191.044,-71.777,-142.578,237.793,-67.871,568.941,391
987,1686621191.048,29.785,215.82,219.238,14.16,568.944,391
988,1686621191.052,33.203,104.98,101.074,25.391,568.948,391
989,1686621191.056,-68.359,-427.246,23.926,-59.082,568.952,390
990,1686621191.06,-95.703,-659.668,17.09,-83.008,568.956,390
991,1686621191.064,-1.953,-276.855,161.621,-0.977,568.96,390
992,1686621191.067,39.551,-16.113,126.465,34.18,568.964,390
993,1686621191.071,-57.617,-784.18,-56.152,-25.391,568.968,390
994,1686621191.075,-115.723,-632.812,217.773,-75.195,568.972,390
995,1686621191.079,-38.086,84.961,270.02,-26.367,568.976,390
996,1686621191.083,44.922,77.637,127.93,35.645,568.98,391
997,1686621191.085,-3.906,-38.574,119.629,-8.301,568.982,391
998,1686621191.089,-103.027,-57.129,64.941,-78.613,568.985,391
999,1686621191.093,-58.105,-39.551,-2.441,-48.828,568.989,391
1000,1686621191.097,43.945,-341.797,8.301,25.391,568.993,392
1001,1686621191.101,24.414,-475.586,134.277,10.742,568.997,392
1002,1686621191.105,-79.102,-363.77,64.453,-66.406,569.001,392
1003,1686621191.109,-86.914,-439.453,-6.348,-74.707,569.005,391
1004,1686621191.112,4.883,-670.898,-56.641,0.488,569.009,391
1005,1686621191.116,25.879,-829.59,82.031,20.02,569.013,391
1006,1686621191.12,-60.547,-80.078,233.398,-61.035,569.017,391
1007,1686621191.124,-106.445,37.109,7.812,-90.82,569.021,389
1008,1686621191.128,-18.555,-269.531,85.449,-20.996,569.024,389
1009,1686621191.132,47.852,166.504,216.309,14.16,569.029,389
1010,1686621191.136,-23.438,307.129,35.156,-45.898,569.033,389
1011,1686621191.14,-101.074,-123.535,-45.898,-92.285,569.037,389
1012,1686621191.144,-37.109,-275.879,144.043,-33.691,569.041,389
1013,1686621191.148,46.387,107.422,235.84,31.25,569.044,389
1014,1686621191.152,-12.695,-10.254,36.621,-4.395,569.048,389
1015,1686621191.156,-113.281,-487.793,-41.504,-73.242,569.052,389
1016,1686621191.159,-76.66,-852.051,43.945,-50.781,569.056,389
1017,1686621191.163,39.551,-194.336,243.164,20.996,569.06,389
1018,1686621191.167,29.297,195.312,110.352,13.184,569.064,389
1019,1686621191.171,-78.613,-377.441,-59.082,-65.43,569.068,389
1020,1686621191.175,-83.496,-534.668,124.023,-74.219,569.072,389
1021,1686621191.175,21.973,68.359,292.48,13.672,569.072,389
1022,1686621191.179,44.434,339.844,125.0,39.062,569.076,390
1023,1686621191.183,-54.688,-168.945,-59.57,-41.016,569.08,390
1024,1686621191.187,-96.68,-549.316,78.125,-72.266,569.084,390
1025,1686621191.191,1.953,-148.438,204.102,-5.371,569.088,390
1026,1686621191.195,62.5,-45.41,76.172,25.879,569.091,388
1027,1686621191.199,-22.949,-567.871,-77.148,-29.785,569.095,388
1028,1686621191.202,-111.816,-989.746,-4.395,-83.984,569.099,388
1029,1686621191.206,-53.223,-300.781,248.535,-48.828,569.103,386
1030,1686621191.21,39.551,284.668,218.262,18.555,569.107,386
1031,1686621191.214,-4.395,-130.371,-23.438,-7.324,569.111,386
1032,1686621191.218,-95.703,-326.66,-23.438,-81.055,569.115,386
1033,1686621191.223,-77.148,-208.008,70.801,-61.523,569.12,386
1034,1686621191.227,21.484,-20.996,124.023,20.508,569.124,386
1035,1686621191.231,23.438,-341.309,97.656,25.391,569.128,386
1036,1686621191.235,-71.777,-195.801,151.855,-52.246,569.132,387
1037,1686621191.239,-92.773,86.914,68.359,-74.707,569.136,387
1038,1686621191.243,-3.418,-192.871,-17.578,-1.953,569.139,387
1039,1686621191.247,32.715,-757.812,3.906,32.715,569.143,387
1040,1686621191.25,-35.645,-340.82,152.344,-33.203,569.147,387
1041,1686621191.254,-87.402,94.727,67.383,-79.102,569.151,387
1042,1686621191.258,-26.367,-78.613,0.977,-15.137,569.155,387
1043,1686621191.262,52.246,71.777,122.559,45.898,569.159,387
1044,1686621191.266,-6.836,237.793,77.148,-6.348,569.163,387
1045,1686621191.28,-95.215,86.426,-29.785,-77.148,569.176,385
1046,1686621191.284,-40.039,-145.996,16.602,-33.203,569.18,385
1047,1686621191.288,56.152,-106.934,166.016,37.598,569.184,385
1048,1686621191.292,29.785,-149.902,48.34,12.207,569.188,385
1049,1686621191.296,-67.871,-313.965,-21.484,-57.129,569.192,385
1050,1686621191.3,-67.871,-577.148,-31.25,-55.176,569.196,385
1051,1686621191.304,27.832,-1000.0,19.043,21.973,569.2,385
1052,1686621191.307,50.781,-418.945,291.992,28.809,569.204,385
1053,1686621191.311,-41.992,156.738,142.578,-45.41,569.207,385
1054,1686621191.315,-84.473,-210.449,-28.32,-70.801,569.211,385
1055,1686621191.319,12.207,58.594,164.062,-5.371,569.215,386
1056,1686621191.323,58.594,436.035,141.602,21.484,569.219,386
1057,1686621191.325,-22.949,163.574,-31.25,-40.527,569.235,386
1058,1686621191.329,-91.309,-220.215,94.727,-79.102,569.239,386
1059,1686621191.333,-26.855,56.641,247.07,-25.391,569.243,386
1060,1686621191.337,58.594,383.301,172.363,33.203,569.247,386
1061,1686621191.341,-1.465,147.949,27.832,-6.836,569.251,386
1062,1686621191.345,-103.516,-430.664,4.395,-77.148,569.255,385
1063,1686621191.349,-69.336,-506.348,29.785,-51.758,569.258,385
1064,1686621191.352,38.574,-31.25,141.113,20.02,569.262,385
1065,1686621191.356,27.344,44.434,81.055,8.789,569.266,385
1066,1686621191.36,-75.684,-803.223,-54.688,-53.711,569.27,384
1067,1686621191.364,-72.266,-499.512,235.84,-62.988,569.274,384
1068,1686621191.368,30.762,257.324,263.184,-0.977,569.278,384
1069,1686621191.37,44.434,136.23,107.91,12.207,569.267,383
1070,1686621191.374,-50.781,18.066,115.723,-55.176,569.271,383
1071,1686621191.378,-83.984,-80.078,41.016,-78.125,569.274,383
1072,1686621191.382,-0.488,-127.441,19.043,-16.113,569.278,383
1073,1686621191.386,51.758,-225.586,11.23,19.043,569.282,383
1074,1686621191.39,-26.367,-641.113,58.594,-40.527,569.286,383
1075,1686621191.394,-100.586,-352.539,156.25,-104.98,569.29,383
1076,1686621191.397,-38.574,68.359,187.012,-60.059,569.294,383
1077,1686621191.401,46.875,-306.641,78.613,20.02,569.298,385
1078,1686621191.405,0.0,-333.984,191.406,-11.719,569.302,385
1079,1686621191.409,-92.773,121.582,188.965,-87.402,569.306,385
1080,1686621191.413,-69.336,119.141,4.395,-67.871,569.31,385
1081,1686621191.415,24.414,-493.164,-36.133,10.742,569.312,385
1082,1686621191.419,22.461,-316.895,194.824,9.766,569.316,385
1083,1686621191.423,-68.359,192.871,156.25,-66.406,569.319,385
1084,1686621191.427,-83.008,-28.32,-29.297,-85.938,569.323,384
1085,1686621191.431,16.602,-94.238,136.719,-11.23,569.327,384
1086,1686621191.435,47.363,-2.441,156.25,9.766,569.331,384
1087,1686621191.439,-50.293,-129.883,2.441,-62.5,569.335,383
1088,1686621191.442,-105.957,-410.156,-19.043,-90.332,569.339,383
1089,1686621191.446,-26.855,-771.973,68.848,-21.484,569.343,383
1090,1686621191.45,31.25,-85.449,196.289,3.906,569.347,383
1091,1686621191.454,-41.992,199.219,46.387,-56.641,569.351,382
1092,1686621191.458,-123.535,-344.238,-21.484,-103.027,569.355,382
1093,1686621191.46,-57.617,-319.824,165.527,-51.758,569.357,382
1094,1686621191.464,48.34,292.969,267.09,20.996,569.36,382
1095,1686621191.468,8.301,320.801,76.66,-11.719,569.364,383
1096,1686621191.472,-99.609,-408.203,-26.367,-88.379,569.368,383
1097,1686621191.476,-85.449,-562.988,156.25,-73.242,569.372,383
1098,1686621191.48,26.367,-108.887,229.004,4.883,569.376,384
1099,1686621191.484,27.832,85.449,145.02,5.859,569.38,384
1100,1686621191.487,-83.984,-418.945,-42.48,-68.359,569.384,384
1101,1686621191.491,-106.934,-602.051,143.555,-86.914,569.388,384
1102,1686621191.495,10.254,253.418,306.152,-16.602,569.392,384
1103,1686621191.499,51.758,441.406,141.602,16.113,569.396,383
1104,1686621191.503,-55.664,16.113,29.785,-52.734,569.4,383
1105,1686621191.508,-116.211,-62.5,-0.488,-100.098,569.406,382
1106,1686621191.512,-36.133,28.32,67.871,-38.086,569.409,382
1107,1686621191.516,44.922,170.41,117.188,12.695,569.413,382
1108,1686621191.52,-17.578,-274.414,93.75,-35.156,569.417,382
1109,1686621191.524,-105.957,-236.328,171.875,-96.68,569.421,380
1110,1686621191.528,-60.059,-113.281,96.191,-55.176,569.425,380
1111,1686621191.532,36.133,-222.168,88.379,17.09,569.429,380
1112,1686621191.535,6.836,-710.449,39.062,-0.977,569.433,380
1113,1686621191.539,-87.891,-374.512,171.875,-78.125,569.437,380
1114,1686621191.543,-69.336,195.312,227.051,-75.195,569.441,380
1115,1686621191.547,33.203,96.191,169.922,5.371,569.445,380
1116,1686621191.55,-53.223,220.215,134.766,-63.477,569.447,381
1117,1686621191.551,43.457,172.363,229.492,9.766,569.449,381
1118,1686621191.554,-97.656,143.066,-3.906,-92.285,569.451,381
1119,1686621191.558,-18.555,-22.949,25.879,-22.461,569.454,381
1120,1686621191.562,39.551,-91.797,175.293,27.344,569.458,382
1121,1686621191.566,-36.621,-159.18,94.238,-36.621,569.462,382
1122,1686621191.57,-106.445,-305.176,21.973,-90.82,569.466,382
1123,1686621191.574,-28.809,-523.926,28.32,-29.785,569.47,382
1124,1686621191.577,45.898,-985.352,26.367,41.016,569.474,382
1125,1686621191.581,-5.371,-393.555,261.719,-1.953,569.478,381
1126,1686621191.585,-92.285,132.324,165.039,-70.312,569.482,381
1127,1686621191.589,-55.664,-142.09,31.25,-38.574,569.486,381
1128,1686621191.593,51.27,228.027,223.145,40.039,569.49,380
1129,1686621191.597,29.785,483.887,156.738,20.996,569.494,380
1130,1686621191.601,-77.148,115.723,-31.25,-68.359,569.497,380
1131,1686621191.605,-83.984,-187.988,116.699,-70.312,569.501,379
1132,1686621191.609,22.461,188.477,264.648,12.207,569.505,379
1133,1686621191.613,47.852,432.129,167.969,34.18,569.509,379
1134,1686621191.617,-46.875,-161.133,-29.297,-26.855,569.513,379
1135,1686621191.621,-94.238,-898.438,-31.25,-57.129,569.517,378
1136,1686621191.624,-6.836,-394.531,242.676,-9.766,569.521,378
1137,1686621191.628,55.176,410.156,261.719,37.109,569.525,378
1138,1686621191.632,-12.207,83.496,28.32,-1.953,569.529,380
1139,1686621191.636,-85.938,-518.555,88.867,-58.105,569.533,380
1140,1686621191.64,-20.02,-89.844,292.969,-19.043,569.537,380
1141,1686621191.64,75.195,403.32,211.426,53.711,569.551,380
1142,1686621191.644,16.602,161.133,88.379,9.766,569.555,380
1143,1686621191.648,-87.891,-166.504,101.562,-74.219,569.559,381
1144,1686621191.652,-55.664,-291.016,129.395,-49.805,569.563,381
1145,1686621191.656,47.852,117.676,214.844,25.391,569.567,381
1146,1686621191.66,33.203,-175.781,-15.137,21.973,569.57,381
1147,1686621191.664,-78.613,-966.309,-58.594,-49.805,569.574,380
1148,1686621191.667,-88.379,-252.93,243.652,-70.312,569.578,380
1149,1686621191.671,14.648,228.027,202.148,-8.301,569.582,380
1150,1686621191.675,44.922,-208.984,5.371,25.879,569.586,378
1151,1686621191.679,-30.273,-69.336,110.352,-35.156,569.59,378
1152,1686621191.683,-78.125,215.82,106.445,-74.707,569.594,378
1153,1686621191.704,-15.625,131.836,-9.766,-16.602,569.603,377
1154,1686621191.708,47.363,-82.031,92.773,21.484,569.607,377
1155,1686621191.712,-9.277,157.227,176.27,-29.297,569.611,377
1156,1686621191.716,-88.379,242.676,41.016,-82.031,569.615,378
1157,1686621191.72,-36.133,36.133,-14.16,-38.574,569.619,378
1158,1686621191.724,55.664,-274.902,80.078,31.25,569.622,378
1159,1686621191.728,24.414,-187.5,182.129,3.418,569.626,378
1160,1686621191.731,-67.871,118.164,90.82,-69.336,569.63,378
1161,1686621191.735,-64.453,-159.668,-53.223,-59.082,569.634,378
1162,1686621191.739,31.738,-549.805,107.422,22.949,569.638,378
1163,1686621191.743,49.805,10.742,194.336,23.438,569.642,378
1164,1686621191.745,-95.215,-459.473,-20.02,-74.707,569.642,378
1165,1686621191.747,-59.57,20.02,-20.508,-52.246,569.646,378
1166,1686621191.749,6.836,-246.094,204.59,-5.371,569.646,378
1167,1686621191.753,56.641,194.824,171.875,34.668,569.65,378
1168,1686621191.757,-31.738,-124.023,-20.508,-26.855,569.653,376
1169,1686621191.761,-95.703,-541.016,-5.371,-66.406,569.657,376
1170,1686621191.765,-17.578,-635.742,167.48,-11.23,569.661,376
1171,1686621191.769,61.035,-87.891,279.297,36.133,569.665,376
1172,1686621191.772,8.301,310.059,123.047,-7.812,569.669,375
1173,1686621191.776,-81.055,-453.125,-59.082,-67.871,569.673,375
1174,1686621191.78,-47.852,-593.75,205.078,-40.527,569.677,375
1175,1686621191.784,51.27,348.145,301.27,19.531,569.681,375
1176,1686621191.788,29.297,390.625,81.543,-0.977,569.685,375
1177,1686621191.792,-87.402,-133.301,60.059,-74.707,569.7,375
1178,1686621191.796,-87.402,-134.277,185.547,-68.359,569.704,375
1179,1686621191.8,20.996,99.121,244.629,0.977,569.708,377
1180,1686621191.804,39.551,198.73,138.672,5.859,569.712,377
1181,1686621191.808,-57.129,-378.418,40.527,-65.918,569.716,377
1182,1686621191.812,-95.215,-537.109,192.383,-81.543,569.72,377
1183,1686621191.816,-6.836,-6.836,281.25,-11.23,569.724,377
1184,1686621191.819,40.039,194.336,108.887,22.461,569.728,377
1185,1686621191.823,-48.34,-669.434,-39.062,-32.715,569.731,377
1186,1686621191.827,-112.793,-376.465,208.984,-94.727,569.735,375
1187,1686621191.831,-39.551,273.438,251.465,-43.457,569.739,375
1188,1686621191.835,43.945,158.203,149.414,20.508,569.743,375
1189,1686621191.835,-13.184,138.184,149.902,-35.156,569.731,375
1190,1686621191.839,-113.281,169.922,57.129,-113.77,569.735,375
1191,1686621191.843,-78.613,149.414,-6.836,-88.867,569.739,374
1192,1686621191.847,20.508,-198.242,39.551,-0.977,569.743,374
1193,1686621191.851,16.113,-439.453,180.176,0.488,569.747,374
1194,1686621191.855,-81.543,-338.379,114.746,-72.754,569.751,373
1195,1686621191.859,-98.633,-220.703,39.062,-73.73,569.755,373
1196,1686621191.862,-1.465,-416.016,5.371,7.812,569.759,373
1197,1686621191.866,28.32,-704.59,100.098,22.949,569.763,374
1198,1686621191.87,-45.898,24.902,224.609,-44.922,569.767,374
1199,1686621191.874,-99.609,211.426,33.203,-78.125,569.771,374
1200,1686621191.878,-27.832,-326.172,-54.688,-10.254,569.774,374
1201,1686621191.881,47.852,76.172,164.551,39.551,569.778,375
1202,1686621191.885,-21.484,451.172,94.727,-20.02,569.781,375
1203,1686621191.889,-104.98,63.477,-66.406,-81.543,569.785,375
1204,1686621191.893,-37.598,-105.957,139.648,-39.551,569.789,375
1205,1686621191.897,52.246,253.906,207.031,21.484,569.793,375
1206,1686621191.901,7.812,76.66,4.395,-13.184,569.797,375
1207,1686621191.905,-86.426,-464.844,-48.34,-75.684,569.801,375
1208,1686621191.908,-63.965,-911.133,15.137,-48.34,569.805,373
1209,1686621191.912,44.434,-368.164,274.902,24.902,569.809,373
1210,1686621191.916,36.621,382.812,217.773,10.254,569.813,373
1211,1686621191.92,-65.918,92.773,-53.711,-63.965,569.817,373
1212,1686621191.924,-79.102,-126.465,50.781,-75.684,569.82,372
1213,1686621191.925,20.996,244.629,233.398,-10.254,569.822,372
1214,1686621191.929,57.617,480.469,148.926,19.043,569.826,372
1215,1686621191.933,-35.645,-29.297,-34.18,-44.922,569.829,372
1216,1686621191.937,-89.355,-506.836,29.297,-90.332,569.833,373
1217,1686621191.941,-8.789,-64.941,180.176,-25.391,569.837,373
1218,1686621191.945,49.316,158.691,80.078,22.461,569.841,373
1219,1686621191.949,-30.762,-387.695,-102.051,-36.621,569.845,375
1220,1686621191.952,-121.094,-895.508,43.457,-97.168,569.849,375
1221,1686621191.956,-56.152,-98.145,288.086,-58.105,569.853,375
1222,1686621191.96,41.016,315.43,122.559,11.23,569.857,375
1223,1686621191.964,-3.418,-299.316,-98.633,-10.742,569.861,376
1224,1686621191.968,-97.656,-194.824,99.609,-78.125,569.865,376
1225,1686621191.972,-81.055,254.883,218.75,-62.988,569.868,376
1226,1686621191.976,22.461,256.836,103.027,18.555,569.872,375
1227,1686621191.98,40.039,41.504,130.371,30.273,569.876,375
1228,1686621191.984,-57.129,85.938,122.07,-44.922,569.88,375
1229,1686621191.988,-93.75,154.785,16.113,-70.801,569.884,375
1230,1686621191.992,6.836,-118.164,5.859,0.488,569.888,373
1231,1686621191.996,56.641,-748.047,-12.695,46.387,569.892,373
1232,1686621191.999,-24.902,-302.246,170.898,-17.578,569.896,373
1233,1686621192.003,-86.426,169.434,134.766,-75.195,569.9,373
1234,1686621192.007,-19.531,2.93,-7.812,-24.902,569.904,372
1235,1686621192.011,54.688,141.113,93.75,25.391,569.907,372
1236,1686621192.015,-6.348,199.219,64.453,-27.344,569.911,372
1237,1686621192.016,-100.098,-188.477,-37.598,-89.355,569.926,373
1238,1686621192.02,-56.152,-381.348,48.34,-50.781,569.93,373
1239,1686621192.024,44.434,-279.785,222.168,15.625,569.934,373
1240,1686621192.028,18.555,-150.879,119.141,-11.719,569.938,373
1241,1686621192.032,-80.566,-1.953,-8.789,-82.031,569.942,373
1242,1686621192.036,-87.891,-425.293,-61.035,-76.172,569.945,374
1243,1686621192.04,-5.371,-969.727,10.254,-1.953,569.949,374
1244,1686621192.043,17.09,-137.695,233.887,7.324,569.953,374
1245,1686621192.047,-60.547,196.289,73.73,-68.359,569.957,374
1246,1686621192.051,-96.191,-333.496,-34.18,-87.402,569.961,374
1247,1686621192.055,-12.207,-20.02,162.598,-15.625,569.965,374
1248,1686621192.059,47.363,301.27,95.703,15.625,569.969,374
1249,1686621192.075,-27.832,141.602,-43.945,-51.758,569.972,372
1250,1686621192.079,-96.68,-213.867,81.543,-100.098,569.975,372
1251,1686621192.083,-24.414,-155.273,171.387,-44.434,569.979,372
1252,1686621192.087,57.129,116.699,192.871,21.484,569.983,372
1253,1686621192.091,11.23,99.121,71.777,-5.371,569.987,372
1254,1686621192.095,-88.379,-754.395,-62.988,-68.359,569.991,372
1255,1686621192.099,-62.012,-636.719,217.285,-47.363,569.995,373
1256,1686621192.102,54.199,264.648,296.387,33.691,569.999,373
1257,1686621192.106,33.691,142.09,29.785,18.066,570.003,373
1258,1686621192.11,-80.078,-624.512,40.527,-63.477,570.007,373
1259,1686621192.114,-81.055,-235.352,253.418,-72.754,570.011,373
1260,1686621192.118,20.996,261.719,193.359,0.488,570.015,374
1261,1686621192.12,52.246,59.57,88.867,34.668,570.016,374
1262,1686621192.124,-33.203,-23.438,118.652,-30.762,570.02,374
1263,1686621192.128,-82.52,-75.684,35.645,-67.871,570.024,374
1264,1686621192.132,-4.395,-170.41,12.695,-1.465,570.028,374
1265,1686621192.136,44.922,-384.766,49.316,30.762,570.032,374
1266,1686621192.14,-24.902,-652.344,78.613,-27.344,570.036,374
1267,1686621192.144,-91.797,-485.84,96.68,-77.637,570.04,372
1268,1686621192.147,-29.297,-230.957,119.629,-33.203,570.044,372
1269,1686621192.151,58.594,-456.055,48.34,38.574,570.048,372
1270,1686621192.155,13.672,-832.031,50.293,10.742,570.052,370
1271,1686621192.159,-77.637,-128.418,235.84,-67.383,570.056,370
1272,1686621192.163,-56.641,137.207,145.02,-57.617,570.059,370
1273,1686621192.165,44.434,-54.688,140.137,12.695,570.076,370
1274,1686621192.169,37.598,209.473,196.777,19.043,570.08,370
1275,1686621192.173,-67.383,172.363,21.484,-57.129,570.083,370
1276,1686621192.177,-86.426,-84.473,-24.414,-74.707,570.087,370
1277,1686621192.181,17.578,-104.492,136.719,9.766,570.091,370
1278,1686621192.185,62.012,-68.848,94.727,44.922,570.095,371
1279,1686621192.189,-26.855,-116.699,37.598,-29.785,570.099,371
1280,1686621192.192,-89.844,-241.699,-30.762,-70.312,570.103,371
1281,1686621192.196,-13.184,-855.957,-7.812,-3.906,570.107,372
1282,1686621192.2,66.895,-374.512,290.039,39.062,570.111,372
1283,1686621192.204,8.301,257.812,156.25,-12.207,570.115,372
1284,1686621192.208,-79.59,-186.523,-45.898,-68.359,570.119,372
1285,1686621192.21,-33.203,-289.551,173.828,-36.621,570.107,372
1286,1686621192.214,68.848,196.289,281.738,33.203,570.11,372
1287,1686621192.218,29.297,263.672,105.957,2.93,570.114,372
1288,1686621192.222,-79.102,-412.598,-36.621,-77.637,570.118,372
1289,1686621192.226,-56.152,-653.32,143.555,-71.289,570.122,371
1290,1686621192.23,44.922,-238.77,244.629,-1.465,570.126,371
1291,1686621192.234,52.734,-82.52,129.883,14.648,570.13,371
1292,1686621192.237,-52.246,-460.938,-31.738,-62.988,570.134,371
1293,1686621192.241,-95.703,-453.613,154.297,-99.609,570.138,370
1294,1686621192.245,-9.766,143.066,279.785,-29.297,570.142,370
1295,1686621192.249,33.691,180.664,86.426,6.348,570.146,370
1296,1686621192.253,-49.316,-615.234,-129.395,-57.617,570.15,371
