,timestamps,TP9,AF7,AF8,TP10,Secondary Timestamp,emg_signal
0,1686879796.45,-83.008,466.797,-49.805,-109.863,1024.361,407.81903991784884
1,1686879796.46,-65.918,237.305,-57.617,-51.758,1024.365,409.7711928358632
2,1686879796.46,-31.738,74.707,-38.086,17.578,1024.369,409.1717829239281
3,1686879796.46,-40.039,238.77,-11.719,-25.391,1024.373,414.7133907107003
4,1686879796.47,-70.801,389.16,-36.133,-104.492,1024.377,395.57799562729156
5,1686879796.47,-67.383,-215.332,-81.055,-68.359,1024.381,410.78032552872486
6,1686879796.48,-28.32,-901.367,-45.41,21.484,1024.385,409.11028608224564
7,1686879796.48,-18.555,-40.527,26.855,8.301,1024.389,391.76675935592885
8,1686879796.48,-57.129,424.805,-34.18,-72.754,1024.392,411.53705690513567
9,1686879796.49,-67.871,-47.852,-71.289,-80.078,1024.396,395.34937920727316
10,1686879796.49,-42.969,139.16,-22.949,-4.395,1024.4,407.78890827537106
11,1686879796.5,-33.691,463.379,-19.531,15.625,1024.404,404.21322341662784
12,1686879796.51,-60.547,307.617,-53.711,-60.547,1024.408,414.19961283714434
13,1686879796.52,-85.938,-291.504,-60.059,-106.934,1024.411,406.8113695042469
14,1686879796.52,-52.734,0.977,-6.348,-35.645,1024.415,408.7554297119895
15,1686879796.52,-13.184,372.559,-29.297,18.066,1024.419,404.67529789091105
16,1686879796.53,-27.344,-128.418,-72.266,-41.504,1024.423,406.4001351120492
17,1686879796.53,-59.57,-800.293,-71.777,-94.727,1024.427,407.699697983111
18,1686879796.53,-54.199,-671.875,0.977,-47.852,1024.431,414.0585430765611
19,1686879796.54,-17.09,125.977,25.391,20.508,1024.435,406.65333145513557
20,1686879796.54,-20.02,200.195,-56.152,-18.555,1024.439,408.6341061550682
21,1686879796.55,-63.477,-702.637,-75.684,-97.656,1024.443,408.29372920419195
22,1686879796.55,-64.941,-254.395,12.695,-74.707,1024.447,412.3996663182231
23,1686879796.55,-34.18,450.195,-15.625,4.883,1024.451,401.73681019362823
24,1686879796.56,-18.555,238.77,-55.664,8.789,1024.454,404.16559681856904
25,1686879796.56,-40.039,127.441,-31.25,-68.848,1024.458,414.7666785937533
26,1686879796.56,-56.152,177.734,-23.926,-90.82,1024.462,409.97578043441655
27,1686879796.57,-34.18,288.086,-23.438,-13.184,1024.466,402.4044514717972
28,1686879796.57,-11.719,148.926,-44.434,22.461,1024.47,403.3655144310853
29,1686879796.58,-29.785,-209.961,-59.57,-50.293,1024.474,411.1456361267597
30,1686879796.58,-53.711,-289.062,-39.551,-97.656,1024.477,403.9489014244737
31,1686879796.58,-33.691,-1.465,-36.133,-40.527,1024.481,404.3718009064566
32,1686879796.59,1.465,-332.52,-86.914,13.672,1024.485,401.45839330332257
33,1686879796.59,-17.578,-854.492,-33.691,-40.527,1024.489,400.2929473577902
34,1686879796.6,-47.363,-78.125,10.254,-103.027,1024.493,407.6770411070476
35,1686879796.6,-27.344,214.844,-51.758,-47.363,1024.497,405.4877185910856
36,1686879796.6,3.418,-116.699,-38.574,31.25,1024.497,405.93490215312846
37,1686879796.6,-2.93,165.039,-17.09,-1.465,1024.501,405.94233223489977
38,1686879796.61,-29.297,331.055,-32.715,-81.543,1024.505,407.75658526795183
39,1686879796.61,-39.062,30.762,-60.059,-80.078,1024.509,410.0784431209346
40,1686879796.62,-23.438,-437.012,-38.574,-12.695,1024.513,405.9231745470326
41,1686879796.62,-11.23,-339.355,-18.066,-11.23,1024.517,399.294763334903
42,1686879796.62,-41.016,-119.141,-26.855,-84.473,1024.521,409.35400365469866
43,1686879796.63,-63.477,-127.441,-51.27,-104.004,1024.525,398.5590867119337
44,1686879796.63,-30.762,-775.391,-73.73,-3.906,1024.528,407.5590899937845
45,1686879796.64,-3.906,-509.766,18.555,39.062,1024.532,408.0822077813032
46,1686879796.64,-22.461,47.363,-14.648,-43.945,1024.536,408.95909180198163
47,1686879796.64,-46.387,-228.027,-46.875,-98.145,1024.54,407.089100876215
48,1686879796.65,-38.086,-295.898,18.066,-46.387,1024.545,406.9525962498251
49,1686879796.65,-5.859,229.98,15.137,10.742,1024.549,410.94285537847526
50,1686879796.66,-13.672,378.418,-50.293,-37.598,1024.553,411.3621380856209
51,1686879796.66,-55.176,-54.199,-59.082,-101.562,1024.557,403.02972273927446
52,1686879796.66,-63.965,-179.688,2.93,-67.871,1024.561,409.3256561078309
53,1686879796.67,-20.02,-83.008,-10.254,12.695,1024.564,403.9183348172927
54,1686879796.67,-3.906,-41.992,-41.504,9.277,1024.568,411.7535005659191
55,1686879796.67,-52.734,-415.039,-73.73,-78.125,1024.572,407.25390564920167
56,1686879796.68,-69.824,-603.516,0.0,-81.543,1024.576,417.80362606180097
57,1686879796.68,-25.391,178.711,27.344,-0.488,1024.58,406.30193924905666
58,1686879796.69,-9.277,337.891,-50.781,4.395,1024.584,406.9649088404654
59,1686879796.69,-36.133,-58.594,-59.082,-72.266,1024.588,416.04355419279517
60,1686879796.69,-58.105,-143.066,-41.016,-100.586,1024.59,414.22341247782003
61,1686879796.7,-35.645,-39.062,-14.648,-30.762,1024.594,409.72866601446947
62,1686879796.7,2.93,145.996,-28.809,19.531,1024.598,397.45223887098365
63,1686879796.7,-16.113,-433.594,-70.801,-38.574,1024.602,398.5852183571899
64,1686879796.71,-46.387,-605.957,-25.391,-96.68,1024.606,395.7301197579886
65,1686879796.71,-26.855,-294.922,3.418,-42.48,1024.61,399.1826427065181
66,1686879796.72,-0.977,-219.238,-34.668,22.461,1024.614,400.3030489392669
67,1686879796.72,-14.16,-800.293,-74.219,-12.207,1024.618,406.1908342359448
68,1686879796.72,-34.18,-721.191,23.438,-84.473,1024.622,404.11001076546995
69,1686879796.73,-38.574,124.023,26.855,-64.941,1024.625,397.7298040794975
70,1686879796.73,-9.277,182.617,-30.273,14.16,1024.629,394.66118318289114
71,1686879796.74,7.812,110.352,-11.23,4.883,1024.633,397.1362085701828
72,1686879796.74,-27.832,208.496,-29.785,-65.43,1024.635,402.70383406555317
73,1686879796.74,-39.062,190.43,-38.086,-59.57,1024.638,389.69260789025674
74,1686879796.74,-11.23,-68.848,-50.781,16.602,1024.642,404.7054491614794
75,1686879796.75,1.465,-240.723,-26.855,21.484,1024.646,399.9057725609855
76,1686879796.75,-28.809,-72.754,-11.719,-62.012,1024.65,400.59990684348173
77,1686879796.76,-59.082,-138.184,-40.527,-97.656,1024.654,399.46095801141365
78,1686879796.76,-35.156,-526.855,-64.453,-27.832,1024.658,406.188961309482
79,1686879796.76,-17.09,-888.672,-39.551,21.973,1024.662,397.0627653128417
80,1686879796.77,-30.762,-146.973,11.719,-36.621,1024.666,390.8094431850578
81,1686879796.77,-48.828,210.938,-36.621,-101.562,1024.67,402.50779777331775
82,1686879796.78,-38.086,-230.957,-51.758,-52.246,1024.674,404.9767754753405
83,1686879796.78,-9.277,-71.777,-8.301,20.508,1024.677,398.41706203918875
84,1686879796.78,-12.207,230.469,-23.926,-13.672,1024.692,400.40223997275103
85,1686879796.78,-42.48,61.035,-48.34,-85.449,1024.696,399.2887218583958
86,1686879796.79,-45.41,-237.793,-13.184,-67.871,1024.7,401.72117084982455
87,1686879796.79,-17.578,-70.801,-18.066,6.836,1024.704,402.1417843248307
88,1686879796.8,-14.648,-108.887,-52.246,18.555,1024.707,394.2468421884212
89,1686879796.8,-35.156,-377.441,-56.152,-51.758,1024.711,404.615390912986
90,1686879796.8,-51.758,-894.043,-81.543,-68.848,1024.715,403.2109426143672
91,1686879796.81,-22.461,-993.652,-14.16,14.16,1024.719,399.11100514715
92,1686879796.81,11.719,-25.391,30.762,37.109,1024.723,396.96878859427846
93,1686879796.82,-20.508,209.473,-41.992,-53.711,1024.727,410.7014196306178
94,1686879796.82,-47.363,-125.488,-19.043,-99.121,1024.731,394.6237929625633
95,1686879796.82,-20.996,198.242,8.301,-33.203,1024.735,397.6201022543604
96,1686879796.83,10.254,412.109,-27.832,29.297,1024.736,398.175272299208
97,1686879796.84,-9.277,130.859,-61.035,-23.926,1024.739,398.90886006994396
98,1686879796.84,-47.363,-87.402,-37.598,-91.309,1024.743,399.22041616716064
99,1686879796.84,-40.527,68.848,-13.184,-50.293,1024.747,402.7325977595369
100,1686879796.85,-4.395,268.555,-21.973,26.367,1024.751,403.54028224735015
101,1686879796.85,-3.418,-207.031,-60.059,2.93,1024.755,398.5273788498766
102,1686879796.85,-37.109,-574.707,-10.254,-81.055,1024.759,396.48418924753776
103,1686879796.86,-45.898,-46.387,18.066,-77.148,1024.763,401.3975082581838
104,1686879796.86,-8.301,73.73,-39.551,9.277,1024.767,396.31929046470236
105,1686879796.87,2.441,-498.047,-70.801,13.184,1024.771,383.73894787375116
106,1686879796.87,-36.621,-637.207,-2.441,-78.613,1024.775,397.12794050713126
107,1686879796.87,-42.48,4.883,-7.324,-100.586,1024.779,393.38977582110994
108,1686879796.89,-16.113,95.215,-55.176,-18.066,1024.797,393.6956283844161
109,1686879796.89,-6.836,-189.941,-27.832,20.996,1024.8,395.4120811460279
110,1686879796.89,-27.344,28.809,-17.578,-49.316,1024.804,390.41396089221297
111,1686879796.9,-60.059,-3.906,-44.922,-111.816,1024.808,397.63839250950895
112,1686879796.9,-41.504,-366.699,-54.199,-54.688,1024.812,407.0281486953223
113,1686879796.91,-4.883,-879.395,-57.617,25.391,1024.816,395.5058694880938
114,1686879796.91,-19.043,-677.246,33.203,-28.32,1024.82,401.0968437538182
115,1686879796.91,-49.805,132.812,8.789,-112.793,1024.824,397.02691704874786
116,1686879796.92,-46.875,29.785,-49.316,-66.895,1024.828,395.90670256326746
117,1686879796.92,-18.066,-146.484,-2.93,20.02,1024.832,392.73633442527586
118,1686879796.92,-13.672,99.609,-21.484,-2.441,1024.836,402.31520530019384
119,1686879796.93,-38.574,-57.617,-57.129,-71.777,1024.84,404.34846135678566
120,1686879796.93,-50.781,-376.465,-47.363,-59.082,1024.827,399.8771246602581
121,1686879796.94,-33.203,-379.883,13.672,21.973,1024.831,399.8306375011727
122,1686879796.94,-17.09,147.461,-4.395,37.598,1024.835,399.6428659233237
123,1686879796.94,-47.363,219.238,-63.965,-49.316,1024.839,391.7391356343391
124,1686879796.95,-73.242,-166.504,-60.547,-85.938,1024.843,395.8686126204128
125,1686879796.95,-41.504,-387.207,-24.902,-5.859,1024.847,400.4587500338567
126,1686879796.95,-9.277,-129.883,-1.465,39.062,1024.851,392.5663634282951
127,1686879796.96,-32.227,142.578,-42.969,-34.18,1024.855,398.7727185890689
128,1686879796.96,-55.664,-343.75,-88.867,-87.891,1024.859,386.8287333470771
129,1686879796.97,-25.391,-321.289,-19.531,-25.879,1024.863,397.39579349965567
130,1686879796.97,5.371,216.797,13.672,46.387,1024.866,388.5974030596738
131,1686879796.97,-13.672,204.102,-46.387,0.0,1024.87,393.0444384274903
132,1686879796.98,-54.688,-478.027,-102.539,-77.148,1024.876,392.29990824532723
133,1686879796.98,-58.105,-598.633,-16.602,-51.27,1024.88,395.7148956301955
134,1686879796.98,-16.602,-126.953,20.996,24.902,1024.884,396.0421050551369
135,1686879796.99,-11.23,-17.09,-54.688,12.695,1024.888,390.24647375072107
136,1686879796.99,-53.223,-733.398,-80.078,-58.105,1024.892,390.7938563175271
137,1686879797.0,-65.43,-838.379,-7.812,-63.477,1024.896,385.24980511287913
138,1686879797.0,-29.785,-159.668,2.441,10.254,1024.9,399.41102458292113
139,1686879797.0,-6.348,-76.66,-51.27,38.574,1024.903,391.3249349417502
140,1686879797.01,-38.086,-720.215,-65.918,-36.133,1024.907,399.1214992694292
141,1686879797.01,-70.312,-291.504,9.766,-81.055,1024.911,397.33019688804376
142,1686879797.02,-43.945,347.168,-6.836,-19.043,1024.915,396.1791877237721
143,1686879797.02,-12.695,143.066,-46.387,29.297,1024.919,394.5761428198277
144,1686879797.02,-29.297,53.711,-16.602,-30.273,1024.92,397.012429586455
145,1686879797.03,-54.688,169.922,-17.578,-83.496,1024.923,388.70545593681214
146,1686879797.03,-40.039,194.336,-37.109,-36.621,1024.927,395.4468553339228
147,1686879797.03,-6.348,-28.32,-54.199,40.039,1024.931,385.01910767609075
148,1686879797.04,-16.602,-239.746,-39.551,6.836,1024.935,396.6758025653686
149,1686879797.04,-62.5,-323.242,-45.41,-78.125,1024.939,390.067838315353
150,1686879797.04,-69.824,-284.668,-38.086,-60.059,1024.943,394.48012355876966
151,1686879797.05,-32.715,-423.828,-70.801,13.184,1024.947,392.57390437905684
152,1686879797.05,-20.996,-864.258,-57.129,2.93,1024.951,393.16981617233773
153,1686879797.06,-51.27,-160.156,3.906,-82.031,1024.955,398.99465505231285
154,1686879797.06,-48.828,211.426,-43.457,-83.984,1024.959,392.79916353326325
155,1686879797.06,1.953,-125.0,-45.898,20.996,1024.962,393.48472706669554
156,1686879797.08,7.324,120.117,-11.719,41.016,1024.977,392.8723763303099
157,1686879797.08,-42.969,306.641,-33.203,-55.176,1024.981,403.8546366414077
158,1686879797.09,-72.754,64.941,-64.453,-95.215,1024.985,386.6007963688093
159,1686879797.09,-43.945,-449.707,-34.18,-13.672,1024.989,406.94137798646034
160,1686879797.1,-17.578,-352.051,-12.695,42.48,1024.993,394.3167145538343
161,1686879797.1,-36.133,-184.57,-41.504,-20.508,1024.997,387.9791729149388
162,1686879797.1,-70.312,-367.676,-55.664,-78.125,1025.001,402.90842739396766
163,1686879797.11,-56.152,-889.16,-85.449,-24.902,1025.005,392.98980723723884
164,1686879797.11,-14.16,-979.004,-12.695,52.734,1025.009,388.2065737619972
165,1686879797.12,-8.301,13.672,24.414,23.926,1025.012,391.0311493211164
166,1686879797.12,-45.898,219.727,-40.527,-62.988,1025.016,396.82236922374534
167,1686879797.12,-53.223,-70.801,-20.508,-59.082,1025.02,394.6299746808301
168,1686879797.13,-4.395,280.762,-1.465,37.598,1025.024,388.18542623675194
169,1686879797.13,9.766,441.895,-36.621,49.316,1025.028,396.59636993110246
170,1686879797.13,-19.043,80.566,-61.523,-33.691,1025.032,394.3762271646792
171,1686879797.14,-33.691,-56.152,-20.02,-47.363,1025.036,391.6578619962889
172,1686879797.14,6.348,168.457,-12.695,37.598,1025.04,391.1840682728714
173,1686879797.15,35.645,12.207,-50.781,74.707,1025.043,392.67283248713926
174,1686879797.15,0.977,-246.582,-67.871,0.488,1025.047,394.72491289982105
175,1686879797.15,-19.043,-83.008,-31.738,-44.434,1025.051,390.07126218856286
176,1686879797.16,10.742,120.605,-27.832,20.996,1025.055,392.33268355856774
177,1686879797.16,40.039,87.402,-47.363,83.496,1025.059,391.06093523700366
178,1686879797.16,28.32,-495.117,-95.215,35.156,1025.063,397.0494851723409
179,1686879797.17,0.977,-876.465,-36.621,-33.691,1025.067,386.64832110134694
180,1686879797.17,12.695,-71.289,15.625,7.324,1025.067,386.85933755919325
181,1686879797.18,39.062,198.73,-43.457,89.844,1025.071,389.3376319346212
182,1686879797.18,34.668,-108.398,-26.367,57.617,1025.075,397.0119080485522
183,1686879797.18,1.953,-21.973,-37.598,-26.855,1025.079,397.25502126285124
184,1686879797.19,-4.395,-149.902,-47.363,-21.484,1025.083,392.1900717722171
185,1686879797.19,32.227,-325.684,-44.922,58.105,1025.087,381.86235106307697
186,1686879797.19,43.945,-767.578,-69.824,74.707,1025.091,385.9502115976256
187,1686879797.2,9.277,-408.691,-10.254,-13.672,1025.095,386.4585914047195
188,1686879797.2,-11.23,219.727,-14.648,-49.316,1025.099,403.42028963338004
189,1686879797.2,-20.02,-25.879,-36.133,-67.383,1025.104,399.74544824067976
190,1686879797.21,20.508,45.898,-69.336,26.855,1025.103,391.77010149727715
191,1686879797.21,2.93,-254.395,-45.898,-5.859,1025.107,392.5498290968033
192,1686879797.21,40.039,-725.098,-66.406,66.895,1025.106,390.02357983521546
193,1686879797.21,37.109,-168.457,4.883,62.5,1025.111,395.34635661002494
194,1686879797.21,4.395,-439.941,-3.906,-4.883,1025.11,393.4790357408766
195,1686879797.22,34.668,243.652,-22.461,14.16,1025.115,386.22982282547224
196,1686879797.22,-2.441,268.066,-79.59,-57.617,1025.119,395.76612799285226
197,1686879797.22,-7.324,-251.953,-75.684,-32.227,1025.123,393.2150768986037
198,1686879797.23,29.785,-272.949,-0.977,54.199,1025.127,398.8683009144475
199,1686879797.23,37.598,282.715,-1.465,49.805,1025.131,401.4289955607767
200,1686879797.24,2.93,322.266,-61.523,-46.875,1025.135,392.0531285502352
201,1686879797.24,-11.23,-414.551,-84.961,-62.012,1025.139,403.13902942611685
202,1686879797.24,16.113,-577.148,20.508,28.32,1025.143,388.17337541311196
203,1686879797.25,31.738,232.91,7.812,59.082,1025.146,390.61616961487823
204,1686879797.26,0.977,238.281,-70.801,-20.508,1025.157,390.3494594023086
205,1686879797.26,-39.062,-238.77,-52.734,-77.637,1025.161,388.24252055574766
206,1686879797.27,-20.996,-166.504,-32.715,-11.719,1025.165,387.17927139755506
207,1686879797.27,9.277,4.883,-31.25,44.434,1025.169,398.7804667651881
208,1686879797.28,-20.508,-155.762,-57.129,-16.113,1025.173,393.5869505531041
209,1686879797.28,-54.688,-830.566,-87.402,-70.312,1025.177,389.75168077066354
210,1686879797.28,-38.086,-1000.0,-29.785,-20.508,1025.181,393.33979894484935
211,1686879797.29,1.953,-26.367,21.484,33.691,1025.185,386.02883008618835
212,1686879797.29,-5.859,305.176,-51.27,-6.348,1025.189,396.4602408392721
213,1686879797.3,-39.551,-0.977,-37.598,-80.566,1025.193,396.06590622493684
214,1686879797.3,-31.25,219.238,-13.672,-63.965,1025.197,393.5351920908162
215,1686879797.3,2.441,358.398,-43.945,23.438,1025.2,396.646443144546
216,1686879797.31,5.859,202.148,-60.059,21.973,1025.204,393.2665405942247
217,1686879797.31,-24.902,52.246,-42.969,-65.918,1025.208,393.6594030102155
218,1686879797.32,-37.109,126.465,-39.551,-79.59,1025.212,393.9924307035775
219,1686879797.32,-9.277,215.82,-39.551,-2.441,1025.216,393.456020544302
220,1686879797.32,0.488,-28.809,-64.941,23.926,1025.22,396.2035903654465
221,1686879797.33,-33.691,-341.797,-61.035,-48.34,1025.224,395.57699777622594
222,1686879797.33,-57.617,-405.762,-43.945,-84.961,1025.228,393.37341416792475
223,1686879797.33,-30.762,-225.586,-34.668,-24.414,1025.232,386.26968814317274
224,1686879797.34,-3.906,-394.043,-71.289,34.668,1025.236,393.28318645328653
225,1686879797.34,-30.273,-881.348,-49.805,-18.555,1025.24,392.11554143837975
226,1686879797.35,-62.5,-188.477,-0.977,-100.586,1025.243,384.7752964772908
227,1686879797.35,-46.387,187.5,-38.574,-61.523,1025.247,387.29927042614736
228,1686879797.35,-11.23,-109.863,-47.363,15.137,1025.247,397.7888297429361
229,1686879797.36,-15.137,72.266,-39.551,-20.508,1025.251,394.77625826376305
230,1686879797.36,-53.711,167.969,-48.828,-103.516,1025.255,392.69282512365675
231,1686879797.36,-62.012,-51.758,-63.477,-93.75,1025.259,394.37938783944463
232,1686879797.37,-27.832,-466.309,-38.086,-9.766,1025.263,391.52497843033984
233,1686879797.37,-16.113,-436.523,-33.691,0.488,1025.267,394.0410713196802
234,1686879797.37,-36.133,-198.242,-46.387,-76.66,1025.271,394.2764531085086
235,1686879797.38,-52.246,-136.719,-53.711,-99.121,1025.275,389.9814191667556
236,1686879797.38,-37.598,-844.238,-85.449,-11.23,1025.279,392.64392157457655
237,1686879797.39,-13.672,-983.887,-6.836,26.367,1025.282,389.64308701994395
238,1686879797.39,-31.25,-17.578,13.184,-65.43,1025.286,390.7231247700114
239,1686879797.39,-56.152,93.262,-58.594,-115.234,1025.29,385.01116187051474
240,1686879797.4,-32.715,-58.105,-10.254,-43.457,1025.294,396.92134385243224
241,1686879797.4,1.465,305.176,0.0,9.277,1025.298,392.73202323416143
242,1686879797.4,-15.137,315.918,-48.34,-42.969,1025.302,396.43786294427775
243,1686879797.41,-49.805,-40.039,-58.594,-102.539,1025.306,385.5125452704903
244,1686879797.41,-45.898,-124.512,-24.414,-65.918,1025.31,392.4121376971583
245,1686879797.42,-16.602,-121.094,-25.391,12.207,1025.314,391.6103328249101
246,1686879797.42,-17.578,-146.973,-50.781,-5.859,1025.318,389.93733486082755
247,1686879797.42,-53.711,-447.754,-79.102,-82.52,1025.321,392.29732934519814
248,1686879797.43,-60.059,-612.793,6.348,-79.59,1025.325,396.3992579722524
249,1686879797.43,-17.09,50.781,8.789,2.441,1025.329,391.929768205483
250,1686879797.44,0.977,68.359,-73.73,16.602,1025.333,391.20449841727066
251,1686879797.44,-23.926,-478.027,-82.52,-60.059,1025.337,395.1025522880633
252,1686879797.44,-46.875,-286.133,-28.809,-81.055,1025.337,393.4042347798226
253,1686879797.44,-26.855,239.258,-8.301,-7.812,1025.341,389.1675216900714
254,1686879797.45,-0.488,224.121,-41.504,32.227,1025.345,390.57803701200237
255,1686879797.45,-25.391,-196.289,-52.246,-41.504,1025.349,390.1643573001393
256,1686879797.46,-54.688,-398.926,-45.898,-107.422,1025.353,393.95972843371567
257,1686879797.46,-31.738,-303.223,-30.273,-50.293,1025.357,392.08460453587077
258,1686879797.46,-1.953,-214.844,-35.645,24.902,1025.361,398.326137048464
259,1686879797.47,-20.996,-810.547,-91.309,-12.695,1025.365,389.03426839285544
260,1686879797.47,-54.199,-733.398,11.23,-83.984,1025.369,387.27200309974637
261,1686879797.48,-46.875,134.277,27.832,-66.406,1025.372,400.1400875985372
262,1686879797.48,-15.625,193.359,-40.527,13.672,1025.376,393.2639090161602
263,1686879797.48,-16.602,97.168,-9.766,2.441,1025.38,402.1828598756063
264,1686879797.49,-38.086,140.625,-25.879,-89.355,1025.388,399.45278527466576
265,1686879797.49,-41.992,-93.262,-54.199,-88.379,1025.392,398.6135597314815
266,1686879797.5,-8.789,-282.227,-34.18,14.16,1025.396,406.9877002378887
267,1686879797.5,2.93,-193.848,17.09,34.668,1025.4,404.20275584827266
268,1686879797.5,-27.832,93.75,-10.742,-46.387,1025.404,395.52085517930453
269,1686879797.51,-55.176,-80.078,-52.246,-83.008,1025.408,396.34947885945894
270,1686879797.51,-29.297,-509.766,-53.711,-10.742,1025.412,397.554575906651
271,1686879797.52,13.184,-542.969,13.184,41.016,1025.416,406.47509029389266
272,1686879797.52,-2.93,125.0,13.184,-26.855,1025.42,394.48914597652606
273,1686879797.52,-35.645,192.871,-45.898,-96.191,1025.424,397.2413966342158
274,1686879797.53,-29.297,-202.637,-43.945,-48.34,1025.428,398.2382495444426
275,1686879797.53,-2.93,54.199,-8.301,33.203,1025.431,401.62966916690823
276,1686879797.53,0.977,321.289,-19.531,-1.465,1025.441,396.80674564384793
277,1686879797.54,-30.762,67.871,-56.152,-90.332,1025.445,402.8810421384276
278,1686879797.54,-36.133,-258.789,-31.738,-71.777,1025.449,400.15866639919136
279,1686879797.54,-4.395,-183.105,-26.367,21.484,1025.453,413.55110954155657
280,1686879797.55,2.441,-171.387,-46.387,25.391,1025.457,402.48035437088976
281,1686879797.55,-26.855,-331.055,-50.293,-53.223,1025.461,403.69746222288495
282,1686879797.55,-41.504,-865.723,-87.402,-62.5,1025.465,398.50607377339196
283,1686879797.56,-10.254,-1000.0,-20.02,10.254,1025.468,394.0508278841015
284,1686879797.56,15.625,-29.785,28.32,33.203,1025.472,400.6823117138089
285,1686879797.57,-11.23,280.273,-44.434,-38.574,1025.476,403.14461695310257
286,1686879797.57,-39.551,-17.09,-21.973,-83.008,1025.48,408.0144318071471
287,1686879797.57,-18.555,205.078,-3.418,-11.719,1025.484,406.135582274155
288,1686879797.58,11.719,351.074,-27.832,51.27,1025.486,413.17768530285815
289,1686879797.58,-6.348,115.234,-52.246,-0.488,1025.49,403.4065445552514
290,1686879797.58,-44.434,-52.734,-30.762,-67.871,1025.494,411.8921811247106
291,1686879797.59,-33.203,142.09,-7.812,-28.809,1025.498,402.0746277974018
292,1686879797.59,3.906,284.668,-25.879,44.434,1025.502,398.28348916903883
293,1686879797.6,-7.812,-183.105,-50.781,11.719,1025.505,401.38042073647847
294,1686879797.6,-37.598,-606.445,-26.855,-65.43,1025.509,400.47625951049787
295,1686879797.6,-40.039,-352.539,-5.371,-50.293,1025.513,406.4406547764934
296,1686879797.61,-10.742,151.367,-21.484,30.273,1025.517,406.51070514637314
297,1686879797.61,-6.836,-229.004,-83.984,32.715,1025.521,417.5243222516576
298,1686879797.62,-33.691,-686.523,-9.766,-55.176,1025.525,402.67665482643025
299,1686879797.62,-43.945,-76.172,21.973,-79.102,1025.529,404.7700960335992
300,1686879797.65,-20.02,164.062,-34.18,5.859,1025.548,409.59139381260303
301,1686879797.66,4.883,-69.336,-26.367,39.551,1025.552,415.0689628297076
302,1686879797.66,-20.996,61.523,-29.785,-41.016,1025.555,412.96848430005514
303,1686879797.66,-41.016,34.668,-44.922,-83.984,1025.559,411.97754755453104
304,1686879797.67,-8.301,-264.16,-47.363,-0.488,1025.563,400.191402969427
305,1686879797.67,9.766,-831.543,-52.246,64.941,1025.567,406.43267417997055
306,1686879797.67,-14.648,-714.355,32.227,4.883,1025.571,405.4774967510976
307,1686879797.68,-38.574,81.055,15.137,-63.965,1025.575,399.65639066659645
308,1686879797.68,-24.902,-49.805,-43.945,-49.805,1025.579,397.71811957905345
309,1686879797.68,-29.785,-51.758,-59.082,-14.16,1025.579,410.42104672540813
310,1686879797.69,4.883,-673.34,-20.508,72.754,1025.583,404.1574938690243
311,1686879797.69,-2.441,-58.594,0.0,33.203,1025.583,402.97205035574154
312,1686879797.69,19.531,-66.895,26.367,46.875,1025.587,398.61054374087894
313,1686879797.69,7.812,261.23,-5.371,54.199,1025.587,405.50102254940424
314,1686879797.69,-9.277,343.75,-31.25,-40.039,1025.591,401.46083597614455
315,1686879797.69,-15.137,278.32,-36.621,-22.949,1025.591,388.7868565444952
316,1686879797.7,-29.785,-88.867,-56.152,-40.039,1025.595,396.1080311876669
317,1686879797.7,-11.719,-419.922,-40.527,29.297,1025.599,386.5551668158026
318,1686879797.7,0.0,-185.059,-16.113,50.293,1025.603,388.21466117718927
319,1686879797.71,-19.531,150.391,-29.785,-16.602,1025.607,400.5001465261338
320,1686879797.71,-43.457,-286.621,-88.379,-70.801,1025.611,392.1653241631605
321,1686879797.72,-28.32,-244.629,-22.949,-22.461,1025.615,395.4262680338035
322,1686879797.72,11.23,206.055,-5.371,50.293,1025.618,381.81466813552805
323,1686879797.72,2.441,-21.484,-58.594,7.324,1025.622,389.6607419552011
324,1686879797.73,-33.691,-683.105,-107.91,-68.848,1025.622,386.5827627812116
325,1686879797.73,-36.133,-824.707,-4.883,-38.574,1025.626,391.88314245610826
326,1686879797.73,3.418,92.285,38.574,38.574,1025.63,382.53449015255865
327,1686879797.74,14.16,165.039,-63.965,22.461,1025.634,391.4296073695549
328,1686879797.74,-35.156,-472.656,-42.969,-62.988,1025.638,384.3631425653676
329,1686879797.75,-50.781,-483.887,-17.09,-59.082,1025.642,376.7586247748023
330,1686879797.75,-14.648,-80.566,10.254,28.809,1025.646,379.71627729197996
331,1686879797.75,0.977,129.883,-28.809,41.504,1025.65,382.3295927813436
332,1686879797.76,-28.809,-758.301,-93.75,-32.227,1025.654,370.6636466307513
333,1686879797.76,-46.875,-720.703,25.391,-70.801,1025.657,382.63812249999194
334,1686879797.76,-17.578,210.938,12.695,0.0,1025.661,381.5952132217007
335,1686879797.77,0.488,234.375,-58.105,52.246,1025.665,379.99625328468613
336,1686879797.77,-20.02,115.234,-22.461,-16.113,1025.674,385.25255460311337
337,1686879797.78,-38.086,85.449,-43.945,-74.219,1025.678,369.8317352881935
338,1686879797.78,-25.879,-113.281,-58.105,-24.414,1025.682,382.16633063551825
339,1686879797.79,4.883,-186.523,-22.461,47.852,1025.686,379.4962835839253
340,1686879797.79,0.488,-134.766,0.977,-5.859,1025.69,375.29608192426775
341,1686879797.79,-37.598,-175.781,-42.969,-85.449,1025.694,381.16714324031767
342,1686879797.8,-37.109,-170.41,-33.691,-54.199,1025.698,386.82278942075607
343,1686879797.8,-3.418,-273.438,-33.203,23.926,1025.702,387.6141578583303
344,1686879797.8,-1.953,-472.656,-1.465,18.066,1025.705,378.6530781465359
345,1686879797.81,-30.762,175.293,1.953,-60.547,1025.709,376.7229370213415
346,1686879797.81,-43.945,317.383,-49.316,-71.777,1025.713,389.0277374565062
347,1686879797.82,4.883,187.012,-15.137,30.762,1025.712,386.32601868620645
348,1686879797.82,-14.16,-30.762,-41.016,9.277,1025.717,383.87485238648827
349,1686879797.82,-23.438,356.934,-39.551,-53.223,1025.716,386.485853380753
350,1686879797.82,-42.48,134.277,-60.547,-95.703,1025.72,386.33102395664537
351,1686879797.83,-13.184,-187.012,-33.203,-11.23,1025.724,383.0898063080669
352,1686879797.83,3.906,-199.219,-25.879,42.969,1025.728,384.98126570004314
353,1686879797.84,-17.09,-136.719,-42.969,-26.855,1025.732,389.2307184749016
354,1686879797.84,-43.945,-263.672,-53.223,-96.68,1025.736,388.3372164217673
355,1686879797.84,-30.762,-864.746,-86.914,-44.434,1025.74,391.48877125606884
356,1686879797.85,1.953,-992.676,-27.832,38.574,1025.744,384.2244863762432
357,1686879797.85,-4.883,10.742,15.137,2.93,1025.747,397.22583364765916
358,1686879797.86,-37.109,219.238,-55.176,-82.52,1025.751,393.31961917637733
359,1686879797.86,-40.527,-7.324,-18.066,-78.125,1025.755,397.0537893064933
360,1686879797.86,-9.766,319.336,4.883,11.23,1025.759,390.1201215522626
361,1686879797.87,5.859,418.457,-41.504,18.555,1025.763,394.435625910655
362,1686879797.87,-17.09,86.426,-60.547,-73.242,1025.767,399.3587112171857
363,1686879797.87,-30.273,-13.672,-18.555,-96.191,1025.771,400.6980364760976
364,1686879797.88,-3.906,213.379,-12.695,-10.742,1025.775,400.688791089533
365,1686879797.88,10.254,123.535,-37.109,25.879,1025.779,395.6070715629007
366,1686879797.88,-26.855,-354.98,-87.402,-54.199,1025.783,405.0802001958316
367,1686879797.89,-59.082,-889.648,-51.27,-104.492,1025.787,399.3186425439247
368,1686879797.89,-28.32,-126.465,36.621,-41.992,1025.791,399.45383138470197
369,1686879797.9,0.488,473.145,-14.16,20.02,1025.794,394.1300056508344
370,1686879797.9,-20.996,66.406,-60.547,-29.785,1025.798,402.8470009787486
371,1686879797.9,-48.828,50.781,-32.227,-99.609,1025.802,413.89414644014045
372,1686879797.91,-35.645,307.129,-21.973,-60.059,1025.816,405.73510646417714
373,1686879797.91,-0.488,261.23,-40.527,26.367,1025.82,408.04353242017646
374,1686879797.91,-5.859,18.555,-26.855,5.371,1025.824,408.83499962336833
375,1686879797.92,-36.621,42.969,-28.809,-81.543,1025.828,391.45574963195656
376,1686879797.92,-41.992,-121.094,-31.738,-79.59,1025.831,403.0194604089766
377,1686879797.93,-14.648,-211.914,-33.203,2.93,1025.835,397.92152008718534
378,1686879797.93,-3.418,-766.113,-77.637,20.02,1025.839,414.58881111594377
379,1686879797.93,-29.297,-739.258,8.301,-65.918,1025.843,403.73561458835815
380,1686879797.94,-43.945,172.363,12.207,-97.656,1025.847,389.0378669019601
381,1686879797.94,-19.531,135.254,-41.504,-21.973,1025.851,399.7160163570173
382,1686879797.94,4.883,-40.039,0.0,27.832,1025.855,407.1755796158339
383,1686879797.95,-13.184,297.852,-15.137,-38.574,1025.859,405.08152555207795
384,1686879797.95,-34.668,334.961,-41.992,-92.285,1025.861,400.53431803890265
385,1686879797.96,-10.254,62.988,-50.781,-20.508,1025.865,399.01294310656317
386,1686879797.96,4.395,39.062,-20.508,31.25,1025.869,399.2129065999837
387,1686879797.96,-28.32,308.594,-16.113,-34.18,1025.872,401.41680216780935
388,1686879797.97,-60.059,324.219,-52.734,-108.887,1025.876,398.573456214723
389,1686879797.97,-48.34,-251.953,-57.129,-61.035,1025.88,395.9182191858902
390,1686879797.98,-11.23,-547.363,18.555,27.832,1025.884,396.22070869923044
391,1686879797.98,-1.465,153.32,-0.977,4.395,1025.888,395.8611589752225
392,1686879797.98,-28.809,275.879,-63.965,-87.402,1025.892,396.33583666355565
393,1686879797.99,-47.363,-215.332,-78.613,-91.309,1025.896,395.58842044258296
394,1686879797.99,-17.09,4.395,-28.809,-4.883,1025.9,396.9625517881546
395,1686879798.0,5.859,333.496,-30.273,9.766,1025.904,396.77430442877596
396,1686879798.01,-16.602,-50.781,-78.125,-67.871,1025.907,385.4938359467478
397,1686879798.02,-41.016,-572.754,-80.566,-94.727,1025.911,394.9237791714749
398,1686879798.02,-19.531,-141.113,-7.324,-23.438,1025.915,385.658302342621
399,1686879798.02,11.719,331.543,-23.926,24.414,1025.919,388.7241686515174
400,1686879798.03,-16.113,-106.445,-78.125,-41.504,1025.923,386.0203931693197
401,1686879798.03,-50.781,-846.68,-71.289,-100.098,1025.927,385.82851711448774
402,1686879798.03,-32.227,-681.641,25.391,-47.363,1025.931,376.16852983022716
403,1686879798.04,2.441,280.762,6.836,22.461,1025.935,372.74691727134797
404,1686879798.04,-6.836,254.883,-76.66,-13.184,1025.938,382.3900154620437
405,1686879798.05,-45.898,-157.227,-34.18,-92.773,1025.942,375.83051704671334
406,1686879798.05,-40.039,89.844,-19.043,-70.312,1025.946,382.8489173398471
407,1686879798.05,1.465,217.773,-40.039,9.766,1025.95,382.75367382430267
408,1686879798.07,6.836,129.395,-55.664,0.0,1025.969,361.1275221819422
409,1686879798.08,-29.785,62.5,-53.711,-83.496,1025.973,362.42588002912055
410,1686879798.08,-42.969,-32.227,-53.711,-94.727,1025.977,380.17965751906013
411,1686879798.08,-10.742,26.855,-37.109,-4.883,1025.981,367.2864523714923
412,1686879798.09,1.465,4.395,-58.594,31.25,1025.985,376.76359165805786
413,1686879798.09,-31.25,-453.613,-42.969,-45.898,1025.988,376.0383486331378
414,1686879798.1,-45.898,-269.043,-15.137,-89.355,1025.992,373.77004441531494
415,1686879798.1,-18.555,212.402,-25.391,-21.973,1025.996,380.7433134056144
416,1686879798.1,2.441,-155.762,-68.848,34.18,1026.0,376.4437679140883
417,1686879798.11,-20.508,-541.504,-15.137,-29.785,1026.004,383.8324977543326
418,1686879798.11,-48.828,73.73,2.441,-104.004,1026.008,381.0293837721844
419,1686879798.12,-38.574,187.5,-50.293,-55.664,1026.012,378.3749159883469
420,1686879798.12,-2.441,-103.516,-45.41,25.391,1026.013,381.21641574106553
421,1686879798.12,4.395,92.285,-41.016,1.953,1026.017,386.71880544225536
422,1686879798.12,-24.414,258.789,-48.34,-77.148,1026.021,381.2968709874726
423,1686879798.13,-40.527,53.223,-63.477,-63.477,1026.025,378.76331598153405
424,1686879798.13,-13.672,-399.414,-41.016,27.832,1026.028,379.60712220566757
425,1686879798.14,2.441,-289.551,-15.137,24.414,1026.032,381.0271362615354
426,1686879798.14,-27.344,-146.973,-52.734,-67.383,1026.036,390.93753407003055
427,1686879798.14,-44.922,-371.094,-52.734,-85.449,1026.04,381.57727093577194
428,1686879798.15,-24.414,-406.25,3.418,-7.324,1026.044,371.865604289712
429,1686879798.15,-41.992,-868.652,-97.168,-32.715,1026.044,387.25041859721347
430,1686879798.15,-7.812,62.012,-18.066,26.855,1026.048,384.6381305103872
431,1686879798.15,-7.812,-643.066,17.578,26.367,1026.048,379.9815183134118
432,1686879798.16,-14.648,193.359,-19.043,-24.414,1026.052,389.83330912834947
433,1686879798.16,-33.691,300.781,-62.5,-53.223,1026.052,382.1193929241474
434,1686879798.16,-47.852,0.488,-69.336,-92.285,1026.056,387.46867050273124
435,1686879798.16,-61.523,12.207,-87.402,-103.516,1026.056,387.9067816152913
436,1686879798.16,-38.574,-75.684,-17.09,-57.617,1026.06,382.792619632836
437,1686879798.17,-4.883,-37.109,-41.992,22.461,1026.064,386.8593507509067
438,1686879798.17,-10.742,-108.887,-49.316,0.977,1026.068,393.9320426778119
439,1686879798.17,-34.18,-351.074,-59.57,-77.637,1026.072,391.3927203663276
440,1686879798.18,-31.25,-356.445,-20.02,-66.895,1026.076,400.06484452869864
441,1686879798.18,-9.277,194.336,-5.859,8.301,1026.08,401.83435029468313
442,1686879798.19,2.93,423.34,-45.41,19.043,1026.083,404.090048666163
443,1686879798.19,-27.832,-337.891,-124.023,-57.617,1026.087,406.14425186768386
444,1686879798.19,-41.992,-862.305,-35.645,-76.66,1026.087,399.46322182876406
445,1686879798.2,-0.488,20.508,32.227,-0.977,1026.091,402.55709609778614
446,1686879798.2,24.902,360.84,-50.293,40.039,1026.095,408.7534672599623
447,1686879798.2,-5.371,-140.137,-55.176,-34.668,1026.099,398.5209086227531
448,1686879798.21,-33.691,-332.031,-40.527,-85.938,1026.103,416.5247531650216
449,1686879798.21,-19.531,-161.133,-26.855,-22.461,1026.107,408.4421382871255
450,1686879798.21,2.441,-80.566,-51.27,38.086,1026.111,413.62931559307634
451,1686879798.22,-11.23,-726.074,-84.473,-3.418,1026.115,416.81848301291217
452,1686879798.22,-36.621,-704.102,13.672,-84.961,1026.119,414.65320045004427
453,1686879798.23,-18.555,173.34,-13.184,-50.781,1026.122,427.6176788078788
454,1686879798.23,12.695,92.285,-66.895,23.438,1026.126,418.56700154771573
455,1686879798.23,3.418,-104.98,-6.836,-1.953,1026.13,416.36179832675526
456,1686879798.24,-23.926,249.512,-19.531,-73.242,1026.139,429.2273144149681
457,1686879798.25,-31.25,384.766,-37.109,-71.289,1026.143,430.71510664041006
458,1686879798.25,-10.254,65.43,-48.828,14.648,1026.147,442.35630571729104
459,1686879798.25,2.93,-117.676,-4.883,20.996,1026.151,433.46624099682504
460,1686879798.26,-20.996,200.195,-22.461,-66.406,1026.155,438.1233165129454
461,1686879798.26,-41.016,67.871,-63.477,-94.727,1026.159,438.3322545576749
462,1686879798.26,-24.414,-381.348,-59.082,-21.973,1026.163,445.74771631405906
463,1686879798.27,1.953,-531.25,-0.488,20.996,1026.166,440.1768400571114
464,1686879798.27,-12.695,169.922,1.953,-43.945,1026.17,444.2483347199818
465,1686879798.28,-46.875,312.988,-66.406,-109.863,1026.174,446.90823937585634
466,1686879798.28,-21.973,-89.844,-73.242,-52.734,1026.178,443.2853803649146
467,1686879798.28,3.418,336.426,-42.48,-20.02,1026.181,441.76388846300944
468,1686879798.28,20.02,145.02,-38.086,25.391,1026.182,450.81149116814174
469,1686879798.29,-31.738,-98.633,-77.148,-97.168,1026.185,449.82270993372555
470,1686879798.29,-28.32,-549.316,-83.008,-65.43,1026.188,446.97312895388563
471,1686879798.29,4.883,-203.613,-39.062,23.926,1026.192,459.8894213347552
472,1686879798.3,15.625,-19.531,-45.41,18.555,1026.196,457.8011490898133
473,1686879798.3,-13.184,-252.93,-77.148,-66.895,1026.2,456.0539711906925
474,1686879798.3,-36.621,-850.586,-80.566,-71.777,1026.204,459.3399992608129
475,1686879798.31,-21.484,-687.012,35.156,14.16,1026.208,452.00876014134883
476,1686879798.31,-2.441,333.008,13.184,28.809,1026.212,459.24522932584046
477,1686879798.32,-29.297,309.57,-68.848,-46.387,1026.216,464.5520391436022
478,1686879798.32,-43.457,-12.207,-23.926,-78.613,1026.22,459.63633100989074
479,1686879798.32,-15.625,278.809,-20.996,-15.137,1026.224,456.0313205198842
480,1686879798.33,13.184,482.91,-48.34,42.969,1026.236,468.01972656266673
481,1686879798.33,-8.789,220.703,-64.453,-19.531,1026.239,467.1613414101678
482,1686879798.34,-36.133,44.922,-33.691,-91.309,1026.243,471.80663735879807
483,1686879798.34,-14.16,13.672,-38.574,-30.762,1026.247,475.9197993646136
484,1686879798.34,11.23,124.023,-21.973,46.387,1026.251,471.2251641907408
485,1686879798.35,2.441,-120.117,-56.152,10.254,1026.255,460.8711115419284
486,1686879798.35,-29.297,-879.883,-53.711,-60.547,1026.259,472.9921634670144
487,1686879798.35,-29.785,-253.906,15.137,-52.246,1026.263,475.0058442784138
488,1686879798.36,7.812,365.234,-20.02,28.32,1026.267,468.6283849653875
489,1686879798.36,10.742,72.266,-68.848,19.531,1026.271,470.474752430508
490,1686879798.37,-11.719,106.934,-42.969,-52.246,1026.275,474.05025651833455
491,1686879798.37,-21.484,296.875,-28.32,-61.035,1026.278,472.55801824145396
492,1686879798.39,-26.367,230.469,-60.059,-8.789,1026.283,470.43363846039927
493,1686879798.39,-21.973,-16.113,-55.664,20.02,1026.286,473.45106741908353
494,1686879798.39,-40.527,106.934,-30.273,-54.199,1026.29,476.1867846422072
495,1686879798.4,-70.312,88.867,-53.223,-111.328,1026.294,475.91745995007545
496,1686879798.4,-66.406,-205.078,-61.035,-53.223,1026.298,472.7123849516048
497,1686879798.41,-46.387,-776.367,-67.871,17.578,1026.302,467.0197770280342
498,1686879798.41,-64.941,-795.898,9.766,-38.086,1026.306,470.45688744197645
499,1686879798.41,-88.379,29.785,20.508,-117.676,1026.31,472.75425830067354
500,1686879798.42,-74.707,155.762,-49.316,-59.57,1026.314,468.63069354597803
501,1686879798.42,-41.016,-346.191,-14.648,29.297,1026.318,472.53372966255426
502,1686879798.42,-30.762,103.027,7.812,2.441,1026.322,467.09984942911433
503,1686879798.43,-54.199,423.828,-37.598,-65.43,1026.326,457.8637114395797
504,1686879798.43,-53.223,85.449,-44.434,-43.457,1026.328,461.73184299514304
505,1686879798.44,-18.555,22.949,-1.953,36.621,1026.332,462.3523800777662
506,1686879798.44,0.488,329.102,-7.812,49.316,1026.336,460.13846718706213
507,1686879798.44,-31.25,322.266,-54.199,-38.086,1026.34,444.5321536202492
508,1686879798.45,-53.711,6.348,-54.199,-70.312,1026.344,455.7736381456107
509,1686879798.45,-23.926,-237.793,-23.438,12.207,1026.348,453.7275643948219
510,1686879798.45,-5.371,-8.301,4.395,44.434,1026.351,446.7984808120137
511,1686879798.46,-24.414,408.203,-15.137,-26.855,1026.355,444.43273963673545
512,1686879798.46,-52.246,-187.5,-99.121,-70.312,1026.359,445.08211191368565
513,1686879798.47,-42.969,-874.512,-30.762,-6.348,1026.363,435.82616697793156
514,1686879798.47,-4.395,32.715,28.809,56.152,1026.367,429.5178364334897
515,1686879798.47,-19.531,225.586,-55.664,3.418,1026.371,428.645308725946
516,1686879798.48,-59.082,-187.5,-43.945,-72.754,1026.372,428.89596562859043
517,1686879798.48,-44.434,107.91,-8.789,-39.062,1026.376,433.94468697729366
518,1686879798.48,-13.184,469.727,-14.16,49.316,1026.38,424.0378328776311
519,1686879798.49,-7.324,319.824,-62.988,27.832,1026.384,412.1938608689002
520,1686879798.49,-40.039,-421.875,-72.266,-51.27,1026.388,423.89792660309877
521,1686879798.5,-55.664,-458.984,-20.996,-41.504,1026.392,423.73455628406634
522,1686879798.5,-15.625,92.285,6.348,35.156,1026.396,406.64805551000285
523,1686879798.5,0.0,292.969,-41.016,41.504,1026.4,423.28807916559595
524,1686879798.51,-39.551,-601.074,-90.332,-42.48,1026.404,419.60393014996066
525,1686879798.51,-55.664,-405.762,0.977,-79.59,1026.407,396.6254513538062
526,1686879798.52,-27.832,410.645,-18.555,2.93,1026.411,394.2907135496515
527,1686879798.52,-5.371,97.656,-59.082,55.664,1026.415,396.48808248496516
528,1686879798.52,-20.508,-183.105,-13.184,-10.742,1026.419,400.07859161923756
529,1686879798.53,-45.898,258.789,-13.672,-68.359,1026.423,397.08431179127405
530,1686879798.53,-28.32,454.102,-41.504,-16.113,1026.427,383.7315248357171
531,1686879798.53,3.418,219.238,-44.434,55.176,1026.431,396.9710904964092
532,1686879798.54,-2.93,223.145,-29.785,10.254,1026.435,390.9449140052361
533,1686879798.54,-36.133,33.691,-66.895,-66.406,1026.439,371.9835307082691
534,1686879798.54,-43.945,-60.059,-57.129,-43.457,1026.443,374.01092347167753
535,1686879798.55,-18.066,-171.387,-48.828,27.344,1026.447,372.41198380332594
536,1686879798.55,-12.207,-458.984,-6.348,14.648,1026.451,355.5028880693049
537,1686879798.56,-37.598,220.215,9.277,-69.824,1026.454,357.70563687389966
538,1686879798.56,-50.781,412.598,-46.875,-78.613,1026.458,365.4977405610758
539,1686879798.56,-22.949,57.617,-52.246,10.254,1026.462,365.22528049745404
540,1686879798.57,-9.277,319.824,-27.344,34.18,1026.465,359.21667661992103
541,1686879798.57,-33.691,421.875,-47.363,-50.293,1026.469,354.33334377688993
542,1686879798.58,-54.688,-23.926,-73.242,-90.332,1026.473,352.59980344526423
543,1686879798.58,-38.086,-448.242,-55.176,-6.836,1026.477,350.30016206009816
544,1686879798.58,-0.977,-227.539,-20.02,53.711,1026.481,341.5675626350022
545,1686879798.59,-16.602,-2.441,-37.598,-19.043,1026.485,337.5224201914903
546,1686879798.59,-58.105,-144.531,-58.105,-85.449,1026.489,349.7571936943989
547,1686879798.59,-42.48,-751.953,-71.289,-26.855,1026.493,339.10384205089474
548,1686879798.6,-2.441,-607.91,30.273,47.852,1026.497,334.58959401377916
549,1686879798.6,-7.324,417.969,16.113,3.906,1026.501,323.78073371207233
550,1686879798.61,-40.527,336.426,-73.242,-83.008,1026.505,334.0265190218497
551,1686879798.61,-46.387,107.91,-8.789,-61.523,1026.508,327.46002300551567
552,1686879798.63,-5.859,452.637,0.0,25.879,1026.525,319.7341613299682
553,1686879798.63,-0.488,568.848,-51.758,16.602,1026.529,318.88245827443995
554,1686879798.64,-40.527,224.609,-73.242,-71.777,1026.532,321.8818770763328
555,1686879798.64,-49.805,114.746,-34.18,-85.938,1026.536,314.9428198538919
556,1686879798.64,-16.602,166.016,-37.109,-9.766,1026.54,319.56072788073266
557,1686879798.65,8.789,105.469,-44.434,22.949,1026.544,311.1983009570284
558,1686879798.65,-12.695,-201.172,-68.359,-35.156,1026.548,312.7910180059001
559,1686879798.65,-44.434,-856.445,-46.875,-82.031,1026.552,314.4495429879575
560,1686879798.66,-39.062,430.176,-10.742,-46.387,1026.583,312.3291865990922
561,1686879798.66,-25.391,-129.883,20.996,-30.273,1026.556,315.4462135235192
562,1686879798.66,-12.695,335.449,-38.574,21.484,1026.587,316.55179329696347
563,1686879798.66,1.465,509.277,-21.973,30.273,1026.56,309.15295734611783
564,1686879798.66,-12.207,88.867,-46.387,-12.207,1026.591,308.0979005590175
565,1686879798.67,-18.066,157.715,-69.336,-23.926,1026.564,310.77189768863144
566,1686879798.67,-31.738,119.629,-37.109,-93.262,1026.595,320.67550565994753
567,1686879798.67,-45.898,204.59,-35.156,-88.379,1026.568,315.22626274743334
568,1686879798.67,-28.809,-29.297,-42.48,-80.078,1026.599,312.74648997853575
569,1686879798.68,-0.488,-233.398,-47.363,11.719,1026.603,323.6588916857878
570,1686879798.68,7.812,-471.191,-17.578,29.785,1026.607,305.689301858408
571,1686879798.68,-21.973,-297.852,-13.672,-58.105,1026.611,316.88179119664227
572,1686879798.69,-48.34,153.809,-20.996,-95.215,1026.614,311.0055526070986
573,1686879798.69,-22.949,248.535,-34.668,-9.766,1026.618,318.92320766788214
574,1686879798.7,-3.906,-688.477,-81.543,40.527,1026.622,314.07689866504063
575,1686879798.7,-26.367,-950.684,-15.137,-35.645,1026.626,326.467152255896
576,1686879798.7,-42.969,79.59,13.672,-87.891,1026.626,312.1661021518118
577,1686879798.71,-31.738,310.547,-41.992,-23.926,1026.63,323.87221846273775
578,1686879798.71,1.465,275.879,-9.766,44.434,1026.634,315.7080473950499
579,1686879798.71,3.906,456.543,-21.484,5.371,1026.638,320.85274200543915
580,1686879798.72,-30.273,390.625,-60.059,-65.918,1026.641,321.83516597505684
581,1686879798.72,-30.273,-144.043,-66.406,-22.461,1026.645,318.7200799792872
582,1686879798.72,5.371,-418.945,7.812,52.246,1026.649,324.74551887377686
583,1686879798.73,9.766,303.223,6.836,20.508,1026.653,324.88261272957044
584,1686879798.73,-18.066,450.195,-59.57,-62.988,1026.657,328.99731219194706
585,1686879798.74,-26.367,-165.527,-84.473,-53.711,1026.661,321.70231419198
586,1686879798.74,4.395,-84.961,-20.996,45.41,1026.665,327.1967216378877
587,1686879798.74,25.391,453.125,-5.859,61.035,1026.669,329.1032169389526
588,1686879798.76,2.93,409.18,-64.453,-26.855,1026.657,335.2162779562112
589,1686879798.76,-22.461,-352.539,-98.145,-52.246,1026.661,326.8028770986401
590,1686879798.77,1.465,-260.254,-4.883,20.02,1026.665,333.3161614623084
591,1686879798.77,29.785,335.938,-12.695,63.965,1026.669,350.5788140927638
592,1686879798.78,6.348,-32.715,-77.148,-6.836,1026.673,342.7887586665849
593,1686879798.78,-22.949,-812.988,-87.891,-62.5,1026.677,336.276859723031
594,1686879798.78,-4.395,-676.758,18.555,-7.324,1026.681,343.417565394841
595,1686879798.79,33.203,357.91,37.598,63.965,1026.685,345.51309968782215
596,1686879798.79,23.926,386.719,-58.594,24.902,1026.688,341.74595495768347
597,1686879798.8,-14.648,-38.574,-33.203,-63.477,1026.692,347.1311829833359
598,1686879798.8,-19.043,240.723,-14.16,-42.969,1026.696,352.570792794826
599,1686879798.8,10.742,419.434,-50.781,52.246,1026.7,354.128057634227
600,1686879798.81,21.484,88.379,-55.176,54.199,1026.716,347.4461717932361
601,1686879798.81,0.488,-42.969,-28.32,-30.762,1026.72,358.8748309835975
602,1686879798.81,-8.789,199.219,-27.344,-35.645,1026.724,360.6242900225635
603,1686879798.82,20.508,392.578,-33.203,45.41,1026.728,363.22199024664735
604,1686879798.82,40.527,109.375,-65.918,54.199,1026.732,367.6681770212958
605,1686879798.83,6.348,-406.25,-60.059,-19.043,1026.736,364.56851702141427
606,1686879798.83,-19.531,-235.84,-20.996,-49.805,1026.74,366.84326501813354
607,1686879798.83,13.184,305.176,-15.625,21.973,1026.744,372.62379601811307
608,1686879798.84,37.109,-75.684,-73.242,83.984,1026.748,368.2090919400646
609,1686879798.84,14.648,-540.039,-15.137,19.531,1026.752,375.6756417168993
610,1686879798.84,-4.395,132.324,-0.977,-56.641,1026.755,372.8049591513357
611,1686879798.85,18.555,290.527,-54.688,-7.324,1026.759,380.1227372953025
612,1686879798.85,59.57,-34.18,-47.852,71.289,1026.748,378.91206151800264
613,1686879798.86,56.641,181.641,-32.227,49.316,1026.751,386.30704763373075
614,1686879798.86,21.973,185.059,-57.129,-28.32,1026.755,381.97860599550995
615,1686879798.86,25.391,-193.848,-75.195,-15.625,1026.759,383.48345606453665
616,1686879798.87,61.523,-735.84,-80.566,72.266,1026.763,384.08709527455835
617,1686879798.87,71.777,-741.211,-11.719,69.824,1026.767,396.13286388763083
618,1686879798.87,52.246,-29.297,1.465,-14.648,1026.771,382.7373721423275
619,1686879798.88,35.645,52.246,-38.086,-16.602,1026.775,391.7979639703549
620,1686879798.88,60.059,-226.562,1.465,75.195,1026.779,399.0631033578014
621,1686879798.89,89.355,212.402,-1.953,102.051,1026.783,388.6619852449664
622,1686879798.89,69.336,442.383,-47.363,20.508,1026.787,398.5890588637909
623,1686879798.89,30.273,-121.582,-69.824,-27.344,1026.79,397.7025066530073
624,1686879798.9,40.527,-622.07,-13.184,46.387,1026.794,397.4571560284304
625,1686879798.9,79.102,97.656,21.484,104.98,1026.798,410.1920180966434
626,1686879798.9,69.336,440.43,-45.898,38.574,1026.802,394.70582255318885
627,1686879798.91,38.086,27.832,-61.523,-36.133,1026.806,399.5548500718851
628,1686879798.91,45.898,-89.355,-32.227,22.949,1026.81,403.3778760010567
629,1686879798.92,72.754,-105.957,-38.574,98.145,1026.814,397.90935089046116
630,1686879798.92,81.055,-80.566,-49.805,65.43,1026.818,392.1030813565281
631,1686879798.92,51.27,-385.254,-85.938,-12.207,1026.822,395.3636568792169
632,1686879798.93,37.598,-901.367,-57.129,-0.977,1026.826,401.3942540523706
633,1686879798.93,73.73,-126.465,15.625,85.938,1026.83,386.1501591454067
634,1686879798.94,95.215,414.062,-34.668,109.375,1026.834,392.38699167400335
635,1686879798.94,62.5,-44.434,-84.473,32.715,1026.837,399.374757645926
636,1686879798.94,37.109,26.855,-35.156,7.812,1026.837,399.89193581072834
637,1686879798.94,68.359,346.191,-28.32,87.891,1026.841,397.14306939884494
638,1686879798.95,96.191,267.09,-61.035,136.719,1026.845,398.1292468233361
639,1686879798.95,77.148,-172.852,-57.617,69.824,1026.849,397.96100089872544
640,1686879798.96,56.641,-365.723,-47.363,9.766,1026.853,392.279985753616
641,1686879798.96,78.613,-229.004,-28.32,76.172,1026.857,391.3509245432481
642,1686879798.96,115.723,-126.465,-42.969,145.02,1026.861,393.8535072050549
643,1686879798.97,110.84,-725.586,-98.145,105.469,1026.865,397.7774721139383
644,1686879798.97,69.824,-1000.0,-40.527,40.527,1026.869,396.0912962623601
645,1686879798.98,73.242,-111.328,16.602,61.035,1026.872,385.31983305209525
646,1686879798.98,113.77,331.055,-35.156,140.137,1026.876,401.7353058668417
647,1686879798.98,124.023,199.219,-23.926,135.742,1026.88,399.4799336319829
648,1686879798.99,106.445,280.273,-34.18,53.223,1026.884,383.4547635215131
649,1686879798.99,92.285,331.055,-48.34,49.805,1026.888,394.14934340969114
650,1686879799.0,120.605,176.758,-54.199,144.531,1026.892,389.9071738625635
651,1686879799.0,144.043,166.504,-34.668,166.504,1026.896,384.5030491990803
652,1686879799.0,113.77,249.512,-31.25,86.426,1026.9,385.77188773507254
653,1686879799.01,98.633,-9.277,-48.34,55.664,1026.904,398.06732495984664
654,1686879799.01,119.629,-406.25,-54.688,125.977,1026.908,386.5246737018512
655,1686879799.01,145.996,-525.879,17.09,178.223,1026.912,390.65107243207115
656,1686879799.02,132.812,166.016,16.113,112.305,1026.916,395.38752948781473
657,1686879799.02,102.051,297.852,-53.223,55.664,1026.92,374.2393078071478
658,1686879799.03,121.582,-186.035,-62.988,123.047,1026.923,380.5146611275369
659,1686879799.03,156.738,-17.09,-16.602,191.895,1026.927,393.81329979060376
660,1686879799.03,147.949,366.211,-15.137,142.09,1026.941,385.55621411338177
661,1686879799.04,116.699,195.801,-62.012,70.801,1026.945,378.00731295742594
662,1686879799.04,113.281,-457.52,-79.102,100.586,1026.949,386.48935497545017
663,1686879799.04,149.902,-317.383,-21.973,188.965,1026.953,389.3890371740307
664,1686879799.05,156.738,-15.137,-25.391,181.641,1026.957,384.36188823071467
665,1686879799.05,117.676,-243.164,-62.012,88.867,1026.96,378.5567672279123
666,1686879799.05,104.004,-856.445,-66.895,86.426,1026.964,384.53387928505856
667,1686879799.06,136.719,-775.391,29.785,172.852,1026.968,380.7968653065898
668,1686879799.06,163.086,205.566,21.484,187.5,1026.972,379.5954679928317
669,1686879799.07,136.23,241.699,-62.988,104.98,1026.976,384.25833141452773
670,1686879799.07,101.074,-81.055,-24.414,73.242,1026.98,377.221010084661
671,1686879799.07,123.535,196.289,-8.789,148.438,1026.984,376.44515210399294
672,1686879799.08,157.715,404.785,-41.016,206.055,1026.987,379.1606230476771
673,1686879799.08,141.113,-32.715,-60.059,155.762,1026.991,390.6362607206388
674,1686879799.09,107.91,-396.973,-10.254,97.168,1026.994,376.0906261954781
675,1686879799.09,125.0,66.406,-0.977,145.02,1026.998,388.15236070680737
676,1686879799.1,163.574,361.328,-43.457,217.285,1027.002,375.10971915104597
677,1686879799.1,152.344,-157.227,-61.523,173.34,1027.006,377.1903319065224
678,1686879799.1,118.652,-541.504,-19.043,98.633,1027.01,373.0060619736232
679,1686879799.11,119.141,-51.27,4.883,120.605,1027.014,370.56923122682826
680,1686879799.11,160.645,335.938,-25.879,203.125,1027.018,380.43974378874145
681,1686879799.11,174.805,-61.523,-67.383,195.312,1027.022,376.0806582060479
682,1686879799.12,140.137,-234.375,-22.461,99.609,1027.026,376.8020340292531
683,1686879799.12,127.93,171.875,-18.555,85.449,1027.03,379.75068875378196
684,1686879799.14,164.551,215.82,-49.805,181.152,1027.033,379.52720198841575
685,1686879799.14,190.918,-68.359,-50.293,228.027,1027.036,370.3179359334161
686,1686879799.14,173.828,63.477,-36.621,158.203,1027.04,378.58995941268006
687,1686879799.15,146.484,63.965,-60.059,106.445,1027.044,375.4674930456213
688,1686879799.15,160.645,-216.797,-68.359,166.504,1027.048,370.89034229234454
689,1686879799.16,195.312,-769.531,-83.984,233.398,1027.052,384.9152213256479
690,1686879799.16,185.059,-831.543,-14.16,186.035,1027.056,369.5122857790018
691,1686879799.16,156.25,14.16,5.371,112.793,1027.06,373.2861901563627
692,1686879799.17,166.504,67.871,-84.961,153.32,1027.064,371.96610693520086
693,1686879799.17,197.754,-567.871,-66.406,242.188,1027.068,370.78031743028504
694,1686879799.18,194.336,-40.527,-8.789,210.449,1027.072,383.7009018785174
695,1686879799.18,160.156,349.121,-53.711,117.188,1027.076,381.1756460301266
696,1686879799.18,151.855,-44.922,-80.078,136.23,1027.078,374.7889486065703
697,1686879799.18,187.012,-56.152,-34.18,223.633,1027.082,389.4322536074275
698,1686879799.19,200.195,260.742,-35.645,226.562,1027.086,373.24008495068426
699,1686879799.19,170.898,291.504,-63.965,150.391,1027.09,369.29174967421096
700,1686879799.2,153.32,-69.336,-85.449,137.695,1027.094,374.99141679635443
701,1686879799.2,184.082,-360.352,-69.336,214.844,1027.098,384.321642704819
702,1686879799.2,210.938,-241.211,-42.48,248.047,1027.102,381.9739057679258
703,1686879799.21,171.387,-103.027,-52.246,166.016,1027.105,382.859533033346
704,1686879799.21,129.883,-420.898,-101.562,102.539,1027.109,378.13179885727965
705,1686879799.22,146.484,-895.508,-45.898,175.293,1027.113,376.10880096261025
706,1686879799.22,178.711,-108.398,16.602,245.605,1027.117,377.2144160273195
707,1686879799.22,173.34,348.633,-47.852,184.082,1027.121,384.0123836944711
708,1686879799.23,139.648,-125.977,-87.402,115.723,1027.122,378.1605387652922
709,1686879799.23,138.184,-9.766,-57.129,155.762,1027.126,376.68769517192516
710,1686879799.23,170.898,362.305,-43.457,231.934,1027.13,375.98315957822547
711,1686879799.24,175.781,130.859,-91.309,209.473,1027.134,370.42316207701066
712,1686879799.24,140.625,-595.703,-98.145,130.859,1027.138,380.29283890623907
713,1686879799.25,130.859,-623.535,-42.969,135.254,1027.142,383.43388913337014
714,1686879799.25,162.109,-48.34,-10.254,217.285,1027.146,382.3943155622039
715,1686879799.25,176.27,161.133,-62.012,231.934,1027.15,384.7624279833958
716,1686879799.26,142.09,-717.285,-101.562,155.273,1027.153,386.2429422871523
717,1686879799.26,125.977,-636.23,-2.441,120.605,1027.157,387.53139682065085
718,1686879799.26,163.086,253.418,-6.836,193.359,1027.161,386.7513006923168
719,1686879799.27,187.988,155.273,-79.102,234.863,1027.165,383.7244143328015
720,1686879799.27,163.574,-290.527,-42.969,163.574,1027.169,394.99900046838945
721,1686879799.28,132.812,14.16,-19.043,102.051,1027.173,386.79815051412237
722,1686879799.28,146.973,276.367,-52.734,162.109,1027.177,392.175095733132
723,1686879799.28,177.734,124.023,-63.477,237.793,1027.181,397.21764263201504
724,1686879799.29,163.086,95.703,-43.945,192.383,1027.185,381.79313224786284
725,1686879799.29,130.859,-127.441,-60.547,123.047,1027.189,383.0944934488668
726,1686879799.3,131.348,-231.445,-56.152,145.508,1027.193,383.84672963208635
727,1686879799.3,164.551,-298.828,-60.059,214.844,1027.197,380.7177579459561
728,1686879799.3,166.992,-510.742,-19.043,205.566,1027.201,390.26465385074255
729,1686879799.31,128.418,75.684,-9.766,119.629,1027.205,392.2902806027258
730,1686879799.31,111.328,227.051,-64.941,113.77,1027.209,390.1880164319721
731,1686879799.32,143.555,-209.961,-83.496,207.031,1027.212,393.88277192921123
732,1686879799.32,160.156,-90.332,-48.828,226.562,1027.213,384.67046885634176
733,1686879799.32,134.766,272.461,-43.457,143.066,1027.217,388.18208370375754
734,1686879799.32,112.793,149.414,-73.242,104.004,1027.22,391.6230231569409
735,1686879799.33,138.672,-403.809,-64.453,184.082,1027.224,399.01293647468776
736,1686879799.33,162.109,-380.371,-22.949,233.398,1027.228,398.72637056245344
737,1686879799.34,139.16,-103.027,-42.969,166.504,1027.232,388.22387801277983
738,1686879799.34,113.77,-213.379,-68.848,95.703,1027.236,384.41904042117545
739,1686879799.34,118.652,-825.684,-84.473,136.23,1027.24,392.222659740055
740,1686879799.35,153.32,-694.824,14.16,221.68,1027.244,397.293198993501
741,1686879799.35,150.879,277.344,4.883,185.059,1027.248,387.568439455791
742,1686879799.36,105.957,229.98,-70.312,90.82,1027.252,402.9659243864284
743,1686879799.36,103.516,-6.836,-29.785,100.098,1027.256,389.40779911374693
744,1686879799.36,138.184,294.922,-28.32,180.176,1027.264,383.3126557902296
745,1686879799.37,137.695,375.488,-69.336,168.457,1027.268,395.83227796554564
746,1686879799.37,99.121,-186.523,-85.938,87.891,1027.272,394.2483311638903
747,1686879799.38,78.613,-405.762,-7.324,79.102,1027.276,387.029917930455
748,1686879799.38,107.91,126.953,-11.23,164.062,1027.279,388.97060212061683
749,1686879799.38,137.207,122.559,-75.195,193.359,1027.283,395.7337498591647
750,1686879799.39,104.492,-399.902,-80.078,106.445,1027.287,389.0161570116076
751,1686879799.39,66.895,-623.535,-4.395,55.664,1027.291,392.7822824335741
752,1686879799.4,91.309,79.102,16.602,118.652,1027.295,400.17479083846837
753,1686879799.4,123.047,413.086,-45.898,180.664,1027.299,388.68176854400434
754,1686879799.4,103.516,24.902,-82.52,120.117,1027.303,396.1852959045654
755,1686879799.41,84.961,253.418,-31.738,92.285,1027.316,397.25157298925944
756,1686879799.41,76.172,-26.855,-52.734,47.363,1027.307,398.98920654659565
757,1686879799.41,110.84,264.648,-55.176,164.062,1027.32,394.74406167504765
758,1686879799.41,104.004,-16.602,-63.965,124.023,1027.323,391.16586264318624
759,1686879799.42,70.312,-73.242,-64.453,45.898,1027.327,399.86697476177017
760,1686879799.42,64.453,-200.195,-65.918,61.035,1027.331,404.29131068990705
761,1686879799.43,93.75,-212.891,-50.293,128.418,1027.335,392.60664472714285
762,1686879799.43,104.004,-728.027,-97.656,141.602,1027.339,402.86437820231384
763,1686879799.43,70.312,-1000.0,-53.711,68.848,1027.343,395.1010805990099
764,1686879799.44,57.129,-142.09,4.883,31.738,1027.347,391.9065342011092
765,1686879799.44,83.984,236.328,-38.086,109.863,1027.351,397.61270934538993
766,1686879799.44,107.91,113.281,-36.133,150.391,1027.355,396.50091624724615
767,1686879799.45,85.938,318.848,-51.27,76.172,1027.359,395.52362521795874
768,1686879799.47,36.621,303.711,-77.637,8.301,1027.364,403.02305564249133
769,1686879799.47,44.922,65.918,-75.195,55.664,1027.368,399.1586637251236
770,1686879799.48,73.73,97.656,-46.875,111.816,1027.372,398.1974622787971
771,1686879799.48,59.082,321.289,-47.363,60.547,1027.376,404.237908914663
772,1686879799.48,30.273,298.34,-72.754,-3.906,1027.38,399.5760046594207
773,1686879799.49,42.48,-212.402,-78.613,31.25,1027.384,402.0362944368664
774,1686879799.49,72.754,-542.48,-25.391,110.352,1027.388,395.2504211849674
775,1686879799.49,69.336,-120.117,-29.785,90.82,1027.392,401.3995514070976
776,1686879799.5,41.504,200.684,-66.895,7.812,1027.395,407.7805671219037
777,1686879799.5,31.738,-221.68,-82.52,13.672,1027.399,394.37916755739485
778,1686879799.51,50.293,-354.004,-6.836,100.098,1027.403,405.45701335616883
779,1686879799.51,59.082,257.324,-20.508,109.375,1027.407,398.7666013415032
780,1686879799.51,34.18,271.484,-67.383,26.855,1027.407,403.6889267404401
781,1686879799.52,9.277,-160.156,-62.012,-2.441,1027.411,395.77080029370444
782,1686879799.52,35.645,89.844,-36.621,71.289,1027.415,404.4882042023541
783,1686879799.52,62.5,365.723,-63.965,117.188,1027.419,409.9916124647487
784,1686879799.53,35.645,-96.68,-83.984,42.969,1027.423,401.35227300552936
785,1686879799.53,5.859,-721.68,-66.895,-20.508,1027.427,402.65303797225073
786,1686879799.53,19.531,-509.766,-24.902,29.785,1027.431,404.36344926958117
787,1686879799.54,47.852,263.184,-12.207,99.609,1027.434,402.0823065028026
788,1686879799.54,40.527,297.852,-73.242,62.988,1027.438,396.37547888053183
789,1686879799.55,9.277,-783.691,-118.652,-9.766,1027.442,405.06772157911405
790,1686879799.55,4.395,-861.328,-1.465,12.695,1027.446,407.8998462975986
791,1686879799.55,36.621,203.613,13.672,89.844,1027.45,397.57273910354843
792,1686879799.56,41.992,338.379,-66.895,73.73,1027.454,397.1212603488653
793,1686879799.56,6.348,84.961,-56.152,-13.184,1027.458,400.89946159928246
794,1686879799.56,-9.766,205.566,-36.133,-27.344,1027.462,394.88529488155535
795,1686879799.57,15.137,390.625,-43.945,46.875,1027.466,401.752471394741
796,1686879799.57,24.414,216.309,-70.801,67.383,1027.47,413.64130968932614
797,1686879799.58,0.488,-166.504,-61.035,-10.254,1027.473,395.82033406210525
798,1686879799.58,-20.02,-142.09,-33.691,-44.434,1027.477,409.3772374745221
799,1686879799.58,-6.836,296.875,-29.785,20.02,1027.481,402.29847846975434
800,1686879799.59,8.301,-22.461,-79.102,66.406,1027.485,404.2686058905729
801,1686879799.59,-8.301,-524.902,-15.137,7.812,1027.489,407.93096064848237
802,1686879799.6,-28.32,124.512,2.441,-60.059,1027.493,408.84663393219665
803,1686879799.6,-19.531,314.453,-54.688,-7.812,1027.497,403.60315897633603
804,1686879799.6,8.789,-154.297,-75.684,72.266,1027.497,402.6169218023934
805,1686879799.6,10.742,53.711,-40.039,37.598,1027.501,414.18257340225955
806,1686879799.61,-24.902,414.551,-32.227,-45.41,1027.505,406.05802500117704
807,1686879799.61,-30.762,231.934,-70.312,-32.715,1027.509,409.6731435396472
808,1686879799.62,-0.977,-496.094,-89.844,48.34,1027.513,402.2613272290207
809,1686879799.62,7.324,-465.82,-39.062,36.133,1027.517,405.96944641604523
810,1686879799.62,-19.531,8.789,-22.949,-58.594,1027.521,404.2737634233474
811,1686879799.63,-38.086,81.055,-58.105,-70.801,1027.525,396.559346021698
812,1686879799.63,-11.719,-610.352,-75.684,22.949,1027.529,396.1871539023569
813,1686879799.64,0.977,-338.867,4.883,37.598,1027.533,402.37599872397817
814,1686879799.64,-31.25,435.059,-24.902,-61.523,1027.537,408.3069454306478
815,1686879799.64,-67.871,161.621,-70.312,-107.422,1027.54,399.83747758850757
816,1686879799.65,-55.176,65.918,-21.973,-33.691,1027.553,405.44428662896314
817,1686879799.66,-17.578,427.734,-24.902,19.531,1027.556,398.8557890340407
818,1686879799.66,-31.738,396.973,-60.547,-39.551,1027.56,410.39545536616055
819,1686879799.66,-77.637,-91.797,-50.781,-102.539,1027.564,395.92576527010124
820,1686879799.67,-65.918,-191.406,0.488,-48.828,1027.568,410.45407770477317
821,1686879799.67,-19.043,-6.836,-23.438,31.25,1027.572,402.06713409811476
822,1686879799.68,-20.996,211.426,-41.504,-6.836,1027.576,409.43499408098756
823,1686879799.68,-55.664,-51.27,-67.871,-89.844,1027.58,402.4222458740482
824,1686879799.68,-59.082,-477.539,-10.742,-72.754,1027.584,410.9165210012295
825,1686879799.69,-17.09,276.855,9.766,11.719,1027.588,396.12278220191826
826,1686879799.69,-76.66,141.602,-34.668,-100.586,1027.587,404.4115811001564
827,1686879799.69,-13.184,553.223,-50.781,12.695,1027.592,408.06516783043725
828,1686879799.7,-51.27,445.312,-12.695,-27.832,1027.591,407.31790336948166
829,1686879799.7,-59.57,112.305,-70.801,-74.219,1027.595,412.4171721234798
830,1686879799.7,-32.227,478.027,-42.48,16.602,1027.595,402.8112118032853
831,1686879799.7,-57.617,72.266,-63.965,-54.199,1027.599,408.66022754493093
832,1686879799.71,-81.543,-181.641,-56.641,-105.957,1027.603,411.78871614155355
833,1686879799.71,-63.965,-46.875,-41.016,-46.875,1027.607,402.3956372341703
834,1686879799.71,-38.086,72.266,-50.781,4.883,1027.611,401.14309768825325
835,1686879799.72,-47.852,-611.328,-85.449,-35.156,1027.614,408.6511320357648
836,1686879799.72,-82.52,-1000.0,-28.32,-101.074,1027.618,403.03888689416794
837,1686879799.73,-76.172,2.93,16.113,-84.473,1027.622,406.2699846435322
838,1686879799.73,-41.992,503.906,-33.203,-7.812,1027.626,416.934291947602
839,1686879799.73,-53.223,335.449,-34.668,-21.973,1027.63,407.0468525051764
840,1686879799.74,-97.168,504.883,-27.344,-122.07,1027.635,410.48058677464667
841,1686879799.74,-93.75,575.684,-31.738,-118.652,1027.639,397.90605089782184
842,1686879799.74,-51.27,372.07,-44.922,-11.23,1027.643,396.08714525067455
843,1686879799.75,-60.059,401.367,-21.973,0.0,1027.646,400.29637545879183
844,1686879799.75,-102.539,475.098,-33.203,-100.098,1027.65,395.8408877637351
845,1686879799.76,-124.512,185.059,-46.875,-137.207,1027.654,407.5006432456862
846,1686879799.76,-101.562,-116.699,-25.879,-53.223,1027.658,413.9623802326
847,1686879799.76,-76.66,-427.734,15.137,-6.836,1027.662,404.00152385631804
848,1686879799.77,-103.516,8.789,14.648,-92.285,1027.666,405.5967304920601
849,1686879799.77,-130.859,420.41,-21.484,-162.109,1027.67,407.4288868141833
850,1686879799.78,-120.605,87.402,-60.547,-106.934,1027.674,407.6510362179623
851,1686879799.78,-87.891,220.703,-26.855,-34.668,1027.678,408.0091368828557
852,1686879799.78,-88.867,652.832,-3.418,-75.684,1027.691,403.58590360800525
853,1686879799.78,-125.0,497.07,-43.945,-156.738,1027.695,401.39987308847265
854,1686879799.79,-114.746,-69.336,-63.477,-114.258,1027.699,415.06473600984543
855,1686879799.79,-83.008,81.055,-22.461,-39.062,1027.703,406.1264353752721
856,1686879799.8,-92.773,250.977,-32.227,-62.012,1027.707,408.9203525150027
857,1686879799.8,-124.023,37.598,-49.316,-140.625,1027.711,401.9700980682101
858,1686879799.8,-132.324,-620.117,-65.918,-138.184,1027.715,405.2005533769078
859,1686879799.81,-103.027,-675.781,30.762,-59.57,1027.718,403.0662979585973
860,1686879799.81,-81.543,478.516,30.273,-45.898,1027.722,409.2080122525673
861,1686879799.82,-115.723,577.637,-60.059,-133.789,1027.726,400.0704227335475
862,1686879799.82,-137.695,88.379,-31.738,-174.316,1027.73,399.6625200005963
863,1686879799.82,-109.375,316.406,19.531,-99.121,1027.734,407.19750176244713
864,1686879799.83,-83.496,764.16,4.395,-50.293,1027.725,402.1898002567819
865,1686879799.83,-101.562,503.418,-47.363,-108.398,1027.729,401.2637158546961
866,1686879799.84,-126.953,53.711,-7.812,-162.598,1027.733,408.1470953476137
867,1686879799.84,-104.004,433.105,36.133,-117.188,1027.737,405.19816719823234
868,1686879799.84,-55.664,776.367,17.578,-40.039,1027.741,403.2685062648061
869,1686879799.85,-72.266,291.992,-9.277,-66.895,1027.745,396.8441305418631
870,1686879799.85,-120.117,-100.098,26.367,-159.668,1027.749,409.5940086406982
871,1686879799.86,-112.793,395.02,33.203,-139.16,1027.753,398.21530081927426
872,1686879799.86,-82.031,682.617,0.0,-44.922,1027.757,400.72428323158374
873,1686879799.86,-78.125,279.785,-50.781,-60.059,1027.761,402.5280765025887
874,1686879799.87,-105.957,163.086,0.977,-141.113,1027.764,407.2239982667698
875,1686879799.87,-119.141,578.125,24.414,-152.832,1027.768,403.8115260706277
876,1686879799.89,-91.797,567.383,-12.695,-80.566,1027.785,415.64535955140923
877,1686879799.89,-80.566,131.348,-18.555,-56.641,1027.789,398.85575286406373
878,1686879799.9,-103.027,339.355,9.277,-129.395,1027.793,400.85631986079653
879,1686879799.9,-120.605,453.125,-9.766,-163.574,1027.797,402.95005331564323
880,1686879799.9,-99.121,195.801,-20.02,-86.914,1027.801,408.2739454930373
881,1686879799.91,-76.66,-485.84,-61.523,-19.531,1027.805,406.3989469875128
882,1686879799.91,-98.145,-920.41,-3.418,-80.566,1027.809,410.82799728639526
883,1686879799.91,-122.559,162.109,55.664,-158.203,1027.813,403.75934179963195
884,1686879799.92,-110.84,575.195,3.906,-106.445,1027.816,409.019182386524
885,1686879799.92,-80.078,401.367,27.832,-22.949,1027.82,397.3038292215497
886,1686879799.93,-89.844,640.137,22.461,-60.547,1027.824,397.8651583011857
887,1686879799.93,-124.023,706.543,-7.812,-146.973,1027.828,401.90796644899905
888,1686879799.93,-125.0,483.887,-2.441,-136.23,1027.833,408.4574202444864
889,1686879799.94,-107.422,428.711,40.039,-54.199,1027.837,409.8768143951881
890,1686879799.94,-102.539,699.707,30.273,-48.828,1027.841,400.2733800525187
891,1686879799.94,-129.395,466.797,-8.789,-142.578,1027.845,405.97434052285115
892,1686879799.95,-124.512,344.727,5.371,-123.535,1027.849,406.07014737554255
893,1686879799.95,-108.887,678.711,15.137,-100.586,1027.853,397.9083141817153
894,1686879799.96,-138.672,-62.5,-39.062,-158.691,1027.857,406.9259142828791
895,1686879799.96,-116.699,-834.473,18.066,-93.262,1027.861,407.6794243630866
896,1686879799.96,-66.895,217.773,102.051,-24.902,1027.864,404.2042714414517
897,1686879799.97,-80.566,770.508,29.785,-75.684,1027.868,403.6030397452501
898,1686879799.97,-123.535,236.328,-9.766,-151.855,1027.872,402.5505316726363
899,1686879799.98,-107.91,370.117,52.734,-103.027,1027.876,401.6466183239542
900,1686879799.98,-61.523,793.945,74.707,-8.789,1027.886,399.311207368708
901,1686879799.98,-61.035,654.785,15.137,-33.203,1027.89,404.0068990519614
902,1686879799.98,-103.027,-71.777,-12.207,-111.328,1027.894,397.72829989331103
903,1686879799.99,-101.562,163.086,50.781,-100.098,1027.898,401.7760979183328
904,1686879799.99,-66.895,503.906,53.711,-24.414,1027.902,407.550212046169
905,1686879800.0,-64.941,349.609,22.949,-22.461,1027.906,400.64502818483123
906,1686879800.0,-103.027,-478.516,-14.648,-107.422,1027.91,398.1840417663757
907,1686879800.0,-116.699,-547.363,100.586,-131.836,1027.914,414.4895029195324
908,1686879800.01,-84.473,572.266,94.238,-52.246,1027.918,400.00097595134855
909,1686879800.01,-59.082,759.277,25.391,-9.766,1027.922,409.3465506187098
910,1686879800.02,-79.102,626.465,51.27,-80.566,1027.925,407.36764321331094
911,1686879800.02,-108.887,731.445,27.832,-140.625,1027.929,405.7817013833185
912,1686879800.02,-100.586,788.086,18.066,-91.797,1027.931,398.4142985417121
913,1686879800.03,-73.73,614.746,-5.371,-31.25,1027.935,407.44713151382865
914,1686879800.03,-82.031,552.734,5.859,-71.289,1027.938,394.336134179101
915,1686879800.03,-118.652,669.434,25.391,-145.02,1027.942,406.42869349427997
916,1686879800.04,-117.188,709.961,15.625,-121.582,1027.946,398.28707681359253
917,1686879800.04,-82.52,235.352,-8.301,-27.344,1027.95,395.57167646665414
918,1686879800.04,-79.59,-140.625,43.945,-40.527,1027.954,399.45173452714164
919,1686879800.05,-104.492,287.109,50.781,-135.254,1027.958,407.60612450358377
920,1686879800.05,-117.676,635.742,20.02,-138.184,1027.962,402.51017922067405
921,1686879800.06,-87.402,270.996,-3.418,-53.711,1027.966,393.3070604063106
922,1686879800.06,-61.035,216.309,45.898,-29.297,1027.97,396.86483139587693
923,1686879800.06,-86.914,712.891,51.27,-108.398,1027.974,401.17621619347034
924,1686879800.08,-119.629,691.406,7.324,-149.902,1027.977,401.74205266246685
925,1686879800.08,-95.215,317.383,6.348,-75.195,1027.981,398.4997816916255
926,1686879800.09,-61.523,296.875,24.902,-17.578,1027.985,399.97622409599563
927,1686879800.09,-83.496,699.707,28.32,-93.262,1027.989,403.2859196284467
928,1686879800.1,-113.77,684.082,-2.93,-153.32,1027.993,404.54133719232954
929,1686879800.1,-108.398,-358.887,-24.414,-87.402,1027.997,397.385319816988
930,1686879800.1,-76.172,-325.195,77.637,-22.949,1028.001,399.4702769718034
931,1686879800.11,-82.031,784.668,66.406,-71.777,1028.005,404.23611553536114
932,1686879800.11,-116.699,692.383,-14.16,-149.414,1028.009,400.92141502732846
933,1686879800.12,-108.887,187.5,6.348,-123.535,1028.012,398.11851486617934
934,1686879800.12,-78.125,483.887,51.758,-37.598,1028.016,395.6543394041826
935,1686879800.12,-70.801,943.848,24.902,-38.574,1028.02,395.8817002319004
936,1686879800.13,-102.539,614.258,-23.926,-123.047,1028.022,399.75824350553347
937,1686879800.13,-120.605,173.828,27.344,-144.531,1028.026,394.41701206697377
938,1686879800.13,-75.684,593.75,55.664,-67.871,1028.03,402.4255803357501
939,1686879800.14,-52.734,872.559,19.043,-33.691,1028.034,404.59253827943525
940,1686879800.14,-91.309,517.578,-21.484,-116.699,1028.038,403.0965339209622
941,1686879800.15,-125.488,142.578,-10.254,-165.527,1028.042,407.9593860723617
942,1686879800.15,-98.633,315.43,35.645,-86.426,1028.046,402.71609167273624
943,1686879800.15,-68.359,807.617,28.32,-26.855,1028.05,399.04525564244454
944,1686879800.16,-84.473,291.016,-40.039,-87.402,1028.054,404.1097773312045
945,1686879800.16,-119.629,-157.715,42.969,-160.156,1028.058,394.53451009212637
946,1686879800.16,-106.934,585.938,64.941,-113.77,1028.061,400.97640336165324
947,1686879800.17,-65.918,501.953,-15.625,-40.527,1028.065,403.7386537161437
948,1686879800.17,-67.383,184.57,-10.254,-68.359,1028.067,400.2941024797888
949,1686879800.18,-107.422,379.883,-0.977,-152.832,1028.071,399.51075523374624
950,1686879800.18,-108.887,401.367,9.277,-147.461,1028.075,407.44084722323544
951,1686879800.18,-68.359,590.82,13.672,-53.223,1028.079,398.2613379098081
952,1686879800.19,-68.359,-42.969,-42.48,-34.18,1028.083,399.42528883705745
953,1686879800.19,-95.215,-258.301,14.16,-118.164,1028.087,402.48021403973837
954,1686879800.19,-100.098,470.215,67.871,-142.578,1028.091,402.9337785103765
955,1686879800.2,-76.172,614.258,8.789,-60.059,1028.095,394.4733450201626
956,1686879800.2,-55.664,-136.719,-23.926,-24.902,1028.099,396.1266051300041
957,1686879800.21,-82.52,223.633,47.363,-110.352,1028.102,399.1459246920369
958,1686879800.21,-114.258,852.539,21.484,-157.227,1028.106,404.66993651966186
959,1686879800.21,-95.215,672.363,2.93,-82.031,1028.11,397.44652948465125
960,1686879800.22,-58.105,680.664,39.062,-23.926,1028.113,407.35648701208714
961,1686879800.22,-61.035,855.957,28.809,-81.055,1028.116,397.2116716237028
962,1686879800.22,-89.844,719.238,-5.371,-155.273,1028.12,388.9995807584599
963,1686879800.23,-85.449,297.363,2.93,-110.84,1028.124,403.667324285259
964,1686879800.23,-57.617,336.426,52.734,-28.809,1028.128,411.49345592212427
965,1686879800.24,-58.105,534.18,18.066,-55.176,1028.132,397.11555121489096
966,1686879800.24,-92.773,441.895,-12.207,-138.184,1028.136,387.86370200948096
967,1686879800.24,-109.863,91.309,-16.602,-136.719,1028.14,398.4039515309995
968,1686879800.25,-71.289,-6.348,59.57,-45.898,1028.144,396.0753746928609
969,1686879800.25,-48.828,820.312,70.312,-27.832,1028.148,399.42965452884965
970,1686879800.26,-83.008,962.891,8.301,-113.281,1028.152,397.2196652684239
971,1686879800.26,-103.027,463.379,-0.977,-145.02,1028.155,402.0410220222078
972,1686879800.26,-73.73,658.203,32.227,-67.383,1028.157,394.91246264715534
973,1686879800.26,-45.41,936.523,22.461,-20.996,1028.161,402.5819799034725
974,1686879800.27,-70.801,484.375,-28.809,-95.703,1028.165,396.9414830866348
975,1686879800.27,-102.051,-126.465,-42.969,-148.926,1028.169,393.6608658609769
976,1686879800.28,-77.637,249.512,15.625,-82.52,1028.173,388.5950451361958
977,1686879800.28,-40.039,710.449,28.32,-8.301,1028.177,404.50723586223177
978,1686879800.28,-50.293,482.422,-24.902,-45.41,1028.181,403.6162543301969
979,1686879800.29,-87.891,-322.754,-47.852,-123.535,1028.185,392.7750528930243
980,1686879800.29,-75.195,-88.867,60.547,-100.098,1028.188,397.41698799255914
981,1686879800.3,-33.691,900.879,38.574,-19.043,1028.192,397.64310318293155
982,1686879800.3,-44.434,842.285,-15.625,-34.18,1028.196,390.06995580767096
983,1686879800.3,-73.242,666.992,21.484,-118.652,1028.2,385.4699122211982
984,1686879800.31,-81.055,836.914,23.438,-121.094,1028.203,398.85536945022324
985,1686879800.31,-55.664,944.824,1.953,-29.785,1028.207,398.74788994322995
986,1686879800.31,-42.48,698.242,-20.508,-0.488,1028.211,392.6002151486298
987,1686879800.32,-69.824,632.812,0.977,-87.402,1028.215,392.5137695529637
988,1686879800.32,-85.449,751.465,12.207,-128.418,1028.219,406.21927989723224
989,1686879800.33,-57.617,630.859,-1.953,-52.734,1028.223,390.2954399821705
990,1686879800.33,-39.062,269.043,-25.391,-2.441,1028.227,389.38770645007094
991,1686879800.33,-67.383,-148.438,13.184,-74.219,1028.231,394.1405699912987
992,1686879800.34,-97.168,333.496,45.41,-145.996,1028.235,405.1270834625794
993,1686879800.34,-75.195,816.895,11.23,-89.844,1028.239,401.12013108640457
994,1686879800.34,-40.527,453.613,-38.086,-3.418,1028.243,391.04172051287384
995,1686879800.35,-49.316,473.633,-1.465,-39.551,1028.246,387.6064442297872
996,1686879800.35,-71.777,854.492,24.902,-124.023,1028.252,397.2514412552116
997,1686879800.36,-76.172,728.027,-16.113,-105.957,1028.255,396.0229957129026
998,1686879800.36,-60.059,131.836,-33.203,-22.949,1028.259,392.795510702999
999,1686879800.36,-57.617,444.824,16.113,-37.109,1028.263,388.1844904141564
1000,1686879800.37,-90.82,853.027,3.418,-136.719,1028.267,394.4886729012715
1001,1686879800.37,-98.633,357.91,-32.227,-133.301,1028.271,389.1347246019245
1002,1686879800.38,-66.895,-353.027,-30.273,-38.574,1028.275,402.2006477035527
1003,1686879800.38,-44.922,124.023,57.617,-16.602,1028.279,387.9240761820835
1004,1686879800.38,-66.406,936.523,33.203,-87.402,1028.283,386.96472996027046
1005,1686879800.39,-93.75,694.824,-24.414,-125.977,1028.287,386.359541821315
1006,1686879800.39,-73.242,399.414,-4.395,-65.918,1028.291,389.13137903709276
1007,1686879800.4,-41.992,716.797,29.785,-14.648,1028.294,391.24428926726506
1008,1686879800.4,-62.988,977.051,6.348,-75.195,1028.306,396.1299453357468
1009,1686879800.4,-96.68,594.238,-33.691,-150.879,1028.31,397.2633413725557
1010,1686879800.41,-82.031,367.188,21.484,-101.562,1028.314,397.9932600517897
1011,1686879800.41,-46.875,727.051,40.039,-21.973,1028.318,391.0088109754027
1012,1686879800.41,-59.082,983.887,0.488,-61.035,1028.321,398.3081079279139
1013,1686879800.42,-90.82,329.59,-60.547,-137.207,1028.325,392.7914592478297
1014,1686879800.42,-95.215,-660.645,-17.578,-113.77,1028.329,395.0088510333327
1015,1686879800.42,-68.848,245.117,52.734,-42.969,1028.333,387.6839320848557
1016,1686879800.43,-63.965,978.027,-14.16,-51.758,1028.337,395.3412214243501
1017,1686879800.43,-94.727,526.855,-63.965,-125.0,1028.341,395.3043909176963
1018,1686879800.44,-103.516,570.801,-3.906,-129.395,1028.345,385.8746329750108
1019,1686879800.44,-68.359,894.531,9.766,-46.875,1028.349,391.0589728326133
1020,1686879800.46,-49.316,836.914,-44.434,-3.418,1028.352,393.8134957763024
1021,1686879800.46,-69.824,246.094,-64.453,-79.102,1028.356,397.4985733891272
1022,1686879800.46,-92.285,102.051,-16.602,-146.484,1028.36,381.05072821618234
1023,1686879800.47,-67.871,638.184,28.809,-70.801,1028.364,382.02931628434135
1024,1686879800.47,-31.738,870.117,-10.742,2.441,1028.368,399.5410666299859
1025,1686879800.48,-63.965,-246.094,-69.824,-59.082,1028.372,393.4621783070702
1026,1686879800.48,-97.656,-584.961,33.203,-134.277,1028.376,390.76107955651975
1027,1686879800.48,-78.125,638.184,43.457,-96.191,1028.38,388.0604183217153
1028,1686879800.49,-48.828,830.566,-27.832,-14.648,1028.384,379.438397775794
1029,1686879800.49,-49.316,575.195,0.977,-39.551,1028.388,390.66193400997497
1030,1686879800.5,-78.613,761.719,-7.812,-120.605,1028.391,396.77099155639644
1031,1686879800.5,-87.891,834.473,-36.133,-112.305,1028.395,391.50547767427
1032,1686879800.5,-57.617,680.664,-47.852,-35.645,1028.398,393.11970246167317
1033,1686879800.5,-44.922,636.719,-18.555,-35.645,1028.402,394.35465299649036
1034,1686879800.51,-74.219,755.859,-20.02,-114.258,1028.405,392.38630143934165
1035,1686879800.51,-96.68,600.586,-51.758,-125.488,1028.409,389.07938973301
1036,1686879800.52,-64.453,254.395,-41.504,-53.711,1028.413,382.5152316399288
1037,1686879800.52,-34.668,72.266,-5.859,-13.184,1028.417,387.0006533824145
1038,1686879800.52,-52.734,380.859,17.09,-69.336,1028.421,388.185335332234
1039,1686879800.53,-84.473,695.801,-3.906,-130.859,1028.425,385.64982999811
1040,1686879800.53,-63.965,172.852,-50.781,-69.336,1028.429,391.83143855968495
1041,1686879800.54,-38.574,-44.922,18.555,13.184,1028.433,380.3479762221657
1042,1686879800.54,-69.336,748.535,24.902,-36.133,1028.437,387.89285709109953
1043,1686879800.54,-92.285,760.254,-43.457,-117.188,1028.441,388.57136344980455
1044,1686879800.55,-86.426,353.516,-34.668,-86.914,1028.445,383.6188495795486
1045,1686879800.55,-62.5,517.09,-20.996,1.953,1028.449,381.6573981381875
1046,1686879800.56,-49.805,548.828,-29.297,-10.254,1028.453,386.8637916931829
1047,1686879800.56,-83.984,520.02,-36.621,-95.703,1028.457,390.5077547057408
1048,1686879800.57,-104.004,-107.422,-56.152,-94.238,1028.461,399.0415385377309
1049,1686879800.57,-65.43,-81.055,6.348,-8.789,1028.465,391.00264601371265
1050,1686879800.57,-44.434,506.348,9.766,1.465,1028.469,389.5494883665576
1051,1686879800.58,-67.871,381.836,-52.246,-94.238,1028.473,389.2422074181998
1052,1686879800.58,-98.633,-383.789,-64.453,-130.371,1028.477,388.62023975337826
1053,1686879800.58,-74.219,-5.859,32.227,-51.758,1028.481,391.98858926107096
1054,1686879800.59,-39.551,905.762,10.254,0.488,1028.485,385.9947067744628
1055,1686879800.59,-87.891,573.242,0.488,-125.0,1028.487,380.1320461027892
1056,1686879800.59,-61.523,662.109,-34.18,-67.871,1028.488,381.84697596819314
1057,1686879800.6,-74.219,838.867,1.953,-63.965,1028.491,385.5153038662533
1058,1686879800.6,-36.133,934.082,-16.602,12.207,1028.495,381.8820375778782
1059,1686879800.6,-45.898,673.828,-38.086,-22.949,1028.499,383.26376999337145
1060,1686879800.61,-87.402,535.645,-24.902,-109.375,1028.503,390.04595297885936
1061,1686879800.61,-85.938,388.184,-27.832,-91.797,1028.507,387.87995705391603
1062,1686879800.61,-59.082,437.012,-19.531,-7.324,1028.511,388.48110670107707
1063,1686879800.62,-54.199,300.781,-50.293,-10.742,1028.515,396.5135729696444
1064,1686879800.62,-82.031,-206.055,-17.578,-89.844,1028.519,381.96034463771934
1065,1686879800.63,-91.797,336.426,39.062,-101.074,1028.522,383.496325654556
1066,1686879800.63,-58.105,872.559,0.977,-14.16,1028.526,387.8468333063757
1067,1686879800.63,-41.992,398.926,-68.848,12.695,1028.53,384.12581703631173
1068,1686879800.64,-64.453,428.223,-27.344,-75.195,1028.532,385.3933391165396
1069,1686879800.64,-85.938,727.539,-12.695,-127.441,1028.536,394.65364318586956
1070,1686879800.64,-71.777,421.387,-50.781,-43.945,1028.54,393.763808746863
1071,1686879800.65,-41.504,2.441,-52.734,6.836,1028.544,379.78094764900663
1072,1686879800.65,-57.617,373.047,-5.859,-71.289,1028.548,386.8021937587713
1073,1686879800.66,-87.402,603.516,-20.996,-128.418,1028.552,379.224786687172
1074,1686879800.66,-67.871,308.105,-42.48,-65.43,1028.556,378.4098093699354
1075,1686879800.66,-29.297,-98.145,-34.668,18.555,1028.56,385.0454838102141
1076,1686879800.67,-38.574,388.184,12.695,-29.785,1028.564,392.1047697311163
1077,1686879800.67,-77.148,974.609,-17.578,-122.07,1028.568,388.1863102771188
1078,1686879800.68,-67.871,639.648,-43.457,-101.562,1028.571,388.2039766053375
1079,1686879800.68,-40.527,417.48,-7.324,-11.719,1028.575,387.6577707721108
1080,1686879800.68,-37.109,745.605,6.348,-20.508,1028.585,376.63873907500727
1081,1686879800.69,-70.312,922.852,-32.227,-109.375,1028.589,393.93505233109295
1082,1686879800.69,-96.68,466.309,-50.781,-130.859,1028.593,390.3762128068037
1083,1686879800.7,-61.523,272.949,4.395,-44.434,1028.597,391.89391290250484
1084,1686879800.7,-44.434,718.75,-5.371,-11.719,1028.601,390.5377138416376
1085,1686879800.7,-71.289,603.516,-50.781,-80.566,1028.604,386.1154491128042
1086,1686879800.71,-97.656,5.859,-51.758,-122.559,1028.608,382.0837903299704
1087,1686879800.71,-71.289,-162.109,23.438,-58.105,1028.612,389.7464104152182
1088,1686879800.72,-37.109,664.551,33.691,-6.836,1028.616,388.0381636831107
1089,1686879800.72,-57.129,889.648,-30.762,-68.848,1028.62,386.77267256208995
1090,1686879800.72,-89.844,401.367,-51.758,-129.395,1028.624,384.1436068468607
1091,1686879800.73,-85.938,537.598,-1.953,-83.984,1028.628,379.27126714832957
1092,1686879800.74,-53.223,911.133,2.441,-18.066,1028.639,391.264085399354
1093,1686879800.74,-53.223,692.383,-57.129,-44.434,1028.643,381.1596739059231
1094,1686879800.75,-86.426,-78.613,-69.336,-122.559,1028.647,372.58449373456995
1095,1686879800.75,-84.961,1.465,-12.695,-113.77,1028.65,382.61377163727917
1096,1686879800.76,-46.387,639.16,-7.324,-20.996,1028.654,383.1415380832265
1097,1686879800.76,-33.691,547.852,-47.852,-9.766,1028.658,390.5606474075327
1098,1686879800.76,-68.848,-454.102,-82.031,-83.496,1028.662,380.2101754958178
1099,1686879800.77,-83.984,-905.273,-18.555,-101.074,1028.666,383.903723563794
1100,1686879800.77,-47.363,346.68,40.039,-33.203,1028.67,387.84441179285585
1101,1686879800.77,-59.082,834.473,-30.762,-57.617,1028.681,390.2302249844385
1102,1686879800.78,-31.738,910.156,-23.438,-5.371,1028.674,384.4815332882183
1103,1686879800.78,-41.016,671.875,-42.48,5.371,1028.685,388.61663205676916
1104,1686879800.78,-51.27,610.352,-13.184,-44.434,1028.689,386.61716237700676
1105,1686879800.78,-58.105,623.047,-22.461,-80.566,1028.678,390.1384253427952
1106,1686879800.78,-81.055,683.594,-25.879,-127.441,1028.693,382.97138886390155
1107,1686879800.78,-76.172,726.562,-7.812,-120.605,1028.682,390.6717058051602
1108,1686879800.79,-76.66,503.906,-50.293,-92.773,1028.697,384.83881786188454
1109,1686879800.79,-41.016,208.496,-46.875,0.488,1028.701,383.09812574321694
1110,1686879800.8,-42.48,111.328,-17.578,-29.297,1028.705,384.1942289315767
1111,1686879800.8,-81.543,466.797,10.254,-127.441,1028.709,389.0213806763981
1112,1686879800.8,-82.031,734.375,-23.438,-108.887,1028.713,387.91337305112256
1113,1686879800.81,-43.457,105.957,-81.055,-5.859,1028.717,393.480960766688
1114,1686879800.81,-35.645,-326.66,2.441,-5.371,1028.721,386.24470751847196
1115,1686879800.82,-62.5,534.18,23.438,-99.121,1028.724,390.140422536665
1116,1686879800.83,-82.031,741.699,-33.203,-125.488,1028.727,383.6061899740131
1117,1686879800.84,-64.941,261.719,-41.016,-49.316,1028.731,389.97446885559145
1118,1686879800.84,-42.969,282.715,-26.855,0.488,1028.735,386.38667207068397
1119,1686879800.84,-63.477,677.734,-9.277,-69.336,1028.739,389.7496701030557
1120,1686879800.85,-92.773,674.316,-55.664,-128.906,1028.743,388.21710681332894
1121,1686879800.85,-84.961,-340.332,-73.73,-69.336,1028.747,388.4659476178303
1122,1686879800.85,-56.152,-418.457,38.086,-7.324,1028.751,392.16695783960427
1123,1686879800.86,-60.547,508.789,20.02,-59.082,1028.754,384.15999119480153
1124,1686879800.86,-81.055,492.676,-56.152,-125.488,1028.758,380.8597348859814
1125,1686879800.87,-79.102,-112.305,-20.02,-84.961,1028.762,385.0370939806866
1126,1686879800.87,-51.27,451.172,24.414,-20.02,1028.766,386.17968325324154
1127,1686879800.87,-50.293,878.418,-26.367,-40.039,1028.77,388.2647402060805
1128,1686879800.88,-76.172,517.578,-47.852,-108.887,1028.772,383.6176423106151
1129,1686879800.88,-78.125,468.75,-0.977,-116.211,1028.776,386.88828793113777
1130,1686879800.88,-57.129,719.238,1.953,-44.922,1028.78,390.33560387884785
1131,1686879800.89,-38.574,821.289,-18.066,-10.254,1028.784,387.662789020796
1132,1686879800.89,-68.848,431.152,-39.062,-79.59,1028.788,391.24127032873065
1133,1686879800.9,-93.262,31.25,-27.832,-130.371,1028.792,388.0141232713512
1134,1686879800.9,-66.895,265.625,13.672,-63.965,1028.796,381.50863322003914
1135,1686879800.9,-29.297,740.723,-4.395,-13.184,1028.8,388.68490704163105
1136,1686879800.91,-51.27,229.004,-67.871,-75.195,1028.804,385.2412640976667
1137,1686879800.91,-95.215,-434.57,0.977,-132.324,1028.808,384.84217511390125
1138,1686879800.92,-71.777,270.508,58.105,-74.219,1028.811,388.53395334055506
1139,1686879800.92,-39.062,775.391,1.465,-7.324,1028.815,398.7959366446656
1140,1686879800.92,-50.781,278.32,-61.523,-57.617,1028.818,385.45628264613396
1141,1686879800.92,-69.824,163.574,-32.715,-126.953,1028.822,383.41779334214715
1142,1686879800.93,-69.336,377.93,7.324,-99.609,1028.826,385.509862863516
1143,1686879800.93,-42.969,569.824,-11.719,-14.648,1028.829,387.3342607758776
1144,1686879800.94,-43.945,63.477,-59.082,-11.23,1028.833,385.8269748679416
1145,1686879800.94,-73.73,-118.652,-14.648,-114.258,1028.837,397.75683649263254
1146,1686879800.94,-84.473,420.41,20.02,-137.695,1028.841,390.01595797288473
1147,1686879800.95,-54.199,578.613,-16.113,-35.156,1028.845,388.251965440042
1148,1686879800.95,-40.039,-75.684,-46.875,-0.488,1028.849,388.52884329027614
1149,1686879800.96,-60.547,271.973,18.066,-80.078,1028.853,389.0217224207798
1150,1686879800.96,-76.66,845.703,3.906,-128.418,1028.857,385.9750566131773
1151,1686879800.96,-61.035,531.25,-34.668,-67.383,1028.861,394.1253531792253
1152,1686879800.97,-31.738,339.844,-5.371,-10.254,1028.862,390.5848924845477
1153,1686879800.97,-43.945,637.695,7.324,-69.336,1028.866,389.97268296642665
1154,1686879800.97,-83.496,776.855,-18.555,-133.789,1028.87,384.66813520712714
1155,1686879800.98,-80.078,388.184,-36.133,-94.727,1028.874,393.82748812788657
1156,1686879800.98,-44.434,201.66,6.836,-17.09,1028.878,390.20957409456247
1157,1686879800.99,-41.992,344.727,-9.277,-37.598,1028.882,393.83441268599694
1158,1686879800.99,-66.406,316.895,-41.016,-115.723,1028.885,382.8507636782957
1159,1686879800.99,-70.312,1.953,-45.41,-110.352,1028.889,387.7462555949148
1160,1686879801.0,-31.25,-144.043,22.949,-15.625,1028.893,382.5631165231822
1161,1686879801.0,-20.508,624.512,20.02,-6.836,1028.897,391.994465902112
1162,1686879801.0,-63.965,758.301,-43.945,-106.445,1028.901,379.70133773913744
1163,1686879801.01,-83.008,265.625,-46.387,-131.836,1028.905,395.67835102688366
1164,1686879801.03,-51.758,519.043,-1.953,-42.969,1028.923,394.45693226179463
1165,1686879801.03,-33.203,757.812,-0.488,-6.836,1028.927,398.1480046676632
1166,1686879801.03,-65.43,326.66,-54.688,-88.867,1028.93,385.1238591438536
1167,1686879801.04,-104.492,-440.43,-77.637,-132.812,1028.934,388.14873207284245
1168,1686879801.04,-84.473,-260.254,14.648,-65.43,1028.938,387.37611841068787
1169,1686879801.05,-44.434,424.805,18.066,2.441,1028.942,395.59671011731456
1170,1686879801.05,-61.035,290.039,-55.176,-53.223,1028.946,392.7167053058648
1171,1686879801.05,-96.68,-386.23,-75.684,-126.953,1028.95,385.9634844561961
1172,1686879801.06,-90.82,105.957,5.371,-87.402,1028.954,391.5643668175177
1173,1686879801.06,-91.797,489.746,-3.418,-118.652,1028.966,392.88131209074925
1174,1686879801.06,-62.5,904.297,0.977,-18.066,1028.958,395.795025021918
1175,1686879801.06,-60.547,683.105,-52.734,-42.969,1028.962,392.23703517881074
1176,1686879801.06,-50.781,648.438,-9.277,-34.18,1028.97,384.1212404618607
1177,1686879801.07,-94.727,404.785,-32.227,-126.465,1028.966,390.69509862995926
1178,1686879801.07,-41.016,497.07,-34.18,-12.207,1028.974,399.9042053343407
1179,1686879801.07,-68.359,380.371,-20.508,-94.238,1028.978,394.1225280437933
1180,1686879801.08,-91.309,435.547,-26.367,-131.348,1028.982,395.3352410352429
1181,1686879801.08,-67.383,294.922,-28.809,-39.062,1028.985,392.01697762159995
1182,1686879801.08,-35.645,86.426,-45.898,15.137,1028.989,390.28291028942454
1183,1686879801.09,-56.152,145.508,-34.18,-61.035,1028.993,398.43231591096924
1184,1686879801.09,-93.75,412.598,-19.531,-137.695,1028.997,387.6338148944168
1185,1686879801.1,-73.73,539.062,-34.668,-86.426,1029.001,392.66697451926234
1186,1686879801.1,-39.062,-43.457,-83.984,-3.906,1029.005,393.84776507758187
1187,1686879801.1,-82.031,208.008,33.691,-116.211,1029.011,392.29030214843465
1188,1686879801.1,-50.293,-706.543,-26.367,-29.785,1029.009,396.10946875954687
1189,1686879801.1,-72.266,528.32,-44.922,-93.262,1029.015,388.45764004440935
1190,1686879801.11,-36.621,-219.238,-69.824,0.0,1029.019,392.49165780368526
1191,1686879801.11,-36.621,194.336,-2.93,-18.066,1029.023,395.52592184803126
1192,1686879801.12,-60.547,678.223,-14.648,-107.422,1029.027,387.26881898889826
1193,1686879801.12,-69.336,177.246,-62.5,-113.77,1029.031,396.87022075046957
1194,1686879801.12,-46.387,-542.48,-54.688,-25.391,1029.035,395.9004436989783
1195,1686879801.13,-25.391,-236.816,18.555,2.441,1029.039,389.2460120947892
1196,1686879801.13,-47.852,444.824,12.207,-71.777,1029.042,390.6918054034281
1197,1686879801.14,-64.941,317.383,-44.922,-108.887,1029.046,396.45886046587566
1198,1686879801.14,-39.062,-241.699,-12.207,-36.133,1029.05,391.2109745435653
1199,1686879801.14,-13.672,328.613,34.18,14.648,1029.054,397.3380401655572
1200,1686879801.15,-28.809,729.492,-14.648,-46.875,1029.056,388.77181969555215
1201,1686879801.15,-61.523,347.656,-42.969,-108.398,1029.06,397.1458218418024
1202,1686879801.16,-56.152,306.641,-14.648,-64.941,1029.063,397.7527647982117
1203,1686879801.16,-18.066,583.008,-6.348,12.695,1029.067,384.4643382822419
1204,1686879801.16,-27.832,620.605,-32.227,-21.484,1029.071,394.8160478838653
1205,1686879801.17,-69.824,-10.254,-56.152,-100.586,1029.075,389.0783050768837
1206,1686879801.17,-76.172,-367.676,-12.695,-81.055,1029.079,393.9872426466959
1207,1686879801.17,-43.945,274.902,21.973,-11.23,1029.083,387.4761096717033
1208,1686879801.18,-27.344,659.668,-29.785,-8.301,1029.087,392.31688485742865
1209,1686879801.18,-49.805,5.859,-88.867,-78.125,1029.091,384.558244324408
1210,1686879801.19,-73.242,-360.84,-9.766,-100.098,1029.095,389.3130411934319
1211,1686879801.19,-51.758,269.531,32.715,-20.508,1029.099,391.8704171094792
1212,1686879801.21,-30.273,601.074,-27.344,25.391,1029.103,394.70155302401
1213,1686879801.21,-53.711,-74.707,-96.191,-48.828,1029.107,396.8473052037134
1214,1686879801.21,-83.984,-315.43,-45.41,-108.398,1029.111,399.67672553100306
1215,1686879801.22,-62.988,342.285,10.254,-41.504,1029.114,394.9412858835727
1216,1686879801.22,-16.602,574.707,-34.668,32.227,1029.118,405.55721138937395
1217,1686879801.23,-30.762,-449.707,-73.242,-15.137,1029.122,400.6672695147635
1218,1686879801.23,-63.965,-715.332,5.371,-90.82,1029.126,389.00506789772
1219,1686879801.23,-51.758,325.195,14.648,-53.711,1029.13,395.59677210986456
1220,1686879801.24,-23.926,490.723,-29.785,28.809,1029.134,401.56163181929844
1221,1686879801.24,-33.691,238.77,-12.207,-16.602,1029.138,396.78741225347227
1222,1686879801.24,-64.941,402.832,-15.625,-102.051,1029.142,400.47392571083833
1223,1686879801.25,-62.5,512.695,-25.879,-65.43,1029.146,396.50153442721665
1224,1686879801.25,-27.832,284.18,-39.062,11.719,1029.147,402.3955125667915
1225,1686879801.25,-17.09,20.996,-33.203,0.977,1029.151,402.71716195842095
1226,1686879801.26,-44.434,233.398,-13.184,-89.355,1029.155,397.97637030020746
1227,1686879801.26,-70.312,407.227,-26.855,-110.84,1029.159,394.3860773217818
1228,1686879801.27,-43.945,140.625,-43.457,-23.926,1029.163,385.61310892708127
1229,1686879801.27,-21.973,-263.184,-24.414,22.949,1029.167,393.3391162537965
1230,1686879801.27,-52.246,-1.953,-22.949,-57.129,1029.171,396.92314142322584
1231,1686879801.28,-82.52,426.27,-40.039,-120.605,1029.175,395.8503325770528
1232,1686879801.28,-61.035,-54.199,-72.754,-54.688,1029.178,394.0477941930504
1233,1686879801.28,-22.461,-354.492,9.277,11.719,1029.182,399.46808644563174
1234,1686879801.29,-33.203,372.07,11.719,-40.039,1029.186,392.9727763065547
1235,1686879801.29,-72.266,380.859,-55.176,-115.234,1029.19,394.8069679217649
1236,1686879801.3,-63.477,-10.254,-12.207,-75.195,1029.192,397.1704911896467
1237,1686879801.3,-22.949,180.664,-16.602,15.625,1029.196,396.9710959556318
1238,1686879801.3,-21.973,136.719,-42.969,-10.742,1029.2,393.99239647988355
1239,1686879801.31,-54.199,8.301,-52.246,-100.586,1029.204,389.0140229632278
1240,1686879801.31,-63.965,-568.359,-71.777,-81.543,1029.208,386.85425398094503
1241,1686879801.32,-32.227,-626.953,0.0,6.836,1029.212,397.08381976454604
1242,1686879801.32,-19.531,202.637,26.367,2.441,1029.216,403.7095972413631
1243,1686879801.32,-48.828,354.98,-45.898,-89.844,1029.22,393.542640442567
1244,1686879801.33,-82.52,-513.672,-73.73,-111.328,1029.224,394.6687506332227
1245,1686879801.33,-60.547,-43.457,17.09,-39.551,1029.228,387.1906470417573
1246,1686879801.34,-25.391,692.871,-16.113,8.301,1029.231,405.9930854713953
1247,1686879801.34,-49.805,384.277,-64.453,-56.641,1029.235,398.6145082636397
1248,1686879801.34,-80.566,190.918,-21.484,-117.676,1029.24,395.86809974908437
1249,1686879801.35,-49.316,386.719,1.953,-54.199,1029.244,398.73832013306264
1250,1686879801.35,-10.742,545.898,-20.996,28.32,1029.248,396.9495999702167
1251,1686879801.35,-30.273,301.758,-43.457,-17.09,1029.252,393.15105694857033
1252,1686879801.36,-65.43,130.859,-22.949,-97.656,1029.256,398.87220589117305
1253,1686879801.36,-57.617,-78.613,-27.344,-66.895,1029.26,401.16578951764836
1254,1686879801.36,-16.113,21.973,-8.301,17.09,1029.264,397.2179915767148
1255,1686879801.37,-9.766,-99.609,-53.711,7.324,1029.268,404.5681256921859
1256,1686879801.37,-50.293,-822.754,-55.664,-84.473,1029.272,394.9788285000516
1257,1686879801.38,-65.918,-53.711,19.531,-107.422,1029.275,403.6340448091159
1258,1686879801.38,-36.133,520.02,-21.484,-24.902,1029.279,397.5549604321801
1259,1686879801.38,-19.043,170.41,-54.199,-2.93,1029.283,390.5077059504365
1260,1686879801.39,-40.039,352.539,-28.809,-78.125,1029.282,393.8827731455661
1261,1686879801.39,-63.477,404.297,-47.363,-111.816,1029.286,400.20928027227956
1262,1686879801.39,-39.551,1.953,-70.801,-37.109,1029.29,396.5230413601689
1263,1686879801.4,-11.719,-41.016,-22.461,19.043,1029.294,388.08691106569745
1264,1686879801.4,-33.691,304.199,-11.719,-45.898,1029.298,400.12556321558884
1265,1686879801.41,-65.43,130.371,-44.434,-107.422,1029.302,395.19071395876483
1266,1686879801.41,-47.852,-88.379,-41.504,-53.711,1029.306,388.4517767165947
1267,1686879801.41,-13.672,-630.859,-49.316,27.344,1029.31,398.3408539853537
1268,1686879801.42,-19.531,-683.594,15.137,-4.883,1029.314,389.26388044625975
1269,1686879801.42,-47.363,160.156,14.16,-102.539,1029.318,395.49954459148057
1270,1686879801.42,-66.895,270.02,-45.41,-90.82,1029.322,395.5276311679267
1271,1686879801.43,-40.527,-9.766,-0.977,2.441,1029.325,398.9699138612815
1272,1686879801.43,-23.926,459.961,4.883,-0.488,1029.327,401.07836599866306
1273,1686879801.44,-61.035,577.148,-41.992,-88.867,1029.331,400.31593718870056
1274,1686879801.44,-72.754,220.215,-51.758,-96.68,1029.335,393.785539481927
1275,1686879801.44,-38.086,268.066,-13.184,-14.648,1029.339,403.56893895298805
1276,1686879801.45,-19.043,460.938,-17.578,18.066,1029.343,396.8901918597671
1277,1686879801.45,-49.316,199.707,-57.129,-62.988,1029.347,395.38199978408994
1278,1686879801.45,-78.613,-318.359,-63.477,-99.121,1029.351,388.7082997481553
1279,1686879801.46,-61.035,-456.055,6.836,-34.668,1029.355,387.35952965901953
1280,1686879801.46,-29.785,377.93,32.227,6.348,1029.358,390.90447098642863
1281,1686879801.47,-39.062,599.121,-30.273,-34.18,1029.362,400.9488798677115
1282,1686879801.47,-70.801,39.551,-76.172,-93.75,1029.366,390.2626999080495
1283,1686879801.47,-67.383,-60.059,-49.805,-60.547,1029.37,393.11941712672166
1284,1686879801.49,-32.715,360.84,-1.953,24.414,1029.39,391.1764672852069
1285,1686879801.5,-30.273,493.652,-54.199,-2.441,1029.394,392.87636880190064
1286,1686879801.5,-59.57,-437.012,-106.445,-82.52,1029.398,399.389627530113
1287,1686879801.5,-68.359,-565.918,8.301,-72.754,1029.402,387.7387543395121
1288,1686879801.51,-31.25,428.223,14.16,5.859,1029.406,397.5674725590172
1289,1686879801.51,-19.531,312.988,-63.965,18.555,1029.41,393.2305432193814
1290,1686879801.52,-53.711,-535.645,-54.199,-65.918,1029.414,390.86931091739615
1291,1686879801.52,-61.035,-141.602,13.184,-91.309,1029.418,398.30228453012364
1292,1686879801.52,-23.926,548.828,-7.324,-7.812,1029.422,395.2742800839362
1293,1686879801.53,-9.766,418.945,-37.598,29.297,1029.426,394.9312297665418
1294,1686879801.53,-37.109,285.645,-9.766,-43.945,1029.43,400.72138110892035
1295,1686879801.54,-66.406,406.738,-15.625,-98.633,1029.433,392.1409144206528
