,timestamps,TP9,AF7,AF8,TP10,Secondary Timestamp,emg_signal
0,1686714724.796,-38.086,-354.98,189.941,-97.168,804.705,368
1,1686714724.8,-90.332,-678.711,-62.5,-153.32,804.709,368
2,1686714724.804,-55.664,-827.637,-31.25,-47.852,804.713,368
3,1686714724.808,5.859,-339.355,175.781,37.598,804.717,368
4,1686714724.812,-17.578,-293.945,77.637,-45.41,804.72,368
5,1686714724.816,-76.172,-793.945,-168.945,-129.883,804.724,368
6,1686714724.82,-66.406,-894.043,-56.641,-57.617,804.728,368
7,1686714724.823,-0.977,-413.086,217.773,46.387,804.732,368
8,1686714724.827,9.277,-310.547,66.406,3.906,804.736,368
9,1686714724.831,-50.293,-678.223,-3.906,-116.211,804.74,368
10,1686714724.835,-58.594,-722.656,90.82,-101.074,804.744,368
11,1686714724.839,6.348,-627.93,98.633,25.879,804.748,368
12,1686714724.856,31.738,-781.738,62.988,40.527,804.751,368
13,1686714724.86,-24.902,-959.961,-110.84,-68.848,804.755,368
14,1686714724.864,-64.453,-902.832,28.809,-93.75,804.759,368
15,1686714724.868,-12.207,-455.566,230.469,22.461,804.763,368
16,1686714724.872,36.621,-360.84,50.781,78.125,804.766,368
17,1686714724.876,-8.301,-805.664,-49.805,-29.785,804.77,368
18,1686714724.88,-66.895,-917.48,95.703,-106.445,804.774,368
19,1686714724.883,-28.32,-507.324,190.918,-22.949,804.778,368
20,1686714724.887,31.25,-392.578,45.41,65.918,804.782,368
21,1686714724.891,10.254,-773.926,-38.086,0.488,804.786,368
22,1686714724.895,-53.223,-716.797,129.395,-101.074,804.79,368
23,1686714724.899,-49.805,-359.863,164.062,-49.316,804.794,368
24,1686714724.901,10.742,-475.586,47.363,76.66,804.797,368
25,1686714724.905,20.02,-637.695,14.648,32.715,804.8,368
26,1686714724.909,-37.109,-701.66,-15.625,-105.469,804.804,368
27,1686714724.913,-63.965,-714.355,80.078,-98.145,804.808,368
28,1686714724.917,-3.906,-674.316,38.574,33.203,804.812,368
29,1686714724.921,29.785,-941.895,-78.125,62.988,804.816,368
30,1686714724.925,-20.02,-842.285,102.051,-69.824,804.82,368
31,1686714724.928,-55.176,-571.777,157.227,-126.953,804.824,368
32,1686714724.932,-18.066,-763.672,-20.02,2.441,804.828,368
33,1686714724.936,12.695,-861.328,-10.742,61.523,804.832,368
34,1686714724.94,-14.648,-484.375,131.348,-53.223,804.836,368
35,1686714724.944,-61.523,-751.953,-45.41,-134.766,804.84,368
36,1686714724.946,-47.363,-1000.0,-32.227,-52.246,804.842,368
37,1686714724.95,14.648,-719.238,84.961,51.27,804.846,368
38,1686714724.954,0.488,-314.941,145.508,-26.367,804.849,368
39,1686714724.958,-81.055,-452.637,28.32,-144.043,804.853,368
40,1686714724.962,-81.055,-732.91,-25.879,-85.449,804.857,368
41,1686714724.966,-5.371,-741.211,92.285,44.434,804.861,368
42,1686714724.97,9.277,-720.703,95.703,21.484,804.865,368
43,1686714724.973,-53.223,-861.328,10.254,-102.539,804.869,368
44,1686714724.977,-87.891,-1000.0,-76.172,-104.492,804.873,367
45,1686714724.981,-31.738,-838.867,57.617,21.973,804.877,367
46,1686714724.985,18.555,-361.816,205.566,51.758,804.881,367
47,1686714724.989,-28.32,-536.621,-18.555,-55.176,804.885,367
48,1686714724.991,-81.543,-785.645,-11.23,-120.117,804.887,367
49,1686714724.995,-42.969,-460.938,166.504,-22.949,804.89,367
50,1686714724.999,18.066,-248.535,144.043,55.176,804.894,367
51,1686714725.003,-7.812,-551.758,-27.832,-42.48,804.898,367
52,1686714725.007,-72.266,-839.844,-62.012,-134.277,804.902,367
53,1686714725.011,-60.547,-849.121,62.5,-52.246,804.906,367
54,1686714725.015,14.16,-644.043,162.109,68.359,804.91,367
55,1686714725.018,11.23,-666.016,-64.941,17.578,804.914,367
56,1686714725.022,-73.73,-1000.0,-146.484,-108.887,804.918,367
57,1686714725.026,-72.266,-646.973,235.352,-85.938,804.922,367
58,1686714725.03,10.254,-315.43,131.348,38.086,804.926,367
59,1686714725.034,25.879,-714.355,-118.164,32.715,804.93,367
60,1686714725.036,-39.551,-825.195,55.176,-104.98,804.932,367
61,1686714725.04,-67.871,-465.332,186.035,-130.859,804.935,367
62,1686714725.044,-18.066,-413.086,84.961,4.395,804.939,366
63,1686714725.048,23.438,-630.859,28.809,51.27,804.943,366
64,1686714725.052,-22.949,-671.387,39.551,-64.453,804.947,366
65,1686714725.056,-79.59,-783.203,22.949,-126.465,804.951,366
66,1686714725.06,-45.898,-861.816,104.004,-29.785,804.955,366
67,1686714725.063,6.836,-878.418,39.062,47.852,804.959,366
68,1686714725.067,-17.578,-766.602,89.844,-45.41,804.963,366
69,1686714725.071,-73.73,-476.562,138.184,-139.16,804.967,366
70,1686714725.075,-56.152,-658.691,29.297,-51.27,804.971,366
71,1686714725.079,10.254,-761.719,84.961,61.035,804.975,366
72,1686714725.081,9.277,-479.492,162.109,1.953,804.977,366
73,1686714725.085,-56.641,-349.609,107.91,-112.793,804.981,366
74,1686714725.089,-82.031,-670.41,-30.273,-94.238,804.985,366
75,1686714725.093,-23.926,-708.496,19.043,29.785,804.989,366
76,1686714725.097,14.16,-363.77,80.566,36.621,804.992,366
77,1686714725.101,-46.875,-721.191,-60.547,-99.609,804.996,366
78,1686714725.105,-88.379,-1000.0,-105.957,-123.047,805.0,366
79,1686714725.108,-35.156,-883.301,5.859,9.766,805.004,366
80,1686714725.112,15.625,-466.797,225.098,59.57,805.008,366
81,1686714725.116,-17.578,-340.82,57.129,-52.734,805.012,366
82,1686714725.12,-74.707,-737.305,-62.988,-117.188,805.016,366
83,1686714725.124,-49.805,-935.547,88.379,-19.043,805.02,366
84,1686714725.127,9.766,-616.699,154.297,60.547,805.025,366
85,1686714725.131,-6.348,-620.605,19.531,-21.973,805.029,366
86,1686714725.135,-72.754,-966.309,-141.113,-126.465,805.033,366
87,1686714725.139,-71.289,-837.402,38.574,-71.777,805.037,366
88,1686714725.143,2.93,-382.812,199.219,45.41,805.041,366
89,1686714725.147,8.301,-602.051,-41.992,19.531,805.045,366
90,1686714725.151,-62.5,-990.234,-100.586,-101.562,805.049,366
91,1686714725.154,-80.566,-767.09,109.863,-97.656,805.053,366
92,1686714725.158,-17.09,-283.691,196.777,26.367,805.057,366
93,1686714725.162,11.719,-313.965,34.18,47.363,805.06,366
94,1686714725.166,-43.945,-729.98,-54.688,-84.473,805.064,366
95,1686714725.17,-79.102,-702.148,70.312,-139.16,805.068,366
96,1686714725.171,-31.25,-337.402,163.086,-18.555,805.08,366
97,1686714725.175,13.672,-464.355,-9.766,54.688,805.084,366
98,1686714725.179,-22.949,-719.727,-68.848,-44.434,805.088,366
99,1686714725.183,-79.59,-713.379,57.617,-126.465,805.092,366
100,1686714725.187,-54.688,-746.582,94.727,-43.945,805.096,366
101,1686714725.191,5.859,-812.5,-29.297,59.082,805.1,366
102,1686714725.195,-15.625,-993.652,-118.164,-20.02,805.104,366
103,1686714725.198,-75.195,-764.648,171.387,-141.602,805.108,366
104,1686714725.202,-63.965,-459.473,142.578,-89.355,805.112,366
105,1686714725.206,-6.348,-552.734,77.148,39.062,805.115,366
106,1686714725.21,13.184,-559.57,89.355,24.414,805.119,366
107,1686714725.214,-42.969,-709.961,-56.641,-102.539,805.123,366
108,1686714725.231,-69.824,-796.387,8.789,-112.305,805.126,366
109,1686714725.235,-12.695,-818.359,39.062,11.23,805.13,366
110,1686714725.239,19.531,-767.09,64.453,32.227,805.134,366
111,1686714725.243,-33.203,-407.227,146.484,-93.75,805.137,366
112,1686714725.247,-86.426,-491.699,38.086,-148.926,805.141,366
113,1686714725.251,-48.828,-774.414,-16.113,-38.574,805.145,366
114,1686714725.255,3.418,-861.816,74.707,42.48,805.149,366
115,1686714725.258,-26.367,-703.613,121.582,-51.27,805.153,366
116,1686714725.262,-83.984,-597.656,66.895,-139.16,805.157,366
117,1686714725.266,-63.477,-904.785,-74.707,-49.316,805.161,366
118,1686714725.27,5.859,-793.457,112.305,60.547,805.165,366
119,1686714725.274,7.812,-302.734,210.449,-5.371,805.169,366
120,1686714725.276,-59.57,-581.543,-49.316,-124.512,805.171,366
121,1686714725.28,-70.801,-799.805,-12.695,-90.82,805.175,366
122,1686714725.284,-4.395,-439.453,141.602,37.109,805.179,366
123,1686714725.288,17.09,-294.922,106.445,27.344,805.183,366
124,1686714725.292,-41.504,-611.816,-41.504,-98.633,805.187,366
125,1686714725.296,-74.219,-1000.0,-65.43,-120.605,805.19,366
126,1686714725.3,-16.113,-749.512,151.855,0.488,805.194,366
127,1686714725.303,29.785,-333.008,165.527,51.27,805.198,366
128,1686714725.307,-21.484,-689.941,-110.352,-54.199,805.202,366
129,1686714725.311,-80.078,-1000.0,-107.422,-109.863,805.206,366
130,1686714725.315,-36.133,-601.562,208.984,-7.324,805.21,366
131,1686714725.319,45.898,-564.453,120.117,94.238,805.214,366
132,1686714725.321,13.184,-903.809,-49.316,11.719,805.216,366
133,1686714725.325,-79.102,-866.699,57.617,-117.188,805.22,366
134,1686714725.329,-64.453,-441.406,204.59,-51.27,805.224,366
135,1686714725.333,6.348,-313.477,84.961,74.219,805.228,366
136,1686714725.337,0.977,-547.363,-40.039,25.391,805.232,366
137,1686714725.341,-62.988,-892.09,-96.68,-87.891,805.236,366
138,1686714725.345,-76.172,-897.949,81.543,-80.566,805.239,366
139,1686714725.348,-7.324,-520.508,145.02,50.781,805.243,365
140,1686714725.352,18.555,-748.047,-50.293,81.055,805.247,365
141,1686714725.356,-37.598,-794.434,87.891,-51.27,805.251,365
142,1686714725.36,-60.547,-447.266,167.48,-80.078,805.255,365
143,1686714725.364,-9.277,-643.066,31.738,48.828,805.259,365
144,1686714725.366,33.691,-777.344,34.18,103.027,805.262,365
145,1686714725.37,-4.883,-531.25,123.047,-5.859,805.266,365
146,1686714725.374,-57.129,-413.086,107.422,-78.613,805.27,365
147,1686714725.378,-23.926,-655.762,28.809,23.438,805.273,365
148,1686714725.382,37.598,-727.539,2.93,114.258,805.277,365
149,1686714725.386,20.02,-707.031,-42.969,40.039,805.281,365
150,1686714725.39,-46.387,-921.387,17.09,-49.805,805.285,365
151,1686714725.393,-44.922,-985.84,-16.113,7.812,805.289,365
152,1686714725.397,16.602,-868.652,-2.93,124.023,805.293,365
153,1686714725.401,35.156,-470.703,204.102,78.613,805.297,365
154,1686714725.405,-24.902,-445.312,52.734,-55.176,805.301,365
155,1686714725.409,-62.012,-847.168,-77.637,-47.363,805.305,365
156,1686714725.412,-5.859,-714.844,117.676,77.637,805.308,365
157,1686714725.416,31.25,-384.277,127.93,94.727,805.312,366
158,1686714725.42,-24.902,-695.801,-75.195,-31.25,805.316,366
159,1686714725.424,-76.172,-958.984,-29.785,-85.449,805.32,366
160,1686714725.428,-32.715,-723.633,124.512,26.855,805.324,366
161,1686714725.432,25.391,-632.324,97.656,104.492,805.328,366
162,1686714725.436,-0.488,-863.281,42.48,11.23,805.332,366
163,1686714725.439,-55.664,-969.727,1.953,-70.801,805.336,366
164,1686714725.443,-24.902,-741.699,141.113,3.418,805.34,365
165,1686714725.447,45.41,-263.184,210.449,95.703,805.344,365
166,1686714725.451,24.902,-460.938,-41.016,37.109,805.348,365
167,1686714725.455,-51.758,-802.734,-35.156,-77.637,805.351,365
168,1686714725.471,-48.34,-567.383,151.367,-36.621,805.375,365
169,1686714725.475,23.926,-273.438,148.926,86.914,805.379,365
170,1686714725.479,29.785,-519.043,-31.25,70.312,805.382,365
171,1686714725.483,-39.062,-822.754,-70.312,-60.547,805.386,364
172,1686714725.487,-52.246,-743.164,72.754,-69.336,805.39,364
173,1686714725.491,10.254,-825.195,144.043,66.895,805.394,364
174,1686714725.495,49.316,-907.227,-19.531,100.098,805.398,364
175,1686714725.498,-7.812,-979.004,-106.934,-17.578,805.402,365
176,1686714725.501,-29.297,-733.398,127.93,-73.242,805.41,365
177,1686714725.502,-52.246,-757.324,184.57,-74.219,805.406,365
178,1686714725.505,0.0,-463.867,118.164,-2.441,805.413,365
179,1686714725.506,6.836,-436.523,159.668,31.738,805.41,365
180,1686714725.509,57.617,-774.414,-20.02,103.516,805.417,365
181,1686714725.51,56.641,-578.125,27.832,110.352,805.414,364
182,1686714725.513,42.969,-776.855,80.078,44.922,805.421,364
183,1686714725.514,21.484,-921.387,16.113,20.996,805.418,364
184,1686714725.517,-18.555,-467.285,125.977,-70.801,805.425,364
185,1686714725.521,-37.109,-722.656,-21.484,-45.898,805.429,364
186,1686714725.525,18.555,-858.887,75.195,61.035,805.433,363
187,1686714725.528,37.598,-786.621,137.207,60.547,805.437,363
188,1686714725.532,-14.648,-589.844,121.094,-61.035,805.441,363
189,1686714725.536,-32.227,-538.086,77.148,-83.984,805.445,363
190,1686714725.54,11.719,-927.734,-91.797,53.711,805.449,364
191,1686714725.544,49.316,-851.074,49.805,95.215,805.453,364
192,1686714725.546,21.484,-384.277,188.965,-35.645,805.455,364
193,1686714725.55,-29.785,-648.926,-39.062,-93.75,805.459,364
194,1686714725.554,-1.953,-759.766,0.0,22.949,805.463,363
195,1686714725.558,57.129,-322.266,134.766,110.352,805.467,363
196,1686714725.562,29.297,-397.461,15.625,18.066,805.471,363
197,1686714725.566,-52.246,-871.094,-191.406,-87.402,805.475,363
198,1686714725.57,-45.898,-868.164,-56.641,-29.785,805.479,362
199,1686714725.573,28.809,-399.414,218.75,74.219,805.483,362
200,1686714725.577,35.156,-319.336,43.457,41.016,805.486,362
201,1686714725.581,-26.855,-735.352,-43.457,-69.824,805.49,361
202,1686714725.585,-39.062,-844.727,83.496,-57.129,805.494,361
203,1686714725.589,23.926,-685.059,96.68,67.871,805.498,361
204,1686714725.606,54.688,-718.262,91.309,79.59,805.501,361
205,1686714725.61,-1.953,-890.625,-79.102,-31.25,805.505,361
206,1686714725.614,-43.945,-887.207,5.371,-61.523,805.509,361
207,1686714725.618,5.371,-412.109,239.258,40.039,805.513,361
208,1686714725.622,61.523,-265.137,53.223,96.68,805.517,361
209,1686714725.626,22.949,-724.121,-81.543,-4.883,805.52,361
210,1686714725.63,-33.691,-900.879,37.598,-80.566,805.524,361
211,1686714725.633,0.488,-464.844,177.246,5.859,805.528,361
212,1686714725.637,62.988,-327.637,53.223,105.469,805.532,361
213,1686714725.641,46.875,-750.0,-58.105,46.387,805.536,361
214,1686714725.645,-12.207,-711.914,124.023,-64.941,805.54,361
215,1686714725.649,-3.906,-408.203,150.879,-22.949,805.544,363
216,1686714725.651,61.035,-645.508,4.883,104.98,805.546,363
217,1686714725.655,72.266,-811.035,-12.207,84.961,805.55,363
218,1686714725.659,12.207,-562.5,117.676,-41.016,805.554,363
219,1686714725.663,-4.395,-408.691,126.465,-45.41,805.558,365
220,1686714725.667,56.641,-586.426,28.809,89.355,805.561,365
221,1686714725.671,84.473,-935.059,-96.191,120.117,805.565,365
222,1686714725.675,44.434,-831.055,25.879,-8.301,805.569,368
223,1686714725.678,0.977,-517.09,162.109,-53.711,805.573,368
224,1686714725.682,31.738,-734.375,-57.617,71.289,805.577,368
225,1686714725.686,83.984,-885.254,-31.738,149.902,805.581,368
226,1686714725.69,45.41,-550.293,151.367,37.109,805.585,371
227,1686714725.694,-10.742,-753.418,-45.898,-54.688,805.589,371
228,1686714725.696,17.578,-1000.0,-55.664,40.527,805.591,371
229,1686714725.7,73.73,-743.652,82.52,135.254,805.595,371
230,1686714725.704,67.871,-498.535,76.66,62.5,805.599,373
231,1686714725.708,7.812,-772.949,-76.66,-43.945,805.603,373
232,1686714725.712,1.953,-885.742,-3.418,3.418,805.607,373
233,1686714725.716,62.988,-845.703,111.816,128.906,805.611,373
234,1686714725.72,80.078,-664.551,126.465,112.305,805.614,375
235,1686714725.723,25.391,-545.898,38.574,-6.836,805.618,375
236,1686714725.727,-1.953,-854.492,-55.664,-26.367,805.622,375
237,1686714725.731,52.734,-674.805,117.188,83.984,805.626,378
238,1686714725.735,93.75,-185.547,161.133,127.441,805.63,378
239,1686714725.739,49.805,-513.184,-46.875,20.508,805.634,378
240,1686714725.741,-2.93,-812.5,-31.738,-38.574,805.636,378
241,1686714725.745,27.344,-465.332,150.391,59.57,805.64,380
242,1686714725.749,79.102,-226.562,124.512,135.254,805.644,380
243,1686714725.753,52.246,-532.715,-48.34,41.504,805.648,380
244,1686714725.757,-6.348,-875.0,-89.844,-52.246,805.652,380
245,1686714725.761,11.23,-811.523,25.391,20.996,805.656,381
246,1686714725.765,75.684,-751.465,134.766,133.301,805.66,381
247,1686714725.768,78.125,-849.609,-42.969,97.656,805.664,381
248,1686714725.772,13.672,-984.863,-128.906,-10.742,805.668,383
249,1686714725.776,9.277,-629.883,204.102,0.977,805.672,383
250,1686714725.78,74.219,-304.199,138.184,115.723,805.675,383
251,1686714725.784,81.543,-686.523,-47.363,128.906,805.679,383
252,1686714725.786,29.297,-803.711,61.035,5.859,805.682,384
253,1686714725.79,9.766,-440.43,166.504,-35.645,805.686,384
254,1686714725.794,55.664,-380.371,79.102,73.242,805.689,384
255,1686714725.798,90.332,-597.168,27.832,123.047,805.693,384
256,1686714725.802,44.922,-628.906,66.895,15.137,805.697,385
257,1686714725.806,-5.371,-767.578,-17.09,-45.41,805.701,385
258,1686714725.81,25.879,-881.836,50.781,58.594,805.705,385
259,1686714725.813,82.031,-900.391,22.949,151.855,805.709,386
260,1686714725.817,64.941,-882.324,77.637,75.195,805.713,386
261,1686714725.821,10.742,-512.695,178.223,-36.621,805.717,386
262,1686714725.825,24.414,-537.598,35.645,27.832,805.721,386
263,1686714725.829,95.215,-709.961,52.734,153.809,805.725,386
264,1686714725.831,103.516,-503.418,147.949,112.793,805.727,386
265,1686714725.835,41.504,-365.234,108.398,-7.324,805.731,386
266,1686714725.839,21.973,-648.438,-20.996,-1.465,805.735,386
267,1686714725.843,89.355,-657.227,8.301,123.047,805.739,387
268,1686714725.847,114.746,-405.762,83.008,138.672,805.743,387
269,1686714725.851,49.805,-793.457,-46.875,18.066,805.747,387
270,1686714725.855,11.23,-1000.0,-91.309,-5.371,805.75,388
271,1686714725.858,53.711,-865.234,16.602,97.656,805.754,388
272,1686714725.862,108.398,-456.543,207.031,150.391,805.758,388
273,1686714725.866,74.707,-372.07,59.57,54.199,805.762,388
274,1686714725.87,8.789,-744.141,-37.598,-42.48,805.766,389
275,1686714725.874,34.18,-944.336,87.891,38.574,805.77,389
276,1686714725.891,101.562,-645.02,168.945,144.043,805.787,390
277,1686714725.895,84.961,-421.387,73.73,80.078,805.791,390
278,1686714725.899,9.277,-845.703,-154.785,-19.043,805.795,390
279,1686714725.903,-4.883,-858.887,34.18,26.367,805.798,390
280,1686714725.907,70.312,-354.492,204.102,137.207,805.802,390
281,1686714725.911,86.426,-547.852,-40.527,111.328,805.806,390
282,1686714725.915,18.066,-953.125,-106.934,-10.254,805.81,389
283,1686714725.918,-3.418,-840.82,107.91,-24.902,805.814,389
284,1686714725.922,55.176,-351.562,203.125,97.656,805.818,389
285,1686714725.923,53.711,-353.516,131.836,77.148,805.821,389
286,1686714725.926,91.797,-332.52,15.137,134.766,805.822,389
287,1686714725.927,108.398,-674.316,-34.668,153.32,805.825,389
288,1686714725.93,49.805,-645.508,-33.691,15.625,805.826,389
289,1686714725.931,79.102,-844.727,-23.926,72.754,805.829,389
290,1686714725.934,10.254,-508.301,109.863,-29.297,805.83,389
291,1686714725.935,30.273,-559.57,159.18,-15.625,805.833,389
292,1686714725.939,52.734,-438.965,112.305,60.547,805.836,387
293,1686714725.943,105.469,-757.324,-64.453,175.293,805.84,387
294,1686714725.947,85.449,-875.0,-44.922,110.84,805.844,387
295,1686714725.95,36.621,-569.824,123.047,-18.066,805.848,387
296,1686714725.954,47.852,-426.27,147.461,16.602,805.852,384
297,1686714725.958,96.191,-680.176,-36.621,144.043,805.856,384
298,1686714725.962,104.004,-889.648,-89.355,133.789,805.86,384
299,1686714725.966,53.223,-794.434,152.344,2.441,805.864,379
300,1686714725.981,20.996,-658.203,128.906,-20.02,805.876,373
301,1686714725.985,69.336,-653.32,83.984,104.004,805.88,373
302,1686714725.989,107.91,-556.152,125.977,145.508,805.884,373
303,1686714725.993,67.871,-534.18,17.09,29.785,805.888,365
304,1686714725.997,28.32,-854.98,1.953,-37.598,805.892,365
305,1686714726.001,62.012,-958.496,-28.809,65.918,805.896,365
306,1686714726.005,104.98,-955.566,1.953,165.039,805.9,365
307,1686714726.008,79.102,-577.148,204.59,74.219,805.904,356
308,1686714726.012,25.391,-561.035,29.785,-30.273,805.908,356
309,1686714726.016,24.902,-724.121,76.172,33.691,805.912,356
310,1686714726.02,78.125,-455.078,136.23,137.695,805.915,347
311,1686714726.024,81.543,-379.883,51.27,90.332,805.919,347
312,1686714726.027,16.602,-670.898,-13.184,-22.949,805.935,347
313,1686714726.031,13.672,-798.828,-19.043,0.977,805.938,347
314,1686714726.035,82.52,-391.602,161.621,113.77,805.942,340
315,1686714726.039,104.492,-198.242,121.094,114.746,805.946,340
316,1686714726.043,54.199,-583.984,-69.336,-2.441,805.95,340
317,1686714726.047,15.137,-992.188,-59.57,-26.367,805.954,333
318,1686714726.051,56.641,-911.621,123.047,91.797,805.958,333
319,1686714726.054,102.539,-601.074,184.082,142.09,805.962,333
320,1686714726.058,56.152,-680.176,-53.711,40.527,805.966,333
321,1686714726.062,-2.93,-1000.0,-127.441,-23.926,805.97,333
322,1686714726.066,35.156,-619.629,219.727,55.664,805.974,327
323,1686714726.07,80.566,-481.934,142.09,133.789,805.977,327
324,1686714726.071,54.688,-875.977,-60.059,58.105,805.967,327
325,1686714726.075,8.301,-861.328,52.734,-50.781,805.971,323
326,1686714726.079,15.625,-420.898,194.336,11.719,805.975,323
327,1686714726.083,78.125,-337.402,78.613,128.906,805.979,323
328,1686714726.087,75.684,-644.531,-10.742,90.82,805.982,323
329,1686714726.091,-3.418,-954.59,14.16,-20.508,805.986,318
330,1686714726.095,-11.23,-813.477,147.949,-10.742,805.99,318
331,1686714726.098,52.246,-443.359,133.301,98.633,805.994,318
332,1686714726.102,69.824,-779.297,-145.508,124.512,805.998,318
333,1686714726.106,17.578,-930.664,1.465,11.719,806.002,314
334,1686714726.11,-13.672,-443.848,241.211,-45.41,806.006,314
335,1686714726.114,38.086,-385.254,75.195,65.918,806.01,314
336,1686714726.116,86.426,-747.07,10.254,131.836,806.011,312
337,1686714726.12,41.016,-621.094,130.859,32.227,806.015,312
338,1686714726.124,-6.836,-322.754,123.535,-57.617,806.019,312
339,1686714726.128,21.973,-522.461,57.129,20.996,806.023,312
340,1686714726.132,78.125,-580.078,50.781,132.812,806.027,310
341,1686714726.136,59.57,-673.828,-35.645,72.754,806.031,310
342,1686714726.14,-7.324,-750.977,78.125,-46.387,806.035,310
343,1686714726.143,-6.836,-754.883,8.301,-3.418,806.039,310
344,1686714726.147,47.363,-867.188,-29.297,112.793,806.043,309
345,1686714726.151,67.383,-410.645,218.262,93.262,806.047,309
346,1686714726.155,16.113,-348.145,77.637,-24.414,806.051,309
347,1686714726.159,-12.207,-750.0,2.441,-40.039,806.054,308
348,1686714726.161,32.227,-868.164,97.656,76.66,806.057,308
349,1686714726.165,53.711,-563.477,164.062,101.562,806.06,308
350,1686714726.169,16.113,-370.605,87.402,-14.16,806.064,308
351,1686714726.173,-24.902,-793.457,-122.559,-55.664,806.068,309
352,1686714726.177,12.695,-823.73,51.758,53.223,806.072,309
353,1686714726.181,61.035,-554.199,164.551,125.977,806.076,309
354,1686714726.185,27.344,-724.121,55.664,30.273,806.08,309
355,1686714726.188,-21.973,-927.246,-15.625,-68.848,806.084,310
356,1686714726.192,-6.836,-770.508,115.723,-5.371,806.088,310
357,1686714726.196,58.105,-230.469,216.309,95.703,806.092,310
358,1686714726.2,51.27,-346.68,2.441,41.992,806.096,312
359,1686714726.204,-16.113,-733.887,-33.691,-75.195,806.1,312
360,1686714726.207,-26.367,-525.879,143.066,-42.969,806.104,312
361,1686714726.211,35.645,-293.457,169.922,83.984,806.108,314
362,1686714726.215,49.805,-649.902,-57.129,79.59,806.112,314
363,1686714726.219,-3.418,-859.375,-42.48,-38.086,806.116,314
364,1686714726.223,-23.438,-561.523,135.254,-55.664,806.12,314
365,1686714726.227,22.461,-640.137,68.848,61.523,806.124,316
366,1686714726.231,56.641,-886.23,-16.113,111.816,806.128,316
367,1686714726.234,6.348,-928.711,-5.859,0.977,806.131,316
368,1686714726.238,-25.391,-596.191,187.5,-76.172,806.135,316
369,1686714726.242,14.648,-292.48,144.531,18.555,806.139,319
370,1686714726.246,63.965,-449.219,62.012,104.492,806.143,319
371,1686714726.25,39.551,-802.246,38.086,23.926,806.147,319
372,1686714726.251,-35.156,-782.227,127.441,-68.359,806.147,319
373,1686714726.255,-15.625,-447.266,161.621,-0.977,806.151,319
374,1686714726.259,52.734,-685.059,2.93,117.188,806.155,322
375,1686714726.263,49.805,-764.648,59.57,63.477,806.158,322
376,1686714726.267,-5.859,-593.75,93.262,-68.848,806.162,322
377,1686714726.271,-23.438,-817.871,88.867,-43.945,806.166,325
378,1686714726.275,20.996,-959.473,-1.465,76.66,806.17,325
379,1686714726.278,32.227,-822.754,37.598,67.871,806.174,325
380,1686714726.282,-6.836,-416.016,199.707,-62.988,806.178,327
381,1686714726.286,-38.574,-539.062,49.805,-100.098,806.182,327
382,1686714726.29,5.859,-620.605,75.195,16.113,806.186,327
383,1686714726.294,53.223,-354.492,123.535,76.172,806.19,327
384,1686714726.296,9.277,-273.438,90.82,-26.855,806.206,330
385,1686714726.3,-48.34,-632.812,-14.648,-98.633,806.21,330
386,1686714726.304,-20.996,-774.902,17.09,-16.113,806.214,330
387,1686714726.308,33.203,-310.059,178.223,69.336,806.217,330
388,1686714726.312,14.16,-338.867,58.105,0.0,806.221,330
389,1686714726.316,-54.199,-823.73,-190.43,-93.262,806.225,330
390,1686714726.32,-49.805,-952.148,-27.832,-38.574,806.229,330
391,1686714726.323,28.32,-703.613,253.418,72.754,806.233,331
392,1686714726.327,34.668,-414.551,131.348,36.133,806.237,331
393,1686714726.331,-35.156,-683.594,-55.664,-87.891,806.241,331
394,1686714726.335,-49.805,-825.195,43.457,-89.355,806.245,331
395,1686714726.339,5.371,-573.242,173.828,34.668,806.249,329
396,1686714726.356,31.738,-629.883,100.586,57.617,806.252,328
397,1686714726.36,-17.578,-849.609,-24.902,-60.547,806.256,328
398,1686714726.364,-64.941,-855.469,65.918,-101.562,806.26,327
399,1686714726.368,-34.18,-373.535,197.266,0.0,806.264,327
400,1686714726.372,26.367,-293.945,74.219,71.289,806.268,327
401,1686714726.376,3.418,-759.766,-34.18,-20.508,806.271,327
402,1686714726.38,-55.176,-887.695,89.355,-108.887,806.275,325
403,1686714726.383,-23.438,-470.703,203.125,-27.832,806.279,325
404,1686714726.387,32.715,-355.957,57.129,80.078,806.283,325
405,1686714726.391,7.324,-791.016,-64.941,24.414,806.287,326
406,1686714726.395,-58.594,-911.621,122.559,-106.934,806.291,326
407,1686714726.399,-54.688,-464.844,211.914,-83.008,806.295,326
408,1686714726.401,0.0,-427.734,52.246,46.387,806.297,326
409,1686714726.405,20.508,-730.469,-0.977,41.992,806.301,326
410,1686714726.409,-29.297,-585.449,149.902,-83.008,806.305,326
411,1686714726.413,-60.059,-371.582,153.32,-96.191,806.309,326
412,1686714726.417,-16.113,-522.461,50.781,25.879,806.313,326
413,1686714726.421,14.648,-849.609,0.977,57.617,806.317,330
414,1686714726.425,-29.785,-801.27,86.426,-58.105,806.321,330
415,1686714726.428,-74.707,-499.512,160.645,-119.629,806.324,330
416,1686714726.432,-41.504,-703.125,-25.879,-15.137,806.328,333
417,1686714726.436,1.953,-848.145,-8.301,64.453,806.332,333
418,1686714726.44,-19.043,-475.586,145.508,-32.227,806.336,333
419,1686714726.444,-76.66,-722.656,-27.344,-127.93,806.34,333
420,1686714726.446,-71.777,-1000.0,-58.594,-54.199,806.342,333
421,1686714726.45,-11.23,-767.578,41.504,56.641,806.346,337
422,1686714726.454,4.883,-329.59,180.664,1.953,806.349,337
423,1686714726.458,-49.805,-390.137,74.219,-107.91,806.353,337
424,1686714726.462,-62.988,-750.0,18.555,-73.73,806.357,344
425,1686714726.466,-0.488,-809.57,123.047,55.664,806.361,344
426,1686714726.47,19.043,-601.562,174.805,52.246,806.365,344
427,1686714726.473,-38.086,-565.918,82.031,-85.938,806.369,349
428,1686714726.477,-77.637,-907.227,-83.008,-108.887,806.373,349
429,1686714726.481,-25.879,-831.055,116.211,14.16,806.377,349
430,1686714726.485,19.531,-257.324,228.516,53.223,806.381,349
431,1686714726.489,-25.391,-436.035,-33.691,-56.641,806.385,356
432,1686714726.491,-79.59,-753.906,-2.93,-116.211,806.386,356
433,1686714726.495,-49.316,-429.199,177.734,-16.602,806.39,356
434,1686714726.499,15.625,-267.09,104.492,66.406,806.394,356
435,1686714726.503,-9.766,-702.637,-124.512,-13.184,806.398,363
436,1686714726.507,-81.543,-897.461,-92.285,-113.77,806.401,363
437,1686714726.511,-57.617,-814.453,134.766,-49.316,806.405,363
438,1686714726.515,17.09,-546.875,182.617,72.266,806.409,374
439,1686714726.518,6.836,-603.516,-49.316,29.785,806.413,374
440,1686714726.522,-68.848,-929.688,-56.641,-95.215,806.417,374
441,1686714726.526,-75.684,-527.832,229.98,-91.309,806.421,374
442,1686714726.53,-4.395,-197.754,125.0,32.227,806.425,384
443,1686714726.534,14.16,-573.242,12.207,46.387,806.429,384
444,1686714726.551,-50.781,-842.773,96.68,-83.496,806.446,396
445,1686714726.555,-82.52,-441.895,185.547,-122.07,806.45,396
446,1686714726.559,-30.762,-262.207,90.332,-3.906,806.454,409
447,1686714726.563,17.09,-560.059,48.828,61.035,806.457,409
448,1686714726.567,-23.438,-667.48,94.727,-45.898,806.461,409
449,1686714726.571,-84.961,-716.309,22.949,-136.719,806.465,416
450,1686714726.575,-57.129,-780.273,121.094,-44.434,806.469,416
451,1686714726.578,-5.371,-883.301,-1.465,62.5,806.473,416
452,1686714726.581,-6.348,-317.383,104.98,0.488,806.476,416
453,1686714726.582,-31.738,-863.281,23.438,-22.949,806.477,416
454,1686714726.585,-60.547,-288.086,92.285,-106.934,806.48,429
455,1686714726.586,-76.172,-477.051,202.148,-147.461,806.481,429
456,1686714726.589,-66.895,-624.023,47.363,-101.562,806.484,429
457,1686714726.59,-54.688,-495.605,69.336,-91.309,806.485,429
458,1686714726.593,-1.953,-660.645,78.613,30.762,806.488,429
459,1686714726.594,-0.488,-515.137,79.59,28.32,806.489,429
460,1686714726.597,37.598,-323.73,93.262,67.871,806.491,429
461,1686714726.601,-15.137,-664.062,-41.504,-53.223,806.495,440
462,1686714726.605,-66.895,-975.586,-6.836,-99.121,806.499,440
463,1686714726.608,-26.855,-796.875,97.168,0.977,806.503,440
464,1686714726.612,23.926,-563.965,173.828,63.477,806.507,451
465,1686714726.616,-3.906,-441.895,152.344,-29.297,806.511,451
466,1686714726.62,-64.453,-662.109,-35.156,-113.77,806.515,451
467,1686714726.624,-54.199,-1000.0,-91.797,-28.32,806.519,462
468,1686714726.626,14.648,-744.141,224.121,63.965,806.521,462
469,1686714726.63,6.836,-250.488,165.039,-7.812,806.525,462
470,1686714726.634,-63.965,-616.211,-24.902,-121.582,806.529,462
471,1686714726.638,-64.941,-615.234,147.461,-83.008,806.533,462
472,1686714726.642,-4.395,-246.094,139.16,42.48,806.537,468
473,1686714726.646,2.441,-536.621,-52.734,26.855,806.541,468
474,1686714726.65,-64.941,-933.105,-82.52,-91.309,806.545,468
475,1686714726.653,-87.891,-796.875,113.77,-108.887,806.549,479
476,1686714726.657,-25.879,-285.645,223.145,7.324,806.553,479
477,1686714726.661,12.207,-294.434,52.246,50.293,806.557,479
478,1686714726.665,-28.809,-783.691,-3.418,-63.477,806.56,481
479,1686714726.669,-76.66,-773.926,126.465,-130.859,806.564,481
480,1686714726.671,-45.898,-261.23,206.055,-28.809,806.581,481
481,1686714726.675,11.23,-322.754,23.438,63.477,806.585,481
482,1686714726.679,-22.949,-755.371,-59.082,-29.297,806.588,481
483,1686714726.683,-86.426,-571.777,158.203,-141.113,806.592,485
484,1686714726.687,-67.871,-301.758,166.504,-67.871,806.596,485
485,1686714726.691,-13.672,-652.344,-45.898,56.152,806.6,485
486,1686714726.695,-22.461,-920.41,-7.324,3.906,806.604,488
487,1686714726.698,-82.52,-580.566,214.355,-130.371,806.608,488
488,1686714726.702,-86.914,-345.215,124.512,-99.609,806.612,488
489,1686714726.706,-26.855,-473.633,108.887,21.484,806.616,486
490,1686714726.71,-6.836,-441.406,115.723,13.184,806.62,486
491,1686714726.714,-67.383,-546.875,7.324,-101.074,806.624,486
492,1686714726.717,-98.633,-791.992,97.656,-127.441,806.626,486
493,1686714726.721,-44.922,-884.277,31.738,-6.348,806.63,486
494,1686714726.725,-15.137,-816.406,22.461,46.875,806.634,484
495,1686714726.729,-54.199,-366.699,191.406,-81.543,806.638,484
496,1686714726.733,-90.332,-342.285,84.961,-153.32,806.642,484
497,1686714726.737,-59.57,-701.66,44.922,-46.875,806.645,479
498,1686714726.741,-2.93,-628.906,123.535,34.668,806.649,479
499,1686714726.744,-20.996,-231.934,161.621,-46.875,806.653,479
500,1686714726.748,-82.031,-394.043,47.852,-143.555,806.657,479
501,1686714726.752,-74.219,-776.855,15.625,-78.125,806.661,474
502,1686714726.756,3.906,-519.043,169.922,55.176,806.665,474
503,1686714726.76,14.16,-152.344,166.504,26.367,806.669,474
504,1686714726.776,-74.219,-468.262,10.254,-119.141,806.671,462
505,1686714726.78,-98.633,-674.316,23.438,-115.234,806.675,462
506,1686714726.784,-35.156,-320.312,147.461,11.719,806.679,462
507,1686714726.788,-24.414,-298.828,76.172,11.23,806.683,462
508,1686714726.792,-97.168,-722.168,-128.906,-118.164,806.687,455
509,1686714726.796,-126.953,-979.004,-66.406,-148.926,806.691,455
510,1686714726.8,-72.266,-615.723,214.844,-41.504,806.695,455
511,1686714726.803,-31.25,-136.23,171.875,2.441,806.699,455
512,1686714726.807,-68.848,-567.383,-96.68,-90.332,806.703,446
513,1686714726.811,-122.559,-863.281,-55.664,-160.645,806.706,446
514,1686714726.815,-84.473,-304.688,229.98,-77.637,806.71,446
515,1686714726.819,-23.438,-357.91,76.66,24.414,806.714,438
516,1686714726.821,-35.645,-791.992,4.883,-35.156,806.716,438
517,1686714726.825,-93.262,-683.594,121.582,-139.16,806.72,438
518,1686714726.829,-93.262,-305.664,166.992,-94.727,806.724,438
519,1686714726.833,-28.32,-160.156,99.609,25.391,806.728,429
520,1686714726.837,-19.531,-543.457,-1.465,3.906,806.732,429
521,1686714726.841,-78.125,-956.055,97.656,-120.605,806.736,429
522,1686714726.845,-95.703,-833.984,151.855,-125.488,806.74,419
523,1686714726.848,-36.621,-542.48,147.949,-10.254,806.744,419
524,1686714726.852,-9.766,-788.574,-26.855,31.25,806.748,419
525,1686714726.856,-59.082,-835.938,27.832,-72.754,806.752,419
526,1686714726.86,-86.426,-374.512,183.105,-126.953,806.756,407
527,1686714726.864,-41.504,-516.113,93.262,-20.508,806.759,407
528,1686714726.866,9.766,-475.586,147.949,44.434,806.761,407
529,1686714726.87,-29.785,-204.102,146.973,-55.176,806.765,407
530,1686714726.874,-91.797,-176.27,123.535,-141.113,806.769,393
531,1686714726.878,-59.082,-414.551,74.707,-52.246,806.773,393
532,1686714726.882,-2.93,-457.52,70.801,50.781,806.777,393
533,1686714726.886,-18.066,-492.188,50.293,-11.719,806.781,378
534,1686714726.89,-73.242,-538.086,112.305,-128.906,806.784,378
535,1686714726.893,-71.777,-607.91,20.996,-86.914,806.788,378
536,1686714726.897,-8.301,-865.723,-27.344,45.41,806.792,378
537,1686714726.901,8.789,-553.711,213.867,25.391,806.796,378
538,1686714726.905,-45.898,-254.883,179.688,-101.562,806.8,361
539,1686714726.909,-80.566,-659.18,-44.922,-107.422,806.804,361
540,1686714726.911,-33.203,-881.348,25.391,17.578,806.806,361
541,1686714726.915,18.066,-244.629,247.559,49.316,806.81,344
542,1686714726.919,-20.996,-139.16,77.148,-68.359,806.814,344
543,1686714726.923,-75.684,-497.07,6.348,-133.301,806.818,344
544,1686714726.927,-48.34,-357.91,109.863,-28.809,806.822,326
545,1686714726.931,4.883,-363.77,50.293,62.988,806.826,326
546,1686714726.935,-16.602,-579.59,60.547,-24.414,806.83,326
547,1686714726.938,-70.312,-813.477,32.227,-123.047,806.834,326
548,1686714726.942,-51.27,-654.785,121.582,-51.27,806.838,326
549,1686714726.946,13.672,-39.551,204.102,57.129,806.842,309
550,1686714726.95,8.789,-158.203,33.203,-1.465,806.846,309
551,1686714726.954,-59.57,-673.34,-9.766,-125.977,806.849,309
552,1686714726.956,-72.266,-580.566,154.785,-106.934,806.865,294
553,1686714726.96,-17.578,-69.824,191.895,17.578,806.869,294
554,1686714726.964,-7.324,-269.531,-41.992,30.273,806.872,294
555,1686714726.968,-71.289,-724.121,-58.594,-89.844,806.876,281
556,1686714726.972,-91.797,-441.406,163.086,-119.141,806.88,281
557,1686714726.976,-30.762,-325.195,163.086,3.418,806.884,281
558,1686714726.98,-12.207,-687.988,-10.254,38.574,806.888,281
559,1686714726.983,-64.453,-858.398,-9.277,-93.262,806.892,281
560,1686714726.987,-99.121,-470.215,211.914,-168.945,806.896,272
561,1686714726.991,-67.383,-181.641,134.766,-79.102,806.9,272
562,1686714726.995,-17.578,-281.25,75.684,7.324,806.904,272
563,1686714726.999,-46.387,-602.539,51.27,-62.012,806.908,267
564,1686714727.002,-107.91,-550.781,95.703,-163.574,806.909,267
565,1686714727.006,-101.074,-212.402,153.32,-107.422,806.913,267
566,1686714727.01,-49.805,-644.043,-39.551,20.508,806.917,264
567,1686714727.014,-39.062,-814.453,12.695,-8.301,806.921,264
568,1686714727.018,-87.891,-296.875,151.855,-133.301,806.925,264
569,1686714727.022,-101.074,-482.422,8.789,-114.258,806.929,264
570,1686714727.026,-49.805,-837.891,55.664,17.578,806.933,263
571,1686714727.029,-20.508,-534.668,129.883,32.715,806.937,263
572,1686714727.033,-59.082,-58.594,135.742,-87.402,806.941,263
573,1686714727.037,-92.285,-275.879,66.895,-124.023,806.944,263
574,1686714727.041,-40.039,-467.285,102.051,-10.742,806.948,265
575,1686714727.045,7.324,-184.082,166.504,50.293,806.952,265
576,1686714727.046,-45.898,-47.363,124.512,-70.312,806.955,265
577,1686714727.05,-105.957,-350.098,7.812,-164.062,806.959,268
578,1686714727.054,-75.684,-470.215,23.926,-60.059,806.963,268
579,1686714727.058,-21.973,-85.449,149.902,52.734,806.967,268
580,1686714727.062,-30.762,-164.551,58.594,-27.344,806.971,268
581,1686714727.066,-83.008,-709.473,-122.07,-135.742,806.975,268
582,1686714727.07,-83.008,-992.676,-39.551,-73.73,806.979,273
583,1686714727.073,-20.996,-476.074,222.168,30.762,806.983,273
584,1686714727.077,-10.742,-26.367,123.047,2.93,806.987,273
585,1686714727.081,-65.918,-510.254,9.766,-105.469,806.991,279
586,1686714727.085,-84.961,-577.148,105.957,-112.305,806.994,279
587,1686714727.089,-24.902,-327.148,158.203,11.719,806.998,279
588,1686714727.106,8.301,-385.254,132.812,36.621,807.002,285
589,1686714727.11,-44.434,-708.984,-18.555,-87.402,807.006,291
590,1686714727.114,-88.867,-751.953,88.379,-139.648,807.01,291
591,1686714727.118,-30.762,-109.863,243.652,-26.367,807.014,291
592,1686714727.122,23.438,39.062,77.637,56.152,807.018,299
593,1686714727.126,-21.484,-493.652,-52.246,-40.039,807.022,299
594,1686714727.13,-75.684,-684.082,83.008,-130.371,807.026,299
595,1686714727.133,-60.059,-454.59,170.898,-55.664,807.029,299
596,1686714727.137,-7.324,-278.32,87.891,35.156,807.033,307
597,1686714727.141,-18.066,-667.969,-86.914,-13.184,807.037,307
598,1686714727.145,-72.754,-787.109,72.754,-117.676,807.041,307
599,1686714727.149,-58.594,-110.84,229.004,-91.309,807.045,316
600,1686714727.151,5.859,-161.133,72.266,34.668,807.047,316
601,1686714727.155,11.719,-332.52,32.715,29.297,807.051,316
602,1686714727.159,-51.758,-166.504,109.375,-92.773,807.055,316
603,1686714727.163,-80.078,-75.195,136.23,-115.723,807.058,325
604,1686714727.167,-32.227,-252.441,81.543,-2.441,807.062,325
605,1686714727.171,-1.465,-570.801,31.738,49.805,807.066,325
606,1686714727.175,-38.574,-491.211,113.77,-66.895,807.07,325
607,1686714727.178,-77.637,-158.203,170.898,-131.836,807.074,334
608,1686714727.182,-48.828,-420.898,-3.418,-26.855,807.078,334
609,1686714727.186,2.441,-912.598,-19.531,56.641,807.082,334
610,1686714727.19,-14.648,-523.926,218.75,-31.738,807.086,341
611,1686714727.194,-73.73,-362.793,133.301,-128.418,807.09,341
612,1686714727.196,-59.57,-816.406,-22.461,-46.875,807.091,341
613,1686714727.2,0.0,-788.574,62.988,57.129,807.095,341
614,1686714727.204,-8.789,-163.086,204.59,-12.695,807.099,348
615,1686714727.208,-61.523,-115.723,74.219,-122.559,807.102,348
616,1686714727.212,-71.777,-401.855,96.191,-95.215,807.106,348
617,1686714727.216,-21.973,-456.543,151.855,21.484,807.11,348
618,1686714727.22,0.977,-243.164,140.137,30.762,807.114,353
619,1686714727.223,-46.875,-104.492,67.871,-87.891,807.118,353
620,1686714727.227,-85.938,-661.621,-48.828,-116.699,807.122,353
621,1686714727.231,-39.062,-561.035,110.84,-5.371,807.126,356
622,1686714727.235,5.859,121.582,189.453,45.898,807.13,356
623,1686714727.239,-36.621,-133.789,-9.766,-59.082,807.134,356
624,1686714727.241,-85.938,-659.668,-34.18,-141.602,807.136,356
625,1686714727.245,-53.711,-380.859,144.531,-54.199,807.14,356
626,1686714727.249,9.766,147.949,187.012,41.504,807.144,358
627,1686714727.253,-8.301,-195.801,-36.621,-27.344,807.148,358
628,1686714727.257,-73.73,-705.566,-83.984,-125.977,807.152,358
629,1686714727.261,-81.543,-532.715,164.062,-79.59,807.155,358
630,1686714727.265,-16.113,-299.316,172.363,39.551,807.159,358
631,1686714727.268,0.977,-543.945,-19.043,25.391,807.163,358
632,1686714727.272,-70.312,-837.891,-22.461,-98.633,807.167,358
633,1686714727.276,-89.355,-327.148,236.816,-105.469,807.171,358
634,1686714727.28,-24.414,53.223,110.352,25.879,807.175,358
635,1686714727.284,-0.977,-392.09,-11.719,43.945,807.179,358
636,1686714727.286,-57.129,-572.754,104.492,-91.797,807.181,358
637,1686714727.29,-90.82,-164.551,135.254,-135.254,807.185,357
638,1686714727.294,-47.363,46.387,146.484,-20.02,807.189,357
639,1686714727.298,-7.324,-480.469,-11.23,53.223,807.193,357
640,1686714727.302,-45.41,-803.223,-26.855,-46.387,807.196,360
641,1686714727.306,-93.75,-485.84,132.324,-140.625,807.2,360
642,1686714727.31,-64.453,-370.605,128.418,-56.152,807.204,360
643,1686714727.313,-0.488,-641.113,50.781,49.805,807.208,359
644,1686714727.317,-8.301,-596.68,102.539,-12.695,807.212,359
645,1686714727.321,-63.965,5.371,188.477,-128.418,807.216,359
646,1686714727.325,-67.383,-99.121,90.332,-80.078,807.22,359
647,1686714727.329,-10.742,-203.125,75.195,45.41,807.224,359
648,1686714727.331,3.906,-13.184,129.883,20.02,807.226,359
649,1686714727.335,-53.223,42.969,112.793,-102.051,807.23,359
650,1686714727.339,-78.125,-242.676,37.109,-104.492,807.234,359
651,1686714727.343,-26.367,-265.625,77.148,17.578,807.238,357
652,1686714727.347,8.789,-3.418,98.145,47.852,807.242,357
653,1686714727.351,-37.109,-284.668,3.418,-71.777,807.245,357
654,1686714727.355,-85.938,-704.59,-26.367,-125.488,807.249,354
655,1686714727.358,-53.223,-963.867,-15.137,-13.184,807.253,354
656,1686714727.362,-0.488,-381.348,206.543,57.617,807.257,354
657,1686714727.366,-27.344,53.223,125.0,-39.062,807.261,354
658,1686714727.37,-89.355,-356.934,17.578,-127.93,807.265,353
659,1686714727.374,-68.848,-557.129,114.258,-48.828,807.269,353
660,1686714727.376,3.906,-207.031,192.871,49.805,807.285,353
661,1686714727.38,0.488,126.953,106.445,-13.672,807.288,353
662,1686714727.384,-70.312,-520.508,-94.238,-120.117,807.292,352
663,1686714727.388,-81.543,-675.293,115.234,-82.031,807.296,352
664,1686714727.392,-12.695,23.926,185.547,43.945,807.3,352
665,1686714727.396,-3.906,-143.066,-36.621,31.25,807.304,352
666,1686714727.4,-77.148,-740.723,-83.984,-106.445,807.308,351
667,1686714727.403,-97.656,-718.75,97.656,-125.977,807.312,351
668,1686714727.407,-30.762,-240.234,230.957,-1.465,807.316,351
669,1686714727.411,-6.348,-84.473,100.586,32.227,807.32,352
670,1686714727.415,-56.641,-373.535,20.996,-83.984,807.324,352
671,1686714727.419,-79.59,-328.125,119.629,-145.02,807.328,352
672,1686714727.421,-33.691,94.727,174.805,-35.645,807.33,352
673,1686714727.425,15.625,6.348,66.406,52.246,807.334,353
674,1686714727.429,-20.996,-210.938,-25.879,-39.551,807.338,353
675,1686714727.433,-79.59,-123.535,112.305,-131.836,807.342,353
676,1686714727.437,-64.941,27.832,159.668,-73.242,807.346,353
677,1686714727.441,-9.766,-336.914,-38.086,44.434,807.35,354
678,1686714727.445,-12.207,-742.188,-23.438,5.371,807.354,354
679,1686714727.448,-69.824,-352.539,173.34,-122.559,807.358,354
680,1686714727.452,-81.543,-7.324,160.645,-105.469,807.362,356
681,1686714727.456,-25.391,-377.93,-7.324,16.602,807.365,356
682,1686714727.46,-5.371,-687.988,-57.617,21.973,807.369,356
683,1686714727.464,-60.547,-478.027,77.148,-103.027,807.373,358
684,1686714727.482,-96.191,-451.172,116.211,-135.254,807.378,359
685,1686714727.486,-50.781,-693.848,2.93,-8.301,807.382,359
686,1686714727.49,-9.766,-792.969,-7.324,50.293,807.386,359
687,1686714727.494,-37.598,-194.336,195.801,-65.918,807.39,360
688,1686714727.498,-83.984,-53.711,81.543,-139.648,807.394,360
689,1686714727.502,-65.918,-426.758,-18.555,-58.105,807.398,360
690,1686714727.506,-14.16,-474.609,108.398,30.762,807.402,361
691,1686714727.509,-24.414,-105.957,149.902,-37.109,807.406,361
692,1686714727.513,-87.402,-128.906,20.02,-146.484,807.41,361
693,1686714727.517,-90.82,-592.285,12.207,-89.844,807.414,361
694,1686714727.521,-17.578,-312.012,172.363,23.438,807.417,362
695,1686714727.525,3.418,192.871,151.855,-7.324,807.421,362
696,1686714727.541,-65.43,-159.18,-27.344,-121.094,807.437,363
697,1686714727.545,-84.961,-594.727,-8.301,-110.84,807.441,363
698,1686714727.549,-20.508,-254.395,157.715,24.902,807.445,364
699,1686714727.553,5.371,215.82,152.344,49.805,807.449,364
700,1686714727.557,-36.133,-176.758,-71.289,-65.43,807.453,364
701,1686714727.561,-71.777,-811.523,-88.379,-107.91,807.456,364
702,1686714727.565,-32.227,-453.613,195.801,-8.301,807.46,365
703,1686714727.568,16.602,148.438,197.754,51.27,807.464,365
704,1686714727.571,-3.418,-643.066,-38.086,-8.789,807.466,365
705,1686714727.572,-21.973,-315.43,-112.305,-37.598,807.468,365
706,1686714727.575,-70.801,-739.258,24.902,-125.977,807.47,365
707,1686714727.576,-84.961,-973.633,-125.488,-124.023,807.472,365
708,1686714727.579,-60.059,-55.176,193.848,-83.984,807.474,365
709,1686714727.58,-60.059,-395.996,226.074,-57.129,807.476,365
710,1686714727.583,3.906,104.98,88.379,44.922,807.478,365
711,1686714727.584,12.695,-57.129,153.809,52.734,807.48,365
712,1686714727.587,8.301,-250.977,-30.273,23.438,807.482,365
713,1686714727.591,-52.246,-550.293,30.273,-104.492,807.486,365
714,1686714727.595,-74.219,-302.246,166.504,-108.398,807.489,365
715,1686714727.598,-17.578,6.348,114.258,11.23,807.493,365
716,1686714727.602,8.301,-249.023,31.25,41.992,807.497,365
717,1686714727.606,-35.156,-210.938,85.938,-68.359,807.501,365
718,1686714727.61,-76.172,11.23,107.422,-128.418,807.505,365
719,1686714727.614,-44.922,-24.902,77.148,-33.691,807.509,365
720,1686714727.617,0.977,-655.762,-72.266,53.223,807.556,366
721,1686714727.621,-27.832,-662.109,85.938,-35.645,807.559,366
722,1686714727.625,-77.148,-32.227,188.965,-129.395,807.563,366
723,1686714727.629,-62.988,-184.082,53.223,-59.082,807.567,366
724,1686714727.633,-7.812,-231.445,37.109,47.852,807.571,367
725,1686714727.637,-14.648,-263.672,-2.93,-4.883,807.575,367
726,1686714727.641,-78.125,-488.281,-37.598,-124.023,807.579,367
727,1686714727.644,-79.102,-679.199,-37.109,-88.379,807.583,368
728,1686714727.648,-15.137,-944.336,-13.672,34.668,807.587,368
729,1686714727.652,8.301,-333.984,213.379,28.809,807.591,368
730,1686714727.656,-41.992,86.426,86.914,-84.961,807.595,368
731,1686714727.66,-80.566,-481.445,-38.086,-94.238,807.599,368
732,1686714727.664,-26.367,-451.172,140.137,20.996,807.561,368
733,1686714727.668,29.785,132.324,175.293,63.477,807.564,368
734,1686714727.672,-8.301,119.629,20.02,-41.016,807.568,368
735,1686714727.676,-56.641,-438.477,-12.207,-116.699,807.572,369
736,1686714727.68,-20.996,-380.859,118.164,-21.973,807.576,369
737,1686714727.684,21.973,-163.086,64.453,70.312,807.58,369
738,1686714727.688,-10.254,-291.504,63.965,-18.066,807.584,371
739,1686714727.691,-64.453,-673.828,-30.762,-113.77,807.588,371
740,1686714727.695,-55.176,-751.465,101.074,-47.363,807.592,371
741,1686714727.699,5.371,-145.508,252.441,62.012,807.596,372
742,1686714727.703,2.93,-69.336,66.406,14.16,807.6,372
743,1686714727.707,-56.152,-533.203,-21.484,-99.609,807.604,372
744,1686714727.709,-61.035,-381.348,138.184,-71.777,807.605,372
745,1686714727.713,10.742,178.711,183.105,52.734,807.608,372
746,1686714727.717,29.785,-44.434,-22.461,54.688,807.612,373
747,1686714727.721,-30.762,-475.098,-44.922,-73.73,807.616,373
748,1686714727.725,-55.664,-228.516,126.465,-111.328,807.62,373
749,1686714727.729,-13.672,-213.867,84.473,5.371,807.624,374
750,1686714727.733,16.113,-479.004,30.762,66.406,807.628,374
751,1686714727.736,-32.715,-950.684,-166.992,-43.457,807.632,374
752,1686714727.74,-84.473,-826.66,59.57,-134.277,807.636,374
753,1686714727.744,-44.922,-60.059,243.652,-46.387,807.64,374
754,1686714727.748,15.137,-78.613,72.754,62.5,807.644,374
755,1686714727.752,-11.719,-396.973,51.758,-13.184,807.647,374
756,1686714727.753,-79.102,-433.594,88.867,-117.188,807.648,374
757,1686714727.757,-73.242,-220.703,122.559,-69.824,807.651,375
758,1686714727.761,-3.906,-238.77,98.145,43.457,807.655,375
759,1686714727.765,5.371,-234.375,116.699,16.113,807.659,375
760,1686714727.769,-54.199,-56.641,61.523,-106.445,807.663,376
761,1686714727.773,-79.59,-271.484,35.645,-96.68,807.667,376
762,1686714727.777,-27.344,-667.48,-7.812,28.32,807.671,376
763,1686714727.78,-3.906,-1000.0,-50.781,44.922,807.675,376
764,1686714727.784,-50.781,-447.754,163.574,-79.59,807.679,376
765,1686714727.788,-82.031,-75.195,104.004,-132.324,807.683,376
766,1686714727.792,-39.062,-157.227,80.566,-24.414,807.687,376
767,1686714727.796,15.137,97.656,132.812,52.246,807.691,377
768,1686714727.811,-20.508,210.938,106.445,-45.41,807.706,378
769,1686714727.815,-73.73,-126.953,-18.555,-127.93,807.71,378
770,1686714727.819,-50.781,-452.148,-0.488,-52.734,807.714,378
771,1686714727.823,1.465,-26.367,187.5,40.039,807.717,378
772,1686714727.827,-7.324,198.242,104.492,-24.414,807.721,378
773,1686714727.831,-68.848,-375.977,-147.461,-137.695,807.725,378
774,1686714727.835,-75.684,-984.375,-165.039,-88.867,807.729,378
775,1686714727.838,-7.812,-386.719,195.801,28.809,807.733,379
776,1686714727.842,11.23,246.582,144.043,8.789,807.737,379
777,1686714727.846,-58.105,-167.969,7.324,-104.004,807.741,379
778,1686714727.85,-91.797,-277.832,85.938,-109.863,807.745,379
779,1686714727.854,-31.738,-196.289,117.188,18.555,807.749,379
780,1686714727.856,12.207,-85.449,128.906,51.27,807.751,379
781,1686714727.86,-30.273,-455.566,-67.383,-60.547,807.755,379
782,1686714727.864,-77.148,-722.656,18.066,-108.398,807.758,379
783,1686714727.868,-46.387,7.812,213.867,-16.602,807.762,380
784,1686714727.872,2.441,84.961,29.785,56.152,807.766,380
785,1686714727.876,-26.855,-496.094,-50.293,-27.344,807.77,380
786,1686714727.88,-89.844,-748.535,99.609,-122.07,807.774,380
787,1686714727.883,-64.453,-217.773,201.66,-56.641,807.778,380
788,1686714727.887,4.883,128.418,73.242,49.316,807.782,380
789,1686714727.891,-5.371,-536.133,-95.215,2.93,807.786,380
790,1686714727.895,-61.523,-599.121,91.309,-117.188,807.79,380
791,1686714727.899,-64.941,58.105,180.176,-90.82,807.794,380
792,1686714727.901,-11.719,19.043,79.59,37.109,807.796,380
793,1686714727.905,7.812,-154.297,26.855,33.203,807.799,380
794,1686714727.909,-40.527,-112.305,66.895,-80.566,807.803,380
795,1686714727.913,-72.754,-1.465,134.277,-110.84,807.807,380
796,1686714727.917,-26.367,-128.418,45.898,6.836,807.811,380
797,1686714727.921,15.625,-479.492,-48.34,63.477,807.815,380
798,1686714727.925,-27.344,-503.906,76.172,-52.734,807.819,380
799,1686714727.928,-75.684,-409.18,113.281,-125.488,807.823,380
800,1686714727.932,-50.293,-643.555,-5.371,-30.273,807.827,380
801,1686714727.936,-4.883,-924.316,-7.324,65.918,807.831,380
802,1686714727.94,-19.043,-386.23,185.547,-26.855,807.835,380
803,1686714727.944,-77.148,-235.352,70.312,-128.906,807.839,380
804,1686714727.946,-78.125,-798.828,-28.809,-62.988,807.841,380
805,1686714727.95,-20.02,-609.863,84.961,32.227,807.845,380
806,1686714727.954,-13.184,68.848,171.875,-1.465,807.849,380
807,1686714727.958,-65.918,-8.301,36.621,-102.051,807.853,380
808,1686714727.962,-78.125,-306.152,-8.301,-98.633,807.857,380
809,1686714727.966,-14.16,-383.789,75.684,25.879,807.861,380
810,1686714727.97,14.16,-201.66,151.367,41.504,807.865,380
811,1686714727.973,-38.574,-44.434,60.547,-86.426,807.869,380
812,1686714727.977,-83.008,-613.77,-85.938,-124.023,807.872,380
813,1686714727.981,-38.574,-634.766,83.496,-15.137,807.876,380
814,1686714727.985,17.578,-71.777,193.359,52.734,807.88,380
815,1686714727.989,-20.996,-152.832,32.227,-43.457,807.884,379
816,1686714727.991,-80.566,-504.395,19.043,-125.977,807.886,379
817,1686714727.995,-47.852,-236.328,174.805,-44.434,807.89,379
818,1686714727.999,11.719,165.039,133.789,47.363,807.894,379
819,1686714728.003,-1.953,-94.238,-6.836,-18.555,807.898,379
820,1686714728.007,-58.105,-345.215,-79.102,-122.559,807.901,379
821,1686714728.011,-59.082,-397.461,27.832,-74.707,807.905,379
822,1686714728.015,3.906,-154.297,165.039,43.945,807.909,379
823,1686714728.018,11.23,-288.086,-48.34,19.043,807.913,379
824,1686714728.022,-61.523,-798.828,-71.777,-104.492,807.917,379
825,1686714728.026,-78.613,-272.461,252.93,-106.445,807.921,379
826,1686714728.03,-14.16,163.086,128.418,12.695,807.925,379
827,1686714728.034,6.836,-399.414,-94.238,39.551,807.929,379
828,1686714728.037,-45.898,-848.145,3.418,-80.566,807.932,379
829,1686714728.041,-89.844,-390.137,158.203,-138.184,807.936,379
830,1686714728.045,-42.48,76.172,146.973,-27.344,807.94,379
831,1686714728.049,10.742,-416.016,-41.992,49.805,807.944,379
832,1686714728.053,-31.25,-847.168,-67.383,-41.992,807.948,379
833,1686714728.057,-84.473,-539.062,107.91,-131.836,807.952,379
834,1686714728.061,-49.316,-352.539,134.766,-56.641,807.956,379
835,1686714728.064,33.203,-617.676,48.828,72.266,807.96,379
836,1686714728.068,16.602,-608.887,66.895,4.395,807.964,379
837,1686714728.072,-63.477,-16.602,148.926,-144.531,807.968,379
838,1686714728.076,-65.918,-106.934,98.633,-92.285,807.972,379
839,1686714728.08,-5.371,-161.621,87.402,40.527,807.975,379
840,1686714728.081,8.301,10.742,105.957,32.715,807.976,379
841,1686714728.085,-49.805,52.246,123.047,-89.844,807.98,379
842,1686714728.089,-75.684,-236.328,2.441,-107.91,807.984,379
843,1686714728.093,-23.438,-416.992,38.086,25.879,807.988,379
844,1686714728.097,21.484,-77.637,137.695,62.012,807.992,379
845,1686714728.101,-23.926,-227.051,-27.344,-49.316,807.995,378
846,1686714728.105,-71.777,-667.48,-61.523,-93.75,807.999,378
847,1686714728.108,-43.945,-942.383,-36.133,14.16,808.003,378
848,1686714728.112,3.418,-385.254,175.781,79.59,808.007,379
849,1686714728.116,-12.695,132.812,124.023,-21.484,808.011,379
850,1686714728.12,-62.988,-277.344,-7.812,-108.398,808.015,379
851,1686714728.124,-46.875,-587.402,92.285,-36.621,808.019,379
852,1686714728.126,14.648,-330.566,177.246,66.895,808.021,379
853,1686714728.13,12.695,72.266,111.328,16.113,808.025,378
854,1686714728.134,-63.965,-500.977,-104.004,-100.586,808.029,378
855,1686714728.138,-78.125,-664.551,80.566,-77.148,808.033,378
856,1686714728.142,-11.719,4.395,158.691,30.273,808.036,378
857,1686714728.146,13.672,-194.824,-64.941,29.785,808.04,378
858,1686714728.15,-48.828,-762.207,-152.344,-77.148,808.044,378
859,1686714728.153,-95.215,-812.012,49.316,-98.145,808.048,377
860,1686714728.157,-30.762,-49.316,264.648,14.648,808.052,377
861,1686714728.161,20.508,74.219,54.688,52.734,808.056,377
862,1686714728.165,-20.02,-258.301,-1.465,-53.711,808.06,377
863,1686714728.169,-68.359,-145.02,126.465,-112.305,808.064,377
864,1686714728.171,-41.504,83.984,145.508,-25.391,808.08,377
865,1686714728.175,12.207,-27.832,14.16,59.082,808.084,377
866,1686714728.179,-10.742,-301.758,-50.781,-16.113,808.088,377
867,1686714728.183,-66.406,-200.195,124.512,-120.605,808.092,377
868,1686714728.187,-46.875,-21.973,146.973,-56.641,808.096,377
869,1686714728.191,8.301,-378.418,-99.121,66.895,808.1,377
870,1686714728.195,9.277,-805.176,-39.551,36.133,808.103,377
871,1686714728.198,-46.387,-401.855,186.523,-91.309,808.107,377
872,1686714728.202,-74.707,-240.723,111.328,-84.961,808.111,377
873,1686714728.206,-18.066,-606.934,7.324,43.945,808.115,377
874,1686714728.21,19.043,-512.207,-3.906,56.152,808.119,376
875,1686714728.214,-52.734,-380.859,18.555,-78.125,808.123,376
876,1686714728.231,-89.355,-370.117,46.387,-119.141,808.126,376
877,1686714728.235,-35.156,-572.266,23.926,2.93,808.13,376
878,1686714728.239,1.465,-643.555,50.293,62.5,808.134,376
879,1686714728.243,-20.508,-12.207,159.668,-41.992,808.138,376
880,1686714728.247,-75.684,-62.988,46.875,-118.164,808.142,376
881,1686714728.251,-62.988,-475.586,13.672,-27.344,808.145,376
882,1686714728.255,-7.812,-366.211,126.465,65.43,808.149,376
883,1686714728.258,-7.324,66.406,148.926,-4.883,808.153,376
884,1686714728.262,-61.523,-69.336,6.348,-107.422,808.157,376
885,1686714728.266,-58.105,-546.387,-18.066,-59.57,808.161,376
886,1686714728.27,3.906,-456.543,110.84,60.059,808.165,376
887,1686714728.274,1.953,-128.418,138.672,26.855,808.169,376
888,1686714728.276,-56.641,-265.137,2.93,-97.656,808.173,376
889,1686714728.28,-76.66,-520.508,19.531,-94.238,808.177,376
890,1686714728.284,-12.207,-152.344,189.941,20.508,808.181,376
891,1686714728.288,30.762,172.363,107.422,39.062,808.185,376
892,1686714728.292,-22.949,-178.711,-59.57,-83.008,808.189,376
893,1686714728.296,-62.988,-703.125,-67.383,-112.305,808.193,376
894,1686714728.3,-19.043,-457.52,159.18,6.836,808.197,376
895,1686714728.303,21.973,79.102,164.551,67.383,808.201,376
896,1686714728.307,-20.02,-398.438,-121.094,-27.344,808.204,376
897,1686714728.311,-75.684,-839.355,-52.734,-114.746,808.208,376
898,1686714728.315,-41.504,-255.371,204.102,-42.969,808.212,376
899,1686714728.319,10.742,-128.418,97.656,63.477,808.216,376
900,1686714728.322,-17.578,-631.348,-76.172,3.906,808.217,376
901,1686714728.326,-72.266,-919.922,-30.762,-125.488,808.221,376
902,1686714728.33,-67.871,-348.145,189.453,-97.656,808.225,376
903,1686714728.334,-4.883,90.82,107.91,33.203,808.229,376
904,1686714728.338,4.395,-369.629,13.672,25.391,808.233,376
905,1686714728.342,-61.035,-738.77,95.703,-102.539,808.237,376
906,1686714728.346,-92.285,-574.219,140.625,-134.277,808.241,376
907,1686714728.349,-33.691,-326.66,142.578,-15.625,808.244,376
908,1686714728.353,9.766,-612.305,30.273,44.434,808.248,376
909,1686714728.357,-40.039,-656.738,62.988,-69.336,808.252,376
910,1686714728.361,-92.773,-107.91,166.504,-146.973,808.256,376
911,1686714728.365,-61.035,-117.676,88.379,-43.457,808.26,376
912,1686714728.366,-13.672,-166.992,69.336,46.875,808.261,376
913,1686714728.37,-35.645,-29.785,119.629,-40.527,808.265,376
914,1686714728.374,-85.449,6.836,111.816,-139.648,808.269,376
915,1686714728.378,-68.359,-220.215,-1.465,-58.105,808.273,376
916,1686714728.382,-5.371,-432.617,-5.859,59.57,808.276,376
917,1686714728.386,-11.23,-481.934,77.148,15.625,808.28,375
918,1686714728.39,-56.152,-371.582,128.418,-87.402,808.284,375
919,1686714728.393,-56.641,-457.031,-6.348,-72.754,808.288,375
920,1686714728.397,-21.484,-948.242,-105.957,23.926,808.292,375
921,1686714728.401,0.0,-396.973,209.961,16.113,808.296,375
922,1686714728.405,-48.34,19.043,102.539,-98.633,808.3,375
923,1686714728.409,-100.586,-615.723,-89.844,-127.441,808.304,375
924,1686714728.411,-62.5,-583.984,84.961,-41.016,808.306,375
925,1686714728.415,-14.648,39.551,192.871,-5.371,808.31,375
926,1686714728.419,-68.359,-6.348,35.645,-117.188,808.313,375
927,1686714728.423,-112.305,-414.551,-26.367,-183.105,808.317,375
928,1686714728.427,-76.172,-340.332,114.258,-87.402,808.321,375
929,1686714728.431,-31.25,-250.488,73.73,-9.277,808.325,375
930,1686714728.435,-50.781,-454.59,38.574,-85.938,808.329,375
931,1686714728.438,-109.863,-810.547,-80.078,-184.082,808.333,375
932,1686714728.442,-97.656,-776.855,37.109,-120.605,808.337,375
933,1686714728.446,-25.391,6.348,247.559,0.977,808.341,375
934,1686714728.45,-16.602,-6.348,34.18,-20.996,808.345,375
935,1686714728.454,-77.637,-367.188,-4.883,-139.16,808.349,375
936,1686714728.456,-95.215,-172.852,130.371,-135.742,808.351,374
937,1686714728.46,-28.809,130.859,163.086,-7.324,808.355,374
938,1686714728.464,-3.418,-43.945,0.0,11.719,808.359,374
939,1686714728.468,-58.594,-392.578,-41.016,-114.258,808.363,374
940,1686714728.472,-91.309,-279.297,89.844,-138.672,808.367,374
941,1686714728.476,-43.457,-254.395,78.613,-21.973,808.37,374
942,1686714728.48,4.395,-510.742,-11.719,36.621,808.374,374
943,1686714728.483,-36.133,-787.598,10.254,-57.129,808.378,374
944,1686714728.487,-81.055,-398.438,209.961,-139.648,808.382,374
945,1686714728.491,-44.922,-187.5,147.461,-44.434,808.386,374
946,1686714728.495,14.16,-575.684,5.859,60.059,808.39,374
947,1686714728.499,0.488,-817.871,-19.043,-8.301,808.394,374
948,1686714728.501,-57.129,-365.723,150.391,-128.418,808.396,374
949,1686714728.505,-56.641,28.32,150.391,-93.262,808.4,374
950,1686714728.509,-5.371,-490.234,13.184,32.715,808.404,374
951,1686714728.513,4.395,-619.629,70.312,14.648,808.408,374
952,1686714728.517,-31.25,-43.457,143.066,-104.98,808.412,374
953,1686714728.521,-50.781,-230.957,-7.812,-97.168,808.416,374
954,1686714728.525,-12.695,-774.414,-48.828,33.691,808.419,374
955,1686714728.528,23.926,-629.395,92.773,53.711,808.423,374
956,1686714728.532,-17.09,0.488,155.762,-76.66,808.427,374
957,1686714728.536,-64.453,-116.699,56.641,-128.906,808.431,374
958,1686714728.54,-24.902,-299.316,48.34,-20.996,808.435,374
959,1686714728.544,28.32,-319.336,77.637,60.059,808.439,374
960,1686714728.561,0.0,-193.848,134.277,-27.344,808.457,373
961,1686714728.565,-53.223,-249.512,13.184,-114.746,808.46,373
962,1686714728.569,-36.621,-532.227,9.277,-41.504,808.464,373
963,1686714728.573,22.461,-143.066,188.965,53.711,808.468,373
964,1686714728.577,12.695,87.402,83.008,-5.859,808.472,373
965,1686714728.581,-43.457,-505.371,-154.297,-106.934,808.476,373
966,1686714728.585,-53.223,-886.719,4.395,-74.707,808.48,373
967,1686714728.588,5.371,-214.844,270.508,35.156,808.484,373
968,1686714728.592,27.344,134.277,66.895,24.902,808.488,373
969,1686714728.596,-38.574,-342.285,-21.973,-95.215,808.492,373
970,1686714728.6,-71.777,-404.297,78.125,-107.91,808.496,373
971,1686714728.604,-22.461,-274.902,119.141,21.973,808.5,373
972,1686714728.607,20.508,-129.395,135.254,62.5,808.503,373
973,1686714728.611,-21.484,-458.008,-71.289,-55.176,808.507,373
974,1686714728.615,-73.242,-919.922,-30.762,-117.188,808.511,373
975,1686714728.619,-35.645,-226.562,233.887,-31.25,808.515,373
976,1686714728.623,13.184,184.082,92.285,46.875,808.518,373
977,1686714728.627,-15.625,-430.176,-72.266,-34.18,808.522,373
978,1686714728.631,-70.312,-694.336,91.309,-130.371,808.526,373
979,1686714728.634,-55.176,-122.07,220.215,-62.988,808.53,373
980,1686714728.638,3.906,129.883,85.449,57.617,808.534,373
981,1686714728.642,-0.977,-563.965,-123.535,31.25,808.538,373
982,1686714728.646,-63.965,-788.086,37.109,-92.773,808.542,373
983,1686714728.65,-74.707,-88.867,218.262,-98.633,808.546,372
984,1686714728.651,-23.438,-46.875,96.191,25.879,808.546,372
985,1686714728.655,3.906,-183.105,24.414,30.762,808.55,372
986,1686714728.659,-58.594,-129.395,91.797,-101.074,808.554,372
987,1686714728.663,-98.633,-51.758,134.277,-138.672,808.558,372
988,1686714728.667,-35.156,-194.336,28.32,-9.277,808.562,372
989,1686714728.671,7.324,-472.656,-27.832,63.477,808.566,372
990,1686714728.675,-32.715,-549.316,48.828,-49.805,808.57,372
991,1686714728.678,-81.543,-344.727,138.672,-128.906,808.574,372
992,1686714728.682,-59.57,-424.805,-20.996,-27.344,808.578,372
993,1686714728.686,-5.859,-910.645,-78.613,66.895,808.582,372
994,1686714728.69,-18.066,-451.172,163.574,-27.832,808.586,372
995,1686714728.694,-72.754,-302.246,9.766,-138.184,808.589,372
996,1686714728.696,-64.941,-815.43,-53.223,-75.195,808.591,372
997,1686714728.7,-5.371,-647.949,26.367,43.457,808.595,372
998,1686714728.704,-1.465,-19.531,125.977,11.23,808.599,372
999,1686714728.708,-64.941,-45.41,81.543,-99.121,808.603,372
1000,1686714728.712,-70.801,-310.547,4.395,-81.055,808.607,372
1001,1686714728.716,-12.695,-408.203,75.684,26.855,808.611,372
1002,1686714728.72,2.93,-276.367,156.738,35.645,808.615,372
1003,1686714728.723,-41.504,-244.141,36.621,-84.473,808.619,372
1004,1686714728.727,-78.613,-793.457,-120.605,-128.418,808.622,372
1005,1686714728.731,-40.527,-745.605,88.379,-20.508,808.626,372
1006,1686714728.735,10.254,52.246,233.398,37.109,808.63,372
1007,1686714728.739,-26.367,-56.152,6.348,-60.547,808.634,372
1008,1686714728.741,-80.566,-404.297,5.859,-142.09,808.636,372
1009,1686714728.745,-43.457,-157.715,160.645,-57.129,808.64,372
1010,1686714728.749,16.113,160.645,173.828,49.316,808.644,372
1011,1686714728.753,2.93,-78.125,-19.531,-10.742,808.648,372
1012,1686714728.757,-60.059,-506.348,-80.078,-115.234,808.652,372
1013,1686714728.761,-71.289,-479.98,105.957,-78.125,808.656,372
1014,1686714728.765,-10.254,-321.777,175.781,35.645,808.66,372
1015,1686714728.768,4.883,-529.785,-27.344,26.367,808.664,372
1016,1686714728.772,-52.734,-811.035,-23.926,-92.285,808.668,372
1017,1686714728.776,-73.242,-350.098,229.492,-105.957,808.672,372
1018,1686714728.78,-20.996,-203.125,111.328,5.859,808.676,372
1019,1686714728.784,13.672,-603.027,48.34,48.828,808.679,372
1020,1686714728.79,-34.668,-506.836,102.051,-69.824,808.684,372
1021,1686714728.794,-77.148,-100.098,135.742,-137.695,808.688,372
1022,1686714728.798,-37.598,62.5,135.254,-26.367,808.692,372
1023,1686714728.802,0.488,-431.641,-46.387,59.57,808.696,372
1024,1686714728.806,-34.18,-804.688,-41.016,-36.133,808.7,372
1025,1686714728.81,-79.59,-475.586,156.738,-135.742,808.703,372
1026,1686714728.814,-57.129,-377.441,141.602,-62.012,808.707,372
1027,1686714728.817,-3.418,-655.762,20.996,44.922,808.711,372
1028,1686714728.821,-14.648,-620.117,79.102,-6.348,808.715,372
1029,1686714728.825,-67.871,-20.508,174.805,-124.023,808.719,372
1030,1686714728.829,-59.082,-88.867,70.312,-88.379,808.723,372
1031,1686714728.832,18.066,-170.898,51.27,32.227,808.728,372
1032,1686714728.833,8.789,-167.969,86.914,39.551,808.727,372
1033,1686714728.836,-41.016,-200.684,39.551,-97.656,808.732,372
1034,1686714728.84,-59.57,-278.32,41.992,-121.582,808.736,372
1035,1686714728.844,-8.301,-438.965,68.848,1.953,808.74,372
1036,1686714728.848,26.367,-140.137,104.004,43.457,808.744,372
1037,1686714728.852,-22.461,-274.902,-73.73,-67.871,808.748,372
1038,1686714728.856,-76.66,-729.004,-99.609,-130.859,808.752,372
1039,1686714728.859,-40.527,-786.621,72.266,-26.855,808.756,372
1040,1686714728.863,20.02,-156.25,244.141,60.059,808.759,372
1041,1686714728.867,-5.371,89.844,66.895,-32.715,808.763,372
1042,1686714728.871,-68.848,-416.504,-41.504,-136.719,808.767,373
1043,1686714728.875,-56.152,-716.309,78.125,-62.012,808.771,373
1044,1686714728.876,8.789,-230.469,164.551,56.641,808.785,373
1045,1686714728.88,13.672,104.98,104.492,17.09,808.789,373
1046,1686714728.884,-57.129,-560.059,-109.863,-102.051,808.792,373
1047,1686714728.888,-82.52,-895.996,45.41,-91.309,808.796,373
1048,1686714728.892,-19.531,-216.797,215.82,28.809,808.8,373
1049,1686714728.896,15.625,-142.09,25.391,38.574,808.804,373
1050,1686714728.9,-42.969,-743.164,-125.488,-79.59,808.808,373
1051,1686714728.903,-89.355,-843.262,30.762,-116.211,808.812,373
1052,1686714728.907,-37.109,-85.449,269.043,-2.441,808.816,373
1053,1686714728.911,10.254,81.543,53.223,57.129,808.82,373
1054,1686714728.915,-28.32,-240.723,9.277,-51.27,808.824,373
1055,1686714728.919,-81.055,-164.062,139.16,-126.465,808.828,373
1056,1686714728.923,-54.688,66.895,155.273,-27.832,808.818,373
1057,1686714728.927,3.418,-47.363,41.016,65.918,808.822,373
1058,1686714728.931,-17.578,-320.801,-36.621,-10.254,808.826,373
1059,1686714728.935,-71.777,-165.039,105.469,-126.953,808.83,373
1060,1686714728.939,-56.152,-40.527,120.605,-82.031,808.834,373
1061,1686714728.943,0.0,-421.387,-62.5,55.176,808.838,373
1062,1686714728.947,-8.301,-841.309,-42.969,31.738,808.842,373
1063,1686714728.95,-72.266,-555.176,151.367,-103.027,808.846,372
1064,1686714728.954,-72.266,-33.691,173.828,-98.145,808.85,372
1065,1686714728.958,-18.066,-399.414,-44.922,24.902,808.853,372
1066,1686714728.962,-3.906,-737.305,-87.891,37.109,808.857,372
1067,1686714728.966,-49.316,-473.633,96.68,-80.078,808.861,372
1068,1686714728.981,-87.891,-526.367,75.684,-120.117,808.876,372
1069,1686714728.985,-44.922,-606.445,120.605,-9.766,808.88,372
1070,1686714728.989,9.277,-403.809,115.234,68.359,808.884,372
1071,1686714728.993,-12.695,-89.844,77.148,-32.227,808.888,372
1072,1686714728.997,-69.336,-110.352,65.43,-117.676,808.892,372
1073,1686714729.001,-57.617,-629.883,-123.535,-30.273,808.896,372
1074,1686714729.005,-6.836,-950.684,70.312,70.801,808.9,372
1075,1686714729.008,-13.184,-325.684,255.371,-5.859,808.904,371
1076,1686714729.012,-70.312,-307.129,-13.184,-122.07,808.908,371
1077,1686714729.016,-69.336,-671.387,42.969,-71.777,808.912,371
1078,1686714729.02,-0.977,-251.465,181.641,51.27,808.915,371
1079,1686714729.024,8.789,164.062,134.766,30.762,808.919,371
1080,1686714729.026,-44.434,-194.824,-32.715,-90.82,808.921,371
1081,1686714729.03,-78.125,-448.73,9.277,-103.027,808.925,371
1082,1686714729.034,-18.066,-99.121,167.48,17.578,808.929,371
1083,1686714729.038,33.691,99.121,140.137,55.664,808.933,371
1084,1686714729.042,-5.859,-259.766,-57.129,-48.34,808.937,371
1085,1686714729.046,-54.688,-783.203,-65.918,-104.98,808.941,371
1086,1686714729.05,-34.18,-531.738,173.828,-5.371,808.945,371
1087,1686714729.053,21.484,21.973,176.758,73.73,808.948,371
1088,1686714729.057,-3.906,-363.77,-110.352,-11.719,808.952,371
1089,1686714729.061,-74.707,-874.512,-72.266,-112.793,808.956,371
1090,1686714729.065,-64.453,-365.234,202.637,-56.641,808.96,371
1091,1686714729.069,1.465,-208.984,114.746,49.805,808.964,371
1092,1686714729.071,-9.277,-703.125,-87.402,7.812,808.966,371
1093,1686714729.075,-77.637,-891.602,-15.137,-116.699,808.97,371
1094,1686714729.079,-73.73,-318.848,243.164,-106.934,808.974,371
1095,1686714729.083,-10.254,-28.32,125.0,19.531,808.978,371
1096,1686714729.087,9.766,-236.816,3.418,26.367,808.982,371
1097,1686714729.091,-46.875,-594.727,-80.078,-97.656,808.986,370
1098,1686714729.095,-81.055,-531.25,77.148,-119.629,808.99,370
1099,1686714729.098,-23.438,-118.652,129.883,7.812,808.994,370
1100,1686714729.102,20.02,-586.426,-57.617,64.941,808.998,370
1101,1686714729.106,-16.113,-716.309,74.219,-48.34,809.001,370
1102,1686714729.11,-68.359,-147.461,177.734,-128.418,809.005,370
1103,1686714729.114,-44.922,-221.68,67.383,-28.809,809.009,370
1104,1686714729.117,18.066,-334.961,59.57,49.805,809.013,370
1105,1686714729.121,-8.301,-403.809,22.949,-37.598,809.017,370
1106,1686714729.125,-69.336,-413.086,41.992,-125.488,809.021,370
1107,1686714729.129,-60.547,-394.043,67.383,-62.012,809.025,370
1108,1686714729.133,-6.348,-566.895,-0.977,47.363,809.029,370
1109,1686714729.137,-4.883,-596.191,62.988,9.766,809.032,370
1110,1686714729.141,-63.477,-458.008,113.77,-106.445,809.036,370
1111,1686714729.144,-78.125,-526.367,-5.859,-83.984,809.04,370
1112,1686714729.148,-22.949,-818.359,-5.371,37.109,809.044,370
1113,1686714729.152,-1.953,-281.25,215.332,31.738,809.048,370
1114,1686714729.156,-52.734,-80.566,66.895,-95.215,809.052,370
1115,1686714729.16,-87.891,-615.234,-6.348,-127.441,809.056,370
1116,1686714729.161,-46.387,-638.672,115.234,-17.09,809.056,370
1117,1686714729.165,6.348,-124.512,163.086,38.574,809.06,370
1118,1686714729.169,-32.227,-134.277,41.992,-58.594,809.064,370
1119,1686714729.173,-94.238,-638.184,-55.664,-141.113,809.068,370
1120,1686714729.177,-68.359,-825.195,124.512,-58.594,809.072,370
1121,1686714729.181,-4.883,-574.219,148.926,40.039,809.076,370
1122,1686714729.185,-16.113,-542.48,70.312,-27.832,809.08,369
1123,1686714729.188,-77.148,-843.262,-70.801,-129.395,809.084,369
1124,1686714729.192,-82.52,-835.938,50.293,-89.355,809.088,369
1125,1686714729.196,-17.09,-156.738,270.02,27.344,809.092,369
1126,1686714729.2,-0.977,-140.137,23.926,9.766,809.095,369
1127,1686714729.204,-59.57,-514.16,-12.207,-128.418,809.099,369
1128,1686714729.208,-72.754,-360.352,143.066,-123.535,809.103,369
1129,1686714729.212,-11.23,-67.383,149.902,20.508,809.107,369
1130,1686714729.216,16.113,-216.797,17.578,46.387,809.111,369
1131,1686714729.22,-28.32,-481.934,-0.488,-72.266,809.115,369
1132,1686714729.224,-63.965,-380.859,97.168,-120.605,809.119,368
1133,1686714729.228,-30.762,-489.746,5.859,-13.184,809.123,368
1134,1686714729.232,14.16,-723.633,-49.316,62.012,809.127,368
1135,1686714729.235,-27.344,-978.027,-110.84,-26.855,809.131,368
1136,1686714729.239,-87.402,-676.27,135.742,-121.582,809.135,368
1137,1686714729.243,-48.828,-178.711,173.828,-52.734,809.138,368
1138,1686714729.247,10.254,-324.219,56.152,51.758,809.142,368
1139,1686714729.251,-9.277,-674.316,34.18,-9.277,809.146,368
1140,1686714729.266,-67.871,-629.395,92.285,-119.629,809.161,368
1141,1686714729.27,-75.684,-312.012,134.277,-77.148,809.165,368
1142,1686714729.274,-20.508,-507.812,66.895,49.805,809.169,368
1143,1686714729.278,0.0,-539.062,116.699,32.715,809.173,368
1144,1686714729.282,-53.711,-333.984,33.203,-92.773,809.177,368
1145,1686714729.286,-77.637,-586.914,18.555,-107.422,809.181,368
1146,1686714729.29,-16.602,-873.047,-43.457,22.461,809.185,368
1147,1686714729.293,23.926,-926.758,65.43,61.035,809.189,368
1148,1686714729.297,-19.043,-489.258,233.887,-65.43,809.192,368
1149,1686714729.301,-64.453,-560.547,28.809,-126.465,809.196,368
1150,1686714729.305,-40.527,-789.062,67.383,-30.762,809.2,368
1151,1686714729.309,2.441,-385.254,147.949,54.688,809.204,368
1152,1686714729.312,-23.438,-135.254,101.074,-35.156,809.221,368
1153,1686714729.316,-87.891,-484.863,-35.156,-138.672,809.225,368
1154,1686714729.32,-74.219,-661.133,-3.418,-74.219,809.228,368
1155,1686714729.324,-1.465,-246.094,155.762,34.18,809.232,368
1156,1686714729.328,-0.977,-194.824,40.039,-9.277,809.236,368
1157,1686714729.332,-67.871,-759.277,-145.996,-117.676,809.24,368
1158,1686714729.336,-68.359,-853.516,-8.789,-81.055,809.244,368
1159,1686714729.339,-1.953,-353.027,147.949,38.574,809.248,368
1160,1686714729.342,-4.883,-674.316,111.328,43.457,809.25,368
1161,1686714729.343,10.742,-188.477,123.535,42.969,809.252,368
1162,1686714729.346,-48.34,-921.387,-98.145,-54.688,809.254,368
1163,1686714729.347,-52.734,-608.887,-98.145,-66.406,809.256,368
1164,1686714729.35,-98.145,-835.938,-31.25,-131.836,809.258,368
1165,1686714729.351,-101.074,-928.223,-62.012,-107.91,809.26,368
1166,1686714729.354,-65.43,-352.539,207.52,-45.41,809.262,368
1167,1686714729.355,-51.758,-701.172,201.66,-10.254,809.264,368
1168,1686714729.358,-11.23,-209.473,45.898,47.852,809.266,368
1169,1686714729.362,-31.25,-647.461,-84.473,-30.273,809.27,368
1170,1686714729.366,-83.984,-845.215,79.102,-139.16,809.273,369
1171,1686714729.369,-73.242,-393.555,208.496,-76.66,809.277,369
1172,1686714729.373,-2.441,-270.996,54.688,47.363,809.281,369
1173,1686714729.377,0.488,-720.215,-78.125,12.695,809.285,369
1174,1686714729.381,-66.895,-791.504,80.078,-112.305,809.289,369
1175,1686714729.385,-82.52,-484.863,127.93,-103.516,809.293,369
1176,1686714729.417,-27.832,-396.973,61.035,21.973,809.324,368
1177,1686714729.421,-9.277,-704.102,-42.969,24.414,809.328,368
1178,1686714729.425,-62.012,-899.414,48.828,-103.027,809.332,368
1179,1686714729.429,-87.402,-608.398,156.738,-131.836,809.336,368
1180,1686714729.433,-41.504,-513.184,35.645,-13.672,809.34,368
1181,1686714729.437,1.465,-916.992,-88.379,56.641,809.344,368
1182,1686714729.441,-30.273,-817.383,122.559,-52.734,809.348,368
1183,1686714729.444,-72.754,-418.945,189.941,-137.695,809.352,368
1184,1686714729.446,-87.891,-1000.0,-60.547,-89.844,809.341,368
1185,1686714729.448,-52.246,-650.879,-45.41,-43.945,809.356,368
1186,1686714729.45,-22.461,-758.301,40.039,33.691,809.344,368
1187,1686714729.452,0.0,-806.152,-54.688,50.781,809.36,368
1188,1686714729.454,-9.766,-282.715,158.691,10.742,809.348,368
1189,1686714729.456,-11.719,-378.906,125.488,-22.949,809.363,368
1190,1686714729.458,-66.406,-344.727,10.254,-104.492,809.352,368
1191,1686714729.46,-80.566,-636.23,-14.16,-136.23,809.367,368
1192,1686714729.462,-81.543,-690.43,-56.641,-102.051,809.356,368
1193,1686714729.466,-24.902,-786.133,83.008,18.066,809.36,368
1194,1686714729.47,4.395,-672.363,107.91,41.992,809.364,368
1195,1686714729.473,-48.34,-748.047,24.902,-84.473,809.368,368
1196,1686714729.477,-90.332,-856.934,45.898,-134.766,809.372,368
1197,1686714729.481,-41.992,-582.031,143.555,-10.742,809.376,368
1198,1686714729.485,8.789,-226.562,150.391,62.012,809.38,368
1199,1686714729.489,-22.949,-367.676,-26.855,-41.504,809.384,368
1200,1686714729.491,-76.66,-895.996,-154.785,-129.883,809.386,368
1201,1686714729.495,-56.152,-855.957,106.445,-55.664,809.39,368
1202,1686714729.499,4.883,-276.855,228.516,41.504,809.394,368
1203,1686714729.503,-15.625,-446.777,-49.316,-17.578,809.397,368
1204,1686714729.507,-86.426,-854.004,-96.191,-132.812,809.401,368
1205,1686714729.511,-81.543,-837.891,119.629,-92.773,809.405,368
1206,1686714729.515,-11.23,-604.492,154.297,34.18,809.409,368
1207,1686714729.518,2.93,-624.512,-97.168,28.809,809.413,368
1208,1686714729.522,-63.965,-1000.0,-190.43,-88.379,809.417,368
1209,1686714729.526,-85.938,-728.516,177.246,-107.91,809.421,368
1210,1686714729.53,-20.996,-252.93,158.691,18.066,809.425,369
1211,1686714729.534,7.812,-583.496,8.789,59.57,809.429,369
1212,1686714729.536,-43.945,-839.844,60.059,-59.082,809.432,369
1213,1686714729.54,-85.449,-471.68,139.648,-121.582,809.436,369
1214,1686714729.544,-43.945,-322.754,90.82,-6.836,809.44,369
1215,1686714729.548,6.836,-607.422,17.578,80.566,809.444,369
1216,1686714729.552,-16.113,-758.789,69.824,-12.695,809.447,369
1217,1686714729.556,-70.312,-744.141,-1.465,-113.281,809.451,369
1218,1686714729.56,-53.711,-777.344,59.57,-43.457,809.455,369
1219,1686714729.563,6.836,-874.512,24.414,75.684,809.459,369
1220,1686714729.567,10.742,-771.973,70.312,32.227,809.463,369
1221,1686714729.571,-48.828,-449.219,136.719,-96.68,809.467,368
1222,1686714729.575,-63.965,-701.172,4.883,-83.008,809.471,368
1223,1686714729.579,1.953,-790.527,134.277,41.504,809.475,368
1224,1686714729.581,21.484,-480.957,161.133,42.969,809.477,368
1225,1686714729.585,-45.41,-330.566,70.801,-84.473,809.481,368
1226,1686714729.589,-87.402,-664.551,-33.203,-108.887,809.485,368
1227,1686714729.593,-31.25,-705.566,47.852,14.16,809.488,368
1228,1686714729.597,15.625,-371.582,97.168,65.43,809.492,368
1229,1686714729.601,-32.227,-675.781,-57.129,-45.41,809.496,368
1230,1686714729.605,-81.543,-1000.0,-110.84,-116.699,809.5,368
1231,1686714729.608,-37.109,-932.617,30.762,-15.625,809.504,368
1232,1686714729.612,20.508,-520.508,234.375,70.312,809.508,368
1233,1686714729.616,-7.812,-330.078,77.148,-22.461,809.512,368
1234,1686714729.62,-68.359,-666.992,16.113,-130.371,809.516,368
1235,1686714729.624,-62.012,-900.391,102.051,-64.941,809.52,368
1236,1686714729.628,3.906,-754.395,117.188,57.617,809.525,369
1237,1686714729.632,11.719,-669.922,79.102,20.508,809.529,369
1238,1686714729.636,-62.012,-916.504,-105.469,-96.68,809.532,369
1239,1686714729.64,-83.496,-887.207,4.883,-84.961,809.536,369
1240,1686714729.644,-17.09,-496.094,208.496,30.762,809.54,369
1241,1686714729.648,14.16,-626.953,-21.484,42.969,809.544,369
1242,1686714729.652,-43.945,-967.773,-141.113,-75.195,809.548,369
1243,1686714729.655,-90.332,-847.656,58.594,-119.141,809.552,368
1244,1686714729.659,-35.645,-320.312,221.191,-19.531,809.556,368
1245,1686714729.663,6.836,-294.434,31.25,44.922,809.56,368
1246,1686714729.667,-32.715,-644.043,-7.812,-51.758,809.564,369
1247,1686714729.671,-75.684,-575.684,112.793,-139.648,809.568,369
1248,1686714729.673,-42.969,-349.609,122.07,-49.805,809.58,369
1249,1686714729.677,12.207,-457.031,14.648,59.57,809.584,369
1250,1686714729.681,-2.441,-705.078,-32.715,1.465,809.588,369
1251,1686714729.685,-63.965,-813.477,52.734,-106.445,809.592,369
1252,1686714729.689,-69.824,-741.699,88.867,-66.406,809.595,369
1253,1686714729.693,-12.207,-751.953,-21.973,53.711,809.599,369
1254,1686714729.697,-14.16,-1000.0,-193.359,33.691,809.603,369
1255,1686714729.7,-71.777,-911.133,89.844,-98.633,809.607,369
1256,1686714729.704,-83.496,-513.672,189.941,-108.887,809.611,369
1257,1686714729.708,-26.855,-583.984,35.156,22.949,809.615,369
1258,1686714729.712,10.742,-582.031,90.332,54.199,809.619,369
1259,1686714729.716,-31.25,-641.113,-2.93,-60.059,809.623,369
1260,1686714729.731,-76.172,-816.406,14.16,-116.211,809.626,369
1261,1686714729.735,-36.133,-766.113,106.445,-16.602,809.63,369
1262,1686714729.739,23.438,-652.832,102.051,49.316,809.634,369
1263,1686714729.743,-12.695,-400.391,90.82,-57.129,809.638,369
1264,1686714729.747,-69.336,-525.879,15.625,-132.812,809.642,369
1265,1686714729.751,-59.57,-862.305,-152.344,-43.945,809.646,369
1266,1686714729.755,-17.09,-1000.0,0.977,59.082,809.65,369
1267,1686714729.758,-13.672,-713.867,212.402,-1.465,809.654,369
1268,1686714729.762,-67.871,-556.152,33.691,-121.582,809.658,369
1269,1686714729.766,-81.055,-823.242,-15.137,-94.238,809.662,369
1270,1686714729.77,-18.066,-637.207,163.086,25.879,809.666,369
1271,1686714729.774,6.348,-281.25,150.391,20.996,809.669,369
1272,1686714729.776,-47.852,-537.109,-48.34,-102.051,809.672,369
1273,1686714729.78,-71.289,-762.207,-9.766,-121.094,809.676,369
1274,1686714729.784,-24.902,-482.422,133.789,-0.977,809.68,369
1275,1686714729.788,11.719,-283.203,103.027,42.48,809.684,369
1276,1686714729.792,-28.32,-558.594,-51.27,-68.359,809.688,369
1277,1686714729.796,-72.754,-1000.0,-88.379,-133.789,809.692,369
1278,1686714729.8,-43.457,-790.527,145.02,-39.062,809.695,369
1279,1686714729.803,3.418,-400.879,160.156,43.457,809.699,369
1280,1686714729.807,-14.648,-694.824,-152.344,-26.367,809.703,369
1281,1686714729.811,-73.242,-1000.0,-153.32,-115.234,809.707,369
1282,1686714729.815,-52.246,-726.074,185.059,-65.43,809.711,369
1283,1686714729.819,9.277,-617.676,148.926,43.945,809.715,369
1284,1686714729.821,6.348,-894.531,-67.383,11.719,809.717,369
1285,1686714729.825,-50.293,-873.047,-32.227,-101.562,809.721,369
1286,1686714729.829,-73.73,-513.184,166.016,-97.656,809.724,369
1287,1686714729.833,-21.484,-308.105,137.695,26.367,809.728,369
1288,1686714729.837,-2.441,-524.414,4.395,31.738,809.732,369
1289,1686714729.841,-65.918,-916.016,-72.266,-99.121,809.736,369
1290,1686714729.845,-96.68,-828.613,122.559,-127.93,809.74,369
1291,1686714729.848,-38.086,-463.867,130.859,-4.883,809.744,369
1292,1686714729.852,-0.977,-734.375,-89.355,52.246,809.748,369
1293,1686714729.856,-38.574,-862.793,59.082,-65.918,809.752,369
1294,1686714729.86,-74.707,-548.34,151.855,-143.066,809.756,369
1295,1686714729.864,-50.293,-724.609,54.688,-47.363,809.76,369
