,timestamps,TP9,AF7,AF8,TP10,Secondary Timestamp,emg_signal
0,1686111753.32,-32.715,441.406,117.188,-70.312,1760.227,373.95635281888053
1,1686111753.32,-44.922,221.191,63.965,-79.59,1760.231,375.79048302910167
2,1686111753.32,-1.465,170.898,128.418,-8.789,1760.235,372.132714616733
3,1686111753.33,23.926,413.086,187.5,5.371,1760.238,364.30387359257674
4,1686111753.33,-20.996,445.312,142.578,-58.594,1760.242,367.5158470453198
5,1686111753.34,-69.824,-160.156,-105.469,-75.195,1760.246,365.3498855102357
6,1686111753.34,-46.387,-493.164,-74.707,-14.16,1760.25,372.4920777431276
7,1686111753.34,-9.277,205.078,161.621,14.16,1760.254,382.47546327260255
8,1686111753.35,-33.691,448.242,126.465,-46.875,1760.258,353.77620294405
9,1686111753.35,-69.336,-243.652,-161.133,-90.332,1760.262,367.97801992446824
10,1686111753.36,-58.594,-552.246,-123.535,-40.527,1760.266,373.2866639964802
11,1686111753.36,-10.742,285.645,214.844,15.625,1760.27,358.22760853397676
12,1686111753.38,-12.207,447.266,137.695,-16.113,1760.273,361.9978837585656
13,1686111753.38,-62.5,-147.949,-130.371,-90.82,1760.277,364.25204583783204
14,1686111753.38,-57.129,11.23,14.16,-71.777,1760.281,360.48969752579745
15,1686111753.39,0.977,358.887,178.711,12.207,1760.284,366.7046131987834
16,1686111753.39,10.254,98.145,42.969,2.441,1760.288,375.73840594074437
17,1686111753.4,-45.898,-663.086,-348.145,-65.43,1760.292,371.9244681493736
18,1686111753.4,-66.406,-724.121,-238.281,-78.125,1760.296,374.50902953608824
19,1686111753.4,-23.926,290.039,210.938,-20.02,1760.3,374.0848382343624
20,1686111753.41,4.395,424.805,132.324,2.93,1760.304,360.4602979472322
21,1686111753.41,-3.418,57.129,29.785,17.09,1760.317,364.68237325860156
22,1686111753.41,-23.438,-48.828,2.93,-62.5,1760.308,377.04788612131256
23,1686111753.41,-17.578,-262.695,-30.762,-29.297,1760.321,372.8401126606399
24,1686111753.42,-64.453,186.035,104.492,-96.68,1760.312,363.2951537632498
25,1686111753.42,-70.801,104.004,65.43,-87.402,1760.325,367.90271895749703
26,1686111753.42,-48.34,413.086,148.438,-34.668,1760.316,361.6946370815914
27,1686111753.42,-57.129,345.215,118.652,-43.457,1760.329,366.78171446291304
28,1686111753.42,-8.789,164.551,72.266,21.484,1760.333,385.0764368685528
29,1686111753.43,-7.324,-130.859,-0.977,-5.371,1760.337,350.94445438721596
30,1686111753.43,-49.316,-72.754,27.344,-77.148,1760.341,362.2499214366452
31,1686111753.44,-55.176,318.848,149.414,-72.266,1760.345,363.1703860428028
32,1686111753.44,-7.812,-7.324,14.648,8.789,1760.349,359.4610267273289
33,1686111753.44,-8.789,-499.023,-79.102,14.16,1760.353,373.9511306876707
34,1686111753.45,-55.176,113.281,125.0,-67.871,1760.356,374.4703278821017
35,1686111753.45,-68.848,350.586,126.953,-82.031,1760.36,365.9605844283994
36,1686111753.47,-33.203,44.922,4.883,-11.719,1760.363,370.7424930326012
37,1686111753.47,1.465,79.102,44.922,15.137,1760.367,364.48711129631664
38,1686111753.47,-20.02,107.422,64.453,-48.34,1760.371,361.3458530503918
39,1686111753.48,-53.711,-82.031,-85.449,-88.379,1760.375,364.82147362781905
40,1686111753.48,-38.574,-603.516,-344.727,-34.668,1760.379,369.54958279084974
41,1686111753.49,-8.789,-777.344,-204.102,15.137,1760.383,365.39345337783925
42,1686111753.49,-20.02,0.977,121.582,-34.18,1760.386,360.09143760172606
43,1686111753.49,-68.359,231.934,68.359,-96.68,1760.39,375.53706820816194
44,1686111753.5,-69.336,-466.309,-198.242,-65.43,1760.394,367.29131536631826
45,1686111753.5,-10.742,-29.785,44.922,10.742,1760.398,366.1385306005846
46,1686111753.5,0.488,568.848,211.426,-7.812,1760.402,365.9307208558108
47,1686111753.51,-47.363,192.871,9.766,-79.59,1760.406,374.71819741765165
48,1686111753.51,-57.129,0.0,-4.883,-70.801,1760.41,366.90427106161627
49,1686111753.52,-19.043,363.281,171.387,-2.441,1760.414,372.8126099350341
50,1686111753.52,-0.977,518.555,180.176,11.23,1760.418,368.3990309682577
51,1686111753.52,-30.762,197.754,50.293,-54.688,1760.422,360.69522177338587
52,1686111753.53,-64.453,-22.949,23.438,-79.102,1760.426,356.778537334576
53,1686111753.53,-41.504,-32.715,34.668,-16.113,1760.43,364.0356653062783
54,1686111753.54,9.766,46.875,99.609,25.391,1760.434,371.5520953469481
55,1686111753.54,-12.695,-195.801,-31.738,-26.367,1760.438,365.1972667891509
56,1686111753.54,-66.895,-872.07,-342.773,-80.566,1760.442,364.04114686019795
57,1686111753.55,-38.086,-194.824,9.277,-40.039,1760.446,370.1931491805796
58,1686111753.55,15.137,507.324,208.008,18.555,1760.449,367.8414154124901
59,1686111753.56,-3.906,119.629,-11.719,-28.32,1760.453,366.67372492013317
60,1686111753.56,-44.922,105.469,63.965,-97.656,1760.453,357.0841521560654
61,1686111753.56,-41.016,333.984,136.719,-64.941,1760.457,372.8695066939653
62,1686111753.56,-10.742,313.477,110.352,0.0,1760.461,361.87951883018707
63,1686111753.57,-19.043,-36.133,-51.27,-24.414,1760.465,367.8136715206435
64,1686111753.57,-62.988,-263.184,-172.363,-90.332,1760.469,373.0855867314528
65,1686111753.58,-61.035,-188.477,-99.609,-84.961,1760.473,357.81020342859193
66,1686111753.58,-16.113,-88.867,48.34,-16.602,1760.477,357.98859345354356
67,1686111753.58,5.371,-635.742,-260.254,6.348,1760.48,366.744778611022
68,1686111753.59,-26.855,-1000.0,-474.121,-48.828,1760.484,366.36056866069123
69,1686111753.59,-65.918,-119.141,20.02,-95.215,1760.488,364.1814828841427
70,1686111753.6,-45.41,328.125,164.551,-40.039,1760.492,369.0672974487334
71,1686111753.6,1.465,179.688,85.938,8.789,1760.496,374.24295973002216
72,1686111753.6,-1.953,327.637,119.141,-52.246,1760.5,375.09303679384794
73,1686111753.61,-40.039,385.254,102.539,-99.121,1760.504,373.79856737073465
74,1686111753.61,-32.227,178.711,80.078,-36.133,1760.508,360.3129927353387
75,1686111753.61,2.93,207.031,165.527,26.367,1760.512,367.4582639393367
76,1686111753.62,-5.859,348.633,144.043,-19.043,1760.516,369.0080167473961
77,1686111753.62,-44.434,104.98,35.156,-89.355,1760.52,370.95517206363763
78,1686111753.63,-45.41,-284.18,-95.215,-65.918,1760.524,365.29972566127213
79,1686111753.63,-20.508,-557.617,-120.117,8.789,1760.528,372.4545375600495
80,1686111753.63,-11.23,173.34,157.227,-0.488,1760.531,361.499220502201
81,1686111753.64,-42.969,403.809,118.164,-75.684,1760.535,366.9904660556851
82,1686111753.64,-59.082,-142.09,-91.797,-75.195,1760.539,369.0356233761812
83,1686111753.64,-14.16,18.555,69.336,5.371,1760.543,388.76838773217963
84,1686111753.65,13.672,477.539,221.68,17.09,1760.557,375.1151033384554
85,1686111753.65,-14.16,339.844,98.633,-58.105,1760.561,379.4843425126403
86,1686111753.65,-57.617,-199.219,-179.688,-96.191,1760.565,360.0073093299209
87,1686111753.66,-44.434,-61.523,0.0,-41.504,1760.569,359.8415898968911
88,1686111753.66,0.977,72.754,119.629,8.301,1760.572,369.7386109796746
89,1686111753.67,-13.184,-101.562,2.441,-38.086,1760.576,363.49994790022583
90,1686111753.67,-59.57,-738.281,-362.305,-83.008,1760.58,375.405227082099
91,1686111753.67,-56.152,-891.113,-367.676,-36.133,1760.584,366.51210096326054
92,1686111753.68,-4.883,200.195,147.461,26.855,1760.588,363.32570797891026
93,1686111753.68,-1.465,409.668,139.16,-7.324,1760.592,369.00302274537785
94,1686111753.68,-39.551,23.926,-17.578,-84.473,1760.596,370.51893316491106
95,1686111753.69,-32.715,261.719,108.398,-75.684,1760.6,371.23585209046377
96,1686111753.71,14.648,443.359,175.781,-4.395,1760.61,368.5241978352024
97,1686111753.71,9.766,45.898,19.531,6.348,1760.613,370.181465367516
98,1686111753.72,-50.781,-306.641,-41.016,-55.176,1760.617,365.5080727600197
99,1686111753.72,-64.453,129.395,116.211,-74.707,1760.621,379.3858259437825
100,1686111753.72,-19.043,468.262,198.73,-9.766,1760.625,372.2413511763804
101,1686111753.73,17.09,18.555,20.02,25.391,1760.629,368.233787842694
102,1686111753.73,-5.371,-450.684,-163.574,-31.25,1760.633,363.5666810788405
103,1686111753.74,-44.434,14.648,53.223,-76.172,1760.637,359.6300565987734
104,1686111753.74,-24.414,397.949,177.734,-16.113,1760.641,366.9443334620595
105,1686111753.74,11.719,65.43,57.129,43.457,1760.645,369.1967889646755
106,1686111753.75,-7.812,-116.211,56.641,-14.16,1760.649,360.3473060176008
107,1686111753.75,-47.852,257.324,141.113,-81.055,1760.652,371.136002091539
108,1686111753.77,-42.48,324.707,128.906,-39.062,1760.663,369.30702228750295
109,1686111753.77,-3.906,62.5,33.203,27.344,1760.667,366.3600760687139
110,1686111753.77,-2.441,193.848,97.168,6.836,1760.671,375.39980832526595
111,1686111753.78,-39.062,120.605,24.414,-58.594,1760.675,367.49814577678427
112,1686111753.78,-47.852,-212.402,-81.543,-58.594,1760.679,361.3689328575648
113,1686111753.79,-8.301,-315.43,-58.105,8.301,1760.683,366.2156874268219
114,1686111753.79,20.996,-219.238,-6.348,15.137,1760.687,366.11645836702763
115,1686111753.79,-8.789,76.172,83.496,-57.617,1760.691,365.17734348524897
116,1686111753.8,-49.805,189.941,59.57,-93.262,1760.695,374.5120163952604
117,1686111753.8,-44.922,163.574,82.52,-80.078,1760.694,366.8416075198736
118,1686111753.8,-39.062,41.992,31.738,-36.133,1760.699,369.46868416866454
119,1686111753.8,-21.973,-659.18,-286.621,-13.184,1760.698,368.82884073165496
120,1686111753.8,7.812,422.852,193.848,20.508,1760.703,372.6371067855849
121,1686111753.8,5.859,-1000.0,-370.605,25.879,1760.702,368.29828154484505
122,1686111753.81,-1.465,528.32,181.641,-20.508,1760.707,364.99311479064784
123,1686111753.81,-15.625,-49.805,62.5,-44.922,1760.706,363.10484219657314
124,1686111753.81,-41.504,171.387,19.043,-82.031,1760.711,367.3633747782476
125,1686111753.82,-38.574,-236.816,-120.117,-60.547,1760.714,369.5556140171328
126,1686111753.82,1.953,-106.934,29.785,-1.465,1760.718,370.7276304254516
127,1686111753.82,-8.301,125.977,97.168,-12.207,1760.722,372.960194375319
128,1686111753.83,-61.035,-31.25,-20.508,-84.961,1760.726,361.37901233472553
129,1686111753.83,-71.777,-83.496,46.387,-92.285,1760.73,365.7719097703658
130,1686111753.84,-28.32,268.066,147.949,-8.789,1760.734,362.63220511973077
131,1686111753.84,11.719,491.211,196.777,13.672,1760.738,357.2772315685243
132,1686111753.84,-18.066,-182.617,-143.555,-56.641,1760.738,357.5284107374949
133,1686111753.84,-66.406,-869.141,-346.68,-95.215,1760.742,364.5669956231565
134,1686111753.85,-42.48,25.391,108.398,-45.41,1760.746,361.4602842339789
135,1686111753.85,4.883,346.68,145.996,12.695,1760.75,367.5829845876474
136,1686111753.86,-18.555,-428.223,-245.605,-39.551,1760.754,370.4142790191246
137,1686111753.86,-65.43,-537.109,-230.957,-99.121,1760.758,367.4701718528235
138,1686111753.86,-42.969,-31.738,45.41,-49.316,1760.761,361.30088791053873
139,1686111753.87,6.348,283.691,140.137,8.789,1760.765,360.1487796819411
140,1686111753.87,-4.883,-586.426,-288.086,-14.648,1760.769,364.81054468005357
141,1686111753.88,-56.641,-794.922,-243.164,-83.496,1760.773,366.34514608292557
142,1686111753.88,-60.059,230.469,170.898,-79.102,1760.777,362.9091082856708
143,1686111753.88,-17.09,430.664,186.035,-6.836,1760.781,363.8552450124977
144,1686111753.89,-1.953,233.398,163.086,-9.277,1760.786,371.25177067056546
145,1686111753.89,-29.297,167.48,71.777,-73.73,1760.789,374.10001009734106
146,1686111753.9,-45.41,270.996,100.586,-76.66,1760.793,378.2819595019671
147,1686111753.9,-20.996,319.824,136.719,-16.602,1760.797,378.2135559314672
148,1686111753.9,-5.371,270.508,140.137,-6.348,1760.801,371.66654268248095
149,1686111753.91,-42.48,24.414,21.973,-58.105,1760.805,372.61427798572987
150,1686111753.91,-68.848,-74.707,-2.441,-84.473,1760.809,366.1251985419618
151,1686111753.91,-33.691,-183.105,-29.785,-25.391,1760.813,366.0892109636334
152,1686111753.92,-1.465,-504.883,-58.594,20.996,1760.817,365.08077937747845
153,1686111753.92,-20.996,183.594,159.668,-44.434,1760.821,364.01114729447335
154,1686111753.93,-53.223,366.211,97.656,-105.957,1760.825,366.93539040734595
155,1686111753.93,-49.316,-108.398,-51.758,-63.965,1760.829,363.25330840203236
156,1686111753.93,-3.906,157.227,121.582,3.418,1760.842,366.0553440650996
157,1686111753.94,20.02,506.836,206.543,-3.906,1760.846,371.5977259505162
158,1686111753.94,-18.555,320.801,89.355,-70.801,1760.85,372.79554672098834
159,1686111753.94,-60.547,-222.168,-140.137,-84.473,1760.854,373.1156962032152
160,1686111753.95,-40.527,-228.516,-29.297,-16.602,1760.858,371.29322696250244
161,1686111753.95,-20.508,-13.672,79.59,-7.812,1760.862,360.92691685979406
162,1686111753.96,-61.523,-76.66,-7.324,-74.707,1760.866,357.25892959627527
163,1686111753.96,-94.238,-697.754,-314.941,-79.102,1760.87,368.731852028501
164,1686111753.96,-63.965,-787.109,-251.465,-11.23,1760.874,365.11057325727995
165,1686111753.97,-31.25,299.316,215.82,7.812,1760.878,369.5370750460544
166,1686111753.97,-55.664,357.91,101.562,-46.387,1760.881,370.7319831163264
167,1686111753.97,-85.938,-16.602,-19.043,-74.219,1760.885,366.27564307931465
168,1686111753.98,-56.152,303.223,159.668,-8.789,1760.882,363.26912274785275
169,1686111753.98,-17.09,419.434,184.082,44.922,1760.886,377.06000646787703
170,1686111753.99,-28.809,-88.379,-23.438,2.93,1760.89,355.7639526461854
171,1686111753.99,-67.383,-335.938,-48.34,-42.969,1760.894,376.2168983698343
172,1686111754.0,-58.105,140.625,122.559,-0.977,1760.898,358.82905581863434
173,1686111754.0,-8.301,164.551,96.191,69.336,1760.902,360.7007738442332
174,1686111754.0,-0.488,-218.262,-26.367,52.246,1760.906,366.98137591124066
175,1686111754.01,-39.551,-299.316,-51.27,-25.391,1760.91,380.8617111146161
176,1686111754.01,-49.805,181.641,129.395,-16.602,1760.914,353.194432723039
177,1686111754.01,-6.836,498.535,204.59,62.5,1760.917,369.55580544473855
178,1686111754.02,12.695,24.902,-25.879,70.801,1760.921,367.5283237856816
179,1686111754.02,-40.527,199.219,144.531,-33.203,1760.932,367.48355350192037
180,1686111754.02,-14.16,-337.891,-83.496,0.977,1760.925,372.1259232701798
181,1686111754.02,-15.137,354.004,143.555,21.973,1760.936,363.0148169480951
182,1686111754.03,14.16,90.82,35.645,58.594,1760.94,361.7188828279273
183,1686111754.03,-13.672,49.805,24.414,-4.395,1760.944,366.5290391398849
184,1686111754.04,-45.898,-104.98,-23.438,-44.434,1760.948,371.8655409657249
185,1686111754.04,-37.109,-187.988,-11.23,7.324,1760.952,359.16375614862307
186,1686111754.04,-12.695,-649.902,-304.688,56.641,1760.955,374.14604716302875
187,1686111754.05,-27.344,-1000.0,-435.547,15.137,1760.959,363.5883330298231
188,1686111754.05,-56.152,-207.52,8.301,-52.734,1760.963,366.90477148112745
189,1686111754.06,-41.992,210.938,117.676,-18.066,1760.967,374.753421968359
190,1686111754.06,-1.465,94.727,65.43,55.664,1760.971,369.47923240771837
191,1686111754.06,6.348,358.887,164.551,38.574,1760.975,359.31994404137174
192,1686111754.07,-26.367,384.766,113.77,-33.203,1760.977,360.33502770902044
193,1686111754.07,-45.898,62.012,48.828,-43.945,1760.981,361.8035418165946
194,1686111754.08,-13.184,51.758,146.484,19.531,1760.985,368.69609472484
195,1686111754.08,9.766,377.441,178.711,39.062,1760.989,374.277421860187
196,1686111754.08,-16.113,362.793,121.094,-29.297,1760.993,366.0474982850955
197,1686111754.09,-49.316,-207.031,-109.863,-58.594,1760.997,366.7243921364401
198,1686111754.09,-33.203,-527.344,-94.727,1.953,1761.0,374.67762262422485
199,1686111754.09,4.395,-110.84,96.68,37.109,1761.004,360.36752600993736
200,1686111754.1,-5.371,257.324,113.281,-19.043,1761.008,370.36601189966365
201,1686111754.1,-44.434,-91.797,-72.754,-66.895,1761.012,367.06512390843625
202,1686111754.11,-39.062,-389.16,-72.266,-21.484,1761.016,370.74103534782154
203,1686111754.11,4.395,237.305,177.734,37.598,1761.02,365.16767263774636
204,1686111754.13,-0.977,395.02,123.535,-0.488,1761.023,369.03635293407706
205,1686111754.13,-54.199,-101.562,-116.699,-77.148,1761.027,368.16606689190814
206,1686111754.13,-58.594,33.691,33.691,-56.641,1761.031,369.5373251366665
207,1686111754.14,-11.719,297.852,172.363,18.555,1761.035,372.6538621866728
208,1686111754.14,-10.254,-12.207,19.043,11.719,1761.039,359.77495162866575
209,1686111754.15,-65.918,-709.473,-341.797,-58.594,1761.042,368.44619414024044
210,1686111754.15,-85.938,-754.883,-223.145,-76.66,1761.046,365.605083116365
211,1686111754.15,-30.762,206.543,220.215,-10.254,1761.05,367.2316980746433
212,1686111754.16,0.488,314.941,116.211,16.113,1761.054,362.1393809533243
213,1686111754.16,-44.434,-497.07,-227.051,-54.199,1761.058,366.8275450711201
214,1686111754.16,-72.754,-271.973,-86.426,-97.656,1761.062,362.8619228521881
215,1686111754.17,-42.969,421.387,203.613,-41.016,1761.066,358.58307853459746
216,1686111754.17,1.465,252.93,108.398,7.812,1761.098,355.6561349711247
217,1686111754.18,-14.16,-284.668,-20.02,-44.922,1761.101,357.15704591863505
218,1686111754.18,-58.105,20.508,79.59,-108.887,1761.105,361.36957761111853
219,1686111754.18,-45.41,337.402,141.602,-78.613,1761.109,367.99670068436757
220,1686111754.19,-6.836,149.414,59.082,-11.719,1761.113,368.96380799899043
221,1686111754.19,-15.625,-206.055,-80.078,-31.738,1761.117,367.04207841562834
222,1686111754.2,-63.477,-198.73,-20.996,-103.027,1761.121,367.9553665068348
223,1686111754.2,-72.266,260.742,137.695,-95.215,1761.125,359.2005920950096
224,1686111754.2,-45.898,22.949,18.555,-20.02,1761.129,373.4831947380101
225,1686111754.21,-33.691,-545.41,-80.566,-14.648,1761.133,368.889163674975
226,1686111754.21,-59.082,9.766,89.844,-91.309,1761.137,359.4349415034812
227,1686111754.21,-87.891,185.059,68.359,-107.91,1761.141,365.4634620186372
228,1686111754.22,-55.664,-219.727,-60.059,-37.598,1761.113,360.75397297796354
229,1686111754.22,-16.602,40.527,69.336,-2.441,1761.117,360.73220414404653
230,1686111754.22,-36.621,335.449,136.719,-58.594,1761.121,359.07687991748315
231,1686111754.23,-68.848,131.836,42.48,-103.027,1761.125,369.3007222323641
232,1686111754.23,-62.5,-579.102,-270.02,-55.176,1761.129,365.2350505865598
233,1686111754.24,-33.203,-668.457,-188.965,-0.977,1761.133,374.14487072565447
234,1686111754.24,-32.715,-53.223,99.609,-48.828,1761.136,368.7925523810917
235,1686111754.24,-57.617,73.73,47.852,-107.422,1761.14,365.03665194357654
236,1686111754.25,-54.199,-530.273,-231.445,-64.941,1761.144,365.5347456669713
237,1686111754.25,-16.113,-140.625,24.414,-7.812,1761.148,376.89720550021616
238,1686111754.26,-8.789,493.652,245.117,-34.18,1761.152,363.1977581402826
239,1686111754.26,-53.711,115.234,-3.418,-103.027,1761.156,360.70466601213565
240,1686111754.26,-62.012,-294.922,-49.805,-100.586,1761.16,371.34885557146566
241,1686111754.27,-21.484,145.02,141.602,-33.203,1761.164,360.28460502897553
242,1686111754.27,-11.23,312.012,150.879,-23.926,1761.168,370.96072383165665
243,1686111754.28,-41.992,-183.105,-110.352,-78.613,1761.172,373.2512255705553
244,1686111754.28,-62.5,-823.242,-399.414,-82.031,1761.176,372.81468680267665
245,1686111754.28,-38.086,-551.758,-138.672,-26.855,1761.18,381.84674667960445
246,1686111754.29,-12.207,132.812,159.668,-4.883,1761.184,369.0439427736381
247,1686111754.29,-35.156,-87.402,-41.992,-68.848,1761.188,374.6896639740772
248,1686111754.29,-81.055,-604.98,-160.645,-118.652,1761.192,381.27626447640876
249,1686111754.3,-56.152,83.008,160.645,-63.477,1761.196,375.30036862146784
250,1686111754.3,-3.906,473.633,202.148,-1.465,1761.199,376.13329223735315
251,1686111754.31,-51.27,24.414,65.43,-105.957,1761.203,377.52334813797125
252,1686111754.31,-11.23,27.832,6.836,-39.062,1761.203,366.89708718123194
253,1686111754.31,-47.363,215.332,125.0,-76.172,1761.207,380.5974142387681
254,1686111754.31,-0.977,262.207,114.746,-4.395,1761.211,379.77077484803414
255,1686111754.32,-6.836,-35.645,-31.738,-23.438,1761.215,373.07558223341147
256,1686111754.32,-63.965,-334.473,-162.598,-86.914,1761.219,381.46496959018066
257,1686111754.33,-81.055,-237.305,-110.352,-79.102,1761.223,386.290461478109
258,1686111754.33,-43.945,-74.219,47.363,-16.113,1761.227,377.74551835323814
259,1686111754.33,-30.273,-587.402,-258.789,-5.371,1761.23,374.5714266910181
260,1686111754.34,-66.406,-1000.0,-469.238,-66.895,1761.234,385.99712553905056
261,1686111754.34,-82.031,-166.992,-0.488,-100.098,1761.238,380.22063640135644
262,1686111754.34,-50.781,281.738,173.828,-50.781,1761.242,382.7245157712769
263,1686111754.35,-18.555,164.551,136.23,-7.324,1761.246,387.32291873506756
264,1686111754.36,-30.762,377.441,158.691,-51.758,1761.26,385.8200608878809
265,1686111754.37,-64.453,402.344,126.465,-101.074,1761.264,388.1457024965504
266,1686111754.37,-57.617,147.461,72.754,-62.988,1761.267,389.0606128953852
267,1686111754.37,-17.09,169.434,161.133,-0.488,1761.271,398.05775737021384
268,1686111754.38,-21.973,335.938,165.039,-35.645,1761.275,393.63992551556976
269,1686111754.38,-62.988,37.598,-23.438,-101.562,1761.279,381.97577440782817
270,1686111754.39,-60.059,-346.68,-172.363,-74.219,1761.283,389.9583862992541
271,1686111754.39,-23.926,-672.363,-183.105,-6.836,1761.287,385.29624667972786
272,1686111754.39,-4.395,-162.109,52.734,-6.836,1761.291,395.5043319683303
273,1686111754.4,-4.883,366.211,197.754,1.465,1761.307,388.309732046398
274,1686111754.4,-48.34,323.242,128.906,-70.801,1761.295,380.9944403713805
275,1686111754.4,-36.621,332.52,108.887,-56.641,1761.311,395.1884020990387
276,1686111754.4,-83.008,-84.961,-30.762,-83.984,1761.299,392.48211508468336
277,1686111754.4,-69.336,-59.082,-64.453,-90.332,1761.315,392.93821554426677
278,1686111754.4,-36.621,-121.582,71.289,-19.531,1761.303,386.32544242859217
279,1686111754.41,-50.293,39.062,38.574,-39.551,1761.319,402.5055990145974
280,1686111754.41,-21.973,44.434,95.703,7.324,1761.323,388.22070522579924
281,1686111754.42,-29.297,-114.258,32.227,-40.527,1761.327,376.6428477411367
282,1686111754.42,-64.453,-723.145,-343.75,-87.891,1761.33,390.82425296624
283,1686111754.42,-58.594,-875.0,-311.035,-49.805,1761.334,397.2058665003402
284,1686111754.43,-9.766,219.727,210.938,9.766,1761.338,382.9973567344478
285,1686111754.43,-13.672,372.559,125.488,-4.395,1761.342,386.4450264030051
286,1686111754.44,-58.105,-230.957,-115.723,-72.754,1761.346,400.8001665835578
287,1686111754.44,-68.848,25.879,74.219,-69.824,1761.35,393.61914758366476
288,1686111754.44,-32.715,513.672,224.609,-1.953,1761.342,393.6166152805408
289,1686111754.45,-17.09,244.141,74.707,5.371,1761.346,387.86433585033814
290,1686111754.45,-49.316,-351.562,-61.035,-62.988,1761.35,385.5815443045564
291,1686111754.46,-73.242,28.32,86.426,-78.613,1761.354,397.05294674762763
292,1686111754.46,-46.387,457.031,182.617,-16.113,1761.358,403.4363164076704
293,1686111754.46,-11.23,48.828,24.902,23.926,1761.362,388.87219838505445
294,1686111754.47,-47.363,-364.746,-82.031,-40.527,1761.365,392.3266032165803
295,1686111754.47,-92.773,9.766,72.754,-108.887,1761.369,393.36373135435923
296,1686111754.47,-67.871,329.102,137.207,-56.641,1761.373,393.721828566811
297,1686111754.48,-20.996,42.969,9.766,14.16,1761.377,393.25209987697144
298,1686111754.48,-38.086,-155.762,-15.625,-27.344,1761.381,395.3852833497484
299,1686111754.49,-81.055,154.785,94.238,-102.051,1761.385,395.13979044924594
300,1686111754.5,-63.477,200.684,84.473,-69.824,1761.398,389.7349900422399
301,1686111754.5,-18.066,-124.023,-45.898,6.836,1761.402,397.06670713519355
302,1686111754.51,-16.602,56.641,44.922,-10.742,1761.406,398.0234606436392
303,1686111754.51,-43.457,142.09,75.195,-73.242,1761.41,389.1596198263574
304,1686111754.52,-56.152,-165.039,-66.895,-68.848,1761.414,389.468860724871
305,1686111754.52,-39.551,-695.801,-323.73,-5.859,1761.417,392.04711246375314
306,1686111754.52,-24.414,-994.629,-393.066,-1.465,1761.421,400.90807624045357
307,1686111754.53,-49.805,-258.789,-9.277,-79.59,1761.425,391.46578939561186
308,1686111754.53,-78.125,64.453,68.848,-102.539,1761.429,394.7830700625238
309,1686111754.54,-50.293,-48.828,22.461,-38.086,1761.433,397.78252828177517
310,1686111754.54,-18.066,275.391,152.344,2.441,1761.437,391.17913879571967
311,1686111754.54,-41.992,426.27,166.504,-51.27,1761.441,388.9910921338481
312,1686111754.55,-79.59,125.0,27.832,-105.469,1761.443,390.58373630593144
313,1686111754.55,-52.246,-34.18,-6.836,-62.988,1761.447,379.8183157921398
314,1686111754.55,0.488,284.18,157.715,-4.395,1761.451,391.44318140097425
315,1686111754.56,-28.32,244.141,105.469,-57.129,1761.455,392.34405532710497
316,1686111754.56,-136.719,-249.512,-153.809,-173.828,1761.459,400.25266145894153
317,1686111754.57,-189.941,-561.523,-150.391,-202.148,1761.463,408.1378293425442
318,1686111754.57,-180.664,-136.719,93.262,-170.41,1761.467,385.4615397251942
319,1686111754.57,-190.43,363.281,164.551,-201.172,1761.471,388.8399934540133
320,1686111754.58,-220.215,-116.699,-101.562,-250.0,1761.475,390.8193902044846
321,1686111754.58,-280.273,-605.957,-145.996,-300.781,1761.479,392.0012577253599
322,1686111754.58,-318.848,133.301,175.781,-327.148,1761.482,387.6119433853573
323,1686111754.59,-283.203,440.43,188.965,-282.715,1761.486,391.9937814548694
324,1686111754.59,-278.809,-94.238,-79.59,-302.246,1761.488,381.3114458536052
325,1686111754.6,-280.762,-86.914,-15.625,-319.336,1761.492,400.57366842448494
326,1686111754.6,-229.492,312.988,170.41,-231.934,1761.496,385.5182669096161
327,1686111754.6,-177.734,274.414,116.211,-175.781,1761.5,388.89681178893284
328,1686111754.61,-181.641,-496.582,-260.254,-212.891,1761.504,381.28418741946547
329,1686111754.61,-204.102,-719.727,-274.414,-241.699,1761.508,392.93901066882717
330,1686111754.62,-176.27,-230.469,2.93,-192.871,1761.511,381.431737392938
331,1686111754.62,-126.465,-23.438,62.012,-123.047,1761.515,367.17487879250626
332,1686111754.62,-128.906,-637.207,-281.738,-133.301,1761.519,393.92294254418397
333,1686111754.63,-167.969,-693.359,-195.801,-191.406,1761.523,392.93651605791985
334,1686111754.63,-158.691,163.086,138.184,-174.316,1761.527,388.73237897844484
335,1686111754.63,-111.328,276.367,110.352,-109.375,1761.531,375.95782409250586
336,1686111754.64,-91.309,84.961,78.125,-107.422,1761.535,372.88526685858477
337,1686111754.64,-126.953,192.383,92.285,-166.992,1761.539,378.4792474301949
338,1686111754.64,-144.531,269.043,106.445,-170.898,1761.543,390.0474550672222
339,1686111754.65,-102.051,125.977,61.035,-91.797,1761.547,375.17616312247213
340,1686111754.65,-61.523,105.957,125.977,-63.965,1761.551,385.7188405250827
341,1686111754.66,-80.078,-122.559,-49.316,-125.0,1761.555,385.47481792629793
342,1686111754.66,-106.445,-169.922,-106.445,-152.832,1761.559,386.96597466738643
343,1686111754.66,-78.613,-116.699,-40.039,-77.148,1761.563,383.31140735749625
344,1686111754.67,-41.992,-638.184,-154.297,-18.555,1761.566,375.63612273239556
345,1686111754.67,-41.016,-231.445,28.809,-68.848,1761.57,378.3550136169263
346,1686111754.68,-67.871,265.137,103.516,-120.117,1761.574,380.7003887010902
347,1686111754.68,-61.523,-100.098,-40.039,-76.66,1761.578,369.1008198668496
348,1686111754.68,-28.809,-94.727,64.453,-17.09,1761.578,375.9188835455409
349,1686111754.68,-35.645,336.914,180.664,-44.922,1761.582,389.6211554336894
350,1686111754.69,-71.289,266.113,83.984,-114.258,1761.586,381.1601687413256
351,1686111754.69,-67.871,-129.395,-75.195,-87.891,1761.59,377.6435331356088
352,1686111754.7,-25.879,-176.27,-19.043,2.441,1761.594,375.9014175516958
353,1686111754.7,-8.301,-84.961,45.41,-0.488,1761.598,381.85579538204144
354,1686111754.7,-42.48,-159.668,-40.039,-72.754,1761.602,377.96936522766674
355,1686111754.71,-65.43,-723.145,-368.652,-77.148,1761.606,371.30321268355965
356,1686111754.71,-12.695,-801.758,-255.371,-3.906,1761.61,367.06030580206107
357,1686111754.72,29.297,235.352,204.102,20.996,1761.614,374.8676636372448
358,1686111754.72,-4.395,280.273,47.852,-36.133,1761.617,369.10518433678266
359,1686111754.72,-40.039,-260.254,-104.98,-72.266,1761.621,366.1360332934852
360,1686111754.73,-6.836,111.816,119.141,-11.719,1761.627,363.2503907765475
361,1686111754.73,31.25,431.152,176.758,46.387,1761.631,353.3932199018525
362,1686111754.74,12.695,-13.672,-31.738,2.93,1761.635,369.7795205164317
363,1686111754.74,-23.926,-331.543,-49.805,-52.246,1761.639,361.08356524571724
364,1686111754.74,-20.02,131.348,131.348,-20.996,1761.643,369.54547826503824
365,1686111754.75,17.578,264.16,141.602,45.898,1761.647,358.9572467630944
366,1686111754.75,8.789,-142.578,-25.391,15.137,1761.651,372.2013274183222
367,1686111754.76,-46.875,-617.676,-225.586,-64.453,1761.654,350.5312534841285
368,1686111754.76,-53.223,-50.293,54.199,-61.523,1761.658,355.87709727548366
369,1686111754.76,-9.766,452.637,200.684,8.789,1761.662,346.3808891104834
370,1686111754.77,0.488,176.758,41.016,15.625,1761.666,357.3274358548197
371,1686111754.77,-32.227,96.68,51.27,-59.082,1761.67,350.5289453428566
372,1686111754.77,-56.152,308.594,134.766,-81.543,1761.671,351.03706476879614
373,1686111754.78,-32.227,297.852,107.422,-16.602,1761.675,357.3643929543012
374,1686111754.78,-2.441,-73.242,-75.684,10.254,1761.679,351.371397376244
375,1686111754.78,-28.32,-65.43,-22.461,-63.965,1761.683,344.30920676124566
376,1686111754.79,-70.312,-153.32,-58.105,-113.77,1761.687,349.5773978067771
377,1686111754.79,-56.152,-218.75,-61.035,-63.477,1761.691,340.3434648852514
378,1686111754.8,-29.785,-659.18,-266.113,-10.254,1761.695,342.0161043253665
379,1686111754.8,-43.945,-1000.0,-427.734,-46.387,1761.699,338.0435433372083
380,1686111754.8,-69.824,-133.789,25.391,-107.422,1761.703,336.4088569782646
381,1686111754.81,-55.176,220.215,142.09,-71.289,1761.707,322.9938226914916
382,1686111754.81,-20.02,49.805,100.586,-0.488,1761.711,327.8292259057424
383,1686111754.82,-22.461,351.074,182.617,-14.648,1761.714,341.69397669078944
384,1686111754.82,-46.875,421.875,140.625,-77.148,1761.757,334.8778929557953
385,1686111754.82,-53.223,168.457,79.102,-81.543,1761.761,324.4518427825891
386,1686111754.83,-22.949,115.723,145.508,-18.066,1761.765,321.2251043344239
387,1686111754.83,1.465,353.027,183.105,-3.418,1761.769,326.3466856002421
388,1686111754.83,-23.926,236.816,64.941,-61.035,1761.772,319.2741464036024
389,1686111754.84,-58.594,-261.23,-112.305,-84.961,1761.776,322.7147853534046
390,1686111754.84,-33.691,-847.656,-313.477,-19.043,1761.78,324.2956482387724
391,1686111754.84,13.672,-140.625,64.453,20.508,1761.784,320.71903358189604
392,1686111754.85,-4.883,414.062,178.223,-39.062,1761.788,317.1661146539136
393,1686111754.85,-53.223,-20.02,-56.641,-94.238,1761.792,322.1643551927705
394,1686111754.86,-38.574,96.68,82.52,-53.223,1761.796,324.7227304075377
395,1686111754.86,0.488,490.234,216.309,2.441,1761.8,319.45651883280095
396,1686111754.86,-15.625,417.969,139.648,-29.785,1761.772,326.8814339957579
397,1686111754.87,-61.523,-114.746,-101.562,-91.797,1761.776,311.0903827832479
398,1686111754.87,-70.801,-20.996,5.371,-82.52,1761.78,324.81619915558844
399,1686111754.88,-33.203,321.777,182.129,-10.254,1761.784,318.08917546034814
400,1686111754.88,-18.066,48.34,40.527,1.465,1761.788,328.8874062020439
401,1686111754.88,-56.641,-680.664,-366.699,-60.547,1761.792,313.31683886049103
402,1686111754.89,-80.566,-778.809,-253.418,-73.73,1761.796,318.39774828952955
403,1686111754.89,-45.898,-15.625,150.391,-15.137,1761.8,315.0294041778592
404,1686111754.89,-27.344,206.055,106.445,0.977,1761.803,308.68056313053404
405,1686111754.9,-53.711,-216.309,-63.965,-67.383,1761.807,312.89404502036086
406,1686111754.9,-79.59,2.441,35.156,-106.934,1761.811,318.2846875744947
407,1686111754.91,-44.434,400.391,167.48,-48.828,1761.815,318.2441116414142
408,1686111754.92,-0.977,248.047,88.867,1.953,1761.82,308.06168803855456
409,1686111754.92,-21.973,-125.977,-19.531,-48.828,1761.823,332.4741774384099
410,1686111754.93,-67.383,42.969,49.805,-106.445,1761.827,308.1976986027325
411,1686111754.93,-55.176,356.934,160.645,-64.941,1761.831,314.56712669641337
412,1686111754.94,-7.324,130.371,44.434,-1.465,1761.835,309.99262350801166
413,1686111754.94,-28.32,-777.344,-293.457,-26.855,1761.839,326.1899095862596
414,1686111754.94,-72.266,-416.016,-65.43,-95.703,1761.843,321.69123551664046
415,1686111754.95,-72.266,218.75,133.301,-83.496,1761.847,322.11990196426683
416,1686111754.95,-35.645,-54.688,9.277,-11.23,1761.851,327.8326096647671
417,1686111754.96,-38.086,-229.492,-22.461,-9.766,1761.855,334.97642531882843
418,1686111754.96,-85.449,38.574,80.078,-87.402,1761.859,328.51473858735045
419,1686111754.96,-100.098,300.293,130.859,-102.539,1761.862,334.59094933048874
420,1686111754.97,-70.801,-49.316,7.812,-26.855,1761.863,330.8123752758721
421,1686111754.97,-43.945,-89.355,68.359,-2.93,1761.867,327.04785475516076
422,1686111754.97,-62.012,292.48,157.715,-64.453,1761.871,332.68271067113295
423,1686111754.98,-88.379,187.012,71.777,-100.586,1761.875,331.30644247461237
424,1686111754.98,-72.754,-385.742,-159.18,-40.039,1761.879,339.5257178852775
425,1686111754.99,-32.227,-380.859,-63.477,6.348,1761.883,329.4733335372622
426,1686111754.99,-45.41,7.812,94.238,-54.688,1761.886,346.34635900345336
427,1686111754.99,-87.891,121.582,64.453,-112.793,1761.89,338.12329511439947
428,1686111755.0,-85.938,-582.52,-239.746,-70.312,1761.894,330.7522287398672
429,1686111755.0,-41.992,-410.645,-69.336,-7.324,1761.898,329.8728593691819
430,1686111755.0,-30.273,475.098,236.816,-32.227,1761.902,343.9342964852385
431,1686111755.01,-71.777,214.844,30.273,-97.168,1761.906,349.07599661449984
432,1686111755.01,-84.961,-206.543,-68.359,-92.773,1761.91,341.16599772324616
433,1686111755.02,-40.039,173.34,138.184,-21.973,1761.914,339.886465670421
434,1686111755.02,-28.32,524.902,198.73,-13.672,1761.918,336.79902796748394
435,1686111755.02,-57.617,115.723,-18.555,-72.266,1761.922,339.33010129238926
436,1686111755.03,-80.078,-359.375,-94.727,-91.797,1761.926,346.41880152070974
437,1686111755.03,-62.988,-182.129,44.922,-33.691,1761.929,331.78071653463695
438,1686111755.04,-32.227,120.117,115.234,-0.977,1761.933,342.382926727349
439,1686111755.04,-48.828,-75.684,-68.848,-62.5,1761.937,353.8316839473159
440,1686111755.04,-87.891,-620.117,-204.59,-112.793,1761.941,340.73832956012484
441,1686111755.05,-66.895,19.043,112.305,-71.777,1761.945,345.6338720081245
442,1686111755.05,-17.09,504.395,185.059,-15.625,1761.949,341.2413530187267
443,1686111755.06,-59.57,59.082,12.207,-115.234,1761.954,335.62682373702086
444,1686111755.06,-22.461,134.766,-20.508,-55.176,1761.953,344.8191817056367
445,1686111755.06,-63.477,315.918,157.715,-85.449,1761.958,340.3036793706875
446,1686111755.06,-37.109,336.914,147.949,-26.367,1761.961,349.1060726737643
447,1686111755.07,-41.504,-283.691,-158.691,-38.574,1761.965,344.08798957770824
448,1686111755.07,-77.148,-494.629,-256.348,-99.609,1761.969,344.19429088385755
449,1686111755.08,-72.754,-227.051,-105.469,-93.75,1761.973,337.6204523195443
450,1686111755.08,-35.645,-75.195,33.203,-31.738,1761.977,347.3980011195094
451,1686111755.08,-20.02,-577.637,-268.066,-16.602,1761.981,354.08256374260185
452,1686111755.09,-52.246,-837.891,-325.684,-75.684,1761.985,343.3837192667827
453,1686111755.09,-74.707,76.172,90.332,-107.422,1761.989,351.68524167283124
454,1686111755.1,-46.875,309.57,132.324,-44.922,1761.993,348.19879113834554
455,1686111755.1,-8.789,115.723,88.379,0.977,1761.997,346.532379069128
456,1686111755.1,-16.113,297.363,120.117,-58.594,1762.001,346.13558271428695
457,1686111755.11,-51.27,358.398,108.398,-105.957,1762.004,343.66214683049975
458,1686111755.11,-44.922,198.73,98.633,-57.617,1762.008,342.3522035330321
459,1686111755.11,-10.254,225.586,174.316,-8.301,1762.012,345.2618499751284
460,1686111755.12,-13.672,320.801,149.414,-38.574,1762.016,345.68938543565696
461,1686111755.12,-51.758,85.449,40.527,-101.562,1762.02,335.73896039513625
462,1686111755.13,-58.105,-285.156,-126.953,-88.379,1762.024,345.36779888006305
463,1686111755.13,-20.996,-832.031,-291.992,-9.766,1762.028,337.65918790746235
464,1686111755.13,-14.648,-153.809,43.457,-17.09,1762.032,348.51828275202837
465,1686111755.14,-46.387,380.859,139.16,-91.309,1762.036,350.72225571573415
466,1686111755.14,-56.641,19.531,-40.039,-93.75,1762.04,347.37878490526055
467,1686111755.14,-30.762,237.305,129.883,-29.785,1762.044,341.82621780824815
468,1686111755.15,-3.418,569.824,227.051,-5.859,1762.057,348.7887667041295
469,1686111755.15,-32.715,253.418,37.598,-57.129,1762.061,340.13402572686635
470,1686111755.15,-75.684,-200.684,-150.879,-91.309,1762.065,339.0202254228757
471,1686111755.16,-46.875,16.602,41.504,-34.18,1762.069,332.04517873415915
472,1686111755.16,7.324,102.539,113.77,17.09,1762.073,354.98448722588716
473,1686111755.17,-11.23,-58.594,13.184,-32.715,1762.076,342.28856309093175
474,1686111755.17,-57.617,-655.762,-340.332,-82.031,1762.08,333.00239929361527
475,1686111755.17,-43.945,-928.711,-391.602,-41.504,1762.084,339.3318794744996
476,1686111755.18,9.766,-1.953,102.051,17.09,1762.088,348.00091364648216
477,1686111755.18,19.043,332.031,132.324,-5.371,1762.092,342.2420423092677
478,1686111755.18,-18.066,-321.289,-185.059,-59.57,1762.096,345.8595291399025
479,1686111755.19,-26.855,34.18,35.156,-51.27,1762.1,345.6312860249003
480,1686111755.19,1.953,525.391,209.961,10.742,1762.09,343.30554166557056
481,1686111755.2,6.348,355.469,86.426,16.113,1762.094,352.62356435617755
482,1686111755.2,-34.18,128.418,41.504,-52.734,1762.098,338.03755346425316
483,1686111755.2,-48.828,248.535,119.141,-69.336,1762.102,347.7404353732176
484,1686111755.21,-4.395,445.312,178.711,-5.371,1762.106,352.8586250200302
485,1686111755.21,18.066,71.777,32.715,18.555,1762.11,345.6337867119104
486,1686111755.22,-12.207,-401.855,-135.742,-41.016,1762.114,356.4347146039985
487,1686111755.22,-28.809,30.762,51.27,-73.73,1762.118,352.64408446933595
488,1686111755.22,-12.207,450.684,185.059,-24.414,1762.122,346.8988674775919
489,1686111755.23,12.695,43.457,11.23,29.297,1762.126,358.12698638689386
490,1686111755.23,-1.953,-360.84,-148.438,-6.348,1762.13,347.9458583348986
491,1686111755.24,-33.691,-9.766,-1.953,-67.871,1762.133,353.0115336260017
492,1686111755.25,-18.066,302.734,130.371,-33.691,1762.148,346.12588799629305
493,1686111755.26,14.16,-92.285,-45.41,30.762,1762.152,354.6026921111675
494,1686111755.26,13.184,-129.395,13.672,0.488,1762.156,367.1367918230395
495,1686111755.26,-27.832,68.359,51.758,-75.195,1762.16,356.57043770093395
496,1686111755.27,-46.875,-92.773,-18.066,-59.082,1762.164,364.3242777167987
497,1686111755.27,0.0,-573.73,-219.238,20.996,1762.168,368.243174335225
498,1686111755.28,17.578,-889.16,-298.34,21.973,1762.171,365.61354592491597
499,1686111755.28,-18.555,3.906,83.008,-52.246,1762.175,368.78305991937424
500,1686111755.28,-42.969,256.348,97.168,-62.988,1762.179,363.3812978378924
501,1686111755.29,-14.648,36.621,55.664,-1.953,1762.183,378.18740077411843
502,1686111755.29,17.578,416.992,182.617,22.949,1762.187,385.29436317756125
503,1686111755.29,-10.254,525.391,160.156,-34.668,1762.191,360.80638294852827
504,1686111755.3,-47.363,165.039,15.625,-73.242,1762.195,372.3437721534534
505,1686111755.3,-29.297,-121.582,-28.809,-23.926,1762.198,374.778030903306
506,1686111755.3,5.859,252.441,151.367,21.973,1762.202,378.6952367926282
507,1686111755.31,-4.395,504.883,171.387,-16.602,1762.206,389.46296767667195
508,1686111755.31,-38.086,86.914,-42.969,-74.707,1762.21,373.08569811360064
509,1686111755.32,-40.039,-509.277,-153.32,-51.27,1762.214,390.48890882180217
510,1686111755.32,2.441,-141.602,54.199,14.648,1762.218,389.92622789428754
511,1686111755.32,14.648,464.355,185.547,3.906,1762.222,391.1646300898308
512,1686111755.33,-32.715,-27.344,-84.473,-66.895,1762.226,395.527479284561
513,1686111755.33,-59.082,-611.816,-166.016,-66.406,1762.23,401.5371160639468
514,1686111755.34,-13.184,119.141,167.969,1.465,1762.234,403.0776414767976
515,1686111755.34,17.578,475.098,172.363,12.207,1762.238,386.667017917045
516,1686111755.36,-14.648,24.902,-52.734,-51.27,1762.268,405.62334297395535
517,1686111755.36,-38.574,31.25,15.625,-73.242,1762.271,418.2800489977766
518,1686111755.36,-18.066,388.184,182.129,-15.137,1762.275,415.78497143176025
519,1686111755.37,4.395,338.867,140.625,19.531,1762.279,423.1156016441916
520,1686111755.37,-7.324,-410.645,-216.309,-25.391,1762.283,425.8427305331587
521,1686111755.38,-45.41,-543.945,-201.172,-83.496,1762.287,427.2021631562298
522,1686111755.38,-33.691,-80.078,61.035,-48.34,1762.291,421.66893182367187
523,1686111755.38,11.719,73.242,96.68,20.02,1762.295,433.9809602126001
524,1686111755.39,0.0,-564.941,-259.277,-6.836,1762.299,448.39023766028146
525,1686111755.39,-37.598,-645.02,-175.293,-72.754,1762.303,444.201756893564
526,1686111755.39,-32.227,307.129,192.871,-54.688,1762.307,448.2541549609743
527,1686111755.4,4.883,435.059,161.133,13.184,1762.31,452.7267159284774
528,1686111755.42,10.254,206.543,134.277,10.254,1762.313,461.45966733385063
529,1686111755.42,-25.879,330.566,126.953,-50.781,1762.317,454.29099432120086
530,1686111755.42,-38.086,409.18,128.418,-57.617,1762.321,454.16424748436293
531,1686111755.43,-1.465,323.242,143.066,7.324,1762.325,460.83879093315096
532,1686111755.43,-6.836,100.586,101.074,22.461,1762.328,470.2846156531461
533,1686111755.43,15.625,255.371,169.922,24.414,1762.329,467.86705289750535
534,1686111755.44,-8.789,404.785,163.086,-4.395,1762.332,461.85600711210475
535,1686111755.44,-26.367,8.301,17.09,-41.504,1762.333,456.29420103791085
536,1686111755.44,-44.434,333.008,116.699,-79.102,1762.336,459.9109187424523
537,1686111755.44,-55.664,-154.297,-48.828,-79.102,1762.337,459.0762918674896
538,1686111755.44,-25.879,-101.074,59.082,-19.531,1762.341,464.7553559539533
539,1686111755.44,-53.711,-412.109,-227.051,-63.965,1762.339,471.1948043515745
540,1686111755.45,12.207,88.867,153.809,29.785,1762.345,452.9133803550963
541,1686111755.45,-12.695,-834.473,-264.648,20.02,1762.343,479.1387675823595
542,1686111755.45,7.324,-142.09,94.238,18.066,1762.347,468.2460221187693
543,1686111755.45,-2.441,390.137,174.805,-29.297,1762.348,464.2485817402928
544,1686111755.46,-36.621,310.547,86.426,-87.891,1762.352,469.7454734582628
545,1686111755.46,-21.484,-73.242,-3.418,-54.199,1762.351,467.8029209435832
546,1686111755.46,-41.992,-529.297,-269.043,-67.871,1762.355,468.0433481907733
547,1686111755.46,-30.273,-32.715,-4.883,-42.969,1762.356,479.66887437651525
548,1686111755.46,-18.066,-164.551,-7.324,-9.277,1762.359,475.2738478054207
549,1686111755.47,8.301,314.453,196.289,18.555,1762.363,469.8642250724091
550,1686111755.47,-11.719,242.188,81.543,-31.25,1762.367,467.74615716934926
551,1686111755.47,-50.293,-132.324,-4.883,-71.289,1762.371,478.650191264674
552,1686111755.48,-32.227,178.223,122.07,-31.25,1762.375,478.22029636019386
553,1686111755.48,-1.465,580.566,224.609,12.695,1762.379,472.2786858241274
554,1686111755.48,-20.02,275.391,52.734,-24.902,1762.383,465.68646762185926
555,1686111755.49,-45.41,-729.98,-336.914,-72.266,1762.387,480.39574520960565
556,1686111755.49,-44.922,-384.277,-55.664,-57.129,1762.391,470.2477397216478
557,1686111755.5,-14.648,245.117,205.078,-0.488,1762.395,462.5859997740496
558,1686111755.5,-0.488,-142.09,-23.438,3.418,1762.399,470.76524241577505
559,1686111755.5,-34.668,-617.676,-232.91,-57.617,1762.403,462.0372722884737
560,1686111755.51,-43.945,36.133,60.059,-63.965,1762.407,456.57664841593294
561,1686111755.51,-4.883,594.238,231.934,-3.418,1762.41,464.80711518198945
562,1686111755.52,4.883,245.605,51.758,1.465,1762.414,452.83428470964014
563,1686111755.52,-35.156,-23.438,-15.625,-62.5,1762.418,450.90503222231166
564,1686111755.52,-55.176,232.91,136.719,-85.449,1762.421,461.90901908409495
565,1686111755.53,-29.297,505.371,201.66,-25.879,1762.425,449.2978686288872
566,1686111755.53,-3.906,93.75,-1.465,7.324,1762.429,454.73946488282445
567,1686111755.53,-23.926,-70.801,5.859,-54.199,1762.433,455.528644420705
568,1686111755.54,-55.176,-15.625,19.043,-92.773,1762.437,450.83930213403914
569,1686111755.54,-29.785,35.156,45.898,-38.086,1762.441,443.510497525876
570,1686111755.55,11.23,-428.223,-194.824,24.902,1762.445,449.791264367658
571,1686111755.55,-7.324,-819.336,-281.25,-5.371,1762.448,436.31336224080394
572,1686111755.55,-48.34,94.727,94.238,-72.754,1762.452,441.9213469854684
573,1686111755.56,-48.828,383.789,155.273,-50.781,1762.456,442.21450750922446
574,1686111755.56,-6.836,226.074,134.277,19.531,1762.46,434.80075298043215
575,1686111755.56,2.441,512.207,193.359,3.418,1762.464,432.6196584745759
576,1686111755.57,-36.621,540.527,126.953,-73.242,1762.477,436.4799366284608
577,1686111755.57,-52.734,172.363,30.273,-77.637,1762.481,430.95484287528507
578,1686111755.58,-13.184,-33.691,86.914,-4.883,1762.485,421.6125002676201
579,1686111755.58,9.766,321.289,176.758,3.418,1762.489,430.15521156116426
580,1686111755.58,-24.414,488.281,154.297,-71.777,1762.493,425.80847810935546
581,1686111755.59,-59.082,-78.125,-103.027,-85.449,1762.497,412.72626151588923
582,1686111755.59,-37.109,-842.285,-313.477,-15.625,1762.501,418.4878722240266
583,1686111755.6,5.859,-104.004,81.055,13.184,1762.505,424.3364108756584
584,1686111755.6,-9.277,540.039,182.617,-41.016,1762.509,419.82296184322524
585,1686111755.6,-51.27,133.789,-25.879,-89.355,1762.513,410.33117654971335
586,1686111755.61,-27.344,212.891,119.141,-53.711,1762.516,408.73648183726084
587,1686111755.61,25.391,564.453,231.934,14.16,1762.52,408.1976359628008
588,1686111755.63,5.371,515.625,145.508,-12.695,1762.523,404.03202215844215
589,1686111755.63,-41.992,37.598,-50.293,-82.52,1762.527,396.6280102755178
590,1686111755.63,-27.344,146.973,61.035,-53.711,1762.531,397.12174411797605
591,1686111755.64,13.184,402.344,183.594,19.531,1762.535,393.6029272185014
592,1686111755.64,12.207,112.305,68.359,6.348,1762.539,410.01740479996175
593,1686111755.65,-34.18,-526.367,-283.203,-63.965,1762.543,394.22580903116284
594,1686111755.65,-61.523,-839.844,-299.316,-69.336,1762.547,391.0942563597145
595,1686111755.65,-18.555,-26.855,119.629,-7.324,1762.551,397.7723674740886
596,1686111755.66,12.695,388.672,141.602,12.207,1762.555,395.6611589269516
597,1686111755.66,-19.043,-421.875,-221.68,-48.828,1762.558,395.9603676949506
598,1686111755.66,-38.574,-158.203,-2.93,-79.59,1762.562,382.14862647913947
599,1686111755.67,-16.113,573.242,263.672,-22.949,1762.566,393.5805940008674
600,1686111755.67,4.883,493.652,162.109,24.414,1762.57,393.743394344134
601,1686111755.68,-18.555,204.102,77.148,-32.715,1762.573,380.1269503155356
602,1686111755.68,-55.664,221.191,95.215,-88.867,1762.577,375.85414407177365
603,1686111755.68,-42.969,430.664,152.832,-51.27,1762.581,381.62733181696285
604,1686111755.69,3.906,335.938,116.211,18.555,1762.585,373.21344769937417
605,1686111755.69,-4.883,-31.738,41.016,0.0,1762.589,371.4301657109319
606,1686111755.7,-40.527,-86.914,17.09,-59.082,1762.593,382.3045796781022
607,1686111755.7,-32.227,81.055,68.848,-46.387,1762.597,383.07770916988835
608,1686111755.7,-0.488,-85.449,16.602,18.555,1762.601,365.3767991037651
609,1686111755.71,-4.395,-780.273,-270.508,19.043,1762.605,379.5843622508025
610,1686111755.71,-30.273,-170.41,14.648,-46.387,1762.609,370.3643559604905
611,1686111755.71,-46.875,394.043,152.344,-56.641,1762.613,367.4038424242692
612,1686111755.72,-21.484,132.324,74.219,8.301,1762.613,372.21184118886976
613,1686111755.72,2.93,336.426,173.34,33.691,1762.617,371.66427185706465
614,1686111755.72,-30.762,500.488,159.668,-26.367,1762.621,383.94100573382525
615,1686111755.73,-59.082,291.504,83.984,-66.406,1762.625,372.4424743394892
616,1686111755.73,-34.668,-297.363,-116.211,-9.277,1762.629,370.9453538534973
617,1686111755.74,2.93,-253.418,-1.953,40.527,1762.633,373.6544866615846
618,1686111755.74,-11.719,170.41,134.277,-7.812,1762.637,380.64438918635307
619,1686111755.74,-50.293,318.848,79.102,-67.871,1762.641,366.35996382588235
620,1686111755.75,-39.062,-381.836,-219.238,-32.227,1762.645,375.9222596290351
621,1686111755.75,5.371,-450.684,-77.148,28.809,1762.649,374.64506387703835
622,1686111755.76,6.836,332.031,193.848,10.742,1762.652,380.22900908841444
623,1686111755.76,-35.645,277.344,49.316,-56.641,1762.656,366.1578056639784
624,1686111755.76,-50.293,-208.984,-43.945,-56.641,1762.661,369.4895899221953
625,1686111755.77,-1.953,304.688,181.641,19.531,1762.665,375.64214442905353
626,1686111755.77,21.484,660.645,220.215,23.926,1762.668,369.2970423760163
627,1686111755.77,-24.414,330.078,76.172,-53.223,1762.672,361.17279805146467
628,1686111755.78,-47.852,165.527,58.105,-74.219,1762.676,371.9351403372406
629,1686111755.78,-22.461,126.953,79.102,-9.766,1762.68,374.0903793001179
630,1686111755.79,-2.93,154.297,128.906,17.578,1762.684,363.0123245774259
631,1686111755.79,-26.855,-100.098,-24.414,-42.48,1762.688,368.9654730995986
632,1686111755.79,-52.734,-583.008,-181.152,-74.219,1762.692,361.4281186632748
633,1686111755.8,-20.996,177.246,160.156,-16.113,1762.696,353.79273316843137
634,1686111755.8,10.742,679.199,253.906,30.762,1762.7,362.0090269865529
635,1686111755.8,-17.578,193.848,15.625,-22.949,1762.704,356.0788747543778
636,1686111755.81,-58.105,-95.703,-44.434,-87.402,1762.707,351.1385080595436
637,1686111755.81,-60.547,270.02,147.949,-62.988,1762.711,360.61969713304137
638,1686111755.82,-25.391,584.961,211.914,3.418,1762.714,361.2291182084781
639,1686111755.82,-13.184,3.418,-76.66,5.371,1762.718,352.70454373094185
640,1686111755.82,-65.918,-310.547,-74.219,-80.078,1762.722,345.49624421996856
641,1686111755.83,-83.008,-43.945,104.004,-97.656,1762.726,337.6373393767704
642,1686111755.83,-22.461,183.594,131.836,-4.883,1762.73,344.38757154555907
643,1686111755.83,4.395,-343.262,-187.988,17.578,1762.734,346.1759764243855
644,1686111755.84,-35.645,-792.969,-238.77,-68.848,1762.738,356.53047816218316
645,1686111755.84,-56.152,143.555,137.695,-93.262,1762.742,347.41237815299627
646,1686111755.85,-27.832,496.582,206.543,-12.695,1762.746,339.95612653678927
647,1686111755.85,2.93,350.098,187.012,23.438,1762.75,341.7625715428926
648,1686111755.88,-17.578,498.047,165.039,-36.621,1762.779,308.8340550821946
649,1686111755.88,-45.898,525.391,166.016,-78.125,1762.783,317.35749088377844
650,1686111755.89,-29.785,306.641,118.164,-24.414,1762.787,322.52237695647614
651,1686111755.89,9.277,204.102,166.504,37.598,1762.791,310.5762649872956
652,1686111755.9,15.137,629.395,254.883,30.273,1762.809,300.8779630914732
653,1686111755.9,4.883,414.062,183.594,4.883,1762.795,306.2366954901553
654,1686111755.9,-21.484,494.141,150.879,-39.062,1762.813,309.0832394135147
655,1686111755.9,-39.062,222.656,61.035,-62.988,1762.799,303.65632279168886
656,1686111755.9,-47.363,104.004,-20.508,-63.965,1762.817,313.70945858758347
657,1686111755.9,-39.551,-144.531,-40.527,-43.945,1762.802,300.63535918445285
658,1686111755.91,-5.371,-757.324,-223.633,27.344,1762.806,307.42236267097474
659,1686111755.91,-7.812,168.457,84.473,7.324,1762.821,296.32359405726396
660,1686111755.91,-1.465,-64.941,92.285,13.672,1762.81,306.23479509272585
661,1686111755.91,24.902,201.66,149.414,34.18,1762.825,291.2685501589604
662,1686111755.92,-38.086,587.402,207.031,-58.594,1762.814,298.1694406502927
663,1686111755.92,2.441,13.184,27.344,-18.555,1762.829,290.3245555613712
664,1686111755.92,-52.246,208.496,21.484,-66.406,1762.818,291.02168243132274
665,1686111755.92,-40.039,-512.207,-233.398,-65.43,1762.833,302.5088974866495
666,1686111755.92,-32.715,-250.488,32.227,-34.668,1762.837,299.5677574085395
667,1686111755.92,-10.254,348.633,156.25,5.371,1762.822,288.86046358435016
668,1686111755.93,10.742,660.645,297.363,33.691,1762.84,294.0847080172448
669,1686111755.93,10.742,508.789,130.371,20.508,1762.844,294.0197905897006
670,1686111755.94,-31.738,-88.867,-35.156,-43.945,1762.848,285.09375232706185
671,1686111755.94,-40.527,238.281,109.375,-37.598,1762.852,281.8434683700215
672,1686111755.94,0.0,705.078,267.578,27.832,1762.851,285.0385211760705
673,1686111755.95,9.277,523.438,153.32,20.02,1762.855,276.96821866111367
674,1686111755.95,-26.855,-676.27,-318.848,-43.945,1762.859,278.5326930344935
675,1686111755.95,-45.898,-639.16,-146.484,-52.246,1762.863,283.77718349321395
676,1686111755.96,-12.207,527.344,265.625,4.395,1762.867,277.7767083436137
677,1686111755.96,9.277,256.348,71.777,22.461,1762.871,264.56893747594006
678,1686111755.97,-26.367,-324.219,-30.273,-41.504,1762.875,274.4372864308602
679,1686111755.97,-45.898,174.805,110.84,-71.289,1762.879,272.19515748168044
680,1686111755.97,-17.578,362.305,138.184,-10.254,1762.883,267.4808243421338
681,1686111755.98,6.836,81.055,68.359,41.992,1762.887,268.46108281965235
682,1686111755.98,-7.812,-69.824,22.461,2.93,1762.891,267.7697649632262
683,1686111755.98,-32.227,382.324,148.438,-57.129,1762.894,268.9965350297178
684,1686111756.0,-32.227,529.785,146.973,-33.691,1762.898,273.6259688511094
685,1686111756.0,-5.371,292.48,114.258,34.18,1762.902,276.29964306144956
686,1686111756.01,5.859,434.082,179.688,14.16,1762.906,263.2064327141007
687,1686111756.01,-32.715,439.941,133.789,-60.059,1762.91,274.82052518505293
688,1686111756.02,-47.852,177.246,49.316,-54.199,1762.914,269.1661213658704
689,1686111756.02,-14.16,-476.074,-199.219,10.742,1762.918,281.8642526667372
690,1686111756.02,-3.906,-691.895,-168.945,14.648,1762.922,280.11938881404325
691,1686111756.03,-40.527,300.781,180.176,-61.523,1762.926,277.9971031400541
692,1686111756.03,-64.941,461.426,133.301,-82.52,1762.929,270.6271230291731
693,1686111756.04,-28.809,130.371,59.082,-15.137,1762.933,262.4341155031134
694,1686111756.04,7.812,304.688,132.324,16.602,1762.937,265.53806155132094
695,1686111756.04,-16.602,457.031,177.734,-37.598,1762.941,281.48746558680256
696,1686111756.05,-49.805,287.109,86.914,-81.055,1762.943,291.3897506157697
697,1686111756.05,-28.809,-106.445,5.859,-27.832,1762.947,280.15682013881263
698,1686111756.05,9.766,379.883,208.984,30.762,1762.951,272.5990365491366
699,1686111756.06,-3.418,649.414,207.031,-8.301,1762.955,288.89496964132485
700,1686111756.06,-30.762,298.828,42.48,-60.059,1762.959,283.482051679638
701,1686111756.07,-22.461,-54.199,-11.23,-28.32,1762.963,276.5516290660982
702,1686111756.07,-0.488,132.324,116.699,20.02,1762.967,288.1498039153835
703,1686111756.07,-2.93,583.984,199.707,-0.488,1762.97,279.49432555485214
704,1686111756.08,-39.551,123.047,-47.852,-54.688,1762.974,301.55548168645913
705,1686111756.08,-63.965,-545.898,-144.531,-62.5,1762.978,282.449860350165
706,1686111756.08,-33.691,242.188,194.824,-12.207,1762.982,284.21539689479886
707,1686111756.09,2.441,676.758,225.586,16.113,1762.986,296.8322996522224
708,1686111756.09,-21.484,128.906,-45.898,-39.062,1762.99,292.0591499085207
709,1686111756.1,-51.27,-122.559,-62.5,-78.125,1762.994,288.31303689178105
710,1686111756.1,-19.531,357.422,188.477,-16.113,1762.998,297.3649422807905
711,1686111756.1,20.02,671.387,240.234,30.762,1763.002,300.3966183075822
712,1686111756.11,1.465,-214.844,-195.801,-17.09,1763.005,306.2255919899236
713,1686111756.11,-36.133,-809.082,-288.574,-72.754,1763.009,310.0633552047362
714,1686111756.12,-17.09,30.273,123.535,-35.156,1763.013,309.64535050847144
715,1686111756.12,26.855,576.66,184.57,32.227,1763.017,303.1451158726036
716,1686111756.12,9.277,-215.332,-180.664,9.766,1763.021,304.5124989141587
717,1686111756.13,-31.738,-234.375,-29.297,-62.988,1763.025,308.9138946692327
718,1686111756.13,-19.043,503.418,191.895,-40.039,1763.029,301.50012941831574
719,1686111756.13,13.184,568.848,209.961,25.391,1763.033,318.26524434212473
720,1686111756.14,12.207,411.133,203.613,5.371,1763.035,325.0907137631993
721,1686111756.14,-22.949,458.008,144.043,-65.918,1763.039,333.0043863269332
722,1686111756.15,-38.574,531.25,165.039,-70.801,1763.043,325.51062809265045
723,1686111756.15,-6.348,377.93,130.371,6.348,1763.047,322.87544420159674
724,1686111756.15,14.648,194.336,90.332,18.555,1763.051,315.91572412679454
725,1686111756.16,-6.836,46.875,20.508,-42.969,1763.055,331.08725314537986
726,1686111756.16,-31.738,173.34,69.336,-68.359,1763.059,326.2918034221826
727,1686111756.16,-10.742,162.598,41.992,-13.672,1763.063,321.49917163886647
728,1686111756.17,10.742,-617.676,-225.586,36.133,1763.067,342.49230021518133
729,1686111756.17,-9.766,38.574,73.73,-19.531,1763.07,349.951418637009
730,1686111756.18,-45.41,543.457,177.246,-80.566,1763.074,332.706327895373
731,1686111756.18,-37.109,177.734,10.254,-41.992,1763.078,334.7578310187405
732,1686111756.18,4.395,359.863,141.113,18.555,1763.078,334.7480151802596
733,1686111756.18,2.93,589.844,211.914,-5.371,1763.082,335.5607125931237
734,1686111756.19,-43.457,456.055,110.352,-70.801,1763.086,344.3514118010216
735,1686111756.19,-51.27,38.574,-25.391,-60.547,1763.09,346.3693230977155
736,1686111756.2,-4.883,-4.883,49.316,7.324,1763.094,336.6035553564712
737,1686111756.2,7.812,90.82,75.684,5.859,1763.098,344.2863436108428
738,1686111756.2,-23.926,2.93,7.324,-58.594,1763.102,352.53518865478395
739,1686111756.21,-36.621,-589.844,-315.43,-55.176,1763.106,338.0552337614573
740,1686111756.21,-7.812,-1000.0,-378.906,17.578,1763.109,341.5843421004583
741,1686111756.22,12.207,90.82,132.812,22.461,1763.113,353.59123889046765
742,1686111756.22,-11.719,478.516,127.93,-44.434,1763.117,362.827103229183
743,1686111756.22,-42.48,103.516,-14.16,-74.707,1763.121,349.484901191794
744,1686111756.23,-16.602,498.047,173.828,-20.508,1763.137,348.1732159690883
745,1686111756.23,18.555,799.316,246.582,33.203,1763.141,353.3315440313524
746,1686111756.24,0.488,507.324,118.652,0.488,1763.145,353.8251049184868
747,1686111756.24,-34.18,162.598,-5.371,-53.711,1763.148,355.9402556591609
748,1686111756.24,-25.879,323.242,104.004,-34.18,1763.152,354.1781064782197
749,1686111756.25,9.766,358.398,155.273,27.344,1763.156,349.9357225230486
750,1686111756.25,11.23,6.836,-8.301,15.137,1763.16,355.3625983877113
751,1686111756.25,-32.227,-551.758,-218.262,-59.082,1763.164,356.8377649481896
752,1686111756.26,-45.41,4.395,39.551,-61.035,1763.168,353.9840967949376
753,1686111756.26,-4.395,390.137,147.949,20.02,1763.172,367.5936557012378
754,1686111756.27,15.137,139.648,82.52,32.715,1763.176,357.6251303194374
755,1686111756.27,-22.461,147.949,113.281,-40.527,1763.18,359.3830147018532
756,1686111756.27,-47.363,484.863,168.457,-62.5,1763.168,347.4644881623194
757,1686111756.28,-12.207,565.43,166.016,8.301,1763.172,358.7966532445418
758,1686111756.28,20.508,319.824,74.707,48.828,1763.176,352.1773536236761
759,1686111756.28,-0.488,281.738,99.609,-8.789,1763.18,345.3879440883148
760,1686111756.29,-33.691,74.707,14.16,-52.246,1763.184,359.05414976303075
761,1686111756.29,-16.602,83.496,51.27,-11.23,1763.188,364.3219202140107
762,1686111756.3,19.043,-362.305,-148.926,44.922,1763.192,355.0705290642762
763,1686111756.3,3.906,-815.43,-282.715,15.625,1763.196,355.32944062310844
764,1686111756.3,-29.785,170.41,106.934,-54.199,1763.199,363.7925036568404
765,1686111756.31,-26.855,488.281,166.992,-29.297,1763.203,354.45094917978935
766,1686111756.31,6.836,199.707,78.613,39.062,1763.207,359.6536675494573
767,1686111756.31,12.695,296.875,117.676,20.02,1763.211,348.6532126934364
768,1686111756.32,-31.738,358.398,92.773,-48.828,1763.218,357.82518120553266
769,1686111756.32,-49.805,266.602,40.039,-52.246,1763.222,359.0529698314092
770,1686111756.33,-13.184,-27.344,31.738,17.09,1763.226,358.3683272290655
771,1686111756.33,8.789,373.047,146.484,20.02,1763.23,344.8811924061807
772,1686111756.34,-17.578,601.074,164.551,-52.734,1763.234,350.7191343884458
773,1686111756.34,-36.133,28.32,-51.27,-71.777,1763.238,362.03684395289184
774,1686111756.34,-15.625,-595.703,-204.59,-11.719,1763.242,358.0848385618751
775,1686111756.35,21.484,288.086,166.504,27.344,1763.246,363.69561994091083
776,1686111756.35,5.859,741.211,191.895,-32.227,1763.249,356.5560477106975
777,1686111756.35,-46.387,271.973,-2.441,-86.914,1763.253,364.2222190141149
778,1686111756.36,-38.086,347.656,138.184,-45.41,1763.257,366.6881816518206
779,1686111756.36,10.254,713.379,243.164,23.926,1763.261,361.49141711746717
780,1686111756.38,8.301,694.824,178.711,5.859,1763.275,351.3364338291843
781,1686111756.38,-37.109,135.742,-48.828,-67.871,1763.279,360.8275225366081
782,1686111756.38,-42.48,16.602,-20.02,-54.199,1763.282,365.39667178170134
783,1686111756.39,-3.418,393.555,177.246,21.484,1763.286,355.9374437080775
784,1686111756.39,5.859,292.969,97.656,12.207,1763.29,353.49442376977953
785,1686111756.4,-34.18,-422.852,-277.832,-60.547,1763.294,356.6986292188133
786,1686111756.4,-62.012,-1000.0,-422.363,-61.523,1763.298,366.49704389875075
787,1686111756.4,-18.555,-15.137,110.352,2.441,1763.302,351.6167751994067
788,1686111756.41,11.23,633.789,209.961,13.184,1763.306,353.575546690766
789,1686111756.41,-28.32,239.746,18.555,-45.898,1763.31,356.56451274964775
790,1686111756.42,-51.758,372.07,109.863,-67.383,1763.314,356.86209302259743
791,1686111756.42,-20.996,630.859,201.172,-10.254,1763.318,358.7629637116871
792,1686111756.42,11.719,569.336,170.41,23.926,1763.333,361.92022449507505
793,1686111756.42,-8.789,205.078,9.766,-31.25,1763.337,363.73010842429403
794,1686111756.43,-44.434,313.477,80.078,-84.961,1763.341,359.29858750421994
795,1686111756.43,-35.645,567.383,181.641,-50.293,1763.345,361.00641829121565
796,1686111756.44,3.906,423.828,122.559,10.742,1763.349,360.5910956895579
797,1686111756.44,2.441,30.762,-5.371,-7.812,1763.353,365.6681686662868
798,1686111756.44,-31.25,-40.039,3.906,-70.312,1763.356,370.01045360496704
799,1686111756.45,-31.738,437.012,168.945,-65.43,1763.36,356.40834909034
800,1686111756.45,-2.93,291.016,69.824,2.441,1763.364,361.0250032737829
801,1686111756.46,-0.488,-604.492,-235.84,14.16,1763.368,352.7113847001762
802,1686111756.46,-31.738,30.273,46.387,-44.434,1763.372,359.77555886844107
803,1686111756.46,-35.156,524.414,171.387,-40.527,1763.376,358.4518446363113
804,1686111756.47,6.348,243.652,61.035,25.879,1763.363,352.96202557872954
805,1686111756.47,22.461,418.457,164.062,27.832,1763.367,376.79039154374755
806,1686111756.47,-11.719,546.875,168.945,-44.922,1763.371,367.1094551349002
807,1686111756.48,-36.621,356.934,66.895,-72.266,1763.375,371.06766023744115
808,1686111756.48,-15.137,-263.672,-133.789,-9.277,1763.379,375.30537229550777
809,1686111756.49,18.066,-345.215,-26.367,30.273,1763.383,369.4012112510189
810,1686111756.49,5.371,212.402,118.652,-20.02,1763.387,363.67163170241025
811,1686111756.49,-35.645,157.715,-33.203,-71.289,1763.39,368.2150844136406
812,1686111756.5,-34.18,-388.184,-233.887,-36.621,1763.394,361.0812594512834
813,1686111756.5,5.859,139.16,69.824,23.438,1763.398,371.0322198666473
814,1686111756.5,11.719,754.395,254.395,7.324,1763.402,376.1846151560985
815,1686111756.51,-15.137,380.371,9.277,-52.734,1763.406,383.20184715116824
816,1686111756.51,-27.344,-581.055,-291.016,-41.016,1763.41,365.8775196218661
817,1686111756.52,-1.953,-149.414,50.781,29.785,1763.414,377.7838041333368
818,1686111756.52,16.113,684.57,263.184,35.156,1763.418,379.1582768647346
819,1686111756.52,-27.832,351.562,13.672,-39.551,1763.422,376.4758680424376
820,1686111756.53,-61.035,124.512,-32.227,-65.43,1763.426,389.31791183901356
821,1686111756.53,-26.855,119.141,84.473,-3.906,1763.43,377.04483895697126
822,1686111756.54,6.348,335.449,165.039,27.832,1763.434,374.17563715541286
823,1686111756.54,-11.23,183.105,-5.859,-27.344,1763.438,379.8545319626954
824,1686111756.54,-42.969,-540.039,-191.406,-64.941,1763.442,378.1715338085652
825,1686111756.55,-14.16,54.199,93.262,-17.09,1763.446,389.0456485435583
826,1686111756.55,30.273,412.598,145.996,39.062,1763.449,378.6017322967606
827,1686111756.56,13.672,10.742,-42.48,0.977,1763.453,382.8446058952504
828,1686111756.56,-30.762,11.23,11.719,-59.082,1763.453,386.1275116078916
829,1686111756.56,-30.273,471.191,182.617,-40.527,1763.457,394.372214406507
830,1686111756.56,7.812,638.184,192.383,17.09,1763.461,390.21729593652697
831,1686111756.57,7.324,260.742,-7.812,4.883,1763.465,384.3357247342442
832,1686111756.57,-27.832,-17.578,-75.195,-56.152,1763.469,394.1574066540224
833,1686111756.58,-33.203,13.184,23.926,-57.617,1763.473,381.9159268709447
834,1686111756.58,5.371,230.469,109.863,2.441,1763.476,386.68915866173114
835,1686111756.58,21.484,-299.805,-212.402,17.578,1763.48,379.8290838259142
836,1686111756.59,-28.809,-792.48,-299.805,-55.176,1763.484,379.345978449724
837,1686111756.59,-58.105,228.516,129.395,-83.496,1763.488,375.0044133111184
838,1686111756.6,-19.043,615.723,210.449,-6.836,1763.492,386.76615794805116
839,1686111756.6,7.812,367.188,115.234,18.555,1763.496,379.8431840107798
840,1686111756.6,-19.043,271.973,51.758,-34.18,1763.504,366.76915695422053
841,1686111756.61,-44.434,388.672,119.629,-79.102,1763.508,380.45750748187623
842,1686111756.61,-18.066,350.586,96.191,-42.969,1763.512,381.01149539082525
843,1686111756.62,20.996,36.133,48.828,22.461,1763.516,384.484442651533
844,1686111756.62,8.301,323.73,113.281,-7.812,1763.52,385.1970860822166
845,1686111756.62,-36.133,277.832,54.688,-78.125,1763.523,387.1502864129808
846,1686111756.63,-45.898,-135.742,-68.848,-53.711,1763.527,390.42280931657893
847,1686111756.63,-14.16,-534.18,-142.09,20.508,1763.531,389.28457178980665
848,1686111756.64,-0.488,215.332,148.926,2.441,1763.535,385.1726634165402
849,1686111756.64,-37.109,539.062,137.695,-69.824,1763.539,381.2217554275896
850,1686111756.64,-61.523,169.434,7.812,-68.848,1763.543,396.8645101633645
851,1686111756.65,3.418,687.988,219.238,25.879,1763.557,385.6086039221811
852,1686111756.65,-26.855,390.625,145.02,6.348,1763.547,372.19737853887466
853,1686111756.65,-25.391,537.109,123.535,-39.551,1763.561,369.7254492633265
854,1686111756.65,-49.805,53.711,-62.5,-76.172,1763.565,387.4308542007685
855,1686111756.66,-22.461,7.812,16.602,-16.113,1763.569,383.5387711340779
856,1686111756.66,2.93,173.34,94.727,25.391,1763.573,385.30290750236355
857,1686111756.67,-10.254,129.395,38.574,-21.484,1763.577,386.61264653213243
858,1686111756.67,-42.969,-498.047,-320.801,-58.105,1763.581,385.088356208223
859,1686111756.67,-47.363,-1000.0,-441.895,-22.461,1763.584,383.77960043381694
860,1686111756.68,-13.184,56.641,115.234,24.414,1763.588,378.46071822477677
861,1686111756.68,-13.672,625.977,197.266,-6.836,1763.592,384.7245414620175
862,1686111756.68,-59.082,203.613,17.09,-72.754,1763.596,387.1079557752773
863,1686111756.69,-55.664,389.16,127.93,-53.223,1763.6,383.28065269592383
864,1686111756.71,-6.836,670.898,220.215,23.926,1763.605,383.94581093351036
865,1686111756.71,10.254,536.621,121.582,22.949,1763.609,379.0353305934112
866,1686111756.72,-18.555,213.867,-1.953,-46.875,1763.613,378.3146043320642
867,1686111756.72,-34.668,351.562,102.051,-59.57,1763.617,375.8706991190439
868,1686111756.72,0.488,600.098,198.73,5.859,1763.621,368.4161107133127
869,1686111756.73,23.926,198.73,54.688,30.762,1763.624,380.2170652267389
870,1686111756.73,-9.766,-528.809,-137.207,-29.785,1763.628,379.7104106464991
871,1686111756.73,-37.109,-125.977,3.418,-64.453,1763.632,391.3962667225533
872,1686111756.74,-16.602,592.285,188.965,-15.137,1763.636,382.03534239563993
873,1686111756.74,12.695,313.477,73.242,28.809,1763.64,365.0615241798386
874,1686111756.75,-12.695,-127.93,-19.531,-16.113,1763.644,362.9499534755932
875,1686111756.75,-47.363,351.074,134.766,-71.289,1763.648,379.7098818004668
876,1686111756.75,-30.762,554.199,146.484,-29.297,1763.648,380.9706736786593
877,1686111756.76,6.836,301.758,73.73,38.574,1763.652,374.39771054668074
878,1686111756.76,10.254,389.648,112.305,6.836,1763.656,376.4006286482767
879,1686111756.76,-31.25,443.848,119.141,-62.012,1763.66,375.5319551038146
880,1686111756.77,-54.199,122.559,-0.488,-56.641,1763.664,372.97899079415765
881,1686111756.77,-16.113,-274.414,-152.832,8.301,1763.668,374.5787083935495
882,1686111756.78,9.277,21.484,28.809,17.09,1763.671,382.4578742667523
883,1686111756.78,-19.531,415.039,132.812,-55.664,1763.675,385.43579012204964
884,1686111756.78,-43.945,209.961,29.785,-78.613,1763.679,379.00649322297556
885,1686111756.79,-15.137,-473.145,-244.141,3.418,1763.683,371.41365198231466
886,1686111756.79,0.977,-955.078,-337.891,36.621,1763.687,373.29290001443525
887,1686111756.79,-29.297,19.531,86.914,-40.039,1763.691,372.88803009602793
888,1686111756.8,-59.57,393.066,92.773,-79.59,1763.695,376.8319079239664
889,1686111756.8,-33.691,222.656,64.453,-22.949,1763.699,365.9317945164099
890,1686111756.8,17.578,642.578,226.074,25.879,1763.703,376.9139815259058
891,1686111756.81,11.719,728.516,196.777,-5.371,1763.707,368.2646921592209
892,1686111756.81,-28.809,382.812,41.504,-59.082,1763.711,374.53859133085547
893,1686111756.82,-29.297,-59.57,-69.336,-37.598,1763.714,372.25753970245876
894,1686111756.82,20.02,125.488,87.402,31.25,1763.718,370.6808960173658
895,1686111756.82,26.367,634.766,205.078,20.508,1763.722,371.9064274086259
896,1686111756.83,-27.832,163.574,-75.684,-48.34,1763.726,372.58860694745795
897,1686111756.83,-37.109,-530.762,-169.922,-41.992,1763.73,357.3950883539983
898,1686111756.84,7.324,150.391,154.297,26.367,1763.734,373.6073215115836
899,1686111756.84,12.695,395.996,125.488,26.367,1763.738,374.3862953224922
900,1686111756.84,-32.227,-10.254,-50.293,-50.293,1763.738,373.0745625314564
901,1686111756.84,-55.176,-59.082,22.949,-74.707,1763.742,380.723478082807
902,1686111756.85,-14.648,430.176,205.078,-5.371,1763.746,371.37959985637434
903,1686111756.85,24.414,591.797,186.523,39.062,1763.75,370.38491079356083
904,1686111756.86,7.324,-48.34,-116.211,-9.766,1763.754,368.9650760967819
905,1686111756.86,-32.715,-283.691,-121.094,-59.57,1763.758,378.4094989168441
906,1686111756.86,-19.531,184.082,116.699,-19.531,1763.762,373.1209996434209
907,1686111756.87,19.531,580.566,192.871,28.32,1763.766,374.2382610148797
908,1686111756.87,-4.395,-202.637,-228.516,-9.277,1763.77,364.5470523031972
909,1686111756.88,-40.527,-382.812,-151.367,-72.754,1763.773,380.01967722968527
910,1686111756.88,-31.25,502.93,192.383,-55.176,1763.777,379.26377025312974
911,1686111756.88,3.906,593.75,162.109,11.719,1763.781,381.5856256281432
912,1686111756.89,7.812,332.52,127.93,3.906,1763.79,366.73005113659053
913,1686111756.89,-32.715,148.926,0.0,-69.824,1763.794,381.3689509904816
914,1686111756.9,-43.457,349.609,99.609,-72.754,1763.798,373.9009659468294
915,1686111756.9,-7.812,442.383,144.043,2.441,1763.802,376.81116460332515
916,1686111756.9,14.16,104.98,38.086,18.555,1763.806,376.87032197291705
917,1686111756.91,-13.184,-9.277,-22.949,-49.316,1763.81,376.66482492898353
918,1686111756.91,-41.504,180.176,22.949,-84.961,1763.813,366.611178456564
919,1686111756.92,-16.113,210.449,15.625,-20.02,1763.817,376.3202792003923
920,1686111756.92,16.113,-326.172,-117.676,30.762,1763.821,371.65109490970053
921,1686111756.92,-5.371,252.93,128.906,-22.461,1763.825,369.29453491912693
922,1686111756.93,-48.34,534.668,118.164,-75.195,1763.829,379.1378337997551
923,1686111756.93,9.277,390.137,147.949,20.996,1763.828,368.9312176953507
924,1686111756.93,-34.18,207.031,27.344,-34.18,1763.833,368.3778629699384
925,1686111756.94,6.836,598.633,163.574,-6.348,1763.832,370.8170710557006
926,1686111756.94,-35.156,429.199,69.824,-72.754,1763.836,364.59778776022233
927,1686111756.94,-47.852,-13.184,-90.332,-60.059,1763.84,369.85808290196223
928,1686111756.95,-10.254,11.23,0.0,15.137,1763.844,372.261026894476
929,1686111756.95,10.742,157.715,60.059,16.602,1763.848,362.07498271309464
930,1686111756.96,-23.926,34.668,-38.086,-53.711,1763.852,373.210233602906
931,1686111756.96,-49.805,-533.203,-338.379,-66.406,1763.855,379.3561754948098
932,1686111756.96,-25.391,-998.047,-382.812,5.371,1763.859,370.99255252207047
933,1686111756.97,6.348,72.754,120.117,24.902,1763.863,370.5150659388718
934,1686111756.97,-12.207,579.59,129.883,-36.133,1763.867,371.8803807674591
935,1686111756.97,-46.387,200.195,0.488,-68.848,1763.871,374.36451254201404
936,1686111756.98,-20.996,511.719,171.875,-11.719,1763.875,362.5070050972653
937,1686111756.98,20.02,765.625,227.539,39.551,1763.879,366.3218506576214
938,1686111756.98,0.488,529.297,108.887,-10.254,1763.883,364.79506701646295
939,1686111756.99,-42.48,285.156,18.555,-69.336,1763.887,377.43071142979517
940,1686111756.99,-23.926,461.426,117.188,-28.32,1763.891,372.84010034587965
941,1686111757.0,13.184,437.5,154.785,36.621,1763.895,373.16639487982883
942,1686111757.0,5.859,23.438,-30.762,12.695,1763.899,371.8353671196911
943,1686111757.0,-34.668,-775.391,-372.07,-49.316,1763.903,372.73773702438024
944,1686111757.01,-55.664,-158.203,1.953,-63.965,1763.907,377.357438045858
945,1686111757.01,-25.391,689.941,233.398,-5.859,1763.911,371.9192415277174
946,1686111757.02,-3.418,385.254,63.477,11.23,1763.914,366.0768881645561
947,1686111757.02,-35.645,291.016,93.262,-53.223,1763.918,378.74955192718886
948,1686111757.02,-63.477,516.602,149.414,-71.289,1763.932,358.7990028970592
949,1686111757.02,-26.367,580.566,159.668,1.953,1763.935,381.6995583862187
950,1686111757.03,5.859,372.07,69.824,39.551,1763.939,374.9518391083696
951,1686111757.03,-24.414,239.746,48.828,-24.902,1763.943,367.321365434214
952,1686111757.04,-60.059,30.762,-55.664,-63.965,1763.947,362.52325728752
953,1686111757.04,-36.621,84.473,-16.602,-19.043,1763.951,362.1630070176619
954,1686111757.04,-5.371,-355.957,-218.262,32.227,1763.955,364.7698922718561
955,1686111757.05,-18.555,-873.535,-352.539,-3.906,1763.959,369.6738661884785
956,1686111757.05,-44.434,2.441,10.254,-80.078,1763.963,368.7388324171839
957,1686111757.06,-39.062,203.125,38.086,-46.875,1763.967,372.8215514903617
958,1686111757.06,-2.93,-175.293,-88.379,32.227,1763.971,371.61853161141903
959,1686111757.06,8.301,359.863,122.07,10.254,1763.975,372.24774817439004
960,1686111757.07,-24.414,621.582,157.227,-54.688,1763.976,370.585612965113
961,1686111757.07,-36.621,319.336,20.508,-45.898,1763.98,373.71856075603563
962,1686111757.08,-1.465,322.754,82.031,18.066,1763.984,373.63500861292846
963,1686111757.08,16.113,593.262,170.41,30.762,1763.988,379.7897178651428
964,1686111757.08,-12.695,630.371,135.254,-34.18,1763.992,378.1822177512278
965,1686111757.09,-46.387,60.059,-70.312,-63.477,1763.996,380.0912777524206
966,1686111757.09,-26.855,-415.527,-98.145,-2.93,1764.0,369.76342648590173
967,1686111757.09,8.301,381.836,196.777,34.18,1764.004,368.22992285037986
968,1686111757.1,-10.742,683.594,151.367,-25.391,1764.008,376.0409118232403
969,1686111757.1,-40.527,182.129,-46.875,-65.918,1764.012,361.5164570888049
970,1686111757.11,-20.02,213.379,64.941,-21.973,1764.016,374.9445010853748
971,1686111757.11,25.391,424.316,137.207,37.598,1764.019,378.33637855068076
972,1686111757.11,22.461,349.609,89.355,6.348,1764.023,382.9935421723353
973,1686111757.12,-21.484,-18.066,-86.426,-72.266,1764.026,370.19714234072836
974,1686111757.12,-23.926,21.484,15.137,-57.617,1764.03,362.43550410748827
975,1686111757.12,8.789,401.367,164.062,12.695,1764.034,380.36207638600706
976,1686111757.13,3.906,227.539,56.641,3.418,1764.038,379.8367631682256
977,1686111757.13,-33.691,-448.73,-326.66,-55.664,1764.042,375.5284433937623
978,1686111757.14,-48.34,-821.777,-392.09,-61.035,1764.046,365.16420065495674
979,1686111757.14,-12.207,291.992,143.066,-7.812,1764.05,374.34643054839916
980,1686111757.14,16.602,632.324,158.203,11.719,1764.054,381.64764052614873
981,1686111757.15,-18.555,70.312,-61.523,-46.387,1764.058,390.2548394429611
982,1686111757.15,-52.734,271.484,72.266,-78.613,1764.062,368.50833744700225
983,1686111757.16,-23.438,608.887,199.707,-16.113,1764.066,371.6585410046721
984,1686111757.17,8.301,573.242,138.672,37.109,1764.074,373.51978978180347
985,1686111757.18,-17.09,236.328,-9.277,-22.949,1764.078,379.23893194144927
986,1686111757.18,-52.246,20.02,-71.289,-81.543,1764.082,375.9832000924007
987,1686111757.18,-38.574,361.328,104.004,-46.387,1764.086,363.57344250538176
988,1686111757.19,1.465,323.242,80.566,17.09,1764.09,370.44375181986777
989,1686111757.19,3.906,-455.078,-235.352,7.324,1764.094,367.03377080017674
990,1686111757.2,-34.18,-223.633,-123.535,-62.5,1764.098,369.58692524934287
991,1686111757.2,-40.527,478.027,131.348,-55.176,1764.102,372.49155280330183
992,1686111757.2,-8.301,283.691,21.973,23.926,1764.106,378.42454127338976
993,1686111757.21,-4.395,-142.578,-46.875,17.578,1764.109,372.8025886087597
994,1686111757.21,-35.645,324.707,101.074,-63.965,1764.113,368.2428870886693
995,1686111757.22,-59.57,437.988,74.219,-69.336,1764.117,382.0703986460974
996,1686111757.22,-37.598,221.68,28.32,2.93,1764.113,381.38042598296965
997,1686111757.22,-10.254,395.508,109.863,24.902,1764.117,374.03612969606974
998,1686111757.22,-29.297,531.25,135.254,-34.18,1764.121,366.14843243547034
999,1686111757.23,-56.641,383.301,53.711,-64.941,1764.125,372.6835761172349
1000,1686111757.23,-32.715,-190.43,-197.754,-11.23,1764.129,364.81472601626035
1001,1686111757.24,11.23,-197.754,-76.172,28.809,1764.133,367.97803264991944
1002,1686111757.24,-2.93,44.434,-13.184,-22.461,1764.137,369.2615961553134
1003,1686111757.24,-42.969,-13.672,-152.832,-79.102,1764.14,371.9654170618559
1004,1686111757.25,-43.457,-550.781,-359.375,-34.18,1764.144,372.95563221822664
1005,1686111757.25,-6.348,-749.023,-234.375,34.18,1764.148,371.3741639515739
1006,1686111757.26,0.0,347.168,187.012,-0.977,1764.152,367.41178724164786
1007,1686111757.26,-29.785,472.656,74.219,-76.172,1764.156,369.54328061277243
1008,1686111757.26,-31.738,146.973,-14.16,-69.336,1764.161,375.10492747082986
1009,1686111757.27,4.883,402.832,126.953,2.93,1764.165,372.98657553374636
1010,1686111757.27,20.02,563.965,158.203,8.789,1764.168,363.39578167847395
1011,1686111757.28,-4.883,418.457,49.316,-48.34,1764.172,368.5094286449962
1012,1686111757.28,-29.785,219.727,-19.531,-62.012,1764.176,367.00770348772954
1013,1686111757.28,-0.488,131.348,14.16,0.0,1764.18,370.11234657083304
1014,1686111757.29,30.273,301.758,75.684,25.391,1764.184,359.40858201721875
1015,1686111757.29,6.836,173.34,-64.453,-27.832,1764.188,366.4829419978478
1016,1686111757.29,-40.527,-777.344,-388.672,-71.777,1764.192,376.1827279192515
1017,1686111757.3,-18.555,-95.215,25.879,-31.25,1764.196,361.5041804379969
1018,1686111757.3,28.32,740.234,234.863,22.949,1764.2,376.13859728090193
1019,1686111757.31,8.301,283.691,-30.273,-10.742,1764.204,377.71613535164335
1020,1686111757.31,-30.273,189.453,5.371,-66.895,1764.217,365.40439586823385
1021,1686111757.31,-29.785,470.215,120.117,-36.621,1764.221,367.7591505884331
1022,1686111757.31,9.766,614.258,186.523,28.32,1764.225,378.88600879923536
1023,1686111757.32,19.043,264.648,-5.859,16.113,1764.228,372.4259099268509
1024,1686111757.32,-20.02,-135.254,-204.102,-49.805,1764.232,378.13817513416063
1025,1686111757.33,-36.621,-90.82,-68.359,-50.293,1764.236,380.74922129306754
1026,1686111757.33,-10.742,149.414,74.707,20.996,1764.24,365.6958655821451
1027,1686111757.33,0.977,-330.078,-254.395,27.832,1764.244,373.2028562201982
1028,1686111757.34,-32.715,-827.148,-379.395,-48.34,1764.248,373.3234919634847
1029,1686111757.34,-53.223,58.594,49.316,-74.707,1764.252,370.7481078554754
1030,1686111757.34,-22.949,250.488,66.895,-6.836,1764.256,371.00824820479676
1031,1686111757.35,2.93,-125.977,-85.938,36.621,1764.26,370.0299930976971
1032,1686111757.35,-21.973,349.609,113.281,-19.043,1764.25,377.9249575913446
1033,1686111757.36,-50.293,590.82,120.117,-70.312,1764.254,374.8153567440287
1034,1686111757.36,-36.133,350.098,43.945,-30.273,1764.258,378.6542090345247
1035,1686111757.36,-1.465,378.418,160.156,26.367,1764.262,391.2606613476986
1036,1686111757.37,2.93,497.559,146.973,3.418,1764.266,379.89601013493774
1037,1686111757.37,-27.344,242.188,19.043,-55.176,1764.27,382.82468108166813
1038,1686111757.38,-31.25,-127.441,-98.633,-41.504,1764.274,368.3338685997734
1039,1686111757.38,4.883,-414.062,-101.074,29.297,1764.277,376.3712672926769
1040,1686111757.38,20.508,270.508,131.836,24.414,1764.281,369.47297263193315
1041,1686111757.39,-19.531,628.418,138.184,-49.805,1764.285,372.7675290788916
1042,1686111757.39,-49.805,125.0,-87.891,-55.664,1764.289,363.0297102937108
1043,1686111757.4,-22.461,119.141,16.113,11.719,1764.293,373.4095862241514
1044,1686111757.4,1.953,419.434,148.438,28.809,1764.296,368.5083485150162
1045,1686111757.4,-29.297,176.758,-20.02,-30.273,1764.3,381.4278745897514
1046,1686111757.4,-60.059,-137.695,-144.531,-61.035,1764.304,377.76275857412935
1047,1686111757.41,-27.832,45.41,41.992,-12.695,1764.308,374.76322223465843
1048,1686111757.41,5.371,241.699,108.398,26.367,1764.312,377.4163675986202
1049,1686111757.42,-10.742,166.504,1.465,-25.879,1764.316,370.43122060384644
1050,1686111757.42,-44.434,-456.055,-334.473,-77.148,1764.32,368.61441898172336
1051,1686111757.42,-37.109,-852.051,-337.891,-39.062,1764.324,371.7080705843191
1052,1686111757.43,7.812,350.586,167.969,16.113,1764.328,374.5797303312832
1053,1686111757.43,6.836,637.695,140.625,-1.953,1764.332,375.14501031117385
1054,1686111757.44,-42.969,119.141,-3.418,-69.336,1764.335,374.16564824280124
1055,1686111757.44,-49.805,412.598,122.07,-66.406,1764.339,374.0501987312087
1056,1686111757.44,1.465,730.957,231.445,0.977,1764.34,360.78989408659527
1057,1686111757.45,12.695,595.215,152.344,4.395,1764.344,378.8113044748258
1058,1686111757.45,-32.715,218.262,-7.812,-62.5,1764.348,374.1011353879877
1059,1686111757.45,-52.246,120.117,4.883,-69.824,1764.352,369.9936467694697
1060,1686111757.46,-12.207,493.164,162.109,-1.953,1764.356,373.7107282353198
1061,1686111757.46,6.836,275.879,54.688,20.996,1764.36,376.7533975638402
1062,1686111757.47,-33.691,-732.91,-351.562,-35.156,1764.364,366.30938249230917
1063,1686111757.47,-51.27,-375.977,-178.711,-74.707,1764.367,377.2056123457325
1064,1686111757.47,-23.438,497.07,161.133,-27.344,1764.371,366.57361679865176
1065,1686111757.48,9.766,466.309,102.051,23.926,1764.375,369.9661886167764
1066,1686111757.48,-1.465,397.949,94.727,-18.555,1764.379,377.12222164355074
1067,1686111757.48,-42.48,517.578,116.699,-77.148,1764.383,366.58029500445576
1068,1686111757.5,-35.156,495.605,117.188,-38.086,1764.398,373.1546708473343
1069,1686111757.5,3.906,303.711,63.965,27.344,1764.402,386.28252040504094
1070,1686111757.51,4.395,404.785,104.98,0.488,1764.406,377.94336302080836
1071,1686111757.51,-31.738,397.461,75.195,-69.336,1764.41,371.3560224773551
1072,1686111757.52,-47.363,135.254,7.812,-60.059,1764.414,370.9889793583303
1073,1686111757.52,-11.719,-387.695,-194.824,14.16,1764.418,366.84087679947953
1074,1686111757.52,8.301,-928.711,-370.605,23.438,1764.422,373.80591098870735
1075,1686111757.53,-14.648,-22.461,48.828,-52.246,1764.426,374.706630320635
1076,1686111757.53,-30.762,452.637,118.164,-75.684,1764.43,372.4836991828777
1077,1686111757.54,-5.371,-136.719,-173.828,3.418,1764.434,376.61685903541735
1078,1686111757.54,28.809,282.227,77.637,40.527,1764.438,373.7901898468116
1079,1686111757.54,7.812,702.637,212.891,-20.508,1764.441,366.23984468658546
1080,1686111757.55,-37.109,394.043,47.852,-68.848,1764.443,371.29830782324495
1081,1686111757.55,-21.484,246.094,40.527,-22.949,1764.447,368.87448352366425
1082,1686111757.55,14.16,525.391,166.992,29.785,1764.451,383.69833250917435
1083,1686111757.56,0.0,631.348,165.039,-1.465,1764.455,372.86053227388317
1084,1686111757.56,-39.062,364.746,34.18,-68.359,1764.459,370.0703106967639
1085,1686111757.57,-31.738,-17.09,-68.359,-45.41,1764.463,373.36675888733737
1086,1686111757.57,8.301,153.32,69.824,21.484,1764.467,371.1507095389827
1087,1686111757.57,11.719,576.66,167.969,-0.977,1764.47,366.002552881033
1088,1686111757.58,-21.484,112.305,-74.219,-58.594,1764.474,378.3515669452707
1089,1686111757.58,-40.039,-826.172,-372.07,-54.199,1764.478,372.81554979239155
1090,1686111757.58,-6.348,-29.297,57.617,0.488,1764.482,370.6330615692468
1091,1686111757.59,18.066,714.844,235.352,20.508,1764.486,377.746323143444
1092,1686111757.59,-23.438,187.5,-55.176,-50.781,1764.488,369.94663434265465
1093,1686111757.6,-55.176,151.367,20.02,-92.773,1764.492,377.23822814201907
1094,1686111757.6,-24.902,547.852,195.801,-23.926,1764.496,382.51856659018443
1095,1686111757.6,6.348,585.449,169.922,18.066,1764.5,370.6111695695576
1096,1686111757.61,-25.879,-166.992,-177.734,-28.809,1764.504,371.4320306698981
1097,1686111757.61,-64.941,-565.43,-273.926,-74.219,1764.508,379.7090097463123
1098,1686111757.62,-36.133,101.074,63.965,-38.574,1764.512,371.9859073631891
1099,1686111757.62,3.418,564.453,167.48,15.137,1764.515,378.36356042944124
1100,1686111757.62,-22.949,-203.613,-255.371,-16.113,1764.519,382.47148531076516
1101,1686111757.63,-64.941,-225.098,-137.695,-80.566,1764.523,375.21750845663405
1102,1686111757.63,-64.941,410.645,148.438,-65.43,1764.527,363.19137767419306
1103,1686111757.63,-23.438,203.613,51.27,12.695,1764.531,374.8968552207787
1104,1686111757.64,-1.953,127.93,43.457,10.254,1764.535,371.14859288709965
1105,1686111757.64,-28.32,414.062,90.82,-57.617,1764.539,370.13282245355094
1106,1686111757.64,-42.48,543.457,123.535,-68.848,1764.543,372.9697792734121
1107,1686111757.65,-7.324,342.285,75.195,0.977,1764.546,371.9757742809798
1108,1686111757.65,15.137,51.27,51.27,24.902,1764.55,367.05210237803874
1109,1686111757.66,-16.113,-15.625,-28.809,-46.387,1764.554,375.4448769360082
1110,1686111757.66,-43.457,94.727,-43.457,-77.148,1764.558,375.42302094780297
1111,1686111757.66,-28.809,122.559,16.113,-26.367,1764.562,367.28890645043214
1112,1686111757.67,-7.324,-390.625,-125.488,15.625,1764.566,378.1527354618961
1113,1686111757.67,-10.742,208.008,100.098,-28.32,1764.57,370.3749648210126
1114,1686111757.68,-37.598,536.133,123.047,-77.148,1764.574,379.8373692285084
1115,1686111757.68,-35.645,162.109,-35.156,-40.527,1764.578,377.88350024583025
1116,1686111757.68,-3.418,399.902,101.074,16.602,1764.582,376.7073662657499
1117,1686111757.69,-9.766,425.781,97.656,-9.766,1764.586,372.6065229154403
1118,1686111757.69,-56.152,130.859,-15.137,-80.566,1764.59,373.82473545496407
1119,1686111757.69,-71.777,-241.211,-187.012,-65.918,1764.594,371.77616097087804
1120,1686111757.7,-29.785,-284.18,-106.445,2.93,1764.598,379.5207955446081
1121,1686111757.7,-19.531,116.211,76.172,-5.859,1764.602,377.7493843963685
1122,1686111757.71,-57.129,161.621,-8.301,-78.613,1764.605,358.98042573705476
1123,1686111757.71,-72.266,-479.492,-326.66,-82.031,1764.609,371.4045173774316
1124,1686111757.71,-37.598,-571.289,-134.277,-12.207,1764.613,362.22929290043703
1125,1686111757.72,0.488,533.203,253.418,11.719,1764.617,368.37203642124086
1126,1686111757.72,-26.367,558.594,60.547,-56.152,1764.621,368.7973284719812
1127,1686111757.72,-58.594,150.879,-4.883,-99.609,1764.625,367.1400581735442
1128,1686111757.74,-33.691,481.445,174.805,-44.922,1764.652,381.4168965796336
1129,1686111757.75,0.977,717.285,225.098,3.418,1764.656,380.8107749518601
1130,1686111757.75,-15.137,428.223,74.219,-29.297,1764.66,368.4962924518075
1131,1686111757.76,-62.012,81.055,-68.848,-85.938,1764.664,378.90429610344177
1132,1686111757.76,-49.316,54.199,-9.277,-57.129,1764.668,368.67843865429495
1133,1686111757.76,-7.812,167.48,81.055,-0.977,1764.672,372.9617479293979
1134,1686111757.77,-13.672,38.574,-15.625,-7.812,1764.675,371.722862728231
1135,1686111757.77,-61.035,-764.648,-324.707,-65.918,1764.679,368.3613804116152
1136,1686111757.77,-58.594,477.539,103.516,-73.73,1764.668,372.7024110051414
1137,1686111757.77,-70.801,-218.75,-18.555,-76.66,1764.683,369.4551976709449
1138,1686111757.78,-26.367,503.418,135.742,-10.254,1764.672,361.5499505840057
1139,1686111757.78,-20.508,691.406,234.375,-7.324,1764.687,368.69184698881156
1140,1686111757.78,0.977,358.887,111.328,23.926,1764.676,373.2947302910741
1141,1686111757.78,-2.441,427.734,72.266,13.184,1764.691,376.2058229983772
1142,1686111757.78,-28.32,317.871,78.125,-40.039,1764.68,364.8698203622154
1143,1686111757.79,-38.086,305.664,74.707,-46.875,1764.695,377.3296991542508
1144,1686111757.79,-62.988,149.414,-24.902,-78.125,1764.684,373.5752145837672
1145,1686111757.79,-44.434,8.301,-39.062,-21.973,1764.688,365.4932580266918
1146,1686111757.8,-4.883,-208.984,-132.324,32.227,1764.692,366.4084475537797
1147,1686111757.8,-12.695,-70.801,-46.387,-20.02,1764.695,369.33566168021315
1148,1686111757.8,-54.199,374.023,126.465,-96.191,1764.699,361.69334444900915
1149,1686111757.81,-42.48,494.629,143.066,-62.988,1764.703,376.84979386625
1150,1686111757.81,-5.371,-385.254,-248.047,10.742,1764.707,371.20064033938996
1151,1686111757.81,-13.672,-848.145,-341.797,-3.906,1764.711,368.21304520087796
1152,1686111757.82,-45.41,269.043,119.629,-73.242,1764.727,372.10906790534466
1153,1686111757.82,-59.57,405.762,93.262,-70.312,1764.731,374.15054730646534
1154,1686111757.82,-24.414,-316.895,-166.992,3.906,1764.735,358.6196143820399
1155,1686111757.83,9.277,242.676,71.777,21.484,1764.739,362.6510199840801
1156,1686111757.83,-15.137,690.918,189.941,-47.852,1764.743,366.96950032023886
1157,1686111757.84,-55.664,59.57,-86.426,-76.66,1764.747,377.5651113728183
1158,1686111757.84,-44.922,-562.988,-244.141,-12.207,1764.75,369.92221941514555
1159,1686111757.84,-6.836,244.141,115.723,16.602,1764.754,367.851258571184
1160,1686111757.85,-20.508,689.941,181.152,-43.945,1764.758,363.2371405822273
1161,1686111757.85,-52.246,95.703,-65.43,-83.008,1764.762,368.70164623445726
1162,1686111757.86,-29.785,43.457,-5.371,-32.715,1764.766,366.3275981941801
1163,1686111757.86,29.297,640.625,210.449,28.809,1764.77,375.0076527504011
1164,1686111757.88,17.578,679.688,168.457,-11.23,1764.773,371.3335681701029
1165,1686111757.88,-45.41,129.395,-56.641,-84.473,1764.777,373.2707954415521
1166,1686111757.88,-42.969,250.488,66.895,-62.5,1764.781,378.3168923642186
1167,1686111757.89,4.395,580.078,203.125,12.695,1764.785,371.5728719616972
1168,1686111757.89,1.953,335.449,86.426,1.465,1764.789,368.81658873687707
1169,1686111757.9,-38.574,-413.086,-315.43,-59.57,1764.793,374.00478561991866
1170,1686111757.9,-49.316,-849.121,-435.547,-56.152,1764.797,367.611720901016
1171,1686111757.9,-2.441,128.906,88.379,0.488,1764.8,369.64823610138376
1172,1686111757.91,23.926,543.457,160.156,20.02,1764.804,377.7751877665914
1173,1686111757.91,-9.277,-176.27,-229.004,-39.062,1764.808,370.34379465813123
1174,1686111757.92,-33.203,91.797,-18.066,-69.824,1764.812,373.2726582248951
1175,1686111757.92,-8.789,554.688,208.496,-16.113,1764.816,371.54675165947106
1176,1686111757.94,17.09,214.844,24.414,29.297,1764.835,380.8712010152264
1177,1686111757.94,-2.441,-157.227,-95.703,-16.602,1764.839,378.0624058355684
1178,1686111757.94,-36.133,232.91,86.426,-72.266,1764.843,375.42887168953143
1179,1686111757.95,-24.902,586.914,173.34,-32.715,1764.847,372.2138849384513
1180,1686111757.95,15.137,431.641,125.977,24.902,1764.851,381.0407128207108
1181,1686111757.96,2.441,89.355,20.996,-4.883,1764.855,380.4167695262292
1182,1686111757.96,-43.457,62.988,10.742,-66.895,1764.859,369.9329354624999
1183,1686111757.96,-36.621,500.488,147.461,-53.711,1764.863,373.2875734116059
1184,1686111757.97,-18.066,240.234,58.594,-10.742,1764.867,367.4171050814963
1185,1686111757.97,0.0,288.574,10.742,13.672,1764.867,371.2383221911324
1186,1686111757.97,0.488,336.914,97.656,15.625,1764.871,369.39119871751825
1187,1686111757.97,-0.977,-428.223,-146.973,8.301,1764.871,374.26369311499144
1188,1686111757.98,-29.785,250.488,27.832,-41.504,1764.874,384.96159726357405
1189,1686111757.98,-38.574,166.504,96.191,-65.918,1764.875,373.85486178393194
1190,1686111757.98,-67.383,199.219,62.012,-83.496,1764.878,381.9577726212722
1191,1686111757.98,-48.828,508.301,119.629,-81.055,1764.878,370.70170487306575
1192,1686111757.98,-41.016,-179.688,-113.77,-22.461,1764.882,369.4829870109318
1193,1686111757.99,4.883,-361.328,-131.348,26.855,1764.886,368.9692904248278
1194,1686111757.99,-9.766,211.914,122.559,-23.438,1764.89,377.9801191494213
1195,1686111757.99,-55.664,384.277,99.609,-81.055,1764.894,367.58686348901136
1196,1686111758.0,-37.109,-12.207,-129.395,-34.668,1764.898,383.4940809571536
1197,1686111758.0,4.883,350.586,80.078,36.133,1764.902,376.38352261879606
1198,1686111758.01,9.277,731.934,225.098,1.953,1764.906,370.9482780109011
1199,1686111758.01,-22.461,440.918,44.434,-66.406,1764.91,372.54438317812924
1200,1686111758.01,-36.133,-598.633,-354.98,-41.504,1764.91,362.7428229597558
1201,1686111758.02,4.395,-592.285,-127.441,36.133,1764.914,375.26855946211924
1202,1686111758.02,20.02,527.832,250.977,28.32,1764.918,381.72483878248437
1203,1686111758.02,-21.973,466.309,54.199,-39.062,1764.922,368.54676336901775
1204,1686111758.03,-48.34,142.09,-24.902,-51.758,1764.926,372.0700155697134
1205,1686111758.03,-20.996,169.434,51.758,5.371,1764.93,375.66503305716094
1206,1686111758.04,17.09,292.969,128.418,39.551,1764.933,366.3341664786829
1207,1686111758.04,-3.418,95.703,-13.184,-18.066,1764.937,370.24288527230175
1208,1686111758.04,-50.293,-761.719,-354.98,-68.848,1764.941,369.62966298594836
1209,1686111758.05,-26.855,-131.836,18.555,-29.785,1764.945,367.27225174357847
1210,1686111758.05,16.602,747.07,254.395,27.344,1764.949,375.0665856019803
1211,1686111758.06,2.441,422.363,48.34,-13.184,1764.953,377.77771477168835
1212,1686111758.06,-25.879,329.102,76.66,-77.148,1764.953,382.6505091805254
1213,1686111758.06,-9.766,530.762,150.879,-38.086,1764.957,369.8779798529626
1214,1686111758.06,25.391,593.262,167.969,25.879,1764.961,365.57226236233004
1215,1686111758.07,15.137,243.652,-16.602,6.348,1764.965,381.06578957811803
1216,1686111758.07,-33.691,-45.898,-138.672,-59.082,1764.969,371.93730126901676
1217,1686111758.08,-44.434,-33.691,-65.43,-54.688,1764.973,370.0702226261716
1218,1686111758.08,-12.695,126.465,62.5,1.953,1764.977,362.67520163317016
1219,1686111758.08,-2.441,-328.125,-230.469,17.09,1764.981,368.0844567353386
1220,1686111758.09,-30.273,-991.211,-419.922,-34.18,1764.984,379.24336677038605
1221,1686111758.09,-41.504,-83.496,49.316,-66.895,1764.988,361.3591167562127
1222,1686111758.1,-13.672,571.777,208.008,-14.648,1764.992,377.17598447183934
1223,1686111758.1,7.324,359.863,113.281,22.461,1764.996,369.10077603938777
1224,1686111758.1,-13.184,520.508,150.391,-30.273,1765.001,369.8024543356456
1225,1686111758.11,-43.945,494.629,84.961,-74.219,1765.005,365.49878714909437
1226,1686111758.11,-41.016,368.164,119.141,-37.598,1765.009,376.1112033298945
1227,1686111758.12,0.488,432.129,215.332,19.043,1765.013,357.3606006960502
1228,1686111758.12,-3.906,506.836,151.367,-11.719,1765.017,363.3937407838935
1229,1686111758.12,-47.852,303.711,13.184,-84.961,1765.021,375.84709493060126
1230,1686111758.13,-46.875,-68.848,-145.02,-63.965,1765.025,364.66443051092165
1231,1686111758.13,-10.742,-469.727,-152.832,14.16,1765.028,375.1877097105018
1232,1686111758.13,0.488,249.023,139.16,13.184,1765.032,373.3532341089935
1233,1686111758.14,-27.832,637.695,146.973,-47.363,1765.036,373.9193899101136
1234,1686111758.14,-46.875,73.73,-34.668,-54.199,1765.04,370.55690770410854
1235,1686111758.15,-13.184,83.496,43.457,7.324,1765.044,370.6398151568117
1236,1686111758.15,12.207,648.438,213.867,15.137,1765.057,378.9809673307159
1237,1686111758.15,-16.602,603.027,130.371,-58.105,1765.061,374.29148859779326
1238,1686111758.15,-49.316,149.414,-51.758,-88.379,1765.065,366.3594836837987
1239,1686111758.16,-32.715,268.555,62.988,-32.227,1765.068,369.87364442940077
1240,1686111758.16,-4.395,311.035,122.559,11.23,1765.072,374.79732780910484
1241,1686111758.17,-27.344,160.156,45.41,-42.969,1765.076,368.0576368303694
1242,1686111758.17,-60.547,-389.16,-271.484,-89.355,1765.08,362.9152865649564
1243,1686111758.17,-47.852,-939.941,-398.926,-39.062,1765.084,370.73800900997304
1244,1686111758.18,5.371,166.016,124.512,21.484,1765.088,378.05600594590635
1245,1686111758.18,13.672,684.082,181.641,4.395,1765.092,369.1631356152825
1246,1686111758.18,-22.949,167.969,-11.23,-58.105,1765.096,364.7073625522735
1247,1686111758.19,-25.879,404.785,132.812,-52.734,1765.1,375.90209115647446
1248,1686111758.19,10.742,578.125,168.457,16.602,1765.094,370.4422141190579
1249,1686111758.2,8.301,192.871,5.859,11.719,1765.098,371.74430078385683
1250,1686111758.2,-36.133,-198.73,-98.145,-73.242,1765.102,365.5247035701158
1251,1686111758.21,-50.293,251.953,95.215,-88.379,1765.106,370.1302217228417
1252,1686111758.21,-20.02,670.41,204.59,-11.719,1765.11,366.872927001658
1253,1686111758.21,5.371,240.234,39.551,23.926,1765.114,376.6208698370563
1254,1686111758.22,-22.949,-188.965,-81.055,-37.598,1765.118,383.2863677037778
1255,1686111758.22,-50.781,270.02,94.238,-80.078,1765.122,363.39400026546593
1256,1686111758.22,-19.043,650.879,179.199,-17.578,1765.126,368.3959348757041
1257,1686111758.23,22.461,337.891,29.785,36.621,1765.13,370.90509885106394
1258,1686111758.23,7.812,64.453,-22.461,-16.113,1765.133,369.79820744185076
1259,1686111758.24,-30.273,421.387,129.395,-75.684,1765.137,364.8916591584711
1260,1686111758.25,-23.926,530.273,138.184,-36.621,1765.148,363.46342640757587
1261,1686111758.26,9.277,326.172,96.191,27.832,1765.152,372.728245988887
1262,1686111758.26,1.465,364.258,125.0,-4.883,1765.156,373.9145347960249
1263,1686111758.26,-38.574,144.043,-21.484,-78.125,1765.16,366.84466236495115
1264,1686111758.27,-55.664,18.555,-55.664,-62.5,1765.164,375.14094640776295
1265,1686111758.27,-31.25,-263.184,-163.574,8.301,1765.168,371.6039110231264
1266,1686111758.28,-9.277,-952.148,-407.715,20.02,1765.172,373.7969369162591
1267,1686111758.28,-39.551,-209.961,-41.504,-51.27,1765.176,372.9718292203287
1268,1686111758.28,-63.477,430.176,125.977,-78.613,1765.18,383.46621178168044
1269,1686111758.29,-30.273,262.207,52.734,-12.695,1765.184,381.56797296091895
1270,1686111758.29,0.977,614.746,206.055,14.16,1765.187,368.4874026080541
1271,1686111758.29,-22.461,713.379,178.711,-44.922,1765.191,374.0075929063689
1272,1686111758.3,-58.105,330.566,25.879,-78.613,1765.194,367.18378489798806
1273,1686111758.3,-39.062,213.379,39.062,-23.926,1765.198,382.00051330749045
1274,1686111758.3,8.301,604.98,201.172,34.18,1765.202,372.2980524615641
1275,1686111758.31,1.953,702.637,182.617,-5.371,1765.206,369.0840798298667
1276,1686111758.31,-38.086,331.055,14.648,-69.336,1765.21,381.56316148165564
1277,1686111758.32,-41.992,-63.477,-70.312,-47.852,1765.214,365.8205412293951
1278,1686111758.32,-6.348,22.949,38.574,17.09,1765.218,375.05250369974715
1279,1686111758.32,-1.465,221.68,101.562,1.953,1765.221,375.8983408222098
1280,1686111758.33,-37.598,-15.137,-83.496,-71.289,1765.225,375.8202596281475
1281,1686111758.33,-47.363,-784.18,-347.656,-53.223,1765.229,363.8988200791844
1282,1686111758.34,-8.301,-44.434,75.195,13.672,1765.233,370.6141018733648
1283,1686111758.34,6.836,755.371,247.559,17.09,1765.237,374.05715022757556
1284,1686111758.34,-23.926,301.27,-24.414,-40.039,1765.238,370.67280465385824
1285,1686111758.34,-42.969,278.32,47.852,-71.289,1765.242,368.8763534964367
1286,1686111758.35,-21.484,605.957,209.473,-11.719,1765.246,364.55879247998814
1287,1686111758.35,-4.883,636.719,183.594,22.949,1765.25,372.1694352106072
1288,1686111758.36,-28.809,-13.184,-118.164,-31.25,1765.254,363.6587707194006
1289,1686111758.36,-65.918,-311.523,-144.043,-80.078,1765.258,370.3629222480741
1290,1686111758.36,-59.57,104.98,83.008,-45.898,1765.262,365.1600848325689
1291,1686111758.37,-10.742,557.617,192.383,13.672,1765.266,364.43190528544943
1292,1686111758.37,-8.301,-227.539,-246.094,-3.906,1765.27,365.9861465878004
1293,1686111758.38,-50.781,-860.84,-377.93,-68.848,1765.274,380.5743270141732
1294,1686111758.38,-39.551,252.93,121.582,-53.223,1765.277,363.2732539650792
1295,1686111758.38,6.348,642.09,207.52,15.625,1765.281,376.59428343196356
