,timestamps,TP9,AF7,AF8,TP10,Secondary Timestamp,emg_signal
0,1686111202.03,58.594,290.527,187.988,91.309,1208.943,379.6442593566507
1,1686111202.04,-15.137,63.477,26.367,-73.73,1208.947,377.5394736803597
2,1686111202.04,-76.66,-515.137,-157.715,-117.188,1208.951,387.1651461680961
3,1686111202.04,-10.254,-232.91,38.086,38.086,1208.955,376.3069222981913
4,1686111202.05,69.336,158.691,138.672,135.254,1208.959,373.0782768661942
5,1686111202.05,25.391,-233.398,-29.785,10.742,1208.963,361.5190205951879
6,1686111202.05,-61.523,-937.012,-426.758,-94.727,1208.967,382.85496935345407
7,1686111202.06,-37.109,-724.121,-236.816,16.113,1208.971,379.3725354003243
8,1686111202.06,57.129,184.57,224.121,125.0,1208.975,376.16182837483973
9,1686111202.07,37.109,-6.836,31.738,23.438,1208.978,369.98047608966556
10,1686111202.07,-43.945,-234.375,-24.902,-118.652,1208.982,373.5437381718844
11,1686111202.07,-35.645,111.816,126.953,-45.898,1208.986,372.1283441506527
12,1686111202.08,56.152,351.562,194.336,128.906,1208.988,371.20488448937084
13,1686111202.08,82.52,-122.559,33.203,98.633,1208.991,378.0886765111338
14,1686111202.09,-4.883,-395.996,-40.039,-73.242,1208.995,374.51392574313536
15,1686111202.09,-27.344,95.215,117.676,-75.195,1208.999,378.5019680326873
16,1686111202.09,58.105,264.16,174.805,94.238,1209.003,379.0037797233164
17,1686111202.1,101.562,-169.434,-13.672,138.672,1209.007,374.12495449039426
18,1686111202.1,43.457,-437.988,-91.309,-4.883,1209.011,370.724195732897
19,1686111202.1,-6.836,-277.832,-21.973,-69.336,1209.015,379.05453194316686
20,1686111202.11,34.668,-157.227,60.547,67.871,1209.019,380.50274459314545
21,1686111202.11,95.703,-556.152,-146.484,167.969,1209.023,372.47819180093586
22,1686111202.12,58.105,-723.145,-209.473,28.32,1209.027,395.36395419394853
23,1686111202.12,-20.508,-7.324,133.301,-112.305,1209.031,376.51105884370986
24,1686111202.14,-2.441,-7.324,41.016,-0.977,1209.034,372.6318474873779
25,1686111202.14,72.266,-81.055,70.312,149.414,1209.038,371.1579718910777
26,1686111202.14,55.176,-147.949,47.852,79.102,1209.041,355.90049388102875
27,1686111202.15,-35.645,-136.23,41.504,-82.031,1209.045,373.23058580327904
28,1686111202.15,-48.34,-46.875,60.059,-48.828,1209.049,373.1194832033497
29,1686111202.16,22.949,-697.266,-207.031,115.234,1209.053,381.486278130059
30,1686111202.16,55.664,-500.488,-38.086,100.586,1209.057,366.47384977261305
31,1686111202.16,-15.625,223.633,186.035,-76.66,1209.061,370.46462643248265
32,1686111202.17,-70.312,-137.207,-57.129,-106.445,1209.065,369.88095230085526
33,1686111202.17,9.277,-449.707,-112.305,56.152,1209.069,372.5055981552836
34,1686111202.18,71.289,-121.582,96.68,103.027,1209.073,381.0019740888299
35,1686111202.18,5.371,148.438,147.461,-60.059,1209.077,374.54539612143606
36,1686111202.18,-74.707,-283.203,-86.426,-137.695,1209.079,370.0305884884905
37,1686111202.19,-27.832,-494.141,-133.789,10.254,1209.083,386.06072463706874
38,1686111202.19,60.059,186.523,183.105,122.07,1209.087,373.5773492740681
39,1686111202.19,24.902,215.82,106.445,-8.789,1209.091,377.85842898512334
40,1686111202.2,-44.922,-164.551,-55.176,-138.184,1209.095,355.99244547585164
41,1686111202.2,-23.926,-339.355,-27.832,-34.18,1209.099,383.5264645268024
42,1686111202.2,49.316,-270.508,29.297,107.91,1209.103,373.07517340345925
43,1686111202.21,49.805,-63.477,70.801,38.086,1209.106,369.7966412388097
44,1686111202.21,-43.945,-536.621,-223.633,-118.164,1209.11,382.83895915138095
45,1686111202.22,-69.824,-667.969,-198.73,-88.867,1209.114,387.59810024122146
46,1686111202.22,25.879,182.617,226.562,76.66,1209.118,371.43288229802477
47,1686111202.22,60.059,188.965,103.516,89.355,1209.122,383.2264916805136
48,1686111202.23,-17.578,-342.773,-120.605,-76.66,1209.125,373.1635711725074
49,1686111202.23,-54.199,-315.918,-49.316,-104.004,1209.129,382.52944202175917
50,1686111202.24,28.809,-127.441,86.914,67.383,1209.133,369.9452307610492
51,1686111202.24,88.379,-235.84,4.395,125.977,1209.137,377.2979529826108
52,1686111202.24,13.184,-703.613,-292.48,-18.066,1209.141,369.6185173636624
53,1686111202.25,-69.824,-822.266,-269.531,-123.535,1209.145,374.665121464369
54,1686111202.25,-17.578,-117.188,139.648,-2.93,1209.149,370.5912651644832
55,1686111202.25,67.871,-8.789,55.176,131.836,1209.153,364.8696407815599
56,1686111202.26,32.227,-601.074,-208.008,31.738,1209.156,377.4131988507281
57,1686111202.26,-53.711,-301.27,6.348,-116.211,1209.16,376.35457757190795
58,1686111202.27,-40.039,189.941,147.461,-50.293,1209.164,373.11102376249437
59,1686111202.27,57.129,0.488,59.57,112.305,1209.168,375.6357147653042
60,1686111202.27,77.148,-34.668,50.293,68.359,1209.169,379.26901082568554
61,1686111202.28,0.0,181.641,118.652,-97.656,1209.173,371.3620484281509
62,1686111202.28,-23.926,120.117,89.355,-80.078,1209.177,365.2246101509575
63,1686111202.28,42.48,-171.387,20.02,89.844,1209.181,375.6354924174857
64,1686111202.29,76.66,-105.957,70.801,105.469,1209.185,373.76334952913294
65,1686111202.29,5.859,-141.113,-12.207,-58.105,1209.189,375.75068409927155
66,1686111202.3,-50.781,-286.133,-95.215,-104.98,1209.193,365.9117618407036
67,1686111202.3,2.441,-632.324,-226.074,47.363,1209.196,369.2474357395938
68,1686111202.3,46.875,-687.012,-165.527,117.676,1209.2,366.19243267009193
69,1686111202.31,1.465,104.492,183.105,-34.668,1209.204,363.16920053680127
70,1686111202.31,-59.082,80.078,34.668,-132.812,1209.208,369.58676125282557
71,1686111202.32,-20.02,-122.559,28.32,-13.184,1209.212,367.7597213774428
72,1686111202.32,62.988,110.352,164.062,114.258,1209.214,372.4320407097174
73,1686111202.32,43.457,285.645,145.02,13.672,1209.217,377.3506588062388
74,1686111202.32,-45.41,-81.055,-18.555,-133.301,1209.221,386.7713669609077
75,1686111202.33,-39.551,-591.797,-146.484,-43.457,1209.225,365.74141831035433
76,1686111202.33,39.062,-256.348,34.18,104.492,1209.229,380.13337097709166
77,1686111202.34,35.156,-144.043,51.27,57.129,1209.233,370.29316541219305
78,1686111202.34,-38.086,-487.793,-156.738,-91.309,1209.237,369.24332289291385
79,1686111202.34,-67.871,-945.312,-412.598,-88.379,1209.241,381.28732042353215
80,1686111202.35,24.902,-443.848,-47.363,75.684,1209.245,376.71037340060644
81,1686111202.35,90.332,343.262,208.984,110.352,1209.249,382.065417846033
82,1686111202.36,3.906,-38.574,-29.785,-38.574,1209.253,363.9930437529408
83,1686111202.36,-61.035,-169.922,-1.465,-116.211,1209.257,374.17442121176
84,1686111202.36,-0.488,230.469,171.875,17.09,1209.261,371.7622379908737
85,1686111202.37,76.66,342.285,173.828,116.211,1209.265,375.5268630799072
86,1686111202.37,33.691,-68.359,-1.953,-13.184,1209.269,383.3963014020709
87,1686111202.38,-57.617,-197.266,-16.602,-140.625,1209.273,376.5112122722715
88,1686111202.38,-26.367,95.215,131.348,-35.645,1209.277,377.0766867369524
89,1686111202.38,61.035,10.742,112.305,114.258,1209.28,368.7229089010975
90,1686111202.39,35.156,-606.445,-219.238,44.434,1209.284,375.53186485949084
91,1686111202.39,-60.547,-718.262,-229.98,-112.793,1209.288,384.9466086471179
92,1686111202.39,-54.199,-208.008,67.871,-69.824,1209.292,372.5144129717037
93,1686111202.4,35.156,7.324,70.312,95.703,1209.296,382.94967483746746
94,1686111202.4,47.852,-250.0,-67.383,72.754,1209.3,380.1225056648568
95,1686111202.41,-23.926,-311.523,-16.113,-87.402,1209.304,374.0384804756462
96,1686111202.41,-51.27,107.91,134.277,-97.656,1209.318,379.2617250774793
97,1686111202.41,13.184,99.121,73.73,57.617,1209.322,379.6555725146557
98,1686111202.42,72.266,-213.379,20.02,107.422,1209.326,382.49347875747276
99,1686111202.42,11.719,-221.68,47.852,-48.34,1209.33,366.95865320152825
100,1686111202.42,-59.57,59.57,100.098,-144.043,1209.334,373.63415015733796
101,1686111202.43,-18.066,-170.898,23.926,3.906,1209.338,384.27931599314445
102,1686111202.43,31.738,-866.211,-315.918,135.742,1209.342,377.45372546112606
103,1686111202.43,-5.371,-704.59,-212.402,0.977,1209.346,383.07670935362046
104,1686111202.44,-66.406,82.031,141.113,-140.625,1209.35,386.80683296756496
105,1686111202.44,-52.246,-43.457,20.508,-33.691,1209.353,382.0149935430423
106,1686111202.45,41.992,-150.391,16.113,119.629,1209.357,385.8315210665532
107,1686111202.45,48.828,-68.848,84.961,55.176,1209.361,386.0109652639543
108,1686111202.46,-43.945,105.469,124.023,-108.398,1209.355,371.10458166291386
109,1686111202.46,-67.383,-293.945,-90.82,-71.777,1209.359,370.8758313470582
110,1686111202.46,8.301,-449.219,-105.469,91.309,1209.363,384.3721309376432
111,1686111202.47,43.945,169.922,154.785,83.984,1209.366,384.5669571434176
112,1686111202.47,-27.832,139.16,96.191,-74.219,1209.37,362.0726254848367
113,1686111202.48,-81.543,-373.047,-103.516,-112.793,1209.374,389.23476260682276
114,1686111202.48,-8.789,-364.258,8.301,42.48,1209.378,368.4365766713797
115,1686111202.48,69.824,173.34,178.223,107.91,1209.382,371.17069697834404
116,1686111202.49,13.184,124.023,50.293,-52.734,1209.386,375.22701333518523
117,1686111202.49,-72.754,-503.906,-145.996,-146.484,1209.39,382.02469841590363
118,1686111202.49,-31.738,-403.809,-6.836,-13.184,1209.394,379.15886318041805
119,1686111202.5,61.523,258.301,208.008,104.004,1209.398,367.9578635965179
120,1686111202.51,37.598,74.219,47.363,7.324,1209.41,377.66865520840065
121,1686111202.52,-57.617,-370.605,-138.184,-126.465,1209.414,370.196403101869
122,1686111202.52,-41.504,-466.309,-127.441,-45.898,1209.418,380.69668587386775
123,1686111202.52,50.293,-153.809,66.895,108.887,1209.422,382.39368728688396
124,1686111202.53,72.266,41.992,103.516,70.801,1209.426,369.3005793318916
125,1686111202.53,-15.137,-738.77,-405.273,-63.965,1209.43,373.09080750413614
126,1686111202.54,-62.012,-915.527,-401.367,-62.988,1209.434,384.15478995920597
127,1686111202.54,10.742,44.434,168.945,68.359,1209.437,379.77735328863275
128,1686111202.54,37.109,111.328,74.219,74.219,1209.441,391.55604537812934
129,1686111202.55,-36.621,-128.418,-35.645,-87.402,1209.445,384.0935932128512
130,1686111202.55,-86.426,102.539,107.91,-140.137,1209.449,390.7567060516679
131,1686111202.56,-26.367,253.906,160.156,21.973,1209.453,374.8668281006021
132,1686111202.56,30.762,58.594,84.473,110.352,1209.456,378.052578634693
133,1686111202.56,-26.367,-101.074,25.391,-44.434,1209.46,381.2474992864961
134,1686111202.57,-90.82,92.773,89.844,-156.738,1209.464,372.21275362380726
135,1686111202.57,-47.363,117.188,103.027,-24.902,1209.468,370.1002710733297
136,1686111202.57,33.203,-202.148,-24.414,117.676,1209.472,380.0367036405398
137,1686111202.58,-1.465,-523.926,-173.34,26.367,1209.476,385.29497402393844
138,1686111202.58,-94.238,-319.336,-30.762,-111.816,1209.48,369.7082555442406
139,1686111202.58,-81.055,76.66,150.391,-33.203,1209.484,383.74170105165166
140,1686111202.59,7.324,-488.281,-167.969,141.113,1209.488,372.6453183387129
141,1686111202.59,18.555,-750.977,-237.305,102.051,1209.492,388.06758425727674
142,1686111202.6,-47.363,9.277,129.883,-76.172,1209.495,374.1965781671038
143,1686111202.6,-45.898,4.395,40.039,-56.641,1209.499,376.11592913742896
144,1686111202.6,44.434,-167.969,6.836,115.234,1209.499,384.44978707201926
145,1686111202.61,98.145,48.828,155.273,146.484,1209.503,381.3027892213171
146,1686111202.61,25.391,-75.195,35.645,5.859,1209.506,371.3227843603921
147,1686111202.61,-43.945,-439.453,-190.918,-55.176,1209.51,379.0000018015954
148,1686111202.62,23.438,-445.312,-109.375,90.82,1209.514,375.1769415550412
149,1686111202.62,91.797,-313.965,22.949,184.082,1209.518,365.7747995213936
150,1686111202.62,36.133,-318.359,-20.508,42.969,1209.522,379.1341448175267
151,1686111202.63,-49.316,-445.801,-182.617,-75.195,1209.526,364.8813508285092
152,1686111202.63,-48.828,-956.543,-467.773,35.156,1209.53,375.1591522924971
153,1686111202.64,30.273,-755.859,-166.992,157.715,1209.534,382.91241100956756
154,1686111202.64,49.316,120.117,195.801,66.406,1209.538,377.2224160846637
155,1686111202.64,-37.109,-121.582,-51.758,-88.867,1209.542,376.0117369624234
156,1686111202.65,-49.805,-232.422,-3.418,-49.805,1209.544,384.1942508946836
157,1686111202.65,44.434,308.594,198.73,117.676,1209.548,386.97369369994334
158,1686111202.66,65.43,357.91,141.602,103.027,1209.551,374.7271013045472
159,1686111202.66,-34.18,-74.707,-11.23,-72.266,1209.555,378.2712255880575
160,1686111202.66,-82.52,-175.293,3.418,-107.422,1209.559,377.5226098773775
161,1686111202.67,-7.812,-62.5,76.66,62.012,1209.563,374.01432968126267
162,1686111202.67,51.27,-104.98,77.637,117.676,1209.567,368.4956297535259
163,1686111202.67,-7.812,-573.73,-220.703,-32.715,1209.571,359.60426945110675
164,1686111202.68,-70.312,-694.824,-231.934,-110.84,1209.575,373.2324476665728
165,1686111202.68,-2.93,-99.609,117.188,25.879,1209.579,361.13878260907194
166,1686111202.69,75.684,42.48,68.359,131.836,1209.583,390.8066708766096
167,1686111202.69,20.996,-226.562,-53.711,0.0,1209.587,376.11016310310765
168,1686111202.69,-73.242,-175.781,43.945,-137.207,1209.589,373.1415513367311
169,1686111202.7,-60.547,209.961,155.762,-35.156,1209.593,369.5442618906482
170,1686111202.7,27.832,-0.977,63.965,131.836,1209.597,367.4072194036292
171,1686111202.7,32.715,-483.887,-65.43,74.219,1209.601,376.1014213517798
172,1686111202.71,-51.758,-305.176,-16.602,-90.332,1209.605,372.8583517262014
173,1686111202.71,-58.594,-108.398,53.223,-52.734,1209.609,377.0196471094922
174,1686111202.72,25.879,-314.453,-20.02,116.211,1209.613,367.09429535241975
175,1686111202.72,56.641,-616.699,-136.719,112.793,1209.616,372.94283272081185
176,1686111202.72,-9.766,-249.512,27.832,-61.035,1209.62,375.4281022679087
177,1686111202.73,-39.551,245.605,154.785,-93.262,1209.624,370.8061933980477
178,1686111202.73,23.926,75.195,61.035,69.336,1209.628,383.55173274720505
179,1686111202.74,70.801,-122.559,-6.348,125.0,1209.632,371.10234055043156
180,1686111202.74,11.23,-59.57,67.871,-15.137,1209.64,377.09727398724056
181,1686111202.74,-63.477,197.266,175.781,-97.656,1209.644,380.37509256674866
182,1686111202.75,-26.855,-229.004,-23.438,30.762,1209.648,378.9433240813941
183,1686111202.75,57.129,-357.422,-42.48,145.02,1209.652,369.8408109898381
184,1686111202.76,41.504,117.676,103.516,37.598,1209.656,365.29989787193
185,1686111202.76,-42.969,-109.863,-15.625,-101.562,1209.66,373.3639410291295
186,1686111202.76,-45.41,-699.219,-254.883,-16.113,1209.664,370.17633733793394
187,1686111202.77,41.016,-611.328,-174.316,132.324,1209.668,377.62554678999226
188,1686111202.77,59.082,165.527,163.086,68.359,1209.672,369.9511416517142
189,1686111202.78,-33.203,61.523,32.227,-88.867,1209.676,369.92275962836095
190,1686111202.78,-53.711,-148.438,34.18,-66.406,1209.68,369.2979748409699
191,1686111202.78,45.41,108.887,145.508,98.633,1209.683,366.083890193515
192,1686111202.8,87.402,332.52,170.41,105.469,1209.695,360.04195101635975
193,1686111202.8,11.23,66.406,39.551,-53.223,1209.698,383.0678554963082
194,1686111202.8,-41.016,-372.07,-119.141,-94.727,1209.702,368.4552865729538
195,1686111202.81,14.16,-340.82,3.418,61.523,1209.706,364.9978456029798
196,1686111202.81,76.172,-90.332,77.148,133.789,1209.71,367.7750593103161
197,1686111202.82,25.391,-235.352,-49.316,-15.137,1209.714,381.5737358072335
198,1686111202.82,-68.848,-902.832,-432.129,-115.723,1209.718,373.34597721104103
199,1686111202.82,-37.109,-843.262,-324.707,-3.906,1209.722,383.4557343877159
200,1686111202.83,62.5,39.062,162.598,111.328,1209.726,371.7373246907993
201,1686111202.83,46.387,52.246,60.547,23.926,1209.73,366.0931404003717
202,1686111202.84,-53.223,-250.488,-86.426,-108.398,1209.734,356.84986031254954
203,1686111202.84,-56.641,-33.691,73.242,-51.27,1209.737,362.63937816101617
204,1686111202.84,39.551,264.16,180.664,103.027,1209.741,358.778995656974
205,1686111202.85,51.758,76.66,92.773,78.125,1209.745,371.95069262638054
206,1686111202.85,-25.391,-74.219,52.246,-81.543,1209.749,366.8812331156653
207,1686111202.86,-51.27,176.758,150.879,-83.008,1209.753,367.2287202253517
208,1686111202.86,22.949,242.188,160.156,86.914,1209.757,376.0283844493382
209,1686111202.86,71.777,-145.02,-10.742,131.836,1209.761,368.5723935292864
210,1686111202.87,-7.324,-480.469,-99.121,-33.203,1209.765,370.57336288330873
211,1686111202.87,-64.453,-263.672,-11.23,-106.445,1209.768,381.0743411442416
212,1686111202.87,2.441,149.902,155.762,37.598,1209.772,367.9899659801445
213,1686111202.88,57.129,-445.801,-145.508,137.207,1209.776,361.8519439653594
214,1686111202.88,7.812,-768.066,-243.652,-1.465,1209.78,354.7307575655801
215,1686111202.89,-54.199,-14.648,97.656,-126.953,1209.784,378.01660021129135
216,1686111202.89,-28.32,30.762,44.922,-9.277,1209.784,363.1327157157358
217,1686111202.89,53.223,-68.359,52.734,131.348,1209.788,374.44450242910705
218,1686111202.9,48.828,-175.781,-16.113,54.688,1209.792,381.0797236451844
219,1686111202.9,-37.598,-228.516,-6.348,-100.586,1209.795,372.3227166613188
220,1686111202.9,-41.504,-154.785,27.344,-62.988,1209.799,380.658795957407
221,1686111202.91,37.598,-467.773,-83.496,109.375,1209.803,371.1821884267571
222,1686111202.91,57.617,-248.535,42.969,84.473,1209.807,374.6261537124899
223,1686111202.91,-7.812,-57.617,42.48,-81.055,1209.811,388.52015463542534
224,1686111202.92,-40.039,-374.023,-98.633,-89.355,1209.815,377.0852580845072
225,1686111202.92,12.695,-940.918,-393.555,68.848,1209.819,382.9873433875684
226,1686111202.93,56.641,-739.746,-174.316,104.004,1209.823,365.32385774670615
227,1686111202.93,4.883,60.059,158.203,-61.035,1209.827,379.49704602652514
228,1686111202.95,-69.824,-107.422,-12.695,-124.512,1209.844,394.3865564497823
229,1686111202.95,-14.648,-43.945,82.031,29.297,1209.848,362.4575019808521
230,1686111202.96,53.711,356.934,205.566,119.141,1209.851,384.9568097082307
231,1686111202.96,7.812,277.832,147.949,-14.16,1209.855,369.07647914618366
232,1686111202.96,-63.965,-164.062,-40.527,-129.395,1209.859,377.0517295110662
233,1686111202.97,-51.27,-390.137,-51.27,-31.25,1209.863,367.848237037597
234,1686111202.97,32.227,-120.605,95.215,111.816,1209.867,384.85664329087797
235,1686111202.97,41.992,171.387,129.883,36.621,1209.871,389.78927823676304
236,1686111202.98,-28.809,-320.312,-104.98,-80.078,1209.874,369.96644065739315
237,1686111202.98,-46.387,-459.961,-229.004,-117.188,1209.875,376.1929072870284
238,1686111202.98,-62.5,-182.617,27.344,-101.562,1209.878,389.41657728958876
239,1686111202.98,-61.523,-721.191,-249.023,-81.055,1209.879,373.39803477894674
240,1686111202.98,7.324,9.277,96.68,56.641,1209.882,382.0632233228889
241,1686111202.99,24.414,-57.129,148.438,70.312,1209.883,373.26339636142563
242,1686111202.99,48.34,-223.633,-21.484,110.84,1209.886,397.02529006566647
243,1686111202.99,46.387,58.594,66.895,70.312,1209.887,384.56774295263915
244,1686111202.99,-14.648,-515.137,-141.602,-39.062,1209.89,390.10553674964433
245,1686111203.0,-77.637,-539.551,-92.285,-129.395,1209.894,381.94584608643964
246,1686111203.0,-27.344,-78.125,144.043,2.441,1209.897,375.62214175217093
247,1686111203.0,54.199,-75.684,53.223,113.281,1209.901,372.02998717499656
248,1686111203.01,23.438,-255.371,-63.477,1.953,1209.905,382.88248267596373
249,1686111203.01,-55.176,40.039,82.52,-127.441,1209.909,371.27363469211485
250,1686111203.02,-30.762,287.598,195.801,-51.758,1209.913,376.52400141924454
251,1686111203.02,47.852,-88.379,-22.949,100.586,1209.917,374.95986443917235
252,1686111203.02,28.32,-778.809,-359.375,50.293,1209.932,389.6607308410864
253,1686111203.03,-49.316,-365.723,-40.039,-114.746,1209.936,389.2610563246076
254,1686111203.03,-49.316,187.012,163.086,-94.727,1209.94,378.7957545380886
255,1686111203.04,27.832,-180.664,5.859,83.984,1209.944,403.1685681317582
256,1686111203.04,46.387,-361.328,-52.734,89.844,1209.948,394.5942878672042
257,1686111203.04,-31.25,-213.379,-40.527,-88.379,1209.952,391.38847454574795
258,1686111203.05,-82.031,-249.023,-1.953,-133.301,1209.956,391.47907726290424
259,1686111203.05,-18.066,-606.934,-144.531,24.414,1209.96,391.0003230089689
260,1686111203.05,48.34,-597.168,-149.414,102.051,1209.963,397.3104911642795
261,1686111203.06,12.695,132.324,143.555,-50.781,1209.967,390.54939956073133
262,1686111203.06,-48.34,37.598,48.828,-148.438,1209.971,391.27828915826814
263,1686111203.07,-19.043,-107.91,55.176,-16.602,1209.975,400.1345182736187
264,1686111203.07,48.34,145.996,165.527,104.492,1209.964,388.0233976799328
265,1686111203.07,24.414,289.062,159.18,3.418,1209.968,399.834825385012
266,1686111203.08,-55.176,-109.375,-41.504,-122.07,1209.972,413.8082277955322
267,1686111203.08,-49.805,-728.027,-239.258,-40.527,1209.976,409.55620065542956
268,1686111203.08,37.109,-327.148,22.461,104.492,1209.98,384.9369748697065
269,1686111203.09,56.152,29.785,114.258,65.43,1209.984,389.94481323937043
270,1686111203.09,-21.484,-343.75,-104.492,-84.961,1209.987,386.189539541239
271,1686111203.09,-56.641,-858.398,-335.938,-70.801,1209.991,398.86397507000805
272,1686111203.1,31.738,-450.684,-58.105,89.844,1209.995,410.72744410679616
273,1686111203.1,83.984,388.672,232.422,107.91,1209.999,399.04753152210475
274,1686111203.11,1.465,-38.086,-30.273,-49.316,1210.003,403.6050574484258
275,1686111203.11,-61.035,-253.906,-42.969,-105.469,1210.007,405.85596964344296
276,1686111203.11,6.836,210.449,180.664,38.574,1210.011,407.1867090220533
277,1686111203.12,73.73,344.238,162.109,123.535,1210.015,428.1331904436871
278,1686111203.12,23.926,-22.461,-4.395,-7.324,1210.019,413.3320878697813
279,1686111203.12,-49.805,-131.836,18.555,-128.418,1210.023,419.8081528056498
280,1686111203.13,-11.719,59.082,78.613,-24.902,1210.026,414.58032421885014
281,1686111203.13,76.66,-86.914,50.781,109.375,1210.03,401.4810662906673
282,1686111203.14,45.41,-608.887,-202.637,34.18,1210.034,396.4413595503055
283,1686111203.14,-59.57,-847.656,-349.609,-106.445,1210.038,394.42284668970535
284,1686111203.14,-54.688,-69.336,70.801,-64.941,1210.042,419.82039813437865
285,1686111203.15,36.621,216.309,119.629,94.727,1210.046,405.73817594303995
286,1686111203.15,49.805,-63.965,48.34,76.66,1210.05,423.2140448385906
287,1686111203.16,-23.926,3.906,110.84,-80.566,1210.054,411.1480761042732
288,1686111203.16,-53.223,176.27,130.859,-87.891,1210.068,400.78753949337255
289,1686111203.16,15.625,179.199,111.328,72.266,1210.072,406.2372635840751
290,1686111203.16,58.594,-187.988,2.441,119.629,1210.075,407.1345404765875
291,1686111203.17,-1.953,-249.512,9.766,-36.133,1210.079,406.9996994784104
292,1686111203.17,-62.988,57.129,86.426,-115.234,1210.083,425.65674206951127
293,1686111203.18,-13.184,-96.68,25.879,31.25,1210.087,416.98065631394707
294,1686111203.18,44.922,-825.684,-323.242,139.16,1210.091,411.21958240547264
295,1686111203.18,5.371,-747.07,-243.164,10.742,1210.095,408.49567313953986
296,1686111203.19,-64.453,-86.426,80.566,-118.652,1210.099,408.0474864054937
297,1686111203.19,-46.875,-400.879,-134.766,-13.184,1210.103,420.60319557835
298,1686111203.2,38.086,-409.668,-106.445,117.676,1210.107,395.78312688686157
299,1686111203.2,37.598,180.664,133.301,23.438,1210.111,412.05525320302525
300,1686111203.22,-49.316,165.039,77.637,-135.742,1210.116,409.1540194080767
301,1686111203.22,-59.082,-180.664,-4.883,-80.566,1210.12,411.51101452977
302,1686111203.23,34.18,-41.992,62.012,92.773,1210.124,413.27269246618187
303,1686111203.23,62.012,288.574,166.504,75.684,1210.128,403.74198992595245
304,1686111203.23,-19.043,181.152,82.031,-93.75,1210.132,401.4960984658205
305,1686111203.24,-70.312,-448.73,-121.582,-111.328,1210.136,404.7028836429898
306,1686111203.24,-11.719,-463.379,21.484,43.945,1210.14,420.65122774422315
307,1686111203.24,45.41,179.688,208.496,88.867,1210.144,396.4531137569898
308,1686111203.25,-12.695,145.996,35.645,-53.711,1210.147,405.2493932487548
309,1686111203.25,-75.195,-384.277,-121.094,-124.512,1210.151,407.7850654520565
310,1686111203.26,-18.555,-269.043,61.035,7.812,1210.155,413.0711743540377
311,1686111203.26,61.523,-46.387,101.074,118.164,1210.159,414.53121121508633
312,1686111203.28,28.32,-293.457,-53.223,3.418,1210.174,407.67674834807497
313,1686111203.28,-56.641,-465.332,-129.883,-134.766,1210.178,401.251509161128
314,1686111203.28,-39.551,-448.242,-30.273,-38.086,1210.181,390.0035948091307
315,1686111203.29,45.898,-54.199,147.461,120.117,1210.185,395.6251005443428
316,1686111203.29,46.875,61.523,59.57,58.594,1210.189,399.13876317512404
317,1686111203.3,-37.598,-508.301,-184.082,-98.145,1210.193,408.68112750266914
318,1686111203.3,-49.805,-356.445,-16.602,-69.824,1210.197,397.86893939967416
319,1686111203.3,41.504,234.375,186.523,91.797,1210.201,387.1790176253234
320,1686111203.31,82.52,79.102,71.777,117.188,1210.204,407.99010564698415
321,1686111203.31,76.172,-10.254,-7.324,95.703,1210.205,391.43896673142723
322,1686111203.31,14.16,-251.953,-50.781,-18.555,1210.208,391.89708895713807
323,1686111203.31,-20.996,-920.41,-480.957,-67.871,1210.209,406.91262049338496
324,1686111203.32,-59.082,-119.629,10.254,-124.512,1210.212,413.7308890360027
325,1686111203.32,-64.941,-652.832,-218.262,-112.793,1210.213,392.90479529995105
326,1686111203.32,-9.766,255.371,149.902,-5.371,1210.216,409.1418895406479
327,1686111203.32,25.879,230.469,230.957,40.527,1210.217,399.166926376514
328,1686111203.32,65.918,-187.5,-40.527,124.512,1210.22,396.93965655837656
329,1686111203.33,34.668,-692.871,-217.285,24.902,1210.224,407.6553433018593
330,1686111203.33,-38.574,-253.418,16.113,-117.188,1210.228,410.88421079496754
331,1686111203.33,-23.926,117.676,127.441,-51.758,1210.232,395.0760880231921
332,1686111203.34,57.129,-87.891,17.09,107.91,1210.236,410.1552420765421
333,1686111203.34,65.43,-68.359,76.172,72.266,1210.24,402.2006943424472
334,1686111203.35,-20.996,135.254,111.328,-90.332,1210.244,395.7714206826005
335,1686111203.35,-50.781,73.73,44.434,-73.242,1210.247,405.37976168503565
336,1686111203.35,19.043,-498.047,-140.137,101.074,1210.249,408.0209256858564
337,1686111203.36,53.711,-421.875,-5.859,112.793,1210.253,398.1544818796025
338,1686111203.36,-19.043,-39.551,80.078,-59.57,1210.256,403.00851809063386
339,1686111203.36,-70.801,-373.047,-175.293,-120.117,1210.26,398.4763563885305
340,1686111203.37,-8.789,-660.645,-185.059,38.086,1210.264,397.3495644751902
341,1686111203.37,60.547,-523.438,-45.898,129.395,1210.268,399.9717806342182
342,1686111203.38,19.043,-91.797,75.195,-14.648,1210.272,403.08837143689374
343,1686111203.38,-64.941,-130.859,-26.855,-121.582,1210.276,395.74225373395785
344,1686111203.38,-44.922,-695.801,-241.211,-4.395,1210.28,400.50559200128595
345,1686111203.39,41.504,-222.656,76.66,117.676,1210.284,400.3927883173515
346,1686111203.39,28.32,375.0,196.777,17.09,1210.288,399.11732165509494
347,1686111203.4,-48.828,-65.918,-45.41,-115.723,1210.292,412.6728149356907
348,1686111203.4,-40.039,-147.461,10.254,-48.828,1210.294,381.72486612006503
349,1686111203.4,44.434,236.816,170.41,98.145,1210.298,391.45810677681044
350,1686111203.4,61.035,287.109,117.188,61.523,1210.302,384.7594879749701
351,1686111203.41,-23.926,-72.754,-9.766,-101.074,1210.305,408.30164158809305
352,1686111203.41,-59.082,-135.254,-1.465,-97.656,1210.309,395.9990727243208
353,1686111203.42,16.113,-104.004,36.133,72.754,1210.313,397.47789625435576
354,1686111203.42,69.336,-199.219,50.293,108.398,1210.317,395.1028255078084
355,1686111203.42,-14.16,-625.488,-231.445,-45.41,1210.321,392.8762564458126
356,1686111203.43,-84.961,-828.613,-342.773,-113.77,1210.325,396.6002599581471
357,1686111203.43,-4.883,38.086,125.977,25.879,1210.329,397.98126042320274
358,1686111203.44,66.406,270.996,144.043,119.141,1210.333,400.2772435051543
359,1686111203.44,21.973,-95.703,22.461,-10.742,1210.337,388.01178715933975
360,1686111203.44,-40.527,-17.09,79.102,-124.512,1210.339,396.12661588514413
361,1686111203.45,-12.207,213.867,151.367,-15.137,1210.343,403.3737675268816
362,1686111203.45,58.105,11.23,73.73,128.418,1210.346,395.74191308003384
363,1686111203.45,34.18,-562.5,-126.465,52.246,1210.35,395.80264092875296
364,1686111203.46,-39.062,-371.094,-44.434,-105.469,1210.354,393.9232517681371
365,1686111203.46,-43.457,-62.988,52.246,-66.895,1210.358,387.66741322479623
366,1686111203.46,32.715,-287.109,-45.41,92.773,1210.362,411.9090464760216
367,1686111203.47,62.012,-630.371,-163.574,86.914,1210.366,401.6061611249578
368,1686111203.47,-6.836,-311.035,1.953,-83.496,1210.37,403.9087748057414
369,1686111203.48,-47.852,-11.23,79.59,-108.887,1210.374,397.6950942389719
370,1686111203.48,17.09,-378.418,-97.168,58.105,1210.378,400.09155818018354
371,1686111203.48,64.941,-345.215,-100.586,111.816,1210.382,403.47007305931214
372,1686111203.49,7.324,152.832,140.625,-41.504,1210.386,390.8567720559748
373,1686111203.49,-53.223,179.688,101.562,-118.652,1210.389,396.8794339072451
374,1686111203.5,-1.953,-58.594,73.73,17.09,1210.393,397.504358907206
375,1686111203.5,63.965,73.242,127.441,108.887,1210.397,401.4966102135517
376,1686111203.5,25.391,189.941,95.703,-21.484,1210.401,400.2679671232224
377,1686111203.51,-50.781,-125.977,11.23,-131.836,1210.405,401.979792675398
378,1686111203.51,-51.27,-712.402,-242.188,-36.621,1210.409,396.7827523404211
379,1686111203.52,28.32,-649.902,-174.805,93.262,1210.413,399.635106256253
380,1686111203.52,42.969,144.531,195.312,30.273,1210.417,385.4939265465118
381,1686111203.52,-47.363,97.168,70.312,-122.559,1210.421,392.10821043425125
382,1686111203.53,-60.059,-118.652,48.34,-90.82,1210.425,379.247115041506
383,1686111203.53,28.809,13.184,135.254,72.754,1210.428,369.6727583527167
384,1686111203.53,51.27,5.371,110.352,69.824,1210.433,384.4523842890755
385,1686111203.54,-29.785,-69.336,5.859,-86.914,1210.437,372.5587030057339
386,1686111203.54,-75.195,-618.652,-213.379,-111.328,1210.441,373.6091791368026
387,1686111203.54,0.977,-401.367,-8.789,35.645,1210.444,377.14892688525845
388,1686111203.55,67.871,232.91,144.043,104.98,1210.448,362.6793069208676
389,1686111203.55,10.742,-131.836,-50.293,-20.508,1210.452,356.46644692564155
390,1686111203.56,-76.66,-883.301,-387.207,-112.305,1210.456,355.68518296209453
391,1686111203.56,-37.598,-543.945,-126.953,-5.859,1210.46,336.8945981426392
392,1686111203.56,58.105,328.125,237.305,113.281,1210.464,338.05390822447384
393,1686111203.57,25.391,3.418,-16.602,20.508,1210.468,341.1712595286848
394,1686111203.57,-59.57,-203.125,-32.715,-117.188,1210.472,336.3802389509384
395,1686111203.58,-39.551,167.969,176.27,-39.062,1210.476,349.4289874075225
396,1686111203.58,52.734,321.289,187.5,113.77,1210.488,329.874583063851
397,1686111203.58,64.453,6.348,41.016,63.965,1210.492,324.37703389853556
398,1686111203.59,-30.762,-352.539,-62.988,-99.121,1210.496,325.1669963617877
399,1686111203.59,-55.176,-182.617,38.086,-85.938,1210.5,322.03929122232284
400,1686111203.59,37.109,208.496,190.43,83.984,1210.503,331.5322993038531
401,1686111203.6,65.918,-376.465,-135.254,116.211,1210.507,327.03311310468126
402,1686111203.6,-14.16,-942.871,-390.625,-34.18,1210.511,308.92072601406653
403,1686111203.6,-48.828,-221.191,29.297,-86.914,1210.515,311.25556315179387
404,1686111203.61,17.09,190.43,155.273,64.941,1210.519,304.6662828839139
405,1686111203.61,74.219,39.062,89.844,136.719,1210.523,311.8600366293925
406,1686111203.62,26.367,20.996,93.262,-3.906,1210.527,324.282935352045
407,1686111203.62,-46.875,85.938,78.613,-110.84,1210.531,323.30986576949886
408,1686111203.64,-18.555,30.273,41.992,0.977,1210.534,316.8818483535819
409,1686111203.64,63.965,-37.598,56.641,133.789,1210.538,310.1470112211053
410,1686111203.64,42.48,-193.848,6.836,39.551,1210.542,314.3971506408525
411,1686111203.65,-44.922,-193.848,21.484,-105.957,1210.546,320.52348542596326
412,1686111203.65,-27.344,-121.094,36.621,-33.203,1210.55,306.0321771316898
413,1686111203.66,54.688,-690.43,-252.441,137.695,1210.554,319.7294578735861
414,1686111203.66,67.383,-732.91,-193.848,102.051,1210.557,311.38192572144345
415,1686111203.66,-7.812,-139.16,66.406,-63.965,1210.561,308.49700379990804
416,1686111203.67,-33.691,-174.805,-43.945,-57.129,1210.565,311.14143238939425
417,1686111203.67,37.109,-632.324,-215.82,100.586,1210.569,325.72308039456317
418,1686111203.68,73.73,-146.484,50.293,119.141,1210.573,313.827634104348
419,1686111203.68,10.742,131.348,89.844,-37.598,1210.577,317.64921433386036
420,1686111203.68,-44.434,-208.008,-12.695,-97.656,1210.579,325.7504091264733
421,1686111203.68,12.207,-128.418,41.016,51.758,1210.583,325.492602647668
422,1686111203.69,80.078,199.707,133.789,142.578,1210.587,321.4081349377608
423,1686111203.69,31.738,159.668,79.102,10.254,1210.59,319.02657834242063
424,1686111203.7,-45.41,-221.68,-101.562,-108.887,1210.594,327.3148729720924
425,1686111203.7,-19.531,-434.082,-95.215,-5.859,1210.598,317.97889272094085
426,1686111203.7,58.594,-114.258,71.777,123.535,1210.602,323.5398460515009
427,1686111203.71,47.852,40.527,87.402,35.645,1210.606,328.4741863824155
428,1686111203.71,-45.898,-619.629,-307.129,-109.375,1210.61,323.2840467900066
429,1686111203.72,-56.641,-803.711,-316.895,-65.918,1210.614,321.9528979121728
430,1686111203.72,48.828,102.539,196.289,88.867,1210.618,319.3328778384375
431,1686111203.72,78.613,205.566,92.285,88.867,1210.622,334.23706190851374
432,1686111203.73,-12.207,-165.039,-38.574,-69.824,1210.624,328.27608793354983
433,1686111203.73,-56.641,14.648,112.793,-96.191,1210.628,325.7069229235506
434,1686111203.74,18.066,28.32,106.445,69.336,1210.632,325.21094223975246
435,1686111203.74,62.988,-118.652,27.832,125.488,1210.635,330.42138265663414
436,1686111203.74,-9.766,-524.902,-155.762,-17.578,1210.639,343.2583337387158
437,1686111203.75,-61.523,-630.371,-212.891,-89.844,1210.643,330.7345874846034
438,1686111203.75,-5.371,-82.031,80.566,41.504,1210.647,328.1567254380127
439,1686111203.75,65.918,19.531,76.66,136.719,1210.651,346.0846125767552
440,1686111203.76,24.414,-599.609,-209.473,14.16,1210.655,342.3563877379935
441,1686111203.76,-51.758,-333.496,-15.625,-116.211,1210.659,339.8993916873832
442,1686111203.77,-29.297,51.27,119.141,-36.133,1210.663,351.56626723454775
443,1686111203.77,46.875,-382.812,-111.328,106.445,1210.667,345.973343083738
444,1686111203.77,44.922,-417.969,-168.457,42.48,1210.669,338.4371910823288
445,1686111203.78,-34.18,77.637,92.773,-109.863,1210.673,340.28458618676854
446,1686111203.78,-48.34,138.672,102.539,-75.195,1210.677,345.59809510690343
447,1686111203.78,27.344,-5.371,95.703,83.496,1210.681,349.04394728891594
448,1686111203.79,54.688,18.066,92.285,87.891,1210.685,349.5155733314657
449,1686111203.79,-22.949,-181.152,-32.715,-73.73,1210.688,350.9608845994791
450,1686111203.8,-61.523,-251.465,-8.301,-107.422,1210.692,338.96817868155347
451,1686111203.8,0.488,-589.355,-173.828,48.828,1210.696,341.06417418491077
452,1686111203.8,53.223,-647.461,-174.316,113.77,1210.7,354.39562848178883
453,1686111203.81,15.137,112.305,165.039,-34.18,1210.704,345.51547722244794
454,1686111203.81,-54.199,69.336,58.594,-125.488,1210.708,345.34384073117474
455,1686111203.82,-21.973,-93.262,34.668,-5.371,1210.712,351.1078382662977
456,1686111203.82,58.105,-5.859,71.289,114.746,1210.717,344.33878919978423
457,1686111203.82,26.367,-56.641,39.551,15.137,1210.721,346.1621949557915
458,1686111203.82,-48.828,-210.449,-57.617,-114.746,1210.725,362.3040731850507
459,1686111203.83,-36.621,-743.652,-291.504,-28.809,1210.729,364.66990824594916
460,1686111203.83,42.48,-537.109,-80.078,99.121,1210.733,353.51830013012477
461,1686111203.84,52.734,-86.914,107.422,49.316,1210.736,359.4948758251281
462,1686111203.84,-32.227,-384.277,-124.512,-84.473,1210.74,352.06975034211393
463,1686111203.84,-57.617,-728.516,-249.512,-81.055,1210.744,358.55955805799306
464,1686111203.85,26.855,-163.086,104.004,70.801,1210.748,351.01968703922034
465,1686111203.85,77.148,379.395,219.238,88.867,1210.752,356.681082955501
466,1686111203.86,3.418,-82.031,-34.668,-54.688,1210.756,366.5123194524452
467,1686111203.86,-59.57,-181.641,-39.062,-96.191,1210.76,368.8722311746017
468,1686111203.86,5.371,220.703,143.066,43.945,1210.76,355.45228578509756
469,1686111203.87,73.242,336.914,145.996,115.723,1210.764,357.7321781809272
470,1686111203.87,24.902,-35.645,1.953,-16.113,1210.768,351.6818487609321
471,1686111203.88,-50.293,-380.371,-101.562,-118.164,1210.772,361.0866449178699
472,1686111203.88,-9.277,-126.465,14.16,-0.977,1210.776,362.07294065939044
473,1686111203.88,74.707,18.555,132.324,123.047,1210.78,363.67189808532635
474,1686111203.89,39.062,-545.898,-200.684,26.855,1210.784,360.95511445238526
475,1686111203.89,-62.012,-909.18,-347.656,-121.582,1210.788,363.32020971623984
476,1686111203.89,-52.246,-112.793,126.465,-61.035,1210.792,358.1368306496633
477,1686111203.9,45.898,311.523,166.992,99.609,1210.796,368.6722756827202
478,1686111203.9,50.781,45.41,69.824,61.523,1210.799,364.92532611544095
479,1686111203.91,-39.062,27.344,80.078,-101.562,1210.803,361.5821988102921
480,1686111203.91,-61.523,133.789,86.914,-109.375,1210.818,360.86693070476093
481,1686111203.91,11.719,128.418,92.773,57.129,1210.822,358.489702731
482,1686111203.92,52.246,-262.695,-25.391,103.027,1210.826,356.20527068631174
483,1686111203.92,-3.418,-204.102,15.137,-62.012,1210.83,354.14066855104227
484,1686111203.92,-58.105,72.266,65.918,-130.859,1210.834,365.7631285004572
485,1686111203.93,-18.555,-181.152,33.691,20.02,1210.838,360.455807257088
486,1686111203.93,36.621,-812.5,-278.32,120.117,1210.841,357.85009830025064
487,1686111203.93,1.953,-751.465,-267.578,-18.555,1210.845,358.0536402395394
488,1686111203.94,-53.223,65.918,119.629,-145.02,1210.849,355.7853653693903
489,1686111203.94,-18.555,-87.891,-8.789,-35.156,1210.853,364.2652338936561
490,1686111203.95,71.289,-215.332,-13.184,102.051,1210.857,363.24686352807487
491,1686111203.95,61.523,156.738,127.93,18.555,1210.861,364.7509291718926
492,1686111203.95,-22.949,153.809,101.562,-131.348,1210.862,374.8088848090787
493,1686111203.96,-38.574,-211.914,3.418,-71.777,1210.866,354.5989704558822
494,1686111203.96,36.621,-208.984,35.645,90.332,1210.87,361.34111552057647
495,1686111203.96,53.711,188.477,157.227,71.777,1210.874,357.36054805847454
496,1686111203.97,-24.902,108.398,88.379,-92.773,1210.878,364.40408432638117
497,1686111203.97,-64.453,-518.555,-127.441,-108.887,1210.882,361.37287731549185
498,1686111203.98,8.789,-517.09,-25.391,57.617,1210.886,367.7575926355105
499,1686111203.98,60.059,111.328,154.297,99.609,1210.89,377.3904804241566
500,1686111203.98,-10.254,-11.719,-2.441,-55.176,1210.894,365.3334449968372
501,1686111203.99,-83.984,-703.613,-351.562,-125.0,1210.898,366.64149204350093
502,1686111203.99,-37.598,-620.117,-191.406,12.207,1210.902,362.81092602338225
503,1686111204.0,46.387,210.449,191.406,109.375,1210.905,365.6288139930782
504,1686111204.01,14.16,74.219,6.836,-11.23,1210.909,376.9432562136706
505,1686111204.02,-57.129,-303.223,-92.773,-133.301,1210.913,375.4172153451472
506,1686111204.02,-33.691,-342.773,2.441,-33.203,1210.917,365.0341664455851
507,1686111204.02,47.852,-86.914,119.141,112.305,1210.92,368.8405800865096
508,1686111204.03,41.992,80.078,96.68,44.434,1210.924,353.8397205058554
509,1686111204.03,-54.199,-757.324,-393.066,-89.355,1210.928,366.851208489073
510,1686111204.04,-62.012,-742.676,-239.746,-55.664,1210.932,366.87037464489595
511,1686111204.04,42.969,240.234,248.535,89.355,1210.936,375.2618107581185
512,1686111204.04,68.848,45.41,14.16,98.633,1210.94,376.1744353462623
513,1686111204.05,-10.254,-279.785,-77.148,-56.152,1210.944,367.0678894236119
514,1686111204.05,-48.34,36.621,113.281,-85.449,1210.948,362.2936838990734
515,1686111204.06,10.254,-7.812,114.746,65.918,1210.952,373.1347241514512
516,1686111204.06,60.547,-367.676,-74.219,121.582,1210.954,378.24369334663015
517,1686111204.06,16.602,-383.789,-114.746,-26.367,1210.958,390.4353989127625
518,1686111204.06,-38.574,34.668,101.074,-114.258,1210.961,378.2303972222805
519,1686111204.07,-7.324,167.969,120.117,10.742,1210.965,391.52155603908585
520,1686111204.07,59.082,-78.125,35.645,126.953,1210.969,391.5124333110277
521,1686111204.08,33.203,-396.484,-79.102,26.367,1210.973,386.1260345058965
522,1686111204.08,-43.457,-374.512,-125.0,-109.375,1210.977,379.29479359262893
523,1686111204.08,-27.344,-8.301,77.148,-36.133,1210.981,375.3897414593672
524,1686111204.09,44.922,-471.68,-125.0,116.699,1210.985,382.7020967643923
525,1686111204.09,38.574,-662.598,-193.359,66.895,1210.989,384.4199129139817
526,1686111204.1,-29.785,-21.973,78.125,-93.262,1210.993,394.4625344768719
527,1686111204.1,-50.293,-233.887,-35.645,-71.777,1210.997,387.2534467635094
528,1686111204.12,17.578,-186.523,56.641,82.031,1211.023,395.7852921810219
529,1686111204.12,56.152,-33.691,74.219,96.68,1211.027,397.2685869624976
530,1686111204.13,-14.16,-289.551,-56.641,-64.941,1211.031,403.93291581611527
531,1686111204.13,-65.918,-374.512,-125.488,-121.094,1211.034,397.8124158589502
532,1686111204.13,-15.137,-704.102,-276.855,41.016,1211.038,413.9927562433102
533,1686111204.14,35.645,-774.414,-205.078,124.023,1211.042,418.48486963644234
534,1686111204.14,-3.906,-167.48,93.75,-20.02,1211.046,402.0702264145171
535,1686111204.14,-62.012,-127.441,3.418,-116.211,1211.05,411.530016445459
536,1686111204.15,-33.691,-173.828,7.324,-47.363,1211.044,392.8127773114256
537,1686111204.15,-26.367,-633.789,-187.5,12.695,1211.054,404.48858198804965
538,1686111204.15,57.617,264.16,206.543,106.445,1211.048,408.18071937439254
539,1686111204.15,62.5,-127.441,106.934,134.766,1211.058,435.9456348841478
540,1686111204.16,83.984,296.875,173.34,81.543,1211.051,406.30046957413504
541,1686111204.16,54.199,338.867,180.664,34.668,1211.062,424.6491815296492
542,1686111204.16,-7.324,-131.348,-17.578,-82.031,1211.055,415.23361201503536
543,1686111204.16,-35.156,-143.555,-53.711,-106.445,1211.066,414.85387964652944
544,1686111204.16,-42.969,-365.234,-50.781,-81.543,1211.059,408.60274940125464
545,1686111204.17,49.316,-212.402,69.336,85.449,1211.063,406.7498085756744
546,1686111204.17,89.844,-185.547,60.547,115.234,1211.067,419.1969769848087
547,1686111204.17,7.324,-423.34,-74.219,-47.363,1211.071,428.9128828662484
548,1686111204.18,-52.734,-331.543,-5.371,-120.117,1211.075,432.44066254709463
549,1686111204.18,10.742,103.027,136.719,28.809,1211.079,427.0670573078648
550,1686111204.19,81.543,272.461,162.598,126.953,1211.083,428.10208273824634
551,1686111204.19,19.043,-491.211,-246.094,-2.93,1211.087,420.66981962616137
552,1686111204.19,-68.848,-799.316,-297.852,-125.0,1211.089,439.1816051927633
553,1686111204.2,-23.926,-14.16,162.109,-30.762,1211.093,434.5342056882229
554,1686111204.2,56.152,-49.805,67.871,114.258,1211.096,461.52001033672053
555,1686111204.2,40.527,-566.406,-98.145,40.527,1211.1,440.6234110929677
556,1686111204.21,-38.086,-365.234,-24.414,-121.094,1211.104,450.8385901766184
557,1686111204.21,-37.598,-156.25,24.902,-66.895,1211.108,457.63665035258316
558,1686111204.22,47.363,-306.641,-16.602,97.168,1211.112,454.293935746635
559,1686111204.22,45.898,-788.574,-289.551,80.566,1211.116,455.25545831124003
560,1686111204.22,-41.992,-584.473,-161.133,-94.727,1211.12,472.25562540956
561,1686111204.23,-64.453,198.73,182.617,-119.141,1211.124,469.30101987612875
562,1686111204.23,14.16,38.574,60.547,57.617,1211.128,459.18329787920914
563,1686111204.24,77.637,-38.574,37.598,113.77,1211.132,475.7321502682455
564,1686111204.24,10.742,189.453,116.211,-49.805,1211.147,457.1263837805504
565,1686111204.24,-63.477,165.527,91.309,-137.695,1211.151,471.043358558823
566,1686111204.25,-24.414,-59.57,71.777,0.977,1211.155,463.1252859841152
567,1686111204.25,43.457,-14.16,100.586,108.398,1211.159,472.2342654644846
568,1686111204.25,13.184,127.93,82.52,-16.113,1211.163,477.82351186893004
569,1686111204.26,-74.707,-135.254,-59.082,-150.391,1211.167,475.4843816654239
570,1686111204.26,-59.57,-709.961,-290.039,-43.457,1211.171,462.9678364728705
571,1686111204.26,37.109,-656.738,-159.668,104.98,1211.175,479.5638520998501
572,1686111204.27,46.875,98.633,162.109,18.555,1211.178,453.44828184196473
573,1686111204.27,-39.551,-59.082,-15.137,-125.977,1211.182,482.46006910813543
574,1686111204.28,-60.059,-540.039,-148.438,-70.312,1211.186,471.83612208471476
575,1686111204.28,24.902,-184.57,81.055,91.309,1211.19,461.41135692443953
576,1686111204.28,65.918,326.172,200.684,94.727,1211.193,478.45412661205546
577,1686111204.29,-1.465,64.453,29.297,-62.988,1211.197,475.58578705674574
578,1686111204.29,-48.34,-491.211,-153.32,-102.539,1211.201,474.26593771396546
579,1686111204.29,19.531,-185.547,60.059,42.969,1211.205,456.52219485210827
580,1686111204.3,77.637,235.84,177.246,103.516,1211.209,466.0389260191387
581,1686111204.3,15.137,-197.754,-63.477,-34.668,1211.213,479.9799414789822
582,1686111204.3,-56.641,-898.926,-416.992,-109.863,1211.217,464.630165039943
583,1686111204.31,-4.395,-582.031,-174.805,9.766,1211.221,452.2991980819865
584,1686111204.31,79.59,312.5,276.855,102.539,1211.225,477.19260489219175
585,1686111204.32,50.293,-30.273,-32.227,7.324,1211.228,459.4569365960527
586,1686111204.32,-35.156,-355.469,-145.508,-117.188,1211.232,473.0734719711239
587,1686111204.32,-14.648,31.25,127.441,-31.25,1211.236,464.7329273101251
588,1686111204.33,66.895,33.691,123.535,123.047,1211.23,455.330050657919
589,1686111204.34,54.688,-430.176,-123.535,64.941,1211.234,462.2414534234607
590,1686111204.34,-34.668,-525.879,-152.832,-104.004,1211.238,467.88245238114575
591,1686111204.34,-47.852,50.293,140.625,-86.426,1211.242,459.9830149267478
592,1686111204.35,26.855,224.121,152.344,69.336,1211.246,455.69065138933536
593,1686111204.35,50.293,-226.074,-40.527,90.82,1211.249,462.6403846241606
594,1686111204.36,-20.02,-437.5,-48.34,-63.965,1211.253,461.938739306313
595,1686111204.36,-64.941,-19.043,115.234,-120.117,1211.257,445.69193287738096
596,1686111204.36,3.906,216.309,121.582,37.598,1211.261,448.8887059721391
597,1686111204.37,59.082,-361.816,-87.891,116.211,1211.265,448.76403920197987
598,1686111204.37,9.277,-518.555,-83.008,-23.926,1211.269,445.3774967298086
599,1686111204.38,-52.734,24.414,104.492,-125.0,1211.273,451.15708753927254
600,1686111204.39,-21.484,-25.879,34.668,-10.742,1211.284,440.1853512348424
601,1686111204.39,48.34,-138.672,23.438,97.168,1211.288,452.1906844196951
602,1686111204.4,30.273,-191.895,14.648,2.441,1211.292,434.33435362568645
603,1686111204.4,-51.27,-374.512,-97.168,-116.211,1211.296,439.05297479890464
604,1686111204.4,-41.992,-359.375,-35.645,-48.828,1211.3,437.2454508003646
605,1686111204.41,37.598,-738.281,-273.926,109.863,1211.304,452.114625959685
606,1686111204.41,47.852,-973.633,-382.324,75.195,1211.307,440.3056959962156
607,1686111204.41,-17.578,-201.66,69.824,-94.727,1211.311,424.6961004649802
608,1686111204.42,-42.969,-68.848,27.832,-84.961,1211.315,435.0448348991372
609,1686111204.42,32.227,-142.578,5.859,81.543,1211.319,430.75957106653146
610,1686111204.43,71.777,262.207,193.848,106.445,1211.323,429.55575009766864
611,1686111204.43,2.441,214.355,110.352,-49.316,1211.327,416.9490055880525
612,1686111204.43,-52.734,-173.34,-16.602,-103.027,1211.329,428.13106107142147
613,1686111204.44,5.859,-92.773,98.633,43.945,1211.333,438.83798993295636
614,1686111204.44,44.434,276.367,193.359,98.633,1211.336,414.85386973707534
615,1686111204.44,-10.254,176.758,90.332,-42.969,1211.34,416.8519297802023
616,1686111204.45,-68.848,-253.418,-52.734,-136.719,1211.344,413.0372214630224
617,1686111204.45,-38.574,-408.203,-23.926,-21.973,1211.348,416.5693455957472
618,1686111204.45,36.621,-267.09,56.641,114.746,1211.352,419.95070019201273
619,1686111204.46,24.414,-206.543,46.387,26.367,1211.356,407.54568584640407
620,1686111204.46,-65.43,-636.23,-256.348,-117.188,1211.36,398.6969988080345
621,1686111204.47,-79.102,-823.73,-317.383,-58.105,1211.364,412.4710612571315
622,1686111204.47,24.414,46.387,177.246,91.309,1211.368,388.78432063610717
623,1686111204.47,56.152,231.445,144.043,71.289,1211.372,387.4588562237991
624,1686111204.48,-28.32,-161.621,-9.277,-94.727,1211.374,388.4775597352445
625,1686111204.48,-54.199,-49.316,98.633,-99.121,1211.378,370.3375723522931
626,1686111204.48,23.438,-0.977,93.262,79.59,1211.381,373.8154942294383
627,1686111204.49,62.5,-178.223,17.578,104.492,1211.385,373.4080971141636
628,1686111204.49,-0.977,-601.074,-195.312,-59.57,1211.389,372.79501933254795
629,1686111204.5,-58.594,-699.707,-221.68,-122.559,1211.393,346.56693208593424
630,1686111204.5,7.812,-116.211,65.43,34.18,1211.397,351.9810248149296
631,1686111204.5,86.426,38.574,66.406,132.324,1211.401,345.46422771505394
632,1686111204.51,37.598,-779.297,-334.961,8.789,1211.405,354.1261332341199
633,1686111204.51,-40.039,-561.035,-140.137,-105.469,1211.409,336.6586413041446
634,1686111204.52,-7.324,216.309,183.594,-9.766,1211.413,323.54699531512347
635,1686111204.52,68.848,-65.43,-6.836,128.418,1211.417,330.04659194670035
636,1686111204.54,56.152,-129.883,3.418,53.223,1211.434,303.84583189317755
637,1686111204.54,-23.926,159.668,143.555,-94.727,1211.437,286.48906342859425
638,1686111204.54,-47.852,195.801,115.723,-62.012,1211.441,304.82503352013384
639,1686111204.55,31.25,20.508,107.91,94.238,1211.445,295.6949853035951
640,1686111204.55,58.594,-20.02,91.797,88.379,1211.449,274.73628145736967
641,1686111204.56,-19.043,-169.434,-41.016,-70.312,1211.453,283.0229970974783
642,1686111204.56,-57.617,-231.445,-12.695,-94.727,1211.457,273.5331310453916
643,1686111204.56,4.883,-590.82,-159.18,66.895,1211.461,265.2861671121689
644,1686111204.57,55.664,-638.184,-163.086,115.723,1211.465,272.8585551887785
645,1686111204.57,54.688,-104.004,88.867,117.676,1211.464,273.34354987793074
646,1686111204.57,3.906,79.59,121.094,-50.781,1211.469,269.2153530581927
647,1686111204.57,30.273,256.348,167.48,11.719,1211.468,277.95868481757395
648,1686111204.58,-70.801,-110.352,16.113,-137.695,1211.473,267.45873502018844
649,1686111204.58,-49.316,-149.902,-71.289,-115.723,1211.472,266.3958711772166
650,1686111204.58,-40.527,-649.902,-159.668,-28.32,1211.476,252.71422017708937
651,1686111204.58,-30.762,-447.754,-49.316,-0.977,1211.477,263.08942925410025
652,1686111204.58,42.969,-238.77,77.637,111.328,1211.48,265.7895363663597
653,1686111204.59,45.898,-22.949,60.059,56.152,1211.484,261.4548547972476
654,1686111204.59,-33.203,-417.48,-129.883,-96.191,1211.488,264.87263401226664
655,1686111204.59,-44.434,-447.266,-87.891,-69.824,1211.491,251.7311205596813
656,1686111204.6,48.34,74.707,131.836,100.098,1211.495,237.1957305533404
657,1686111204.6,96.68,398.438,208.984,109.375,1211.499,258.52043428757304
658,1686111204.61,2.93,-172.363,-97.656,-63.477,1211.503,250.8641742121748
659,1686111204.61,-47.363,-715.332,-310.547,-79.59,1211.507,253.38690272843598
660,1686111204.62,37.598,-182.617,41.504,83.984,1211.516,243.06059504165714
661,1686111204.62,88.379,41.992,109.863,131.836,1211.52,253.27613387782603
662,1686111204.62,20.02,-461.914,-133.789,-10.254,1211.524,237.79362454154833
663,1686111204.63,-59.57,-497.07,-135.254,-116.699,1211.527,247.78835195779612
664,1686111204.63,-14.16,58.105,111.816,-5.859,1211.531,255.77079061083043
665,1686111204.64,62.012,-20.996,90.332,122.07,1211.535,238.35639567026234
666,1686111204.64,27.832,-612.793,-228.516,30.762,1211.539,264.4524261093885
667,1686111204.64,-61.035,-739.258,-268.555,-115.234,1211.543,249.68666268757437
668,1686111204.65,-32.227,62.5,142.09,-55.176,1211.547,253.32529020119523
669,1686111204.65,60.547,262.695,123.047,100.098,1211.551,250.05225251756346
670,1686111204.65,63.477,-35.645,67.871,66.895,1211.555,243.3161219525297
671,1686111204.66,-43.945,169.922,131.836,-76.66,1211.568,257.30713209959214
672,1686111204.66,-18.066,-37.598,97.168,-84.473,1211.559,250.16197068314716
673,1686111204.66,35.645,141.602,107.422,84.473,1211.572,250.645056153651
674,1686111204.66,66.895,-305.176,-58.594,118.652,1211.576,252.14511420147878
675,1686111204.67,-9.277,-521.484,-173.828,-47.852,1211.58,250.3721842611162
676,1686111204.67,-54.688,-300.781,-95.215,-106.445,1211.584,246.80844535135947
677,1686111204.68,6.836,-213.379,25.391,55.664,1211.588,259.1087695257785
678,1686111204.68,43.945,-771.484,-289.062,127.93,1211.592,261.87326281282213
679,1686111204.68,-19.531,-949.707,-370.117,-16.113,1211.596,243.9793456106355
680,1686111204.69,-64.941,-156.25,76.172,-122.559,1211.6,255.2811091372907
681,1686111204.69,-24.414,19.531,76.66,-13.184,1211.604,251.0835413488765
682,1686111204.7,55.176,-39.062,51.27,115.234,1211.607,254.6744305318151
683,1686111204.7,45.898,244.141,143.555,31.25,1211.611,264.42175914945767
684,1686111204.7,-41.016,161.621,75.684,-113.77,1211.612,275.6483869274758
685,1686111204.71,-50.293,-113.281,25.391,-58.105,1211.616,263.4387164674664
686,1686111204.71,30.762,-19.043,80.566,97.656,1211.62,265.91100215488535
687,1686111204.72,52.734,259.766,164.551,73.242,1211.624,265.86090334191726
688,1686111204.72,-29.297,142.578,49.805,-87.402,1211.628,277.67925366695954
689,1686111204.72,-58.105,-420.898,-131.348,-91.309,1211.632,275.0206519168828
690,1686111204.73,19.043,-527.344,-36.621,79.102,1211.636,282.1447076085017
691,1686111204.73,65.43,-223.633,31.738,107.422,1211.64,275.449305929646
692,1686111204.73,5.371,-4.395,84.961,-57.129,1211.644,295.501055328253
693,1686111204.74,-55.664,-528.32,-244.141,-110.84,1211.648,279.79587525209456
694,1686111204.74,-9.766,-727.539,-253.906,34.668,1211.651,277.2368798886865
695,1686111204.75,59.57,168.457,198.73,107.422,1211.655,294.53477684852857
696,1686111204.76,25.391,114.258,35.645,-25.879,1211.673,294.911072583128
697,1686111204.77,-50.781,-184.082,-25.391,-138.184,1211.677,302.5014517411881
698,1686111204.77,-27.344,-216.309,48.828,-30.273,1211.681,307.560748817214
699,1686111204.77,53.223,-124.023,83.008,112.793,1211.685,303.67968260691794
700,1686111204.78,44.922,64.941,113.77,37.598,1211.689,305.0632682877263
701,1686111204.78,-54.688,-715.82,-356.445,-102.539,1211.693,302.1057344078296
702,1686111204.78,-66.406,-749.023,-254.883,-59.57,1211.697,323.37580918512873
703,1686111204.79,43.945,234.863,241.699,83.496,1211.701,307.6831863769519
704,1686111204.79,67.871,-3.906,-5.371,78.613,1211.705,319.02220558756864
705,1686111204.8,-18.066,-571.777,-164.062,-65.43,1211.709,310.17689075906725
706,1686111204.8,-42.969,-94.727,97.656,-91.797,1211.712,336.22625096845826
707,1686111204.8,43.457,336.426,205.078,53.223,1211.716,323.65937878764134
708,1686111204.82,99.121,28.32,29.297,117.188,1211.719,326.059525908862
709,1686111204.83,31.738,-150.391,-8.789,-25.879,1211.723,344.999129918047
710,1686111204.83,-38.086,109.863,117.188,-116.211,1211.727,330.9671279271448
711,1686111204.83,8.301,202.637,124.023,18.555,1211.731,343.0802118000772
712,1686111204.84,83.496,-0.488,79.59,129.883,1211.735,350.1703264387019
713,1686111204.84,44.922,-415.039,-82.031,18.066,1211.739,356.4398529270377
714,1686111204.84,-41.504,-372.559,-43.457,-107.91,1211.742,343.7172933143136
715,1686111204.85,-21.484,50.293,131.836,-13.672,1211.746,350.9755676435069
716,1686111204.85,26.855,-658.691,-197.266,107.422,1211.749,351.5003624850799
717,1686111204.85,50.293,-317.871,-17.09,131.836,1211.75,344.7211722484441
718,1686111204.86,50.293,-647.461,-189.453,103.516,1211.753,361.1492687410174
719,1686111204.86,41.504,-358.398,12.695,60.059,1211.754,344.62835186789425
720,1686111204.86,-35.645,-157.715,73.242,-84.473,1211.756,360.3833592030726
721,1686111204.86,-31.25,86.426,97.656,-96.191,1211.758,352.1428879057998
722,1686111204.86,-75.684,-374.512,-73.73,-112.793,1211.76,362.32286551973095
723,1686111204.86,-49.805,-87.402,58.105,-64.941,1211.762,357.08449303938073
724,1686111204.87,6.348,-612.793,-126.953,58.105,1211.764,363.31101885628334
725,1686111204.87,70.801,-532.227,-49.316,117.676,1211.768,371.21163408753154
726,1686111204.88,20.02,-101.562,87.402,-41.992,1211.772,365.4017133238891
727,1686111204.88,-41.992,-150.879,-19.043,-125.488,1211.776,360.608271171569
728,1686111204.88,2.93,-329.59,-62.012,12.695,1211.78,376.33111952261254
729,1686111204.89,85.938,132.324,166.504,134.766,1211.784,379.69200817836156
730,1686111204.89,59.57,378.418,184.082,34.18,1211.788,360.0969272973585
731,1686111204.9,-33.203,-209.473,-110.352,-90.332,1211.792,365.46849131648355
732,1686111204.9,-21.973,-676.758,-256.348,-6.348,1211.797,382.1317494645489
733,1686111204.9,68.848,-98.145,66.406,133.789,1211.801,371.99487075794633
734,1686111204.91,70.312,24.902,73.73,78.125,1211.805,371.8781889857772
735,1686111204.91,-21.484,-513.184,-179.199,-86.426,1211.809,390.84972749238625
736,1686111204.91,-48.34,-522.949,-151.367,-77.637,1211.813,387.09216869611095
737,1686111204.92,39.551,-156.738,68.848,83.496,1211.817,384.7202475980474
738,1686111204.92,83.496,-153.809,71.777,101.562,1211.821,372.65983254709704
739,1686111204.92,0.977,-591.309,-242.188,-62.012,1211.825,378.2705575482209
740,1686111204.93,-63.477,-722.656,-262.695,-121.582,1211.829,376.21671137520394
741,1686111204.93,6.348,104.98,175.781,23.926,1211.833,393.3052006460491
742,1686111204.94,67.383,174.805,96.68,110.352,1211.836,379.1065154041686
743,1686111204.94,14.648,-194.336,10.254,-23.926,1211.84,389.66668838857095
744,1686111204.94,-54.688,-92.773,85.938,-127.441,1211.839,378.55859693606243
745,1686111204.95,-15.137,161.133,128.418,-11.23,1211.843,372.8806867390997
746,1686111204.95,59.57,25.879,88.379,114.746,1211.847,398.17298823380673
747,1686111204.95,27.832,-541.504,-100.098,24.902,1211.851,381.25401898296496
748,1686111204.96,-51.27,-612.305,-151.367,-119.629,1211.855,385.6702325957902
749,1686111204.96,-43.457,-332.031,-38.086,-49.316,1211.859,382.934837752399
750,1686111204.96,42.969,-208.496,43.457,105.957,1211.863,387.2473894811277
751,1686111204.97,54.688,-726.074,-281.25,69.824,1211.867,395.38200380128967
752,1686111204.97,-26.855,-688.477,-220.215,-104.98,1211.871,390.4606941496913
753,1686111204.98,-36.133,132.812,185.547,-105.469,1211.874,375.2543638663677
754,1686111204.98,42.969,67.871,85.449,74.219,1211.878,393.7133157399927
755,1686111204.98,81.543,-31.25,51.758,107.91,1211.882,393.71717239839296
756,1686111204.99,12.207,177.246,132.812,-54.688,1211.886,382.96517815801724
757,1686111204.99,-45.898,119.629,98.145,-115.723,1211.89,392.8348227814298
758,1686111205.0,9.277,-108.887,45.898,31.25,1211.894,380.3742312177337
759,1686111205.0,69.824,16.602,94.727,121.582,1211.898,379.0146659267056
760,1686111205.0,32.715,173.828,100.098,0.488,1211.902,372.2324623552653
761,1686111205.01,-44.434,-124.023,8.301,-120.117,1211.906,384.3106799516347
762,1686111205.01,-33.691,-686.523,-235.84,-22.461,1211.91,384.3679704223829
763,1686111205.02,38.574,-709.473,-199.707,112.305,1211.914,385.6649099742758
764,1686111205.02,41.504,82.031,180.176,31.738,1211.917,377.22826889642477
765,1686111205.02,-43.457,122.559,81.543,-118.652,1211.921,380.32212091327614
766,1686111205.03,-67.383,-208.008,-41.992,-81.543,1211.925,367.04931744773893
767,1686111205.03,9.277,-34.18,97.656,71.777,1211.929,365.8839758032854
768,1686111205.03,28.809,239.258,154.297,49.805,1211.943,374.6859193185343
769,1686111205.04,-49.316,30.273,14.16,-122.07,1211.946,387.9018678583613
770,1686111205.04,-89.844,-410.645,-118.652,-135.254,1211.95,378.6024301778329
771,1686111205.04,-14.16,-252.441,20.508,29.297,1211.954,380.238811132936
772,1686111205.05,45.41,125.0,159.668,81.055,1211.958,377.1893865619967
773,1686111205.05,-11.719,-157.715,-14.648,-64.453,1211.962,380.21912832190003
774,1686111205.06,-81.055,-891.602,-437.012,-133.789,1211.966,378.3899921553304
775,1686111205.06,-36.133,-706.543,-223.145,-7.812,1211.97,387.6929495302238
776,1686111205.06,53.223,206.543,246.094,86.914,1211.974,381.69763739125
777,1686111205.07,12.207,-123.047,-73.242,-24.414,1211.978,371.6822252973614
778,1686111205.07,-77.148,-468.75,-184.57,-146.484,1211.982,380.7026886050003
779,1686111205.08,-42.48,60.059,130.859,-58.105,1211.985,373.86569741730517
780,1686111205.09,51.27,349.121,188.965,86.914,1211.989,381.7549989158171
781,1686111205.1,40.527,-107.91,-48.828,22.949,1211.993,391.4358436166402
782,1686111205.1,-52.246,-407.715,-127.93,-138.672,1211.997,369.39322402697525
783,1686111205.1,-65.918,32.715,98.633,-105.957,1212.0,375.05775616161156
784,1686111205.11,12.695,224.609,143.066,70.801,1212.004,398.76821378600124
785,1686111205.11,30.273,-367.676,-99.121,84.961,1212.008,378.0196191195628
786,1686111205.12,-44.922,-703.613,-185.547,-79.59,1212.012,393.25120489247655
787,1686111205.12,-73.73,-106.445,76.172,-122.07,1212.016,373.20788681026545
788,1686111205.12,-1.953,162.109,148.438,37.109,1212.02,383.95624357263296
789,1686111205.13,50.293,-298.34,-17.09,107.422,1212.024,386.24288577922846
790,1686111205.13,-15.137,-366.699,-22.949,-41.016,1212.028,384.65353085889353
791,1686111205.14,-82.031,-37.109,29.785,-134.277,1212.032,385.76508827480774
792,1686111205.14,-25.879,-225.586,-1.465,-5.371,1212.034,384.58954052938566
793,1686111205.14,47.852,-416.016,-34.18,109.863,1212.038,384.6594054790719
794,1686111205.14,10.254,-485.352,-140.625,7.324,1212.042,383.0949213185191
795,1686111205.15,-63.965,-306.152,-60.059,-133.301,1212.046,385.5215605897382
796,1686111205.15,-36.133,-77.148,82.031,-42.48,1212.049,383.2436509861763
797,1686111205.16,34.668,-698.242,-265.137,131.348,1212.053,377.19131607701166
798,1686111205.16,35.645,-806.152,-230.957,68.848,1212.057,383.4450982945036
799,1686111205.16,-21.973,-6.348,134.277,-107.422,1212.061,385.4573892567692
800,1686111205.17,-44.922,-104.492,-30.762,-75.195,1212.065,381.3026668927361
801,1686111205.17,25.391,-656.738,-192.383,94.238,1212.069,377.87392546370114
802,1686111205.18,68.359,-166.016,68.848,89.355,1212.073,380.4229267637535
803,1686111205.18,9.277,245.605,145.02,-63.965,1212.077,378.9189253157389
804,1686111205.18,-48.828,-154.785,-15.625,-111.816,1212.079,381.271584116297
805,1686111205.19,2.93,-107.422,40.039,21.973,1212.083,381.25697521845706
806,1686111205.19,68.848,77.148,98.145,103.027,1212.087,380.6717817791886
807,1686111205.19,27.344,-51.758,41.992,-26.367,1212.091,375.4068232821992
808,1686111205.2,-52.734,-443.359,-131.348,-127.93,1212.095,389.9932630027028
809,1686111205.2,-39.062,-705.566,-163.086,-4.883,1212.098,378.0843775239423
810,1686111205.2,45.41,-163.086,98.145,122.559,1212.102,379.1172097305843
811,1686111205.21,34.18,149.414,100.098,27.832,1212.106,366.96793210473464
812,1686111205.21,-56.641,-518.555,-269.531,-102.539,1212.11,370.76863227130207
813,1686111205.22,-63.965,-715.332,-229.492,-42.48,1212.114,370.3230198020121
814,1686111205.22,34.668,183.594,219.727,102.051,1212.118,372.41990872690906
815,1686111205.22,58.105,165.039,86.426,72.266,1212.122,380.0435452452648
816,1686111205.23,-33.691,-250.488,-61.523,-99.121,1212.124,378.03356827381987
817,1686111205.23,-57.617,-88.867,48.828,-96.191,1212.128,378.1063055447166
818,1686111205.24,26.367,-23.438,90.82,76.66,1212.132,372.7138839478032
819,1686111205.24,61.523,-214.355,18.555,101.562,1212.135,379.28539932149295
820,1686111205.24,-14.648,-619.629,-189.453,-54.199,1212.139,380.19762532756687
821,1686111205.25,-67.871,-635.254,-154.297,-108.887,1212.143,378.4356924792268
822,1686111205.25,-2.93,-228.516,85.449,31.25,1212.147,368.5056576237909
823,1686111205.25,68.848,-200.684,33.203,114.258,1212.151,379.92084710625625
824,1686111205.26,14.648,-778.809,-344.727,-15.625,1212.155,375.16570107803676
825,1686111205.26,-67.871,-630.859,-188.477,-139.16,1212.159,355.4893043077191
826,1686111205.27,-21.484,182.617,195.312,-35.156,1212.163,376.85315658544806
827,1686111205.27,55.176,53.223,56.152,99.609,1212.167,375.41103614001986
828,1686111205.27,38.574,-87.402,23.926,21.973,1212.169,371.71820860589116
829,1686111205.28,-38.574,107.422,117.676,-125.977,1212.173,382.46076276116463
830,1686111205.28,-40.527,104.492,102.051,-82.031,1212.177,378.6185086475087
831,1686111205.28,49.316,-12.207,106.445,84.961,1212.181,386.06442474153636
832,1686111205.29,64.941,-36.621,65.918,68.848,1212.184,374.9512699511811
833,1686111205.29,-33.203,-216.309,-79.102,-96.68,1212.188,382.22614358114885
834,1686111205.3,-62.988,-278.809,-45.41,-101.074,1212.192,367.44179214831183
835,1686111205.3,26.855,-606.445,-190.43,69.336,1212.196,378.9637468780989
836,1686111205.3,53.711,-713.379,-187.012,102.539,1212.2,382.7627087889052
837,1686111205.31,-17.09,50.781,156.738,-68.359,1212.204,380.60642387498723
838,1686111205.31,-62.988,111.328,53.223,-135.742,1212.208,388.23437706360295
839,1686111205.32,-8.789,-148.926,45.41,15.137,1212.212,393.19306590457876
840,1686111205.32,65.918,18.066,122.559,109.863,1212.214,390.7507740811524
841,1686111205.32,32.715,228.027,136.719,-14.16,1212.218,416.4718925995874
842,1686111205.32,-58.594,-138.672,-39.551,-129.883,1212.222,412.0061948455499
843,1686111205.33,-44.922,-632.812,-195.312,-24.902,1212.226,399.34541238502027
844,1686111205.33,50.781,-258.301,53.711,119.141,1212.229,391.27211328403564
845,1686111205.34,49.805,-22.461,73.73,44.434,1212.233,417.1497334888368
846,1686111205.34,-40.039,-395.02,-182.129,-122.559,1212.237,415.2956529720648
847,1686111205.34,-50.293,-737.305,-257.812,-78.125,1212.241,419.1130894839104
848,1686111205.35,43.945,-229.492,69.336,92.285,1212.245,415.03825520497645
849,1686111205.35,72.754,297.852,163.086,73.242,1212.249,439.7931588758052
850,1686111205.36,-10.254,-270.508,-133.789,-87.402,1212.253,436.1077209255263
851,1686111205.36,-40.527,-496.094,-175.293,-106.934,1212.257,434.7061374009724
852,1686111205.36,42.969,117.188,147.461,44.434,1212.26,434.21902344028723
853,1686111205.37,102.539,406.738,211.914,106.445,1212.264,436.92664326636833
854,1686111205.37,25.391,-158.691,-24.414,-34.668,1212.267,444.31001383872746
855,1686111205.37,-53.223,-372.559,-48.828,-116.699,1212.271,433.76659325399754
856,1686111205.38,-16.113,109.863,114.746,14.16,1212.275,439.0665372349826
857,1686111205.38,50.293,33.691,89.844,138.184,1212.279,453.3053486317534
858,1686111205.38,20.02,-594.727,-212.891,44.434,1212.283,440.5064387878896
859,1686111205.39,-65.43,-760.742,-261.23,-101.562,1212.287,450.8660617662659
860,1686111205.39,-31.25,12.207,157.715,-27.344,1212.291,453.36515264042686
861,1686111205.4,58.105,224.121,147.949,131.348,1212.295,458.3457718468959
862,1686111205.4,39.551,-45.898,76.172,72.266,1212.299,461.445948722059
863,1686111205.4,-46.387,-45.41,67.871,-90.82,1212.303,469.549638139013
864,1686111205.41,-59.082,57.129,75.684,-73.73,1212.307,472.19863849150687
865,1686111205.41,18.066,-78.125,78.125,83.984,1212.311,467.8835169969461
866,1686111205.42,47.363,-648.438,-188.477,106.445,1212.315,465.4195122469772
867,1686111205.42,-22.461,-500.977,-125.488,-62.5,1212.319,486.22644066046917
868,1686111205.42,-50.293,78.613,125.977,-104.98,1212.323,470.0960064495954
869,1686111205.43,16.602,-152.832,23.926,69.336,1212.327,470.7395255383217
870,1686111205.43,57.129,-720.215,-207.031,134.766,1212.331,465.8396053510695
871,1686111205.43,10.742,-474.121,-78.125,-17.578,1212.335,470.8133251705929
872,1686111205.44,-38.574,164.062,157.227,-117.188,1212.339,471.4521056893266
873,1686111205.44,3.906,-34.668,31.738,13.672,1212.342,478.7954824762561
874,1686111205.45,73.242,-74.219,33.203,131.836,1212.346,478.02227790701073
875,1686111205.45,45.41,214.355,118.652,20.508,1212.35,479.41070814166034
876,1686111205.45,-41.992,167.969,80.078,-125.488,1212.363,473.9333402375086
877,1686111205.46,-40.039,-158.691,16.602,-53.223,1212.367,462.6686699850366
878,1686111205.46,34.668,-127.441,50.781,92.773,1212.37,464.6250997724414
879,1686111205.46,38.574,-37.598,51.27,57.617,1212.374,474.1659690273008
880,1686111205.47,-46.875,-206.055,-4.883,-105.469,1212.378,477.6954217693084
881,1686111205.47,-82.031,-626.953,-272.949,-109.375,1212.382,474.08461464393787
882,1686111205.48,-15.137,-893.555,-331.055,60.547,1212.386,453.4626494333022
883,1686111205.48,49.805,-154.297,91.309,86.914,1212.39,469.28209765121807
884,1686111205.48,-6.836,69.824,80.566,-73.73,1212.394,471.2970865026208
885,1686111205.49,-69.336,-196.777,-39.551,-135.254,1212.398,476.9361290558787
886,1686111205.49,-6.836,15.625,70.312,13.672,1212.402,474.81347040142947
887,1686111205.5,68.848,327.148,194.336,101.074,1212.406,476.3599063988921
888,1686111205.51,24.414,95.703,33.203,-16.602,1212.409,472.1741848246036
889,1686111205.52,-51.758,-230.469,-52.246,-119.629,1212.413,457.12203136442776
890,1686111205.52,-16.113,-290.039,9.277,-17.578,1212.417,481.97953587199567
891,1686111205.52,67.383,-68.848,113.281,120.117,1212.42,466.163894574019
892,1686111205.53,52.246,72.266,98.633,35.156,1212.424,473.99268879944395
893,1686111205.53,-46.387,-696.289,-375.977,-104.492,1212.428,472.11519354686
894,1686111205.54,-53.711,-933.105,-366.699,-55.664,1212.432,466.01712536694566
895,1686111205.54,41.504,-73.242,134.766,89.355,1212.436,476.07518789030496
896,1686111205.54,59.082,-13.672,13.672,69.824,1212.44,463.4885159374506
897,1686111205.55,-21.973,-605.469,-265.625,-85.938,1212.444,467.16807267138745
898,1686111205.55,-47.852,-237.305,22.949,-101.074,1212.448,464.6785491171437
899,1686111205.56,11.719,249.512,197.266,45.41,1212.452,456.94956107426515
900,1686111205.56,55.664,22.949,36.621,90.332,1212.454,468.5939829804211
901,1686111205.56,-5.859,-179.688,-28.32,-58.105,1212.458,458.9013327929721
902,1686111205.56,-80.078,35.156,77.148,-149.414,1212.462,441.52485278244603
903,1686111205.57,-36.133,127.441,124.512,-18.555,1212.466,453.4201033726789
904,1686111205.57,34.668,-87.891,50.293,97.168,1212.469,446.4738578335894
905,1686111205.58,-9.766,-402.832,-78.125,-21.973,1212.473,450.6917512494884
906,1686111205.58,-90.82,-391.602,-67.871,-150.879,1212.477,449.7701357595437
907,1686111205.58,-52.246,-20.02,116.211,-65.43,1212.481,453.5632613752353
908,1686111205.59,34.18,-436.035,-114.258,73.73,1212.485,442.28900620395683
909,1686111205.59,15.137,-855.469,-322.754,4.883,1212.489,448.4726154817543
910,1686111205.6,-62.5,-111.328,70.801,-152.344,1212.493,448.9746303051356
911,1686111205.6,-69.824,63.965,85.938,-103.516,1212.497,443.6361805505035
912,1686111205.6,6.836,-66.406,46.875,60.059,1212.499,441.0813005735465
913,1686111205.61,35.156,86.914,136.23,59.57,1212.503,441.18800427039844
914,1686111205.61,-42.48,-120.605,3.906,-91.309,1212.507,442.3977168427612
915,1686111205.61,-94.238,-341.797,-75.684,-116.699,1212.511,432.2696344354285
916,1686111205.62,-22.949,-533.203,-91.309,46.875,1212.514,431.9574313254833
917,1686111205.62,41.016,-579.59,-55.664,115.723,1212.518,425.5249575758899
918,1686111205.62,-19.531,-183.594,64.453,-43.457,1212.522,411.4474789863762
919,1686111205.63,-96.68,-167.48,-42.969,-156.25,1212.526,409.8635728826642
920,1686111205.63,-50.293,-687.988,-208.008,-12.695,1212.53,421.12213991572287
921,1686111205.64,38.086,-239.258,76.66,116.699,1212.534,427.21253397826166
922,1686111205.64,4.883,277.344,176.27,-6.836,1212.538,422.50084380573145
923,1686111205.64,-87.891,-299.805,-147.949,-145.508,1212.542,398.01571701109236
924,1686111205.65,-65.43,-383.301,-108.887,-49.316,1212.544,410.90681715948216
925,1686111205.65,41.992,224.609,194.336,102.051,1212.548,391.0502512544778
926,1686111205.66,41.016,308.105,124.512,38.086,1212.552,376.9794699934924
927,1686111205.66,-55.664,-240.723,-43.945,-124.023,1212.556,369.7018435462321
928,1686111205.66,-66.406,-373.047,-17.578,-98.145,1212.56,371.34701374699495
929,1686111205.67,20.02,-162.109,57.129,69.824,1212.563,357.8822668077463
930,1686111205.67,52.734,-179.199,60.059,79.59,1212.567,359.82857052242775
931,1686111205.67,-16.113,-595.703,-236.816,-70.312,1212.571,365.9334291123551
932,1686111205.68,-57.129,-758.301,-252.441,-99.121,1212.575,370.60033418193746
933,1686111205.68,13.672,50.293,168.457,45.898,1212.579,342.38397732105005
934,1686111205.69,73.73,204.102,122.559,122.07,1212.583,347.4860279143515
935,1686111205.69,11.23,-142.578,28.32,-26.367,1212.587,346.74808599008134
936,1686111205.69,-59.57,-94.238,56.152,-121.094,1212.593,316.2642891647628
937,1686111205.7,-17.09,4.395,52.734,15.625,1212.597,328.61857970280425
938,1686111205.7,52.734,-115.234,52.734,125.977,1212.601,316.3910592903887
939,1686111205.7,26.855,-682.129,-241.699,41.016,1212.605,312.9592605264364
940,1686111205.71,-44.434,-666.016,-252.441,-99.609,1212.609,306.3284896202784
941,1686111205.71,-32.227,-175.293,58.105,-42.48,1212.613,314.9285373299537
942,1686111205.72,50.293,-220.703,18.555,123.047,1212.616,312.2853994997936
943,1686111205.72,55.176,-569.824,-103.516,91.797,1212.62,319.4084152931755
944,1686111205.72,-22.949,-325.684,37.598,-74.219,1212.624,302.82647111491775
945,1686111205.73,-32.227,239.258,188.965,-63.477,1212.628,302.8287615737584
946,1686111205.73,41.016,28.809,65.43,107.422,1212.632,304.45359777308374
947,1686111205.74,77.148,-48.34,48.34,121.094,1212.636,317.5387710130709
948,1686111205.76,9.766,179.688,132.324,-43.457,1212.66,303.4869944486999
949,1686111205.76,-40.039,172.363,104.004,-96.191,1212.664,296.0644429817177
950,1686111205.76,20.02,-20.02,68.848,49.316,1212.667,318.6392019854414
951,1686111205.77,88.867,30.762,90.332,139.16,1212.671,305.66885525280634
952,1686111205.77,48.34,-1.465,38.086,12.207,1212.675,297.4014266171479
953,1686111205.78,-37.109,-260.254,-59.082,-96.68,1212.679,321.03863962583847
954,1686111205.78,-19.531,-627.441,-210.449,22.949,1212.683,320.63106610479014
955,1686111205.78,69.824,300.293,180.176,83.008,1212.708,317.30866802422514
956,1686111205.78,46.875,-832.52,-250.488,144.531,1212.687,309.1511585732031
957,1686111205.79,-22.949,98.145,41.016,-92.773,1212.712,318.2094268089923
958,1686111205.79,35.156,-98.145,87.891,40.527,1212.691,294.644178459573
959,1686111205.79,-66.895,-495.117,-169.922,-106.445,1212.716,312.5929036014287
960,1686111205.79,-45.41,102.539,51.27,-122.07,1212.695,334.03649944665995
961,1686111205.79,9.277,-261.719,-2.93,61.523,1212.72,339.6736877593134
962,1686111205.8,-36.621,-220.215,3.906,-67.383,1212.699,322.96987394021585
963,1686111205.8,62.5,237.305,185.059,102.051,1212.724,327.0645839996679
964,1686111205.8,61.035,-51.27,151.367,112.305,1212.703,314.9390032158214
965,1686111205.8,-9.277,-204.102,-57.129,-49.316,1212.728,334.6909902770605
966,1686111205.8,-80.078,-569.824,-161.133,-109.375,1212.732,345.63856050761467
967,1686111205.81,-30.762,-337.891,36.621,25.879,1212.736,331.95523122757623
968,1686111205.81,49.805,86.426,147.949,113.77,1212.739,336.77169341710265
969,1686111205.82,7.812,-62.988,-33.203,-2.441,1212.743,355.0598823238759
970,1686111205.82,-82.031,-944.824,-516.602,-100.586,1212.747,345.62263101984223
971,1686111205.82,-44.922,-724.609,-239.258,-4.395,1212.751,339.4085429884039
972,1686111205.83,61.035,219.238,241.211,124.512,1212.737,355.9124671676889
973,1686111205.83,52.246,48.34,33.203,56.641,1212.741,361.29475394666235
974,1686111205.84,-34.668,-179.688,-20.508,-100.586,1212.745,369.0882921118263
975,1686111205.84,-35.156,130.371,135.254,-66.895,1212.749,349.939792922048
976,1686111205.84,41.016,269.043,159.668,91.309,1212.753,354.2045399655293
977,1686111205.85,48.34,-181.152,-34.18,76.172,1212.757,364.1934894072012
978,1686111205.85,-32.227,-484.863,-131.836,-83.984,1212.76,368.8975563878013
979,1686111205.86,-60.059,-21.484,90.332,-103.516,1212.764,391.2789236794337
980,1686111205.86,14.648,267.578,170.898,45.41,1212.768,406.51822580826655
981,1686111205.86,54.199,-336.426,-69.336,102.051,1212.772,390.7120921903544
982,1686111205.87,-18.066,-534.18,-97.168,-46.875,1212.776,406.88875434355236
983,1686111205.87,-79.102,32.227,95.215,-143.066,1212.78,384.72463288268443
984,1686111205.89,-25.879,180.664,139.648,-11.23,1212.784,429.2311327168791
985,1686111205.89,41.992,-481.445,-205.078,104.98,1212.788,428.28795718682085
986,1686111205.89,4.395,-879.883,-309.082,-5.371,1212.792,431.0036056939923
987,1686111205.9,-62.988,-225.098,44.434,-144.043,1212.796,435.51245859970993
988,1686111205.9,-35.156,114.746,119.141,-52.734,1212.8,444.41471495905876
989,1686111205.91,41.016,-625.0,-220.215,111.328,1212.803,436.5672194518238
990,1686111205.91,35.645,-753.906,-213.867,46.875,1212.807,434.2438674641607
991,1686111205.91,-39.551,107.422,159.18,-122.559,1212.811,431.41012616829465
992,1686111205.92,-55.176,-33.691,12.207,-99.121,1212.815,433.20699208292
993,1686111205.92,17.09,-173.34,-9.766,60.059,1212.819,446.6830356761344
994,1686111205.92,52.734,222.168,150.879,72.754,1212.823,449.43499186751757
995,1686111205.93,-17.578,235.84,126.953,-82.031,1212.827,456.6191018096997
996,1686111205.93,-77.148,-373.535,-144.531,-121.094,1212.829,442.3207880368834
997,1686111205.94,-9.277,-518.066,-146.484,31.25,1212.832,464.566316964853
998,1686111205.94,59.082,166.992,184.082,95.215,1212.836,451.5329976347545
999,1686111205.94,0.0,227.051,135.742,-42.969,1212.84,455.0377064320484
1000,1686111205.95,-74.707,-205.566,-34.18,-131.836,1212.844,461.75406118346814
1001,1686111205.95,-32.227,-412.109,-54.199,-8.789,1212.848,450.86552935081664
1002,1686111205.96,50.293,-149.902,93.75,108.398,1212.852,453.43338068537736
1003,1686111205.96,31.25,129.883,129.883,0.0,1212.856,455.0920188841529
1004,1686111205.96,-79.59,-504.883,-258.789,-136.719,1212.86,454.1749046239295
1005,1686111205.97,-82.52,-757.812,-286.621,-68.359,1212.864,466.710849653629
1006,1686111205.97,27.832,134.277,203.613,77.637,1212.868,463.7300735198332
1007,1686111205.98,38.086,212.891,102.051,39.551,1212.872,461.8962629897498
1008,1686111205.98,-44.922,-151.367,-39.062,-120.117,1212.874,456.6152225012778
1009,1686111205.98,-65.918,-62.012,50.781,-105.469,1212.878,447.8216673759325
1010,1686111205.98,10.254,-46.875,78.613,67.383,1212.882,467.34713637308766
1011,1686111205.99,51.758,-188.965,49.805,96.191,1212.886,457.1533939373729
1012,1686111205.99,-28.32,-718.262,-325.684,-58.594,1212.89,472.6683897799373
1013,1686111206.0,-82.031,-891.602,-355.957,-113.281,1212.893,455.7524252582078
1014,1686111206.0,-5.859,-313.477,52.734,30.273,1212.897,473.9435307836365
1015,1686111206.0,59.57,-233.887,4.883,116.699,1212.901,458.5544827830034
1016,1686111206.01,9.277,-686.523,-200.195,-18.066,1212.905,472.6529304628395
1017,1686111206.01,-58.594,-366.699,-4.395,-133.301,1212.909,479.94741739499443
1018,1686111206.02,-9.766,283.691,200.684,-13.184,1212.913,465.7637232920987
1019,1686111206.02,74.707,87.402,79.102,120.605,1212.917,477.44101138345343
1020,1686111206.02,51.758,-88.867,1.953,22.949,1212.919,469.4343445162638
1021,1686111206.03,-32.227,125.488,86.914,-127.93,1212.923,477.09513034049553
1022,1686111206.03,-24.414,201.66,120.117,-61.035,1212.926,464.8838573802475
1023,1686111206.03,65.918,30.273,80.566,109.375,1212.93,465.0476201370864
1024,1686111206.04,81.055,-67.871,42.969,78.125,1212.934,468.8263288079625
1025,1686111206.04,-10.254,-198.242,-41.016,-84.961,1212.938,470.7964962925999
1026,1686111206.04,-38.086,-270.508,-44.434,-73.73,1212.942,471.9582778167118
1027,1686111206.05,22.949,-593.262,-158.691,81.055,1212.946,463.04684528483796
1028,1686111206.05,41.504,-818.848,-249.512,90.82,1212.95,468.22245280631245
1029,1686111206.06,-8.789,-125.977,49.316,-63.477,1212.954,467.7464328900482
1030,1686111206.06,-57.617,70.801,82.52,-124.023,1212.958,471.27843552387213
1031,1686111206.06,-11.23,-37.598,81.543,14.16,1212.962,484.33601202730176
1032,1686111206.07,55.664,175.293,149.414,105.469,1212.964,466.5299120478925
1033,1686111206.07,8.301,293.945,144.531,-22.949,1212.968,466.3162033984227
1034,1686111206.08,-69.336,-98.145,-5.371,-142.578,1212.971,470.24983041696396
1035,1686111206.08,-46.875,-628.906,-124.023,-37.109,1212.975,465.32947103656034
1036,1686111206.08,34.668,-254.883,54.199,102.539,1212.979,469.77104413766244
1037,1686111206.09,29.297,-63.477,59.082,29.785,1212.983,476.03897677572604
1038,1686111206.09,-56.152,-364.258,-84.473,-123.535,1212.987,468.0557661360486
1039,1686111206.09,-66.895,-700.195,-202.637,-75.195,1212.991,463.4360050085869
1040,1686111206.1,24.414,-441.895,35.645,87.891,1212.995,460.1194903917446
1041,1686111206.1,57.617,293.457,234.375,59.082,1212.999,468.3732740885022
1042,1686111206.11,-23.438,-73.73,-71.289,-100.098,1213.003,462.03857851867383
1043,1686111206.11,-53.711,-505.371,-178.223,-98.633,1213.007,463.8821369451718
1044,1686111206.11,30.762,94.238,147.949,65.918,1213.01,450.4763757760095
1045,1686111206.12,87.891,357.91,172.363,118.652,1213.014,455.06923092896466
1046,1686111206.12,15.137,-81.543,-0.977,-25.879,1213.018,453.646251882696
1047,1686111206.12,-58.594,-205.566,-3.906,-114.258,1213.022,467.3467843856455
1048,1686111206.13,-1.953,106.934,119.141,19.043,1213.026,460.3217935491617
1049,1686111206.13,74.219,2.93,107.422,139.16,1213.03,456.9759818867792
1050,1686111206.14,24.902,-616.699,-238.77,21.484,1213.034,471.4267300077287
1051,1686111206.14,-56.152,-746.582,-266.602,-111.328,1213.038,457.76368773434285
1052,1686111206.14,-22.461,22.949,151.367,-37.109,1213.041,448.45434098393764
1053,1686111206.15,61.523,249.023,136.23,103.027,1213.045,451.07946919280846
1054,1686111206.15,51.758,-188.965,-49.316,48.34,1213.049,467.03503265486285
1055,1686111206.16,-37.109,-291.992,-28.809,-105.957,1213.053,442.6451898968375
1056,1686111206.16,-45.41,70.312,127.441,-77.637,1213.067,458.9059139607564
1057,1686111206.16,40.039,201.172,105.469,84.473,1213.071,443.47893427277245
1058,1686111206.16,54.688,-448.73,-154.785,89.844,1213.075,444.8755065595995
1059,1686111206.17,-30.273,-614.258,-127.441,-76.66,1213.079,441.8109665000693
1060,1686111206.17,-66.895,-59.082,65.918,-119.141,1213.083,441.5415598023863
1061,1686111206.18,0.977,-117.676,68.359,34.18,1213.087,438.53638171063386
1062,1686111206.18,46.387,-748.047,-269.043,105.469,1213.091,447.2757122127582
1063,1686111206.18,-9.277,-746.094,-288.086,-40.039,1213.095,428.7409705341351
1064,1686111206.19,-63.965,12.695,111.328,-139.16,1213.099,424.4648030690954
1065,1686111206.19,-26.855,-21.484,34.18,-8.789,1213.103,431.2747612570136
1066,1686111206.2,53.711,-152.344,0.0,120.117,1213.106,453.4985485669542
1067,1686111206.2,33.691,12.207,49.316,22.461,1213.11,444.44846295156765
1068,1686111206.2,-42.969,84.961,96.68,-109.863,1213.105,428.4444991842523
1069,1686111206.21,-39.551,-417.969,-125.0,-27.832,1213.109,425.2708029653857
1070,1686111206.21,45.898,-493.652,-150.391,117.676,1213.113,431.07482899238227
1071,1686111206.22,68.359,170.898,158.203,59.57,1213.117,424.82587682971507
1072,1686111206.22,-8.789,86.914,49.805,-82.031,1213.121,430.620980312095
1073,1686111206.22,-36.621,-624.512,-217.773,-51.758,1213.125,426.6934987755841
1074,1686111206.23,45.898,-569.336,-83.984,93.262,1213.129,420.8851475556835
1075,1686111206.23,101.074,128.906,175.781,108.887,1213.133,421.8894028263396
1076,1686111206.24,35.645,190.918,89.355,-48.34,1213.136,408.05604542389074
1077,1686111206.24,-26.367,-391.602,-77.148,-93.262,1213.14,418.07179014935843
1078,1686111206.24,25.879,-351.074,31.25,58.594,1213.144,405.77873321215793
1079,1686111206.25,94.238,238.77,193.848,131.348,1213.148,418.273022416532
1080,1686111206.26,55.176,38.574,3.906,5.859,1213.159,410.8651915862179
1081,1686111206.27,-27.344,-224.121,-48.828,-99.121,1213.163,407.37709240561134
1082,1686111206.27,-20.996,-240.234,54.199,-12.695,1213.166,401.4340948195142
1083,1686111206.27,53.223,-268.066,-3.418,121.582,1213.17,411.013809527855
1084,1686111206.28,32.715,-241.211,-3.418,35.156,1213.174,396.37717186492654
1085,1686111206.28,-50.293,-740.723,-373.535,-97.656,1213.178,404.9445652462174
1086,1686111206.28,-53.223,-994.629,-419.922,-38.574,1213.182,399.6648540845082
1087,1686111206.29,38.086,-141.602,134.766,102.539,1213.186,410.71354841782454
1088,1686111206.29,64.941,79.59,71.777,79.59,1213.19,403.6137400595178
1089,1686111206.3,-27.344,-175.781,-42.48,-88.867,1213.194,403.7343392222796
1090,1686111206.3,-62.988,114.258,128.906,-99.121,1213.198,393.0066033386773
1091,1686111206.3,35.645,319.336,161.621,71.777,1213.202,386.7715666233943
1092,1686111206.31,99.121,28.809,25.391,122.07,1213.204,412.0535066407471
1093,1686111206.31,27.344,-177.246,-35.156,-37.598,1213.208,391.93849685311943
1094,1686111206.31,-30.273,76.172,108.887,-108.398,1213.211,380.1174980035132
1095,1686111206.32,24.902,215.82,161.621,45.41,1213.215,380.6751796462103
1096,1686111206.32,85.449,-17.09,66.406,132.812,1213.219,389.4867441693997
1097,1686111206.33,44.922,-405.762,-109.375,8.789,1213.223,385.8267234470673
1098,1686111206.33,-31.738,-466.797,-135.254,-99.609,1213.227,383.72126569402775
1099,1686111206.33,0.977,-200.684,48.828,2.441,1213.231,386.3511697141114
1100,1686111206.34,76.66,-473.633,-109.375,152.832,1213.235,386.31114485185304
1101,1686111206.34,51.758,-830.566,-291.992,68.359,1213.239,374.8759993004066
1102,1686111206.34,-19.531,-137.207,49.805,-97.168,1213.243,387.36878530611204
1103,1686111206.35,-21.973,91.309,81.055,-40.527,1213.247,370.632224279999
1104,1686111206.35,53.711,-38.086,80.566,121.582,1213.249,373.66267285912585
1105,1686111206.36,84.473,171.875,160.156,95.703,1213.253,368.2001221702595
1106,1686111206.36,9.766,-11.23,21.484,-65.43,1213.257,368.06248140716735
1107,1686111206.36,-29.297,-334.473,-54.688,-75.684,1213.26,374.3108224771968
1108,1686111206.37,32.227,-525.879,-72.266,90.332,1213.264,354.0601503874608
1109,1686111206.37,72.754,-503.418,-47.852,145.508,1213.268,372.79334627763785
1110,1686111206.38,20.02,-107.91,71.777,-12.695,1213.272,362.91624787834286
1111,1686111206.38,-31.738,-74.219,26.367,-90.82,1213.276,367.0299243457245
1112,1686111206.38,11.719,-692.383,-172.363,43.457,1213.28,361.95930931707585
1113,1686111206.39,72.266,-415.527,22.461,123.535,1213.284,372.62884515744594
1114,1686111206.39,47.852,306.152,209.473,1.953,1213.288,368.2718108338351
1115,1686111206.4,-34.668,-176.758,-90.82,-117.188,1213.292,364.0162648862858
1116,1686111206.4,-20.996,-503.418,-153.809,-22.461,1213.294,376.10311052937544
1117,1686111206.4,63.477,174.316,186.523,120.605,1213.298,370.4527559381939
1118,1686111206.4,53.711,364.258,154.785,51.758,1213.302,362.153162436932
1119,1686111206.41,-32.227,-63.965,17.578,-98.145,1213.306,374.60879417927805
1120,1686111206.41,-41.992,-118.652,38.574,-56.641,1213.309,367.67653126621735
1121,1686111206.42,46.387,-50.781,61.035,108.398,1213.313,369.4754940103852
1122,1686111206.42,70.312,-145.02,63.965,104.98,1213.317,369.39599144930696
1123,1686111206.42,-20.508,-582.52,-224.609,-65.918,1213.321,369.78065429000895
1124,1686111206.43,-69.824,-719.727,-235.352,-111.816,1213.325,368.463544576129
1125,1686111206.43,12.695,133.789,198.73,37.598,1213.329,364.2535500543816
1126,1686111206.44,77.637,312.012,144.531,109.375,1213.333,349.3814033408058
1127,1686111206.44,16.602,-215.82,-76.172,-32.227,1213.337,346.49310371925066
1128,1686111206.44,-55.176,-222.656,-20.996,-127.441,1213.339,353.6386052704823
1129,1686111206.45,-20.996,176.27,145.508,-7.812,1213.343,356.92543764103345
1130,1686111206.45,55.176,93.75,102.051,115.234,1213.347,358.1406263074843
1131,1686111206.45,20.02,-643.066,-266.602,20.996,1213.351,356.1332224285115
1132,1686111206.46,-74.219,-736.816,-270.02,-119.629,1213.354,357.31879405132463
1133,1686111206.46,-54.688,-210.938,82.031,-33.691,1213.358,352.7538462370744
1134,1686111206.46,32.715,-185.059,16.113,126.465,1213.362,361.08668732029514
1135,1686111206.47,33.691,-576.66,-146.484,70.312,1213.366,344.9503866758645
1136,1686111206.47,-37.598,-355.957,9.766,-96.191,1213.37,350.72391620659533
1137,1686111206.48,-41.504,251.465,167.48,-86.914,1213.374,354.02999488003593
1138,1686111206.48,32.715,107.91,80.078,79.59,1213.378,360.06966252450684
1139,1686111206.48,63.477,-26.367,49.805,104.004,1213.382,336.1865779979915
1140,1686111206.49,-4.395,157.715,128.906,-55.664,1213.393,350.02730339939353
1141,1686111206.49,-68.359,172.363,136.719,-104.98,1213.397,353.25539772787505
1142,1686111206.5,-14.648,-364.258,-97.656,46.875,1213.401,349.96496756558196
1143,1686111206.5,56.152,-403.809,-98.145,126.465,1213.405,350.07072077972776
1144,1686111206.51,12.207,108.398,95.703,-27.344,1213.408,348.53545931728644
1145,1686111206.51,-55.664,-121.094,-53.711,-139.648,1213.412,342.71890155443356
1146,1686111206.51,-27.832,-703.613,-284.18,-10.254,1213.416,351.95935115717094
1147,1686111206.52,42.969,-643.066,-168.945,118.652,1213.42,340.6638055711205
1148,1686111206.52,32.715,125.977,141.602,12.207,1213.424,347.32335937817777
1149,1686111206.52,-44.434,97.168,29.297,-131.348,1213.428,334.702401889778
1150,1686111206.53,-46.875,-174.805,17.578,-64.453,1213.432,350.98842923945057
1151,1686111206.53,45.898,259.277,158.691,56.152,1213.443,341.8550816702704
1152,1686111206.53,32.715,7.812,136.719,91.309,1213.436,341.3887264992811
1153,1686111206.54,-30.273,63.477,14.648,-95.215,1213.446,355.10113986607064
1154,1686111206.54,-56.152,-369.141,-94.238,-81.055,1213.45,339.372488016631
1155,1686111206.54,22.461,-206.055,69.824,73.242,1213.454,346.1236006247526
1156,1686111206.55,63.477,10.742,83.008,98.633,1213.458,336.5956504187698
1157,1686111206.55,-13.184,-294.434,-66.406,-54.199,1213.462,348.64143922221524
1158,1686111206.56,-69.824,-808.105,-363.77,-104.004,1213.466,348.5545559178884
1159,1686111206.56,-26.855,-958.496,-344.727,41.992,1213.47,345.6048108786898
1160,1686111206.56,48.828,-120.605,121.582,113.77,1213.474,332.475231119737
1161,1686111206.57,17.578,-9.277,10.254,-12.695,1213.478,339.0179295585111
1162,1686111206.57,-62.988,-244.141,-63.965,-125.0,1213.482,342.42868339182945
1163,1686111206.58,-17.578,162.598,166.016,-22.949,1213.485,333.169567688162
1164,1686111206.58,71.777,399.902,199.707,113.77,1213.488,325.9574779975944
1165,1686111206.58,44.922,17.578,7.812,32.715,1213.492,339.55961460495206
1166,1686111206.59,-44.434,-245.117,-62.012,-124.023,1213.495,336.6048036543847
1167,1686111206.59,-45.898,94.238,106.445,-79.102,1213.499,344.592477401367
1168,1686111206.59,43.457,274.902,159.668,84.473,1213.503,324.8571535880684
1169,1686111206.6,57.617,-343.262,-105.957,77.148,1213.507,334.9563509528019
1170,1686111206.6,-36.621,-708.984,-214.844,-84.961,1213.511,330.46164478697125
1171,1686111206.6,-75.195,-308.105,-29.785,-117.188,1213.515,339.7849460462233
1172,1686111206.61,-4.883,85.449,134.766,33.691,1213.519,327.0917473227953
1173,1686111206.61,32.715,-360.84,-120.605,93.262,1213.523,333.14032301873726
1174,1686111206.62,-34.668,-782.227,-273.926,-55.176,1213.527,331.68199284815853
1175,1686111206.62,-81.055,-171.387,72.266,-147.949,1213.531,341.5738854918778
1176,1686111206.64,-27.344,48.828,90.332,-9.766,1213.534,326.8635752688359
1177,1686111206.64,47.852,9.766,84.961,92.285,1213.538,329.3532588422574
1178,1686111206.64,2.441,-200.195,4.883,-26.855,1213.542,339.30151860794587
1179,1686111206.65,-80.078,-216.309,-23.926,-154.785,1213.546,337.6992469148493
1180,1686111206.65,-62.5,37.598,85.449,-71.289,1213.55,352.6860349727989
1181,1686111206.66,2.93,-581.543,-174.316,85.449,1213.553,358.0529261526793
1182,1686111206.66,1.953,-673.828,-164.062,13.672,1213.557,319.8956932571977
1183,1686111206.66,-73.242,95.215,149.414,-150.391,1213.561,331.614420110928
1184,1686111206.67,-82.031,-34.18,6.348,-102.051,1213.565,332.2671484337402
1185,1686111206.67,2.93,-519.531,-116.699,73.73,1213.569,331.6790424059519
1186,1686111206.68,24.902,-232.422,69.824,61.035,1213.573,337.4671977369754
1187,1686111206.68,-53.711,195.801,169.434,-117.188,1213.577,334.67305458908703
1188,1686111206.68,-104.98,-227.051,-90.332,-141.113,1213.579,340.3434176791733
1189,1686111206.68,-46.387,-467.285,-153.809,20.996,1213.583,332.9453810341477
1190,1686111206.69,21.484,166.016,177.246,83.984,1213.587,325.32160078170364
1191,1686111206.69,-25.879,266.113,131.348,-59.57,1213.591,344.044312916869
1192,1686111206.7,-99.121,-194.336,-64.453,-154.297,1213.594,347.77378859429547
1193,1686111206.7,-64.453,-504.883,-113.281,-20.996,1213.598,333.80074646515334
1194,1686111206.7,13.672,-268.066,21.484,106.445,1213.602,341.1234842889651
1195,1686111206.71,-2.93,109.375,121.582,-1.465,1213.606,329.13310789923236
1196,1686111206.71,-91.797,-486.328,-220.215,-134.277,1213.61,339.42903476374966
1197,1686111206.72,-79.102,-729.492,-233.887,-52.734,1213.614,342.86469404763176
1198,1686111206.72,39.551,145.02,200.684,99.609,1213.618,322.2432199369894
1199,1686111206.72,51.27,151.855,73.242,46.387,1213.622,340.9944860329008
1200,1686111206.73,-41.504,-385.254,-149.414,-107.91,1213.624,324.6659249822802
1201,1686111206.73,-60.059,-243.164,11.719,-85.938,1213.628,333.51839793496714
1202,1686111206.74,24.902,-42.48,112.793,82.52,1213.632,345.09987664701345
1203,1686111206.74,68.848,-187.012,23.438,100.098,1213.635,329.07802119955903
1204,1686111206.74,-9.766,-659.18,-245.117,-60.547,1213.639,333.8532517476645
1205,1686111206.75,-64.453,-847.656,-325.684,-104.492,1213.643,335.99335404842026
1206,1686111206.75,19.531,-132.324,109.375,44.922,1213.647,341.85411830979905
1207,1686111206.75,88.379,124.512,106.934,131.836,1213.651,346.93745116682396
1208,1686111206.76,21.973,-548.828,-185.059,-3.418,1213.655,341.73156476812244
1209,1686111206.76,-48.828,-399.902,5.859,-110.84,1213.659,336.2351144220147
1210,1686111206.77,4.395,258.789,183.105,12.207,1213.663,352.8355188834524
1211,1686111206.77,81.543,83.984,41.016,137.695,1213.667,349.83859526101315
1212,1686111206.77,46.387,-95.703,8.789,22.461,1213.669,342.75322626017066
1213,1686111206.78,-39.062,67.871,81.543,-114.746,1213.673,340.73859040265506
1214,1686111206.78,-27.344,67.871,68.359,-36.621,1213.677,342.38623140841463
1215,1686111206.78,49.316,-389.648,-86.426,106.445,1213.681,342.4807207691285
1216,1686111206.79,52.734,-477.539,-126.465,71.289,1213.685,340.14422720232096
1217,1686111206.79,-29.785,-250.977,-43.945,-91.309,1213.688,335.20184525742854
1218,1686111206.8,-54.688,-250.488,-8.301,-95.215,1213.692,328.21855730598725
1219,1686111206.8,19.043,-593.262,-154.785,69.336,1213.696,343.3043624767078
1220,1686111206.8,54.688,-675.293,-185.059,107.91,1213.7,321.98988639565465
1221,1686111206.81,-4.883,53.711,132.324,-57.129,1213.704,333.1741500543102
1222,1686111206.81,-57.129,66.406,83.984,-112.305,1213.708,340.46024023170736
1223,1686111206.82,1.465,-103.516,78.125,41.016,1213.712,337.4633873488217
1224,1686111206.82,68.359,92.285,139.16,132.812,1213.714,333.55929923323487
1225,1686111206.82,30.273,222.656,140.137,4.883,1213.718,323.95156661792623
1226,1686111206.82,-49.316,-150.391,-56.641,-105.957,1213.722,336.1172767429341
1227,1686111206.83,-39.551,-615.234,-168.457,4.395,1213.726,334.80833350448677
1228,1686111206.83,51.27,-259.766,74.707,128.906,1213.73,350.52387310462336
1229,1686111206.84,47.852,-45.41,51.758,34.668,1213.734,348.52829804014567
1230,1686111206.84,-40.039,-308.105,-114.258,-114.746,1213.738,336.10855846668574
1231,1686111206.84,-50.293,-845.215,-383.301,-56.152,1213.741,338.06320961818795
1232,1686111206.85,36.621,-560.059,-165.039,92.285,1213.745,324.51349561259747
1233,1686111206.85,78.125,305.664,192.871,61.523,1213.749,338.6550977324403
1234,1686111206.86,-5.859,-46.875,-50.781,-90.82,1213.753,333.7985781499713
1235,1686111206.86,-55.176,-194.336,-45.41,-107.91,1213.757,339.7517697441104
1236,1686111206.86,19.531,230.469,190.43,44.434,1213.76,338.80894636086373
1237,1686111206.87,65.918,335.938,159.668,85.449,1213.764,320.5113004275828
1238,1686111206.87,-5.859,-120.605,-31.25,-66.406,1213.768,339.45681456944953
1239,1686111206.87,-65.918,-244.629,-10.254,-135.742,1213.771,347.8653685467364
1240,1686111206.88,-4.395,114.746,108.887,2.93,1213.775,330.52697422577637
1241,1686111206.88,64.941,-9.766,93.262,103.027,1213.779,336.8372830484644
1242,1686111206.88,17.578,-596.68,-224.609,-7.812,1213.783,339.6982008713124
1243,1686111206.89,-68.359,-772.461,-314.453,-132.812,1213.787,330.714320893477
1244,1686111206.89,-37.598,-237.793,76.172,-43.457,1213.791,323.36253801394827
1245,1686111206.9,54.688,96.191,148.438,106.934,1213.795,331.0105846165645
1246,1686111206.9,48.34,-169.434,-20.02,42.48,1213.799,328.3819864563036
1247,1686111206.9,-41.992,-276.855,-18.555,-113.77,1213.803,325.5349543859283
1248,1686111206.91,-50.781,62.5,133.301,-81.543,1213.817,323.11449439185253
1249,1686111206.92,33.203,173.828,114.746,76.172,1213.821,310.64415256794746
1250,1686111206.92,41.016,-474.121,-214.844,79.102,1213.825,322.7461513144933
1251,1686111206.92,-47.852,-559.57,-162.598,-89.355,1213.829,308.914883329304
1252,1686111206.93,-65.43,43.457,101.562,-112.305,1213.833,328.12479972790567
1253,1686111206.93,3.418,-118.164,26.855,55.176,1213.837,326.8029242013389
1254,1686111206.93,30.273,-699.707,-234.863,101.074,1213.841,321.67149263949744
1255,1686111206.94,-17.09,-544.922,-155.762,-46.387,1213.845,320.4069508124924
1256,1686111206.94,-59.57,133.789,141.113,-139.648,1213.848,323.248551687989
1257,1686111206.95,-11.23,3.906,21.973,0.977,1213.852,327.27781753704755
1258,1686111206.95,54.199,-246.582,-53.223,114.258,1213.856,309.8204868479488
1259,1686111206.95,29.785,-107.91,25.879,-0.977,1213.86,320.231994482125
1260,1686111206.95,-42.48,164.551,132.812,-126.465,1213.862,328.16885978424926
1261,1686111206.96,-44.434,-211.914,-82.031,-40.039,1213.866,323.5132053844559
1262,1686111206.96,35.156,-454.59,-167.969,105.469,1213.87,311.09749941389396
1263,1686111206.97,55.664,101.562,119.629,50.293,1213.874,321.9834678665063
1264,1686111206.97,-28.32,180.176,75.195,-108.398,1213.878,324.2011125416265
1265,1686111206.97,-59.57,-554.688,-239.746,-81.543,1213.881,322.4306664700074
1266,1686111206.98,19.531,-660.156,-176.758,82.52,1213.885,310.965065147753
1267,1686111206.98,65.918,123.047,141.113,85.938,1213.889,309.3603372653666
1268,1686111206.98,-16.113,83.008,8.789,-74.707,1213.893,329.4731027527157
1269,1686111206.99,-81.055,-289.062,-92.285,-115.234,1213.897,313.23085611514557
1270,1686111206.99,-1.465,-84.473,65.918,44.922,1213.901,326.45532399510205
1271,1686111207.0,69.336,320.801,182.617,118.164,1213.905,323.1414759184955
1272,1686111207.01,11.23,85.938,8.301,-17.09,1213.909,323.5653306378611
1273,1686111207.02,-70.312,-354.492,-156.25,-117.676,1213.913,316.1925618298501
1274,1686111207.02,-35.645,-405.273,-41.016,-6.836,1213.917,326.2590034727453
1275,1686111207.02,53.711,-64.453,124.023,120.605,1213.92,309.1845175922823
1276,1686111207.03,35.156,100.586,83.984,23.926,1213.924,316.8172123699793
1277,1686111207.03,-65.918,-708.008,-385.254,-105.957,1213.928,325.83577258016766
1278,1686111207.04,-66.406,-793.457,-293.457,-37.109,1213.932,323.62867044547943
1279,1686111207.04,51.27,175.781,218.75,115.723,1213.936,311.80738101298334
1280,1686111207.04,75.195,57.129,26.855,85.449,1213.94,335.6811371143832
1281,1686111207.05,-20.02,-309.57,-94.727,-81.543,1213.944,332.39057180157926
1282,1686111207.05,-58.105,-77.148,61.523,-83.496,1213.948,319.20166372264345
1283,1686111207.06,18.555,85.938,96.68,66.895,1213.952,325.9510485896636
1284,1686111207.06,63.965,-19.043,12.207,82.031,1213.954,340.90643279511335
1285,1686111207.06,-16.113,-170.898,-29.297,-82.031,1213.958,337.399327451901
1286,1686111207.06,-73.73,25.879,77.148,-130.859,1213.962,325.6701074147274
1287,1686111207.07,-8.789,128.418,96.191,19.043,1213.966,326.45424299410865
1288,1686111207.07,48.34,-348.145,-85.449,99.121,1213.97,331.29807224093247
1289,1686111207.08,-2.93,-774.414,-302.246,-33.691,1213.974,327.70568789767293
1290,1686111207.08,-70.312,-349.121,-75.195,-150.879,1213.978,328.49298077887585
1291,1686111207.08,-34.668,130.859,149.414,-37.598,1213.982,343.29799607380806
1292,1686111207.09,35.156,-429.199,-156.25,104.98,1213.986,337.6660867554994
1293,1686111207.09,17.578,-753.906,-238.77,20.508,1213.99,335.48833653894536
1294,1686111207.1,-53.223,-23.926,100.586,-132.812,1213.993,339.5641912507011
1295,1686111207.1,-52.246,65.918,74.219,-68.359,1213.997,344.6716919361682
