,timestamps,TP9,AF7,AF8,TP10,Secondary Timestamp,emg_signal
0,1685766376.66,97.656,-562.012,187.988,35.156,929.575,313.82789193072557
1,1685766376.67,46.875,-652.344,10.742,13.672,929.579,314.58217293315886
2,1685766376.67,-10.254,-911.133,62.988,35.645,929.583,312.79347476536645
3,1685766376.68,21.973,-606.934,218.75,57.617,929.587,314.9566343355438
4,1685766376.68,86.914,-394.531,132.324,42.48,929.591,322.24237032732105
5,1685766376.68,64.453,-772.461,-28.32,19.531,929.595,297.02132550332726
6,1685766376.69,-10.742,-1000.0,53.711,20.02,929.599,312.46647006651347
7,1685766376.69,-9.277,-879.395,216.797,34.668,929.603,308.1473890164161
8,1685766376.7,61.035,-505.371,145.996,31.25,929.607,317.63498896605836
9,1685766376.7,81.055,-734.375,-46.387,22.461,929.61,311.55176056214435
10,1685766376.7,18.555,-951.172,117.676,22.461,929.614,308.2182440594391
11,1685766376.71,-6.836,-659.18,213.867,48.828,929.618,321.7763199761424
12,1685766376.72,62.012,-519.043,118.652,54.199,929.62,307.58994470984305
13,1685766376.73,95.215,-700.684,67.871,32.715,929.624,321.5367403410456
14,1685766376.73,37.598,-693.359,79.59,21.973,929.628,320.11509699219204
15,1685766376.74,-14.16,-638.184,83.984,40.039,929.631,310.5329767418303
16,1685766376.74,28.809,-619.141,103.516,47.852,929.635,318.8091296109609
17,1685766376.74,83.496,-854.98,66.895,27.832,929.639,312.4059166738206
18,1685766376.75,43.945,-967.285,108.398,9.277,929.643,308.60476840679655
19,1685766376.75,-24.414,-772.461,154.297,22.461,929.647,305.43164363145013
20,1685766376.76,0.0,-864.746,39.062,46.875,929.651,316.4534052998805
21,1685766376.76,77.637,-971.191,-65.43,46.387,929.655,309.9494789265665
22,1685766376.76,74.219,-761.23,121.094,27.344,929.659,313.75911936624357
23,1685766376.77,3.418,-874.512,102.539,35.645,929.663,307.93138455450816
24,1685766376.77,-0.977,-1000.0,55.664,62.988,929.665,315.36766209774976
25,1685766376.77,70.801,-828.125,124.512,58.594,929.669,306.8212611131991
26,1685766376.78,93.262,-428.223,169.434,38.086,929.673,307.6211943821831
27,1685766376.78,29.297,-412.109,82.52,29.785,929.677,310.82977041099036
28,1685766376.78,-12.695,-783.691,10.742,53.711,929.68,304.2322194134615
29,1685766376.79,39.551,-981.445,117.676,58.594,929.684,308.67842098821257
30,1685766376.79,80.078,-735.352,183.105,33.203,929.688,308.31965726921277
31,1685766376.8,29.785,-524.902,95.703,13.184,929.692,301.6817378810314
32,1685766376.8,-23.926,-899.414,-83.008,36.621,929.696,305.20231560156174
33,1685766376.8,20.508,-842.285,97.168,59.082,929.7,312.2172921878133
34,1685766376.81,80.566,-447.266,187.5,37.109,929.704,313.2009914896649
35,1685766376.81,57.617,-714.355,-60.059,13.184,929.708,319.1790915388627
36,1685766376.81,-4.395,-990.234,-139.648,23.926,929.71,309.4395774040928
37,1685766376.82,12.207,-710.938,110.352,54.688,929.714,306.7782592428337
38,1685766376.82,83.008,-360.84,199.219,39.551,929.717,313.8580398442408
39,1685766376.83,66.406,-447.754,52.246,2.93,929.721,313.05127414294867
40,1685766376.83,-2.441,-823.73,55.176,7.324,929.725,304.85807876986394
41,1685766376.83,-16.113,-996.094,92.773,46.387,929.729,317.22189378657356
42,1685766376.84,45.41,-792.969,171.387,46.875,929.733,312.78274984184736
43,1685766376.84,73.242,-571.289,90.332,15.137,929.737,313.8539762019012
44,1685766376.84,15.625,-919.922,-107.91,6.836,929.741,302.67096282562875
45,1685766376.85,-22.949,-794.434,139.648,32.715,929.745,317.7425408405258
46,1685766376.85,31.738,-538.574,190.918,40.527,929.749,313.45066629288294
47,1685766376.86,76.66,-762.695,20.508,17.09,929.753,309.0706351866876
48,1685766376.86,26.855,-899.414,49.316,2.441,929.756,308.5923972929733
49,1685766376.86,-37.109,-900.879,146.973,18.066,929.76,307.03375058295234
50,1685766376.87,15.137,-743.652,169.434,39.551,929.764,315.73805939852934
51,1685766376.87,80.078,-611.816,64.941,32.227,929.768,318.24063904406376
52,1685766376.88,37.598,-802.734,20.02,11.23,929.772,316.44618158900306
53,1685766376.88,-38.086,-961.426,3.906,6.836,929.775,300.26480571137546
54,1685766376.88,-27.344,-924.316,80.566,22.949,929.779,311.9226074713142
55,1685766376.89,42.969,-870.117,85.938,22.461,929.783,308.5083815887359
56,1685766376.89,38.574,-801.27,96.68,-4.883,929.787,318.4856740519237
57,1685766376.9,-23.438,-516.602,172.852,-9.277,929.791,321.01662470640224
58,1685766376.9,-35.156,-566.895,101.074,21.484,929.795,307.1158685503003
59,1685766376.9,26.367,-799.316,49.316,19.043,929.799,309.65645964128163
60,1685766376.9,55.664,-521.484,104.004,-8.301,929.799,315.34923361886456
61,1685766376.91,-1.465,-396.484,87.891,-19.531,929.803,310.6119648200515
62,1685766376.91,-45.41,-673.34,12.695,1.953,929.807,308.7098462026012
63,1685766376.92,10.742,-838.867,65.918,23.438,929.811,314.0067459994513
64,1685766376.92,62.988,-779.785,119.629,10.742,929.815,319.67214386741745
65,1685766376.92,25.879,-864.258,33.203,-11.23,929.819,306.0830424297541
66,1685766376.93,-37.598,-962.891,-36.621,-1.953,929.823,304.24357992889605
67,1685766376.93,-11.23,-1000.0,-49.316,34.18,929.827,306.1760849252354
68,1685766376.94,51.27,-811.523,177.734,26.367,929.831,307.7741706900947
69,1685766376.94,41.992,-405.762,187.5,-1.953,929.835,313.2567821170232
70,1685766376.94,-26.367,-641.602,-21.484,0.977,929.839,314.54682858099557
71,1685766376.95,-37.109,-981.934,39.551,21.484,929.842,311.89777734084515
72,1685766376.95,32.715,-631.348,202.148,16.602,929.844,317.8539520959341
73,1685766376.95,52.734,-357.91,119.141,-6.836,929.848,307.6212791605825
74,1685766376.96,-11.23,-715.332,-66.895,-6.836,929.852,319.47476319766935
75,1685766376.96,-45.898,-864.258,61.035,8.789,929.856,316.34351888386067
76,1685766376.96,19.531,-537.109,175.781,16.113,929.86,318.78234295143676
77,1685766376.97,48.828,-650.391,6.348,-0.977,929.864,306.945674326964
78,1685766376.97,-5.859,-964.844,-95.215,-18.555,929.868,314.63597270196715
79,1685766376.98,-50.293,-1000.0,-25.391,12.695,929.872,316.23507707994446
80,1685766376.98,-4.883,-625.488,198.73,20.996,929.876,299.30277547758374
81,1685766376.98,49.805,-306.641,136.719,-7.324,929.88,312.88811158535685
82,1685766376.99,9.766,-714.844,-100.098,-32.715,929.884,318.1943849507639
83,1685766376.99,-57.617,-841.309,22.949,-25.879,929.887,306.14592191732913
84,1685766376.99,-28.32,-535.645,187.012,5.371,929.903,307.8397396634388
85,1685766377.0,43.945,-464.844,88.379,1.465,929.907,313.67474333042
86,1685766377.0,34.18,-781.25,-14.16,-14.16,929.911,314.8450946034164
87,1685766377.01,-32.715,-818.848,79.102,-15.137,929.915,318.6986858094185
88,1685766377.01,-39.062,-694.336,122.07,14.16,929.919,301.7505776749822
89,1685766377.01,27.832,-847.168,-29.785,14.648,929.923,310.7542807327124
90,1685766377.02,33.203,-988.281,-106.445,-20.508,929.927,315.12873571314464
91,1685766377.02,-21.973,-791.992,142.09,-32.715,929.931,322.5306531363844
92,1685766377.02,-48.34,-672.852,156.25,-5.859,929.935,316.71952450498617
93,1685766377.03,-2.93,-818.359,-11.23,0.977,929.938,309.361351239925
94,1685766377.03,47.852,-877.441,63.477,-9.766,929.942,314.7684657450004
95,1685766377.04,-1.465,-946.777,106.445,-24.414,929.946,311.7078112720603
96,1685766377.04,-61.523,-815.43,140.137,-16.113,929.949,314.29532737271165
97,1685766377.04,-13.184,-798.34,32.715,5.859,929.953,305.8263832827383
98,1685766377.05,44.434,-837.891,58.105,-0.977,929.957,315.6000655788129
99,1685766377.05,11.23,-524.902,190.918,-28.32,929.961,311.27267725806576
100,1685766377.06,-57.129,-524.414,67.871,-22.461,929.965,315.0407614536044
101,1685766377.06,-43.945,-877.441,-45.41,9.766,929.969,308.31212980288734
102,1685766377.06,29.785,-882.812,124.023,4.883,929.973,311.9698312361066
103,1685766377.07,30.273,-463.867,189.453,-24.902,929.976,315.9558580861295
104,1685766377.07,-46.875,-563.477,-53.223,-32.715,929.98,305.87208059395556
105,1685766377.07,-74.219,-934.57,-113.281,-18.066,929.984,309.938446462403
106,1685766377.08,-3.906,-651.855,139.648,-11.719,929.988,319.04198667395787
107,1685766377.08,25.879,-419.922,114.746,-33.203,929.992,308.40583300624445
108,1685766377.09,-35.645,-847.168,-83.008,-40.527,929.993,307.68600161621833
109,1685766377.09,-75.195,-1000.0,-138.184,-8.789,929.997,315.03437063177586
110,1685766377.1,-14.16,-637.695,101.562,-1.953,930.001,311.8674731677885
111,1685766377.1,37.598,-354.492,150.391,-17.578,930.005,308.20181505632263
112,1685766377.1,-2.441,-557.617,-61.523,-32.227,930.009,316.6572186247715
113,1685766377.11,-59.57,-970.215,1.953,-20.508,930.013,323.5608914511921
114,1685766377.11,-22.949,-851.074,185.547,-2.441,930.017,312.33140937742587
115,1685766377.11,37.598,-372.07,179.199,-28.809,930.021,312.170374991545
116,1685766377.12,13.672,-521.484,-56.641,-56.641,930.025,319.9111221310186
117,1685766377.12,-61.035,-937.988,-38.574,-43.945,930.029,309.2339870333437
118,1685766377.13,-64.453,-781.738,197.754,-15.137,930.032,310.5879389537893
119,1685766377.13,11.719,-729.004,120.605,-11.23,930.036,313.74456986195946
120,1685766377.14,20.02,-817.383,3.906,-35.156,930.04,314.50566632711474
121,1685766377.15,-52.734,-842.773,60.547,-44.922,930.043,317.32816301314756
122,1685766377.15,-69.824,-883.301,79.59,-19.531,930.047,312.2958877067777
123,1685766377.16,5.371,-692.383,84.473,-13.184,930.051,310.92745218275206
124,1685766377.16,35.156,-600.586,-9.277,-28.809,930.055,316.5794025433067
125,1685766377.16,-28.32,-974.609,-126.465,-27.344,930.059,316.48518783855894
126,1685766377.17,-69.336,-1000.0,161.133,-10.254,930.063,304.05779368468717
127,1685766377.17,-17.578,-585.938,200.684,-8.301,930.067,314.92058188804975
128,1685766377.18,25.391,-624.512,-1.953,-26.855,930.071,314.3258631559532
129,1685766377.18,-4.883,-737.793,87.891,-31.25,930.075,319.6909334514301
130,1685766377.18,-61.035,-536.133,166.016,-10.742,930.079,313.49497711631807
131,1685766377.19,-40.527,-551.758,79.102,-0.488,930.083,305.6770339133444
132,1685766377.19,23.926,-719.727,-44.922,-21.973,930.084,304.97536277172077
133,1685766377.19,15.137,-569.336,59.082,-46.387,930.088,319.7109149823405
134,1685766377.2,-56.152,-538.086,57.617,-41.016,930.092,313.6697152813145
135,1685766377.2,-57.129,-688.965,-45.41,-18.066,930.096,313.01287464488706
136,1685766377.2,14.648,-791.016,62.988,-21.973,930.1,305.7717513240683
137,1685766377.21,20.508,-831.543,41.504,-40.527,930.104,307.9591995004916
138,1685766377.21,-41.504,-956.055,-43.945,-46.875,930.108,321.8089550963993
139,1685766377.22,-74.219,-968.262,-15.625,-26.367,930.112,307.5310679672469
140,1685766377.22,-20.996,-1000.0,-40.039,-24.902,930.116,318.7634664527487
141,1685766377.22,20.02,-776.367,208.496,-52.734,930.12,308.7294485384311
142,1685766377.23,-26.855,-520.508,130.371,-64.941,930.123,319.61702840574065
143,1685766377.23,-80.566,-925.293,-72.266,-37.109,930.127,318.6865643156223
144,1685766377.24,-43.457,-923.828,82.52,-22.949,930.131,304.11988071248277
145,1685766377.24,12.695,-385.742,193.359,-45.898,930.135,317.0665399644003
146,1685766377.24,-13.672,-368.652,1.953,-55.664,930.139,308.1817983532218
147,1685766377.25,-75.684,-737.793,-40.039,-40.039,930.142,311.7021376189255
148,1685766377.25,-54.688,-700.684,134.766,-22.461,930.146,317.22082248222534
149,1685766377.26,9.766,-630.859,20.02,-30.762,930.15,310.6131292563056
150,1685766377.26,-6.836,-791.016,-55.664,-55.176,930.154,314.6455844314981
151,1685766377.26,-80.078,-964.844,-86.914,-53.711,930.158,312.5528997283657
152,1685766377.27,-83.496,-1000.0,-3.418,-23.438,930.162,323.40504374944624
153,1685766377.27,0.0,-542.969,229.492,-24.902,930.166,315.4982484521026
154,1685766377.27,14.16,-291.504,84.961,-51.758,930.17,315.21560477870605
155,1685766377.28,-62.5,-813.965,-120.605,-71.777,930.174,316.3694677084451
156,1685766377.28,-96.68,-815.918,92.285,-53.223,930.176,323.25213956887063
157,1685766377.28,-34.18,-380.859,209.961,-40.039,930.18,321.5831374533799
158,1685766377.29,-0.977,-378.418,58.105,-53.223,930.184,306.72451365334877
159,1685766377.29,-50.781,-776.855,44.922,-58.105,930.188,317.37132536285117
160,1685766377.3,-98.633,-787.109,105.957,-37.109,930.192,313.43313955212705
161,1685766377.3,-62.012,-747.07,23.926,-30.762,930.195,309.88287273484656
162,1685766377.3,4.883,-828.125,-63.965,-49.805,930.199,322.37233077456614
163,1685766377.31,-19.531,-943.359,-124.512,-69.824,930.203,313.92173854052226
164,1685766377.31,-89.355,-787.109,118.652,-61.035,930.207,318.2598308691803
165,1685766377.32,-67.383,-557.129,166.992,-23.926,930.211,312.32126574162993
166,1685766377.32,-5.371,-718.262,-2.93,-27.344,930.215,308.87511872360085
167,1685766377.32,-19.043,-947.754,10.742,-55.176,930.219,311.71748677562795
168,1685766377.32,-84.961,-770.02,152.344,-61.035,930.221,311.5644211265012
169,1685766377.33,-93.262,-521.484,159.668,-48.828,930.225,310.4379038607364
170,1685766377.33,-19.531,-686.523,11.23,-51.758,930.229,318.7114802290578
171,1685766377.34,4.883,-759.766,61.035,-69.824,930.233,311.2607456534017
172,1685766377.34,-56.641,-586.426,104.492,-82.031,930.237,312.7925219272895
173,1685766377.34,-93.262,-858.398,-18.066,-60.547,930.241,306.6420270715297
174,1685766377.35,-31.25,-1000.0,14.648,-43.945,930.245,304.43317013533243
175,1685766377.35,7.812,-834.961,111.328,-55.664,930.248,311.83494756758887
176,1685766377.36,-41.016,-527.344,165.039,-70.801,930.252,320.6098189082242
177,1685766377.36,-93.75,-540.039,73.73,-63.965,930.256,311.1336500979557
178,1685766377.36,-44.922,-838.379,-52.246,-40.527,930.26,316.88563038214744
179,1685766377.37,17.09,-611.816,71.777,-43.945,930.264,313.0824118823261
180,1685766377.37,-11.719,-412.109,105.469,-73.242,930.27,319.89645882133374
181,1685766377.38,-85.449,-878.418,-70.801,-58.105,930.274,317.5316179318264
182,1685766377.38,-92.285,-1000.0,-85.938,-37.109,930.278,320.9440306329867
183,1685766377.38,-20.508,-529.785,127.441,-53.223,930.282,308.0805322619585
184,1685766377.39,-3.418,-368.652,122.559,-67.383,930.285,314.8889210157092
185,1685766377.39,-62.988,-874.023,-76.172,-62.988,930.289,309.59333561254846
186,1685766377.39,-83.496,-1000.0,-65.43,-30.762,930.293,314.07762313679285
187,1685766377.4,-12.207,-607.422,171.387,-22.949,930.297,311.38239311731934
188,1685766377.4,25.879,-279.785,142.578,-45.898,930.301,310.11948139630937
189,1685766377.41,-27.832,-549.805,-60.059,-48.34,930.305,312.5433183951641
190,1685766377.41,-78.125,-944.336,2.441,-20.02,930.309,311.6443565961554
191,1685766377.41,-23.926,-897.461,128.906,-7.812,930.313,317.6282867082225
192,1685766377.42,35.645,-452.637,149.414,-40.039,930.326,308.11888742065355
193,1685766377.42,-5.371,-541.016,-27.344,-62.5,930.33,317.24209464522227
194,1685766377.42,-74.219,-932.617,15.625,-36.621,930.334,316.0875550856956
195,1685766377.43,-40.039,-801.27,170.898,-14.16,930.337,319.8991278202842
196,1685766377.43,34.18,-469.727,154.785,-27.344,930.341,318.76298351722625
197,1685766377.44,18.555,-680.176,-54.688,-46.875,930.345,316.9474493899321
198,1685766377.44,-54.199,-1000.0,-83.984,-41.504,930.349,321.02533724312343
199,1685766377.44,-53.223,-692.871,186.523,-23.438,930.353,319.15660964825446
200,1685766377.45,19.043,-348.633,163.574,-31.25,930.357,308.57273900193064
201,1685766377.45,27.344,-577.637,-47.852,-58.105,930.361,309.5748611649599
202,1685766377.45,-34.668,-670.898,38.086,-64.453,930.365,311.99685111319366
203,1685766377.46,-64.453,-498.535,160.645,-30.762,930.369,314.4873811146559
204,1685766377.48,-12.207,-490.234,92.285,-18.066,930.371,313.3503292542972
205,1685766377.48,18.066,-707.031,-44.434,-37.598,930.375,308.2814642880837
206,1685766377.48,-33.203,-640.137,43.457,-45.898,930.379,313.4410128330825
207,1685766377.49,-85.938,-554.688,130.859,-24.902,930.383,312.6794331309375
208,1685766377.49,-41.016,-636.23,78.613,-7.812,930.387,311.2052579250315
209,1685766377.5,4.395,-868.652,41.504,-22.461,930.391,322.5171970462724
210,1685766377.5,-27.832,-997.559,58.105,-49.805,930.394,312.6798578025416
211,1685766377.5,-79.59,-897.949,109.863,-47.852,930.398,310.64396485465176
212,1685766377.51,-52.734,-769.531,94.238,-24.414,930.402,305.46902853070674
213,1685766377.51,9.277,-912.598,-67.871,-31.738,930.406,321.68039623207767
214,1685766377.51,-6.348,-868.652,85.449,-57.617,930.41,313.16991246307975
215,1685766377.52,-71.289,-892.578,125.977,-58.594,930.414,316.87913504218017
216,1685766377.52,-69.824,-970.703,50.781,-34.668,930.416,318.6491768195906
217,1685766377.52,7.324,-904.785,93.75,-33.203,930.42,313.14425098560156
218,1685766377.53,37.109,-508.301,164.551,-47.363,930.424,318.20195659478856
219,1685766377.53,-8.301,-466.797,31.738,-40.039,930.428,316.4265704980295
220,1685766377.54,-71.289,-800.293,-26.855,-36.133,930.432,303.6297663673788
221,1685766377.54,-46.387,-935.547,99.121,-46.387,930.436,314.46010601188
222,1685766377.54,3.418,-674.805,191.406,-53.223,930.44,320.4670290669815
223,1685766377.55,-26.367,-493.164,123.535,-53.223,930.444,311.7333578998803
224,1685766377.55,-77.637,-892.578,-112.793,-23.926,930.448,310.7994544712896
225,1685766377.56,-40.039,-1000.0,-8.789,2.93,930.451,311.7980845239102
226,1685766377.56,24.414,-461.426,249.023,-4.883,930.455,313.549019040402
227,1685766377.56,-7.812,-328.613,58.105,-20.508,930.459,317.76420497980536
228,1685766377.56,-79.59,-861.816,-88.379,-11.719,930.49,311.0842664667254
229,1685766377.57,-65.918,-709.961,128.418,-0.488,930.494,313.18650518899267
230,1685766377.57,-2.93,-284.668,191.895,-21.484,930.498,311.7169504048054
231,1685766377.58,2.441,-384.277,70.801,-31.738,930.502,309.7683439125051
232,1685766377.58,-55.664,-822.266,43.457,-15.625,930.506,320.59675259208234
233,1685766377.58,-62.5,-993.164,75.195,15.137,930.509,317.5820282235142
234,1685766377.59,6.348,-812.988,150.391,22.461,930.513,320.43626923562175
235,1685766377.59,40.039,-755.371,70.801,-0.488,930.517,309.663770095678
236,1685766377.6,-4.883,-958.984,-96.191,10.254,930.521,312.3154450350004
237,1685766377.6,-41.992,-764.16,129.395,36.133,930.525,317.5900318646646
238,1685766377.6,9.277,-538.086,163.086,31.25,930.529,306.91666351418223
239,1685766377.61,55.176,-740.234,-4.395,17.09,930.533,319.4073883920601
240,1685766377.61,9.766,-957.52,-41.992,4.395,930.506,314.1849954921374
241,1685766377.61,-41.016,-722.656,151.367,29.297,930.51,312.31906927344494
242,1685766377.62,-1.465,-433.594,174.316,60.059,930.513,301.2251655220821
243,1685766377.62,49.316,-573.73,57.617,44.922,930.517,300.47705808715307
244,1685766377.63,26.855,-686.523,106.445,15.625,930.521,311.6528145547536
245,1685766377.63,-35.156,-859.375,10.742,26.367,930.525,306.44450673758536
246,1685766377.63,-23.926,-954.59,25.879,60.059,930.529,315.23883707918446
247,1685766377.64,46.387,-878.418,73.73,54.199,930.533,317.3030803839085
248,1685766377.64,42.48,-814.453,70.801,29.785,930.537,306.32397237725013
249,1685766377.64,-28.32,-582.031,162.109,16.113,930.541,304.40146925681864
250,1685766377.65,-54.199,-548.828,107.422,28.32,930.545,307.8404972887229
251,1685766377.65,10.254,-813.477,-65.43,23.926,930.549,302.5621311376533
252,1685766377.66,43.457,-574.219,51.758,0.0,930.555,304.37406343506484
253,1685766377.66,-10.742,-532.227,21.484,-6.348,930.559,314.6844476909276
254,1685766377.66,-62.012,-953.125,-94.238,15.625,930.563,315.78404743863837
255,1685766377.67,-14.16,-977.051,-66.406,22.461,930.567,321.4028847702085
256,1685766377.67,36.133,-664.062,133.789,-3.906,930.57,305.872657221875
257,1685766377.68,-10.742,-725.586,35.156,-27.344,930.574,318.50999054216015
258,1685766377.68,-75.684,-1000.0,-68.359,-9.277,930.578,315.66319437704294
259,1685766377.68,-48.828,-971.68,-37.109,26.367,930.582,315.81172232053376
260,1685766377.69,10.254,-557.129,145.996,11.23,930.586,317.3564249912494
261,1685766377.69,-3.418,-294.434,138.672,-31.738,930.59,315.8450412134259
262,1685766377.7,-70.312,-637.695,-53.223,-28.809,930.594,312.7727581056084
263,1685766377.7,-76.66,-896.973,42.969,6.348,930.598,308.81670648175617
264,1685766377.7,-2.93,-527.832,184.082,4.883,930.596,306.34548341026516
265,1685766377.7,12.207,-275.879,88.867,-24.414,930.6,313.07456158079975
266,1685766377.71,-56.152,-633.789,-83.496,-28.809,930.604,306.92780661216744
267,1685766377.71,-81.543,-872.07,31.25,-1.465,930.608,313.4788704072978
268,1685766377.72,-18.555,-763.672,123.535,-4.395,930.611,314.3119862337006
269,1685766377.72,21.484,-800.781,61.523,-27.344,930.615,303.34112621725444
270,1685766377.72,-33.691,-959.473,-50.781,-37.598,930.619,308.2277489787351
271,1685766377.73,-86.426,-1000.0,-45.41,-9.277,930.623,302.21721897231043
272,1685766377.73,-29.785,-643.066,185.059,4.883,930.627,304.3019416078209
273,1685766377.74,28.32,-332.031,115.723,-23.438,930.631,305.8602988645217
274,1685766377.74,-15.625,-687.988,-91.309,-50.781,930.635,306.89442323381763
275,1685766377.74,-85.449,-783.203,65.43,-37.109,930.639,316.2011647079089
276,1685766377.74,-57.129,-497.559,188.477,-14.648,930.657,309.2743725862689
277,1685766377.75,12.207,-441.895,76.66,-23.438,930.661,306.6916785758372
278,1685766377.75,8.789,-736.816,-13.672,-33.691,930.665,300.4776120954366
279,1685766377.76,-65.918,-718.262,94.238,-33.691,930.669,309.4055944148854
280,1685766377.76,-75.684,-578.613,143.555,-16.113,930.673,306.0283699212498
281,1685766377.76,4.883,-779.785,-28.32,-14.648,930.677,297.4262684091334
282,1685766377.77,4.883,-988.281,-124.023,-38.574,930.68,306.2546693934918
283,1685766377.77,-72.266,-940.918,117.188,-57.617,930.684,304.67630643211464
284,1685766377.78,-103.027,-657.715,189.453,-41.504,930.688,313.0139472239546
285,1685766377.78,-43.945,-588.379,33.691,-36.621,930.692,311.39045933309
286,1685766377.78,3.418,-838.867,43.457,-55.176,930.696,306.08699867057
287,1685766377.79,-50.781,-972.656,120.605,-71.777,930.7,312.00443312168403
288,1685766377.79,-121.094,-841.797,135.254,-58.594,930.7,313.62428339712534
289,1685766377.79,-83.008,-743.164,32.227,-44.922,930.704,304.64589731327357
290,1685766377.8,-20.508,-799.805,49.316,-59.082,930.708,314.18545120291316
291,1685766377.8,-40.527,-553.223,133.789,-80.078,930.712,310.4053218345048
292,1685766377.81,-111.328,-602.051,-13.184,-74.219,930.716,302.9863620414801
293,1685766377.81,-88.867,-942.383,-64.453,-53.223,930.72,311.0117230304633
294,1685766377.81,-12.695,-833.984,90.332,-61.523,930.724,306.68552211034114
295,1685766377.82,-20.508,-450.684,190.43,-81.055,930.728,318.78420897284263
296,1685766377.82,-89.355,-554.688,13.184,-83.984,930.732,317.3037648557018
297,1685766377.82,-104.492,-912.598,-97.656,-55.176,930.736,324.714839076979
298,1685766377.83,-32.715,-687.012,138.672,-50.293,930.739,317.48129920431774
299,1685766377.83,-7.812,-351.562,155.273,-86.426,930.743,315.03755103858265
300,1685766377.85,-63.965,-556.641,-48.828,-99.121,930.746,305.1147155737188
301,1685766377.85,-104.492,-917.48,-132.812,-58.594,930.75,323.11349967358194
302,1685766377.86,-46.387,-713.867,85.449,-34.18,930.754,314.4359031688687
303,1685766377.86,12.207,-372.07,157.715,-47.363,930.758,321.1896055622104
304,1685766377.87,-33.691,-558.594,-18.066,-54.199,930.762,317.6389658489726
305,1685766377.87,-99.609,-967.773,-17.578,-41.992,930.765,322.96372770600954
306,1685766377.87,-60.059,-942.871,148.926,-27.344,930.769,321.18529877930195
307,1685766377.88,6.836,-543.457,181.152,-44.922,930.773,308.11990914552564
308,1685766377.88,-19.043,-618.164,-13.672,-75.195,930.777,315.2148554489654
309,1685766377.88,-87.402,-953.613,-62.5,-56.152,930.781,315.3135799750556
310,1685766377.89,-75.195,-861.816,153.809,-19.531,930.785,313.89294498759836
311,1685766377.89,-13.672,-894.531,94.238,-22.461,930.789,315.0632055338697
312,1685766377.9,-13.672,-979.98,-51.27,-51.758,930.791,324.318212187196
313,1685766377.9,-75.195,-989.746,-96.191,-38.574,930.795,315.529292197922
314,1685766377.9,-92.285,-770.02,161.133,-7.812,930.798,318.5992147746401
315,1685766377.91,-15.625,-482.91,180.664,-11.719,930.802,322.2838290634127
316,1685766377.91,9.277,-658.203,-17.578,-43.457,930.806,321.7419576976194
317,1685766377.92,-54.199,-990.234,-4.883,-66.895,930.81,326.4661907699826
318,1685766377.92,-96.191,-890.137,130.371,-35.645,930.814,319.02673859676975
319,1685766377.92,-44.922,-561.035,159.668,-23.926,930.818,317.56771025914446
320,1685766377.93,3.418,-723.145,-59.57,-50.781,930.822,322.5088655126041
321,1685766377.93,-31.738,-922.363,44.434,-68.359,930.826,328.52260254390933
322,1685766377.93,-87.891,-694.824,207.52,-57.129,930.83,321.51549547043044
323,1685766377.94,-67.383,-616.211,68.848,-39.062,930.834,320.44136418496146
324,1685766377.94,-1.465,-819.336,-16.602,-45.898,930.836,321.15629416139075
325,1685766377.94,-17.578,-680.176,49.316,-75.684,930.84,318.8651926612821
326,1685766377.95,-83.008,-765.137,-20.996,-62.5,930.844,322.92574346831907
327,1685766377.95,-79.102,-994.141,-35.645,-18.066,930.848,319.88527244195075
328,1685766377.96,-9.277,-950.195,-28.32,-29.297,930.852,319.70899579441254
329,1685766377.96,-1.465,-951.172,19.043,-60.059,930.856,313.9177382354345
330,1685766377.96,-57.617,-922.852,66.406,-56.152,930.86,315.65230082801673
331,1685766377.97,-84.961,-858.398,61.035,-36.621,930.863,326.1544173727663
332,1685766377.97,-38.086,-954.102,-53.711,-41.016,930.867,316.7979290731258
333,1685766377.98,-0.488,-609.863,128.906,-68.359,930.871,315.42193766623103
334,1685766377.98,-50.781,-578.613,84.473,-77.637,930.875,318.0077340954035
335,1685766377.98,-104.004,-1000.0,-117.188,-51.27,930.879,317.95540184819123
336,1685766377.98,-51.27,-940.43,49.316,-28.809,930.881,318.4572543226876
337,1685766377.99,19.043,-491.699,205.566,-47.852,930.885,307.53065867929155
338,1685766377.99,-14.648,-455.078,26.855,-76.66,930.889,306.36252215706537
339,1685766378.0,-91.797,-815.43,-73.73,-71.777,930.893,329.2729146485202
340,1685766378.0,-72.266,-817.383,102.051,-45.898,930.897,316.5641883671747
341,1685766378.0,-8.301,-761.23,32.715,-54.199,930.901,315.2773236466858
342,1685766378.01,-21.973,-922.852,-74.219,-77.148,930.905,316.9741732852933
343,1685766378.01,-85.938,-1000.0,-87.891,-66.895,930.908,318.26781303877345
344,1685766378.02,-90.332,-1000.0,-21.484,-42.48,930.912,310.2161560083038
345,1685766378.02,-8.301,-639.16,208.984,-46.875,930.916,310.2276466219141
346,1685766378.02,3.418,-400.391,100.586,-67.871,930.92,316.14217200740893
347,1685766378.03,-67.383,-836.426,-96.68,-71.777,930.924,301.1354363869901
348,1685766378.03,-98.633,-797.852,81.543,-54.199,930.926,295.5570022964813
349,1685766378.03,-39.551,-431.641,162.109,-54.688,930.93,294.61358350878277
350,1685766378.04,6.836,-475.586,17.578,-68.359,930.934,291.9832764331847
351,1685766378.04,-39.062,-807.129,5.371,-73.73,930.938,299.4180130031741
352,1685766378.05,-94.727,-787.109,106.934,-50.293,930.942,294.52511851262767
353,1685766378.05,-51.27,-828.613,17.578,-27.344,930.945,301.68076806849894
354,1685766378.05,-1.953,-924.805,-61.035,-37.598,930.949,300.27257756162703
355,1685766378.06,-39.551,-972.656,-107.91,-56.152,930.953,298.59834091551363
356,1685766378.06,-94.238,-913.086,137.207,-51.758,930.957,291.845433637934
357,1685766378.06,-66.895,-582.031,228.027,-24.902,930.961,298.7741537706101
358,1685766378.07,6.836,-554.688,22.461,-25.879,930.965,290.3956553335566
359,1685766378.07,-5.859,-924.316,-103.027,-47.363,930.969,298.4166338448102
360,1685766378.08,-80.078,-818.848,130.371,-47.363,931.045,294.82359426720654
361,1685766378.08,-89.844,-533.203,184.082,-34.18,931.049,292.7400742466472
362,1685766378.08,-14.648,-627.93,5.859,-41.504,931.053,295.4669135815607
363,1685766378.09,8.789,-662.109,48.34,-60.059,931.057,297.57064982282407
364,1685766378.09,-62.5,-583.984,90.82,-80.566,931.061,288.326689504316
365,1685766378.1,-112.305,-871.582,-20.508,-62.988,931.065,290.88189009518544
366,1685766378.1,-58.594,-1000.0,-43.457,-50.293,931.069,296.368461482523
367,1685766378.1,-7.324,-850.586,102.051,-73.73,931.073,296.56130180155816
368,1685766378.11,-49.805,-567.383,180.176,-100.098,931.077,296.3569531589921
369,1685766378.11,-105.469,-646.973,81.543,-79.59,931.081,303.11638028083297
370,1685766378.11,-69.336,-921.875,-17.09,-49.805,931.084,301.14128868472665
371,1685766378.12,-8.301,-665.039,98.145,-66.406,931.088,287.54801800980954
372,1685766378.15,-26.367,-428.711,145.508,-91.309,931.055,300.3416417157145
373,1685766378.16,-93.75,-642.09,-54.199,-80.078,931.059,293.37174390497063
374,1685766378.16,-89.355,-929.688,-115.723,-55.664,931.063,286.45314905179794
375,1685766378.16,0.488,-722.168,115.723,-58.105,931.075,298.8551519774369
376,1685766378.17,-18.555,-646.973,117.676,-63.965,931.067,303.96146288465064
377,1685766378.17,-43.945,-872.07,-37.109,-80.566,931.079,299.1071459557661
378,1685766378.17,-10.742,-482.91,75.684,-83.496,931.071,307.3255594264847
379,1685766378.17,-107.422,-941.895,41.016,-76.172,931.083,295.2645244634106
380,1685766378.17,-82.031,-920.898,-108.398,-82.031,931.075,295.26929327859193
381,1685766378.18,-109.375,-1000.0,-46.875,-60.059,931.079,297.38515829151015
382,1685766378.18,-71.777,-639.16,157.227,-52.734,931.086,306.15346811994584
383,1685766378.18,-33.203,-702.148,154.297,-56.152,931.083,300.6844113511361
384,1685766378.18,-9.277,-502.93,97.168,-59.082,931.09,294.73626662685837
385,1685766378.18,-31.738,-839.844,-60.059,-78.613,931.094,290.51667002850985
386,1685766378.18,-5.859,-489.746,136.23,-68.848,931.086,296.6984447639466
387,1685766378.19,-96.191,-1000.0,14.16,-71.289,931.098,302.66429163159216
388,1685766378.19,-69.336,-700.195,-46.387,-84.961,931.09,306.4281223904264
389,1685766378.19,-89.844,-751.465,204.59,-43.457,931.102,303.2336149029882
390,1685766378.19,-110.352,-931.152,40.527,-65.918,931.094,295.21430757382007
391,1685766378.2,-16.113,-531.738,109.863,-44.922,931.106,292.67005415116716
392,1685766378.2,-50.781,-920.41,172.852,-41.992,931.098,299.55533059215117
393,1685766378.2,-10.742,-755.371,-68.848,-72.754,931.11,303.17606648112826
394,1685766378.2,-69.336,-933.594,45.41,-67.871,931.114,313.3983131235407
395,1685766378.21,-85.449,-830.078,129.395,-34.18,931.118,291.53979142057574
396,1685766378.22,-21.973,-630.371,111.816,-29.785,931.137,301.410478569623
397,1685766378.23,14.16,-849.609,-149.902,-38.086,931.141,305.5367715948778
398,1685766378.23,-53.711,-1000.0,-175.293,-60.547,931.145,305.5872107778584
399,1685766378.24,-110.84,-965.82,170.898,-58.594,931.149,310.3142843977354
400,1685766378.24,-62.012,-770.508,166.016,-34.668,931.153,304.4976562987874
401,1685766378.24,6.836,-914.551,-104.004,-37.598,931.157,311.6440160814841
402,1685766378.25,-8.789,-897.949,130.371,-49.316,931.16,305.34674108080134
403,1685766378.25,-75.195,-606.934,193.359,-41.504,931.164,299.7428346695003
404,1685766378.26,-53.223,-677.734,38.086,-19.043,931.168,307.9896045415801
405,1685766378.26,13.184,-698.242,94.238,-34.18,931.172,317.15576572765497
406,1685766378.26,0.0,-527.344,85.938,-65.918,931.176,295.78136980041853
407,1685766378.27,-73.242,-832.52,-40.527,-61.523,931.18,303.7785313616375
408,1685766378.27,-74.219,-1000.0,-66.895,-38.086,931.18,306.1079756920041
409,1685766378.27,-0.977,-873.047,45.41,-40.039,931.184,301.9348154146678
410,1685766378.28,4.883,-507.812,156.738,-65.918,931.188,296.20312556415587
411,1685766378.28,-55.176,-492.676,66.895,-67.871,931.192,299.7880130464147
412,1685766378.29,-85.449,-812.988,-36.621,-44.434,931.196,306.0003894119338
413,1685766378.29,-20.02,-956.543,-10.254,-34.668,931.2,299.2025012177728
414,1685766378.29,20.508,-838.867,86.426,-54.688,931.204,300.90003849512476
415,1685766378.3,-31.25,-908.203,-20.996,-73.73,931.208,312.84122211543377
416,1685766378.3,-92.285,-1000.0,-104.492,-48.34,931.212,296.43818319036683
417,1685766378.3,-59.082,-890.137,74.219,-36.621,931.216,300.53858820020656
418,1685766378.31,9.277,-527.344,187.988,-59.57,931.219,312.4140327564257
419,1685766378.31,-11.719,-422.852,58.594,-74.707,931.223,302.9861339537055
420,1685766378.32,-81.543,-879.883,-149.902,-58.594,931.211,301.5759570184778
421,1685766378.32,-70.312,-879.883,93.75,-41.504,931.215,312.7346518768217
422,1685766378.32,5.859,-404.785,203.613,-45.41,931.219,298.0326196441703
423,1685766378.33,11.719,-441.895,10.254,-60.547,931.223,302.29488844285373
424,1685766378.33,-54.199,-836.426,29.297,-59.57,931.227,304.36035310347273
425,1685766378.34,-75.195,-1000.0,55.664,-34.18,931.231,303.7417719804926
426,1685766378.34,-7.324,-753.418,141.602,-27.344,931.235,306.9961986058184
427,1685766378.34,16.113,-552.734,30.762,-45.41,931.238,297.61561819699665
428,1685766378.35,-52.734,-946.777,-118.164,-54.199,931.242,298.4772029028442
429,1685766378.35,-91.309,-890.137,156.738,-33.691,931.246,303.43521041553646
430,1685766378.35,-27.344,-594.238,164.062,-36.621,931.25,298.03478739186596
431,1685766378.36,15.137,-775.391,-32.227,-66.406,931.254,304.78636524292375
432,1685766378.36,-36.621,-1000.0,-140.137,-75.684,931.256,298.17954300050314
433,1685766378.36,-104.004,-889.16,138.184,-66.406,931.26,299.66283937697165
434,1685766378.37,-58.594,-476.074,217.285,-50.781,931.264,309.12482535160717
435,1685766378.37,12.695,-464.844,14.16,-55.176,931.268,301.7771061596215
436,1685766378.38,-21.973,-621.582,59.57,-70.801,931.271,311.2907919186341
437,1685766378.38,-91.309,-853.516,-7.812,-57.617,931.275,302.56384370685527
438,1685766378.38,-76.66,-922.363,58.594,-27.344,931.279,311.75058261773944
439,1685766378.39,-2.93,-830.078,56.152,-25.879,931.283,304.9971471849616
440,1685766378.39,0.0,-810.547,77.637,-52.246,931.287,304.4894097661131
441,1685766378.4,-70.312,-540.527,157.715,-56.641,931.291,307.28082209003657
442,1685766378.4,-82.031,-523.438,43.457,-20.02,931.295,310.0318184517001
443,1685766378.4,-3.906,-816.895,-83.984,-12.695,931.299,311.7605399017005
444,1685766378.4,28.809,-605.469,56.152,-39.062,931.301,307.1607831229063
445,1685766378.41,-24.902,-390.137,102.051,-42.969,931.305,310.88650932291614
446,1685766378.41,-79.102,-635.742,-28.809,-16.113,931.309,321.3073127579886
447,1685766378.42,-34.18,-839.355,-62.012,-6.836,931.313,304.9099373470736
448,1685766378.42,17.09,-562.988,62.5,-24.414,931.316,317.73637549084725
449,1685766378.42,-28.32,-687.988,9.277,-39.551,931.32,313.1665403569426
450,1685766378.43,-90.332,-1000.0,-79.102,-24.414,931.324,329.92536824554315
451,1685766378.43,-57.617,-985.84,-82.52,-2.441,931.328,328.26969763966827
452,1685766378.44,16.602,-667.48,129.395,-19.043,931.332,324.50143029148273
453,1685766378.44,-0.488,-374.512,166.504,-48.828,931.336,339.5578241341696
454,1685766378.44,-76.172,-622.07,-27.832,-36.621,931.34,336.9184008634731
455,1685766378.45,-73.242,-948.242,15.625,-11.23,931.344,339.25013895218905
456,1685766378.45,3.906,-601.074,153.809,-18.066,931.349,342.27874094488163
457,1685766378.46,14.648,-458.984,41.016,-45.898,931.353,333.5710665004478
458,1685766378.46,-56.641,-916.504,-110.84,-58.594,931.357,351.52639124723953
459,1685766378.46,-86.426,-998.047,19.531,-35.156,931.361,361.106353822685
460,1685766378.47,-19.531,-593.262,180.664,-28.32,931.365,345.2131754574509
461,1685766378.47,19.043,-649.414,-20.508,-53.223,931.369,368.8202281258174
462,1685766378.47,-44.922,-975.586,-110.84,-58.105,931.373,364.76198078807056
463,1685766378.48,-99.609,-910.645,82.031,-23.926,931.377,359.6528570484721
464,1685766378.48,-41.016,-523.926,219.727,-17.578,931.381,368.36041528131545
465,1685766378.49,22.949,-343.262,84.961,-38.086,931.384,375.6704200563883
466,1685766378.49,-13.672,-736.328,-69.336,-50.293,931.388,387.0873401117405
467,1685766378.49,-79.59,-820.312,83.008,-42.48,931.392,371.3711659630555
468,1685766378.51,-62.012,-505.859,186.523,-31.738,931.406,385.22107723866316
469,1685766378.51,-1.953,-443.359,62.988,-45.898,931.41,383.6681253395965
470,1685766378.52,-18.066,-772.949,-75.195,-70.312,931.414,388.59023521112346
471,1685766378.52,-91.797,-795.898,-22.461,-64.453,931.418,386.4789888373199
472,1685766378.53,-98.633,-816.895,-40.039,-31.738,931.422,388.1980886018127
473,1685766378.53,-25.391,-932.617,-55.176,-35.645,931.426,393.7734763979004
474,1685766378.53,-16.113,-979.98,-146.973,-59.082,931.43,384.4037970790688
475,1685766378.54,-81.055,-900.879,56.152,-64.941,931.434,381.23253724336934
476,1685766378.54,-101.562,-657.715,171.875,-38.574,931.438,376.72317731393247
477,1685766378.54,-97.656,-713.867,99.121,-54.688,931.45,383.6036705572864
478,1685766378.54,-34.668,-616.211,25.391,-37.109,931.442,394.2779741802903
479,1685766378.55,-63.965,-720.703,4.395,-42.969,931.454,387.31832907841306
480,1685766378.55,3.418,-815.918,-30.762,-59.57,931.445,394.6129989817531
481,1685766378.55,-9.766,-861.328,3.906,-58.105,931.458,389.8254536207856
482,1685766378.55,-42.969,-954.102,-44.434,-67.383,931.449,387.79829314888906
483,1685766378.56,-42.48,-545.898,142.09,-84.473,931.462,395.9862608268633
484,1685766378.56,-112.305,-560.059,20.02,-68.359,931.466,391.12865440754075
485,1685766378.56,-96.68,-889.648,-50.781,-44.434,931.47,393.2205167963031
486,1685766378.57,-28.32,-876.465,59.082,-58.105,931.474,395.02856877685366
487,1685766378.57,-33.203,-785.645,4.395,-86.914,931.477,386.34313032157405
488,1685766378.57,-88.379,-729.492,23.926,-76.172,931.481,383.09996504558745
489,1685766378.58,-92.773,-885.742,-111.328,-33.691,931.485,389.0879766791637
490,1685766378.58,-22.461,-1000.0,-62.5,-20.508,931.489,379.05888259382283
491,1685766378.59,16.113,-586.426,208.496,-33.203,931.493,390.7011952672078
492,1685766378.6,-56.152,-524.414,41.016,-63.477,931.496,367.91380831824154
493,1685766378.6,-128.906,-895.02,-95.703,-71.289,931.5,381.79650745375613
494,1685766378.61,-65.918,-660.156,102.539,-64.941,931.504,381.8490288771148
495,1685766378.61,-11.23,-362.305,98.145,-82.52,931.508,371.5595662285603
496,1685766378.62,-77.637,-567.383,-89.844,-111.328,931.511,387.14646067838913
497,1685766378.62,-140.625,-961.426,-55.664,-87.891,931.515,369.61267992710333
498,1685766378.62,-106.445,-884.766,129.395,-62.5,931.519,375.8460936593046
499,1685766378.63,-47.852,-437.012,154.785,-84.473,931.523,372.71046159102616
500,1685766378.63,-62.5,-541.992,-38.086,-102.051,931.527,378.73004524679425
501,1685766378.64,-123.535,-956.055,-135.254,-81.543,931.531,364.3275453499079
502,1685766378.64,-107.422,-843.75,99.609,-59.082,931.535,361.54306063054435
503,1685766378.64,-37.109,-797.363,107.91,-72.266,931.539,372.55154571213416
504,1685766378.64,-29.297,-912.109,-33.691,-85.449,931.541,369.9408973050697
505,1685766378.65,-91.309,-979.98,-122.07,-78.125,931.545,359.30555815601974
506,1685766378.65,-107.91,-769.043,138.184,-46.875,931.549,368.4262736587552
507,1685766378.66,-24.902,-404.785,179.199,-38.086,931.553,364.90788285309685
508,1685766378.66,10.254,-549.805,-41.016,-67.871,931.557,346.05136248188114
509,1685766378.66,-57.617,-977.051,-91.797,-85.938,931.56,354.5784414802581
510,1685766378.67,-101.074,-902.832,68.848,-63.965,931.564,342.36522240075357
511,1685766378.67,-40.039,-516.113,149.902,-60.547,931.568,355.276117308246
512,1685766378.68,1.465,-685.547,-90.82,-82.52,931.572,348.08181314796667
513,1685766378.68,-39.551,-901.855,34.668,-91.797,931.576,336.2148276426911
514,1685766378.68,-83.496,-640.625,200.684,-70.801,931.58,347.28182090827136
515,1685766378.69,-50.781,-577.148,53.223,-47.852,931.584,341.3180679605655
516,1685766378.69,9.277,-840.332,-94.238,-51.27,931.6,329.787394777494
517,1685766378.69,-9.766,-697.754,44.434,-69.824,931.604,330.18001915275124
518,1685766378.7,-81.055,-533.691,129.395,-62.012,931.608,339.09767677140024
519,1685766378.7,-84.473,-651.367,41.992,-32.715,931.612,328.9571106011968
520,1685766378.7,-9.277,-828.613,9.766,-35.156,931.616,324.0603775256448
521,1685766378.71,-2.441,-896.484,53.223,-60.059,931.62,332.3121151908249
522,1685766378.71,-76.66,-864.746,82.031,-65.918,931.624,328.58900544877014
523,1685766378.72,-97.656,-778.32,56.641,-40.039,931.628,331.24433673968923
524,1685766378.72,-34.668,-940.43,-104.98,-31.738,931.632,321.4680678014353
525,1685766378.72,-1.465,-660.156,106.445,-54.199,931.636,305.9362238861955
526,1685766378.73,-44.922,-541.992,73.73,-66.406,931.64,308.40172863021905
527,1685766378.73,-89.355,-984.375,-98.145,-41.016,931.643,292.0265567967128
528,1685766378.74,-40.039,-844.238,93.75,-26.855,931.638,292.19624620991027
529,1685766378.74,19.531,-407.715,149.414,-40.527,931.641,288.3598374260461
530,1685766378.74,-19.043,-558.105,-18.066,-53.223,931.645,279.3373866353876
531,1685766378.75,-87.891,-963.379,-102.539,-46.875,931.649,276.1415167593479
532,1685766378.75,-67.871,-1000.0,-49.805,-16.602,931.653,273.96888284446743
533,1685766378.76,4.883,-826.66,142.09,-24.902,931.657,275.97165843644274
534,1685766378.76,-5.371,-825.684,48.828,-47.852,931.661,265.23666753239297
535,1685766378.76,-79.59,-985.84,-49.805,-38.086,931.665,267.1271337845981
536,1685766378.77,-82.52,-833.496,160.156,-11.23,931.669,262.4230626121508
537,1685766378.77,-7.812,-407.715,181.641,-15.625,931.673,263.8711278882336
538,1685766378.77,13.184,-333.496,13.672,-43.457,931.677,259.3120345778462
539,1685766378.78,-60.059,-821.777,-143.555,-52.734,931.681,253.7797091249497
540,1685766378.78,-97.168,-883.301,120.117,-21.484,931.676,256.0296475676096
541,1685766378.78,-28.809,-423.34,214.844,-13.184,931.68,248.96290132595786
542,1685766378.79,15.625,-376.953,31.738,-28.32,931.684,257.8284824415663
543,1685766378.79,-34.18,-792.48,-31.25,-41.016,931.687,244.5870492927536
544,1685766378.8,-80.566,-795.41,41.016,-23.926,931.691,247.68749347996513
545,1685766378.8,-38.574,-760.742,19.043,-16.113,931.695,241.82065880985093
546,1685766378.8,9.766,-867.188,-68.359,-41.504,931.699,243.0205060355861
547,1685766378.81,-18.066,-972.168,-140.625,-52.734,931.703,242.50737534140984
548,1685766378.81,-88.379,-912.598,80.566,-36.621,931.707,248.63382862149
549,1685766378.82,-71.289,-586.914,196.289,-19.043,931.711,241.77887632567789
550,1685766378.82,14.648,-538.574,47.852,-28.809,931.715,243.248824977609
551,1685766378.82,1.953,-869.629,6.348,-55.176,931.719,242.79985532174382
552,1685766378.82,-78.613,-757.324,120.117,-52.246,931.721,232.90443234461546
553,1685766378.83,-84.473,-540.039,120.605,-19.043,931.725,241.2551473809909
554,1685766378.83,-6.348,-719.727,-24.414,-15.625,931.729,236.79694221002921
555,1685766378.84,12.695,-746.094,55.664,-37.109,931.733,237.29700306439344
556,1685766378.84,-55.176,-569.336,115.234,-49.805,931.737,234.04681633731573
557,1685766378.84,-91.309,-846.68,-34.18,-28.809,931.741,236.0543254657638
558,1685766378.85,-24.414,-981.934,-46.387,-11.719,931.744,239.67713137037822
559,1685766378.85,19.531,-891.602,61.035,-30.273,931.748,237.20419814844226
560,1685766378.86,-28.32,-812.012,146.973,-50.293,931.752,239.77351552269084
561,1685766378.86,-82.52,-658.691,111.816,-31.25,931.756,233.8860279033346
562,1685766378.86,-48.34,-781.25,3.418,-9.277,931.76,244.1354048964798
563,1685766378.87,13.672,-625.488,90.332,-31.738,931.764,241.31120783221593
564,1685766378.87,-8.789,-430.176,45.898,-52.246,931.779,234.1339266394382
565,1685766378.87,-81.543,-634.277,-94.238,-37.109,931.783,230.21652052749118
566,1685766378.88,-69.824,-875.977,-38.574,-12.695,931.787,242.6812497393261
567,1685766378.88,13.184,-544.922,135.742,-18.555,931.791,245.22408374687177
568,1685766378.89,20.508,-399.902,51.27,-42.48,931.795,244.701274934473
569,1685766378.89,-54.199,-912.598,-117.676,-38.086,931.799,234.42288747518307
570,1685766378.89,-81.055,-1000.0,-109.375,-7.324,931.803,247.79661795145148
571,1685766378.9,-16.113,-653.32,149.902,-6.836,931.807,247.60255207886433
572,1685766378.9,22.949,-368.164,169.434,-26.855,931.811,242.17173254694782
573,1685766378.9,-34.668,-606.934,-46.387,-31.738,931.814,237.60068381589892
574,1685766378.91,-93.262,-970.703,-59.57,-11.23,931.818,246.3125079155994
575,1685766378.91,-38.574,-1000.0,69.824,-7.324,931.822,237.35428561395895
576,1685766378.92,16.113,-761.719,178.223,-33.203,931.825,249.15954236944737
577,1685766378.92,-29.785,-708.984,-21.484,-48.34,931.829,245.70655827810893
578,1685766378.92,-86.426,-979.98,-145.996,-11.719,931.833,246.40208742619228
579,1685766378.93,-47.363,-688.477,175.293,9.766,931.837,244.77358859248622
580,1685766378.93,29.785,-378.418,141.602,-9.277,931.841,248.7812902561396
581,1685766378.94,13.672,-740.723,-96.191,-26.855,931.845,259.36883845638084
582,1685766378.94,-69.336,-924.805,43.945,-29.785,931.849,253.11060986717706
583,1685766378.94,-68.848,-651.855,178.711,-6.836,931.853,257.72968364959223
584,1685766378.95,11.719,-426.27,90.332,-4.883,931.856,254.83334282590423
585,1685766378.95,15.137,-670.41,-68.848,-29.785,931.86,252.38242187121594
586,1685766378.95,-56.152,-775.879,51.27,-32.227,931.864,249.61223576078177
587,1685766378.96,-83.496,-557.129,167.48,-7.324,931.868,259.0792163506829
588,1685766378.98,-23.438,-574.707,65.43,1.465,931.871,263.11953686151685
589,1685766378.98,10.742,-847.168,-96.68,-13.672,931.875,255.51018710729608
590,1685766378.98,-39.062,-786.133,16.113,-29.785,931.879,254.51275780070796
591,1685766378.99,-84.961,-616.211,154.785,-15.625,931.883,257.51478953758925
592,1685766378.99,-26.367,-603.027,72.266,6.836,931.886,254.96906469085914
593,1685766379.0,22.949,-889.16,-118.652,-1.953,931.89,271.89388076566206
594,1685766379.0,-20.02,-1000.0,25.391,-24.414,931.894,260.32698940336894
595,1685766379.0,-76.172,-737.793,187.012,-14.16,931.898,261.28021249808273
596,1685766379.01,-45.41,-685.547,30.273,5.371,931.902,287.48242590697595
597,1685766379.01,22.461,-908.691,-83.008,6.348,931.906,273.74566576763726
598,1685766379.01,6.348,-788.086,62.988,-23.926,931.91,272.59923263128377
599,1685766379.02,-75.684,-885.742,10.254,-31.25,931.914,268.86302193736617
600,1685766379.02,-80.566,-990.723,-10.254,0.488,931.916,277.60476441415403
601,1685766379.02,2.441,-871.094,79.59,1.465,931.92,276.58308025096346
602,1685766379.03,9.766,-516.113,134.766,-33.691,931.924,277.37609970373785
603,1685766379.03,-63.965,-665.039,-56.641,-41.016,931.928,278.8994249753511
604,1685766379.04,-82.52,-988.77,-87.402,-6.836,931.932,273.6944595924939
605,1685766379.04,-18.066,-949.707,75.195,-1.953,931.936,272.4775331629908
606,1685766379.04,25.391,-723.633,177.246,-24.902,931.94,270.7940758136141
607,1685766379.05,-7.812,-561.035,62.5,-25.879,931.944,273.4345340883321
608,1685766379.05,-66.895,-912.598,-116.211,-8.301,931.948,276.0129748200956
609,1685766379.06,-39.062,-858.398,95.215,-0.488,931.952,273.9871349740044
610,1685766379.06,27.344,-402.344,192.871,-8.789,931.955,268.00204227517673
611,1685766379.06,7.324,-661.133,-69.824,-11.719,931.959,288.24531179502543
612,1685766379.06,-54.688,-986.328,-108.887,1.953,931.961,272.3652098780925
613,1685766379.07,-32.227,-698.73,112.305,17.578,931.965,279.01192555793233
614,1685766379.07,38.086,-363.281,153.809,6.836,931.969,272.34146097466976
615,1685766379.08,27.832,-455.078,-24.414,-19.043,931.973,279.23982055656097
616,1685766379.08,-45.898,-867.188,-21.973,-19.043,931.977,278.32121528014125
617,1685766379.08,-56.641,-992.188,57.617,5.371,931.98,282.64500520138665
618,1685766379.09,13.184,-858.887,87.402,6.348,931.984,274.37967572294843
619,1685766379.09,32.715,-824.707,46.387,-11.719,931.988,283.648921778583
620,1685766379.1,-32.227,-990.723,-122.559,-23.438,931.992,291.6252943916279
621,1685766379.1,-73.242,-853.027,120.117,-2.93,931.996,283.2173709749041
622,1685766379.1,-9.766,-616.699,172.363,3.418,932.0,280.4977823106059
623,1685766379.11,26.855,-785.156,-53.223,-21.484,932.004,277.012469405423
624,1685766379.11,-28.32,-937.012,-17.578,-34.18,932.007,291.98556574891415
625,1685766379.11,-83.008,-683.594,149.414,-16.113,932.011,289.8010591978784
626,1685766379.12,-43.945,-414.551,103.027,5.371,932.014,300.4978669236637
627,1685766379.12,17.578,-518.555,7.812,-13.184,932.018,286.9192728602554
628,1685766379.13,-9.277,-636.23,27.832,-44.922,932.022,290.55710049870817
629,1685766379.13,-72.266,-859.375,-17.578,-34.18,932.026,297.0024895143169
630,1685766379.13,-61.523,-832.52,83.008,-13.672,932.03,281.1629867631516
631,1685766379.14,4.883,-699.219,5.371,-27.344,932.034,295.2200001184904
632,1685766379.14,10.742,-919.434,32.227,-51.27,932.038,297.01027124049733
633,1685766379.14,-54.688,-833.008,195.801,-50.781,932.042,282.9139439161902
634,1685766379.15,-75.195,-614.746,74.707,-21.973,932.046,283.79497938252973
635,1685766379.15,-9.766,-786.621,-84.961,-15.625,932.05,290.797901284388
636,1685766379.16,15.625,-662.109,52.734,-47.852,932.051,287.998600149597
637,1685766379.16,-46.387,-483.398,92.773,-61.523,932.055,295.37978612944516
638,1685766379.16,-84.473,-640.625,-8.301,-20.02,932.059,299.00894598387816
639,1685766379.17,-32.227,-800.293,-10.254,4.395,932.063,296.8591451240228
640,1685766379.17,18.555,-553.711,63.965,-25.879,932.066,298.03864928529697
641,1685766379.18,-13.184,-695.312,-34.668,-56.152,932.07,304.4754861063894
642,1685766379.18,-77.148,-1000.0,-64.941,-54.199,932.074,293.2840723857666
643,1685766379.18,-55.664,-976.074,-73.242,-42.48,932.078,289.7999601354448
644,1685766379.19,14.648,-622.559,109.863,-46.875,932.082,293.51774005681256
645,1685766379.19,-0.488,-418.945,100.586,-66.406,932.086,297.535034519993
646,1685766379.19,-75.684,-693.848,-113.77,-57.617,932.09,297.5027416687247
647,1685766379.2,-72.266,-983.398,-11.719,-15.137,932.094,302.43468689635193
648,1685766379.2,7.324,-909.668,134.766,-6.348,932.097,309.56301154554626
649,1685766379.2,19.043,-571.777,132.324,-29.297,932.101,305.1623522314363
650,1685766379.21,-46.875,-728.027,-73.73,-27.344,932.105,298.9259755359174
651,1685766379.21,-73.73,-990.234,-39.551,5.859,932.108,307.7620409840882
652,1685766379.22,-9.277,-620.605,176.27,5.371,932.112,301.6065351740173
653,1685766379.22,17.09,-629.883,-20.508,-21.973,932.116,289.2138503805728
654,1685766379.22,-38.574,-966.309,-120.117,-29.785,932.12,295.83437470943375
655,1685766379.23,-82.031,-928.711,47.852,-12.207,932.124,303.64048229971576
656,1685766379.23,-20.508,-604.98,188.477,-3.906,932.128,304.74433202376497
657,1685766379.24,37.109,-376.953,83.984,-12.695,932.132,298.89099082754313
658,1685766379.24,-7.812,-722.168,-94.727,-31.738,932.136,300.7323012104462
659,1685766379.24,-73.73,-841.309,39.551,-20.02,932.14,304.35919630584607
660,1685766379.24,-48.828,-559.57,169.922,6.836,932.155,311.7197796126663
661,1685766379.25,24.414,-566.406,41.992,-7.812,932.159,299.20210066498834
662,1685766379.25,12.695,-890.137,-140.137,-30.273,932.162,298.9968538987759
663,1685766379.26,-68.359,-836.914,43.945,-25.391,932.166,305.65819107181085
664,1685766379.26,-75.195,-647.949,149.414,-7.324,932.17,311.95333316081104
665,1685766379.26,3.906,-830.566,-69.824,-10.742,932.174,307.78031493722057
666,1685766379.27,22.949,-1000.0,-129.883,-20.996,932.178,299.77884870019676
667,1685766379.27,-41.016,-898.438,175.781,-21.484,932.182,296.72691009082644
668,1685766379.28,-68.359,-664.551,181.152,-2.93,932.186,299.441813942583
669,1685766379.28,-0.977,-582.52,62.988,2.93,932.19,298.4447159893086
670,1685766379.28,31.25,-766.602,29.297,-18.066,932.194,294.50361030130813
671,1685766379.29,-25.391,-941.406,-1.465,-33.203,932.198,299.7863650941703
672,1685766379.29,-73.73,-788.574,123.535,-5.859,932.2,313.1826388976413
673,1685766379.29,-29.297,-786.621,18.555,17.578,932.204,302.0823713657737
674,1685766379.3,24.414,-876.953,8.789,-1.465,932.208,307.67151228724094
675,1685766379.3,-9.277,-625.977,116.699,-22.461,932.212,298.7503598061876
676,1685766379.31,-81.055,-780.762,-26.367,-18.555,932.216,299.5275350920984
677,1685766379.31,-66.406,-1000.0,-74.219,0.488,932.22,322.56111384067145
678,1685766379.31,5.859,-979.004,8.789,0.0,932.224,313.84494688161135
679,1685766379.32,6.348,-630.859,170.41,-27.832,932.228,301.80438074553365
680,1685766379.32,-53.711,-561.523,77.148,-25.391,932.232,314.36319192764046
681,1685766379.32,-61.523,-877.93,-14.648,4.883,932.235,313.24702234093115
682,1685766379.33,4.883,-626.465,124.023,1.465,932.239,311.74744944567186
683,1685766379.33,30.762,-347.656,145.996,-25.879,932.243,309.15229482267
684,1685766379.35,-32.227,-575.684,-19.043,-37.109,932.246,307.8972154753792
685,1685766379.35,-78.125,-918.457,-104.004,-14.16,932.25,309.51831301052107
686,1685766379.36,-21.484,-729.004,86.914,-4.883,932.254,321.87568761754545
687,1685766379.36,23.926,-437.5,153.32,-32.715,932.258,313.3413560156952
688,1685766379.37,-22.461,-603.516,2.93,-52.734,932.262,315.4202867750774
689,1685766379.37,-78.125,-949.219,-50.781,-22.949,932.265,307.20645089671507
690,1685766379.37,-39.062,-927.734,119.629,-6.836,932.269,309.0648830364407
691,1685766379.38,24.414,-766.602,143.066,-29.297,932.273,307.5839393050172
692,1685766379.38,3.418,-754.395,11.23,-48.34,932.277,307.4314688027289
693,1685766379.38,-76.172,-935.059,-104.004,-41.992,932.281,314.6585865622135
694,1685766379.39,-76.66,-914.551,141.113,-20.996,932.285,312.11159142373225
695,1685766379.39,4.883,-889.16,173.34,-21.973,932.289,318.36429906260184
696,1685766379.4,10.254,-895.508,35.156,-41.992,932.291,310.8573579749573
697,1685766379.4,-63.965,-954.59,44.922,-38.574,932.295,309.23735966855946
698,1685766379.4,-78.125,-779.785,180.176,-7.324,932.299,321.71876908866875
699,1685766379.41,-5.371,-501.465,151.855,-20.996,932.303,320.98229079433264
700,1685766379.41,25.391,-670.41,-7.812,-50.293,932.307,312.364869726667
701,1685766379.42,-35.645,-997.559,-23.926,-57.617,932.311,313.5667185107158
702,1685766379.42,-84.961,-925.781,130.859,-46.875,932.314,321.00538762581175
703,1685766379.42,-26.855,-597.168,168.945,-34.668,932.318,311.34582995362626
704,1685766379.43,29.785,-725.586,-26.855,-32.227,932.322,316.11134874428683
705,1685766379.43,-18.555,-1000.0,34.668,-45.898,932.326,327.8506043059398
706,1685766379.43,-88.867,-845.703,247.07,-46.387,932.33,308.6203899288294
707,1685766379.44,-60.547,-605.469,117.188,-24.414,932.334,311.0051355099048
708,1685766379.44,6.348,-808.105,-89.355,-23.438,932.336,316.506128087051
709,1685766379.44,-4.395,-755.859,71.289,-20.996,932.34,310.6545392316135
710,1685766379.45,-76.66,-639.648,149.414,-14.16,932.344,313.74726725104534
711,1685766379.45,-67.383,-700.684,69.336,-40.039,932.348,314.0553169828052
712,1685766379.46,19.043,-823.242,35.645,-68.848,932.351,309.6418008477045
713,1685766379.46,10.742,-976.562,-41.504,-90.82,932.355,309.31542600262844
714,1685766379.46,-68.359,-935.059,39.551,-98.145,932.359,311.94219819415287
715,1685766379.47,-81.055,-852.539,79.102,-56.152,932.363,298.476257850366
716,1685766379.47,-10.254,-968.75,-91.797,-31.25,932.367,310.8369931204285
717,1685766379.48,18.555,-685.059,128.906,-61.523,932.371,303.6574984074608
718,1685766379.48,-34.18,-617.676,83.984,-72.754,932.375,310.8265845142242
719,1685766379.48,-78.613,-992.676,-137.207,-31.738,932.379,301.3395265605279
720,1685766379.48,-36.133,-1000.0,15.625,-17.09,932.381,318.7145978999223
721,1685766379.49,20.02,-592.773,199.219,-43.457,932.385,306.71511797822853
722,1685766379.49,-11.719,-447.266,107.422,-62.012,932.389,303.3550548700326
723,1685766379.5,-79.59,-794.434,-39.551,-39.062,932.393,313.6077061769624
724,1685766379.5,-56.152,-854.98,63.477,-12.207,932.397,318.24414189367167
725,1685766379.5,17.09,-729.98,146.484,-19.043,932.401,307.1853678100028
726,1685766379.51,6.836,-875.488,-39.062,-44.434,932.404,313.28639469106594
727,1685766379.51,-65.918,-1000.0,-99.121,-40.527,932.408,322.48635327064824
728,1685766379.52,-69.336,-905.762,91.309,-8.301,932.412,296.497950723224
729,1685766379.52,12.207,-556.641,200.195,-9.766,932.416,315.12642639599653
730,1685766379.52,26.367,-437.012,53.711,-39.551,932.42,300.1249584212653
731,1685766379.53,-51.27,-834.961,-99.609,-49.805,932.424,306.96146179857976
732,1685766379.53,-79.102,-806.641,81.543,-19.531,932.426,302.3176922704799
733,1685766379.53,-12.207,-463.379,187.988,-4.395,932.43,312.61248980812394
734,1685766379.54,24.902,-572.754,2.93,-24.414,932.434,308.69257345096116
735,1685766379.54,-36.621,-914.062,-150.879,-29.297,932.438,310.4101198912606
736,1685766379.55,-93.75,-802.246,63.965,-1.953,932.442,313.2458349368696
737,1685766379.55,-43.945,-833.984,26.367,12.695,932.446,314.84283410925093
738,1685766379.55,14.648,-943.359,-55.176,-8.301,932.45,316.512649287249
739,1685766379.56,-19.531,-955.566,-81.055,-18.066,932.454,327.19310925107385
740,1685766379.56,-83.496,-857.422,106.934,-4.395,932.458,320.49626781659146
741,1685766379.56,-54.688,-569.824,206.543,3.418,932.461,318.38718920632954
742,1685766379.57,17.578,-553.711,41.016,-10.742,932.465,325.75158083429676
743,1685766379.57,3.418,-900.391,-2.441,-40.527,932.469,327.6051380611838
744,1685766379.58,-70.312,-841.309,132.324,-36.621,932.471,327.28162143677844
745,1685766379.58,-77.148,-592.773,176.27,-2.93,932.475,320.31941426443944
746,1685766379.58,-2.441,-675.293,46.875,3.906,932.479,327.82291820358813
747,1685766379.59,15.137,-788.086,75.195,-20.996,932.483,322.1179768006671
748,1685766379.59,-46.387,-746.582,120.605,-26.367,932.487,321.65393797641184
749,1685766379.6,-86.426,-921.387,49.316,1.953,932.491,326.9135357981925
750,1685766379.6,-30.273,-1000.0,26.367,8.301,932.494,332.0626426265603
751,1685766379.6,15.137,-985.84,-45.898,0.977,932.498,323.99132195099753
752,1685766379.61,-28.809,-746.094,128.906,-6.836,932.502,332.09846000979553
753,1685766379.61,-85.449,-689.941,135.254,4.395,932.506,333.3337561270751
754,1685766379.61,-45.898,-892.09,14.648,23.926,932.51,342.007577424112
755,1685766379.62,18.555,-621.582,106.445,18.555,932.514,324.7661846917585
756,1685766379.62,-11.719,-417.48,141.602,0.0,932.53,339.96170974108446
757,1685766379.62,-82.031,-661.133,38.574,6.836,932.534,339.6650223754625
758,1685766379.63,-68.359,-927.246,-51.27,28.32,932.538,350.6453676223008
759,1685766379.63,3.906,-615.723,108.887,21.973,932.542,340.3671412828831
760,1685766379.64,6.348,-461.914,120.605,0.0,932.546,335.8300837054763
761,1685766379.64,-63.477,-921.875,-54.688,-2.93,932.55,351.2044944950511
762,1685766379.64,-79.102,-1000.0,-88.867,25.879,932.554,356.34010682067964
763,1685766379.65,-6.348,-803.223,125.977,28.809,932.557,351.05452863721143
764,1685766379.65,21.973,-783.691,159.18,-1.953,932.561,357.6559619124635
765,1685766379.66,-37.109,-805.176,26.367,-3.418,932.565,364.2676415579278
766,1685766379.66,-81.055,-969.727,37.109,35.645,932.569,369.3146671015585
767,1685766379.66,-28.32,-989.746,174.805,43.945,932.573,380.4851174173791
768,1685766379.66,31.738,-626.953,168.457,17.09,932.575,378.74395683729034
769,1685766379.67,4.883,-688.477,-54.688,4.883,932.579,369.73125740688454
770,1685766379.67,-62.988,-1000.0,-64.453,13.672,932.583,373.93818681402905
771,1685766379.68,-46.387,-716.797,208.496,6.836,932.587,366.26533973450523
772,1685766379.68,16.602,-493.164,128.418,-8.301,932.591,374.5588313164909
773,1685766379.68,-12.695,-879.395,-41.504,-18.555,932.595,367.7261464581365
774,1685766379.69,-81.055,-1000.0,28.809,-0.488,932.599,365.3213246908401
775,1685766379.69,-79.59,-792.48,195.801,12.207,932.603,364.52834790211665
776,1685766379.7,-10.742,-515.137,138.184,2.441,932.606,374.63527278329394
777,1685766379.7,-1.953,-728.027,-60.059,-17.578,932.61,372.7635200127922
778,1685766379.7,-73.73,-1000.0,71.289,-27.344,932.614,370.82554715071336
779,1685766379.71,-92.773,-853.516,241.699,-3.906,932.618,365.3765066637368
780,1685766379.72,-12.695,-604.492,119.629,-2.93,932.621,361.6579227699305
781,1685766379.73,18.555,-829.59,-120.117,-21.973,932.625,373.2460037160506
782,1685766379.73,-38.086,-882.812,48.34,-32.227,932.629,367.13651749914453
783,1685766379.74,-85.938,-725.586,196.777,-10.254,932.633,367.0993419499598
784,1685766379.74,-28.32,-662.109,114.258,0.488,932.637,364.82465250699875
785,1685766379.74,29.297,-899.902,-20.996,-13.184,932.641,365.39112833318654
786,1685766379.75,-12.207,-944.824,73.73,-37.109,932.644,362.74016328562203
787,1685766379.75,-78.125,-723.633,168.945,-30.273,932.648,366.6073920346463
788,1685766379.76,-53.711,-743.652,96.68,2.441,932.652,356.927160505187
789,1685766379.76,24.902,-913.574,-19.531,5.371,932.656,364.91290671305575
790,1685766379.76,11.23,-799.316,70.801,-19.043,932.66,349.2312764950762
791,1685766379.77,-61.523,-907.227,26.855,-21.973,932.664,352.8931232618003
792,1685766379.77,-64.453,-1000.0,9.277,2.441,932.666,354.5837430811753
793,1685766379.77,12.207,-974.121,28.809,10.254,932.67,340.98269524125055
794,1685766379.78,30.762,-685.059,157.715,-17.578,932.674,338.51444391055503
795,1685766379.78,-46.875,-581.055,152.344,-40.527,932.678,338.0308062518422
796,1685766379.79,-83.008,-816.895,24.902,-13.672,932.682,346.82013488093327
797,1685766379.79,-7.812,-980.469,47.852,-10.254,932.685,336.9090560270123
798,1685766379.79,30.762,-875.488,148.926,-39.551,932.689,328.80075646105695
799,1685766379.8,-29.785,-671.387,117.188,-51.27,932.693,329.09129846768013
800,1685766379.8,-85.449,-893.066,-48.34,-26.855,932.697,331.94015964719637
801,1685766379.8,-35.156,-914.551,83.984,-7.812,932.701,315.7177959457087
802,1685766379.81,29.297,-514.648,212.402,-24.902,932.705,325.33112785346924
803,1685766379.81,-2.441,-501.953,63.965,-43.945,932.709,314.3338271705916
804,1685766379.82,-68.359,-893.066,-66.895,-26.367,932.712,307.9078926369565
805,1685766379.82,-46.387,-765.137,85.938,-1.465,932.715,302.2199141404227
806,1685766379.82,21.484,-466.797,173.34,-12.695,932.719,322.64304055882104
807,1685766379.83,9.766,-659.668,-36.133,-32.227,932.723,305.49715618499124
808,1685766379.83,-53.711,-960.938,-150.391,-20.02,932.727,296.6634872157909
809,1685766379.84,-58.105,-1000.0,74.707,6.348,932.731,288.96983900931315
810,1685766379.84,18.555,-818.848,210.938,4.395,932.735,285.0176969069272
811,1685766379.84,44.922,-627.441,35.645,-14.648,932.739,291.19114272803324
812,1685766379.85,-22.949,-951.172,-111.328,-19.043,932.743,284.65979744350443
813,1685766379.85,-65.43,-826.66,143.066,-3.418,932.747,278.9319486101962
814,1685766379.85,-6.836,-600.586,184.082,0.488,932.751,278.1056269835862
815,1685766379.86,29.785,-860.84,-17.09,-19.043,932.755,271.89597721874105
816,1685766379.86,-19.531,-998.535,7.812,-31.25,932.756,276.61326677111697
817,1685766379.86,-72.266,-825.684,196.777,-13.672,932.76,270.7883635885794
818,1685766379.87,-32.227,-584.473,146.973,2.93,932.764,272.72667471579115
819,1685766379.87,20.02,-612.305,39.551,-17.09,932.768,277.71645267970877
820,1685766379.88,-7.812,-776.855,35.156,-52.734,932.772,276.09438339563343
821,1685766379.88,-70.801,-945.312,4.395,-40.039,932.776,271.9434059747228
822,1685766379.88,-60.547,-998.047,95.215,-21.484,932.78,276.5781743737103
823,1685766379.89,24.414,-960.938,75.195,-34.18,932.783,257.8499394260919
824,1685766379.89,15.137,-999.512,-74.219,-52.246,932.787,265.45022497564895
825,1685766379.9,-68.848,-791.504,133.301,-55.664,932.791,261.2893978249861
826,1685766379.9,-81.543,-675.781,144.043,-28.32,932.795,278.04085607855586
827,1685766379.9,-10.254,-854.98,3.418,-27.344,932.799,274.8129646006549
828,1685766379.9,13.672,-637.695,88.379,-51.758,932.801,268.93614692608537
829,1685766379.91,-44.922,-499.023,111.328,-57.129,932.805,264.19297732260435
830,1685766379.91,-83.984,-717.285,30.273,-33.203,932.809,269.91362268190903
831,1685766379.92,-28.809,-866.699,-9.766,-24.902,932.813,272.03201337659164
832,1685766379.92,18.066,-629.883,83.008,-42.969,932.816,262.4360461692296
833,1685766379.92,-29.785,-790.527,-20.996,-63.477,932.82,270.81842287020675
834,1685766379.93,-89.844,-1000.0,-41.992,-52.246,932.824,269.69086552701333
835,1685766379.93,-50.781,-962.891,-23.926,-21.973,932.828,270.37665293905485
836,1685766379.94,16.602,-793.457,72.754,-27.832,932.832,280.72048844042365
837,1685766379.94,-4.883,-770.02,142.09,-56.152,932.836,281.506940033615
838,1685766379.94,-71.289,-836.426,43.457,-51.27,932.84,280.1458694566244
839,1685766379.95,-62.012,-967.773,-81.055,-20.996,932.844,286.28806438087963
840,1685766379.95,11.23,-697.266,147.461,-23.438,932.846,271.1530415271532
841,1685766379.95,29.785,-466.797,164.062,-41.016,932.85,288.9165624092938
842,1685766379.96,-44.922,-773.438,-7.324,-53.223,932.854,287.82226577454304
843,1685766379.96,-77.637,-833.984,99.121,-30.273,932.858,285.2892105018256
844,1685766379.97,3.418,-553.223,140.625,-9.766,932.862,293.86461068812196
845,1685766379.97,35.645,-760.742,-27.344,-23.438,932.865,298.64938965390263
846,1685766379.97,-28.32,-1000.0,-83.008,-35.645,932.869,290.7925105461886
847,1685766379.98,-73.73,-930.176,69.824,-7.324,932.873,288.5913838714302
848,1685766379.98,-9.766,-603.027,208.008,10.742,932.877,292.5062276588325
849,1685766379.98,47.852,-411.621,111.328,-12.207,932.881,298.9368549783827
850,1685766379.99,4.883,-766.113,-77.637,-40.039,932.885,284.6820821648138
851,1685766379.99,-57.617,-1000.0,13.184,-31.738,932.889,296.7880824617458
852,1685766380.0,-27.344,-710.938,207.031,-12.695,932.892,300.722283211496
853,1685766380.0,38.574,-489.258,105.469,-17.578,932.896,299.38184868922536
854,1685766380.0,27.832,-856.934,-148.438,-23.926,932.9,289.3425000313783
855,1685766380.01,-37.598,-887.695,38.574,-16.113,932.904,306.04677329652355
856,1685766380.01,-48.828,-652.832,208.008,4.883,932.908,305.29446284629785
857,1685766380.02,25.879,-804.199,5.371,-5.859,932.912,296.6751008400549
858,1685766380.02,45.898,-988.77,-156.25,-31.25,932.916,292.89287635248166
859,1685766380.02,-28.32,-833.496,112.793,-44.434,932.919,306.0482111685058
860,1685766380.03,-72.754,-664.062,181.641,-31.25,932.923,295.0393555707576
861,1685766380.03,-9.766,-642.09,45.898,-24.414,932.927,292.6509959850389
862,1685766380.03,36.621,-843.262,-3.418,-40.527,932.931,305.75699166615044
863,1685766380.04,-13.672,-990.234,9.766,-55.664,932.935,303.28498336380807
864,1685766380.04,-69.336,-785.156,159.668,-33.691,932.95,295.0155989726687
865,1685766380.04,-20.996,-788.574,21.484,-2.93,932.954,308.0811345203378
866,1685766380.05,35.156,-985.352,-83.984,-7.812,932.958,313.242463956919
867,1685766380.05,2.441,-743.652,145.02,-23.926,932.962,305.04478500205977
868,1685766380.06,-66.406,-680.664,144.531,-18.555,932.966,306.2499045970097
869,1685766380.06,-49.316,-961.426,-51.758,-2.441,932.97,309.6983098611194
870,1685766380.06,31.25,-1000.0,-17.578,-9.277,932.973,305.12965445226314
871,1685766380.07,22.949,-616.211,191.895,-41.992,932.977,307.65224504084324
872,1685766380.07,-54.199,-570.312,88.379,-37.109,932.981,303.7403111505422
873,1685766380.08,-57.129,-884.277,-42.48,7.812,932.985,312.62821719506775
874,1685766380.08,21.973,-674.805,86.426,9.766,932.989,309.47298940114416
875,1685766380.08,37.598,-463.867,121.094,-22.461,932.993,315.26456887738914
876,1685766380.1,-28.809,-651.367,20.996,-38.086,932.996,293.2499053166176
877,1685766380.1,-67.871,-933.105,-66.406,-12.207,933.0,304.2440558989823
878,1685766380.11,-5.371,-749.023,89.355,1.465,933.004,297.9232715073212
879,1685766380.11,44.922,-513.672,129.395,-16.602,933.008,300.36238113560233
880,1685766380.12,-10.254,-790.527,-101.074,-36.133,933.012,293.07408351394554
881,1685766380.12,-63.965,-1000.0,-161.133,-10.742,933.015,296.4292222275402
882,1685766380.12,-14.648,-990.723,98.633,17.09,933.019,307.88692653038004
883,1685766380.13,44.434,-770.508,212.891,-3.906,933.023,305.6377650063461
884,1685766380.13,12.695,-708.496,9.766,-31.25,933.027,304.29594840200207
885,1685766380.14,-61.035,-951.172,-69.824,-18.066,933.031,303.15508980412505
886,1685766380.14,-44.922,-869.141,125.977,3.906,933.035,300.87978793440897
887,1685766380.14,25.879,-872.559,133.789,-7.812,933.039,288.5797308564821
888,1685766380.14,19.043,-918.945,22.949,-39.062,933.046,301.7042363259768
889,1685766380.15,-49.805,-964.355,12.695,-40.527,933.05,309.82024789252154
890,1685766380.15,-58.105,-786.133,185.547,-10.742,933.054,299.7402832247344
891,1685766380.16,10.254,-453.125,156.738,-15.137,933.058,292.58370900613073
892,1685766380.16,26.367,-587.402,-21.973,-39.062,933.062,296.9831152121125
893,1685766380.16,-32.715,-965.332,-33.203,-48.34,933.066,296.60115791222626
894,1685766380.17,-73.242,-924.316,111.328,-31.25,933.07,298.5959293287404
895,1685766380.17,-15.625,-797.852,158.203,-19.043,933.073,290.6527032508677
896,1685766380.18,30.762,-854.98,23.438,-35.645,933.077,286.9012667902085
897,1685766380.18,-28.32,-986.328,-50.781,-55.664,933.081,289.6811556614632
898,1685766380.18,-93.262,-737.305,164.551,-41.504,933.085,300.4043603204627
899,1685766380.19,-52.734,-537.598,138.672,-15.137,933.089,282.5925371256558
900,1685766380.19,22.461,-742.188,-8.789,-24.414,933.086,289.18831902139306
901,1685766380.19,5.371,-645.02,58.594,-43.457,933.09,293.71361043307473
902,1685766380.2,-67.871,-565.43,137.207,-45.41,933.094,295.82043440619213
903,1685766380.2,-57.129,-645.996,66.895,-20.996,933.098,300.41860911967126
904,1685766380.21,21.484,-817.871,18.066,-8.301,933.102,300.0325452283402
905,1685766380.21,32.227,-945.312,8.301,-36.621,933.105,293.3218625768051
906,1685766380.21,-32.227,-924.316,35.156,-35.156,933.109,289.4670295836436
907,1685766380.22,-58.105,-850.098,88.867,-0.977,933.113,307.1807259237474
908,1685766380.22,-0.488,-933.105,-51.758,-2.441,933.117,298.36923745353755
909,1685766380.22,34.18,-806.641,105.469,-20.508,933.121,297.703058078676
910,1685766380.23,-28.32,-887.207,80.566,-30.273,933.125,293.8929431433209
911,1685766380.23,-81.055,-1000.0,-29.297,-12.207,933.129,299.025756178483
912,1685766380.24,-23.926,-976.562,-17.09,3.418,933.131,295.80817257279125
913,1685766380.24,31.738,-648.926,153.32,-17.578,933.135,291.429117481938
914,1685766380.24,-5.859,-511.23,152.832,-46.387,933.139,299.0729572328137
915,1685766380.25,-70.312,-766.113,19.531,-48.34,933.143,303.5696374523208
916,1685766380.25,-45.41,-783.203,103.027,-21.484,933.147,295.5382371013174
917,1685766380.26,27.832,-804.199,36.133,-22.949,933.15,293.33446878417703
918,1685766380.26,10.254,-822.754,5.371,-52.246,933.154,308.0598982672842
919,1685766380.26,-49.316,-892.09,-19.043,-40.527,933.158,312.5686942173498
920,1685766380.27,-46.875,-916.016,70.801,-11.719,933.162,309.5858496315335
921,1685766380.27,-3.418,-493.652,211.426,-40.527,933.166,317.17146325935715
922,1685766380.27,2.93,-355.469,76.172,-70.312,933.17,314.96511888163013
923,1685766380.28,-60.547,-822.266,-84.961,-62.012,933.174,298.87314040798316
924,1685766380.28,-86.426,-1000.0,26.367,-19.043,933.177,306.7270312183719
925,1685766380.28,-20.508,-612.305,196.777,-16.602,933.181,312.48454562846797
926,1685766380.29,16.113,-420.898,69.336,-46.875,933.185,308.74115967942697
927,1685766380.29,-35.645,-854.004,-188.965,-59.57,933.189,305.32119885664326
928,1685766380.3,-92.285,-879.883,49.316,-46.875,933.193,321.57606919461483
929,1685766380.3,-47.363,-785.156,175.781,-29.297,933.197,320.1198881498773
930,1685766380.3,19.043,-873.047,51.758,-38.574,933.201,319.6857542979396
931,1685766380.31,-12.695,-957.031,-81.055,-49.316,933.204,315.8297987062557
932,1685766380.31,-72.266,-856.445,109.863,-31.738,933.208,321.67060806746997
933,1685766380.32,-45.41,-586.426,207.52,-12.207,933.212,310.4909971745777
934,1685766380.32,16.113,-557.617,48.34,-24.414,933.216,317.4101791059441
935,1685766380.32,3.906,-895.508,24.902,-50.293,933.22,320.39495109269126
936,1685766380.32,-62.5,-918.945,144.531,-54.199,933.221,312.45180012565146
937,1685766380.33,-72.266,-633.301,163.086,-28.809,933.225,328.6500875767933
938,1685766380.33,-4.883,-710.449,5.859,-23.926,933.229,326.3086231248041
939,1685766380.34,9.766,-873.047,25.391,-41.016,933.233,319.0109551737975
940,1685766380.34,-50.781,-703.613,145.02,-54.199,933.237,316.87122187795916
941,1685766380.34,-78.613,-849.121,22.949,-26.855,933.241,319.35961101672996
942,1685766380.35,-17.578,-995.117,-66.406,-7.812,933.245,329.613455480847
943,1685766380.35,22.461,-961.914,-20.996,-34.18,933.248,332.08960539275444
944,1685766380.36,-22.461,-687.012,166.504,-56.641,933.252,326.6834242354847
945,1685766380.36,-80.078,-603.516,119.629,-33.691,933.256,325.4077027757508
946,1685766380.36,-37.598,-837.891,-4.395,-14.648,933.26,330.38177145630203
947,1685766380.37,37.109,-648.438,79.59,-33.691,933.264,329.47721174069636
948,1685766380.38,8.789,-489.746,132.324,-56.152,933.281,333.7003826666095
949,1685766380.39,-62.5,-649.902,63.965,-43.457,933.285,324.56029911943773
950,1685766380.39,-45.41,-898.926,-35.156,-3.906,933.289,328.0249938954765
951,1685766380.4,29.785,-626.953,103.027,-8.301,933.293,321.7703227628747
952,1685766380.4,29.785,-506.348,74.219,-32.715,933.297,323.528491967131
953,1685766380.4,-49.316,-926.27,-50.293,-26.855,933.3,314.1707141739248
954,1685766380.41,-68.848,-1000.0,-83.496,-1.465,933.304,316.1018287710115
955,1685766380.41,9.766,-812.5,177.246,1.465,933.308,323.07563622731465
956,1685766380.42,35.645,-585.449,143.066,-25.879,933.325,327.2649340787658
957,1685766380.42,36.621,-492.676,191.895,-16.602,933.312,329.2986939223697
958,1685766380.42,-13.184,-620.605,-33.203,-43.457,933.329,317.4370252308316
959,1685766380.42,-24.414,-642.578,-26.367,-28.809,933.316,330.69751879999313
960,1685766380.42,-70.801,-979.004,-30.273,-14.648,933.333,315.1577110814982
961,1685766380.42,-65.43,-914.551,59.57,-5.859,933.32,317.78676893456844
962,1685766380.43,-34.668,-683.594,191.406,3.418,933.337,336.42093124655355
963,1685766380.43,-8.301,-913.086,145.996,3.906,933.324,325.30490824290024
964,1685766380.43,39.062,-417.969,105.957,-4.395,933.341,327.42788006489087
965,1685766380.44,13.672,-797.363,-62.988,-21.484,933.345,327.23176101937935
966,1685766380.44,-69.824,-978.516,38.086,-22.461,933.349,321.93694786636144
967,1685766380.44,-61.523,-769.043,130.371,1.465,933.353,321.4333526613651
968,1685766380.45,18.555,-807.129,92.773,3.418,933.356,343.7376004607272
969,1685766380.45,24.414,-945.312,-24.414,-16.113,933.36,319.1711298963958
970,1685766380.45,-49.805,-1000.0,-47.852,-15.625,933.364,340.18049646302023
971,1685766380.46,-69.824,-742.188,196.289,11.719,933.368,322.84567198844536
972,1685766380.47,3.418,-557.129,136.719,13.672,933.37,315.4774689859725
973,1685766380.48,28.32,-797.363,-43.457,-7.324,933.374,326.3429206449036
974,1685766380.48,-32.227,-763.672,62.5,-26.855,933.378,319.23818079296177
975,1685766380.48,-81.055,-612.793,175.293,-7.324,933.382,336.64993514389323
976,1685766380.49,-29.297,-610.84,73.242,5.859,933.386,327.01354852339136
977,1685766380.49,32.227,-871.094,-25.879,-8.789,933.39,318.17966366205934
978,1685766380.5,-4.395,-949.707,85.449,-21.484,933.394,322.5777062053098
979,1685766380.5,-69.824,-685.547,169.434,-4.395,933.398,319.0725014366818
980,1685766380.5,-36.621,-676.758,53.223,15.625,933.402,327.89959923598656
981,1685766380.51,25.879,-919.434,-79.102,-7.812,933.406,321.59390525815905
982,1685766380.51,13.184,-822.266,76.66,-32.227,933.409,324.2763964005721
983,1685766380.52,-51.758,-897.461,78.125,-24.414,933.413,329.55225881721117
984,1685766380.52,-53.711,-1000.0,46.875,8.301,933.416,327.06541021968286
985,1685766380.52,20.996,-864.258,114.746,10.254,933.42,320.6636018224295
986,1685766380.53,26.855,-556.641,126.465,-22.461,933.424,325.38839859713875
987,1685766380.53,-40.039,-589.355,87.891,-32.227,933.428,326.3139207291451
988,1685766380.54,-62.5,-817.383,-21.973,-9.277,933.432,323.37915224504366
989,1685766380.54,-4.883,-985.352,-15.625,2.441,933.436,327.48782377831884
990,1685766380.54,26.855,-895.508,153.32,-14.16,933.439,323.46946080645375
991,1685766380.55,-25.879,-729.492,123.047,-38.086,933.443,320.94543907863346
992,1685766380.55,-81.055,-923.34,-6.836,-21.484,933.447,326.4626436332923
993,1685766380.56,-27.832,-858.398,90.332,0.488,933.451,330.900200755379
994,1685766380.56,35.645,-434.082,175.293,-19.531,933.455,321.77758127657154
995,1685766380.56,-1.465,-472.656,28.809,-45.41,933.459,336.24446618629173
996,1685766380.56,-70.801,-899.414,-111.816,-28.32,933.462,326.51443105185353
997,1685766380.57,-45.898,-995.605,38.086,-1.465,933.466,334.8348267895282
998,1685766380.57,26.855,-627.441,207.52,-9.277,933.47,332.7079036339188
999,1685766380.58,7.812,-522.949,67.383,-32.715,933.474,338.49661089971363
1000,1685766380.58,-64.453,-898.438,-176.27,-13.184,933.478,338.5563092053579
1001,1685766380.58,-68.848,-1000.0,19.043,16.602,933.481,324.8123653284129
1002,1685766380.59,3.906,-787.598,207.031,-4.395,933.485,328.4599509970635
1003,1685766380.59,20.996,-567.383,55.176,-41.992,933.489,334.4886818026225
1004,1685766380.6,-44.922,-923.828,-132.812,-46.387,933.493,337.34507339005
1005,1685766380.6,-79.102,-832.52,122.559,-17.578,933.497,336.3547144534843
1006,1685766380.6,-12.207,-618.164,119.629,-8.789,933.501,351.6531904342792
1007,1685766380.61,30.762,-860.84,-104.98,-25.879,933.505,333.8898531968609
1008,1685766380.61,-19.531,-985.352,-27.344,-40.039,933.506,324.56348227949036
1009,1685766380.61,-69.824,-778.809,152.832,-33.691,933.51,336.30788747596597
1010,1685766380.62,-28.32,-498.535,140.137,-25.879,933.514,343.26272974590614
1011,1685766380.62,29.785,-618.652,-4.395,-34.18,933.518,339.4465971489152
1012,1685766380.63,-7.324,-860.84,-6.348,-52.246,933.522,348.00376870259606
1013,1685766380.63,-76.66,-985.352,-2.93,-40.527,933.526,339.19532932751196
1014,1685766380.63,-59.082,-861.816,103.027,-13.184,933.529,334.5161938943254
1015,1685766380.64,19.531,-762.207,24.414,-16.113,933.533,346.46613016849795
1016,1685766380.64,17.578,-970.703,-36.133,-41.992,933.537,344.44961918149505
1017,1685766380.64,-58.105,-757.324,185.547,-49.316,933.541,341.12298332119923
1018,1685766380.65,-78.125,-609.863,105.957,-22.461,933.545,353.4077988615799
1019,1685766380.65,-4.883,-787.109,-33.691,-14.16,933.549,337.66052681987713
1020,1685766380.66,19.531,-653.32,28.809,-37.109,933.552,348.798126964106
1021,1685766380.66,-45.41,-561.035,43.457,-54.688,933.556,338.12271937586445
1022,1685766380.66,-84.961,-704.102,40.039,-33.203,933.56,343.69380842147757
1023,1685766380.67,-23.438,-845.703,11.719,-23.438,933.564,345.5701755508194
1024,1685766380.67,27.344,-630.859,83.496,-32.227,933.568,340.17924574834575
1025,1685766380.68,-21.973,-791.016,-12.207,-43.945,933.572,357.56013515303124
1026,1685766380.68,-87.402,-1000.0,-66.406,-39.551,933.576,340.95482206205884
1027,1685766380.68,-52.246,-1000.0,-92.773,-10.742,933.579,355.5550126744462
1028,1685766380.69,21.973,-809.57,101.074,-17.09,933.583,355.239079052454
1029,1685766380.69,4.395,-469.727,189.453,-48.34,933.587,351.59040741491793
1030,1685766380.69,-71.777,-691.406,-47.363,-39.062,933.591,342.8423821694545
1031,1685766380.7,-64.941,-962.891,20.02,-11.719,933.595,345.2423829276646
1032,1685766380.7,15.625,-592.285,169.434,-24.902,933.596,340.71855110683265
1033,1685766380.7,24.414,-364.746,77.148,-51.27,933.6,338.6169098078802
1034,1685766380.71,-49.316,-722.656,-87.891,-51.27,933.604,348.0911326355321
1035,1685766380.71,-74.219,-874.512,43.457,-24.902,933.607,338.1880041156808
1036,1685766380.72,-2.93,-578.613,151.367,-29.297,933.611,342.34404930717955
1037,1685766380.72,31.25,-729.004,-25.879,-49.316,933.615,343.49070082792696
1038,1685766380.72,-28.809,-997.559,-58.594,-55.664,933.619,350.23323626698425
1039,1685766380.73,-79.59,-979.98,-12.207,-26.855,933.623,343.9854461445745
1040,1685766380.73,-23.926,-749.512,147.461,-8.789,933.627,343.4017061184265
1041,1685766380.74,32.227,-741.211,44.922,-19.531,933.631,352.81744106167866
1042,1685766380.74,-14.648,-949.707,-73.242,-34.668,933.635,339.2558657803074
1043,1685766380.74,-81.055,-882.324,127.441,-28.32,933.639,342.03126626375723
1044,1685766380.74,-43.945,-578.613,190.918,-13.184,933.655,345.02876548574886
1045,1685766380.75,36.133,-469.727,81.055,-18.066,933.658,334.73106242282677
1046,1685766380.75,22.461,-804.199,-74.707,-36.621,933.662,338.40722094761867
1047,1685766380.76,-59.57,-799.805,41.504,-45.898,933.666,339.74355179940136
1048,1685766380.76,-65.43,-587.402,145.996,-33.203,933.67,336.73896210984657
1049,1685766380.76,7.812,-770.508,-54.199,-20.996,933.674,333.5800139890117
1050,1685766380.77,20.508,-977.051,-143.555,-28.809,933.678,331.2993414191167
1051,1685766380.77,-48.34,-831.055,131.348,-43.945,933.682,331.91321320825676
1052,1685766380.78,-82.031,-591.309,181.152,-29.785,933.686,343.9722211593728
1053,1685766380.78,-10.254,-550.293,52.734,-22.461,933.69,344.17697806740324
1054,1685766380.78,26.367,-798.828,3.906,-41.016,933.694,340.6959321375278
1055,1685766380.79,-35.645,-972.168,-13.184,-43.457,933.698,339.4222003134368
1056,1685766380.79,-89.844,-937.012,71.777,-28.32,933.7,336.5078200627989
1057,1685766380.8,-43.945,-804.199,60.059,-28.32,933.704,329.6953258150613
1058,1685766380.8,20.02,-922.852,-85.938,-27.832,933.707,339.1555066932614
1059,1685766380.8,-12.695,-734.375,114.746,-41.016,933.711,329.4966426835361
1060,1685766380.81,-83.984,-625.488,143.555,-42.969,933.715,327.39387756978647
1061,1685766380.81,-54.199,-933.105,-57.617,-14.648,933.719,331.77972903551927
1062,1685766380.81,23.926,-817.871,80.078,-20.996,933.723,326.0071169281933
1063,1685766380.82,10.254,-495.605,178.223,-55.664,933.727,330.8580865248785
1064,1685766380.82,-63.965,-652.832,5.371,-56.152,933.731,323.8784793969893
1065,1685766380.83,-73.242,-907.715,-53.223,-16.602,933.735,325.7244930633549
1066,1685766380.83,1.465,-648.438,113.77,-3.418,933.739,333.0431770531755
1067,1685766380.83,26.367,-405.762,128.418,-39.062,933.743,330.8445382184879
1068,1685766380.85,-39.551,-579.102,5.859,-54.688,933.747,331.4431061190327
1069,1685766380.85,-79.59,-923.34,-103.027,-20.996,933.751,325.1505163298236
1070,1685766380.86,-15.137,-963.867,42.969,-3.906,933.755,329.04188192011316
1071,1685766380.86,26.855,-619.629,153.809,-23.926,933.758,325.3488145330102
1072,1685766380.87,-22.461,-607.91,-14.648,-43.457,933.762,334.4445127478331
1073,1685766380.87,-82.52,-972.168,-207.031,-18.555,933.766,312.37005439952566
1074,1685766380.87,-52.246,-914.062,81.543,-6.348,933.77,315.3473722087578
1075,1685766380.88,8.789,-501.953,203.125,-31.738,933.774,322.6663522458346
1076,1685766380.88,-8.301,-570.801,-26.855,-40.527,933.778,319.59249610930794
1077,1685766380.88,-77.637,-838.867,49.316,-30.273,933.782,328.31045389895667
1078,1685766380.89,-56.641,-709.961,109.375,-13.184,933.786,315.4939139154076
1079,1685766380.89,13.672,-772.949,20.996,-13.672,933.79,326.26917312465
1080,1685766380.9,9.277,-857.91,-32.715,-29.785,933.792,320.23024735858513
1081,1685766380.9,-58.594,-948.242,-33.691,-33.691,933.796,321.0820650668198
1082,1685766380.9,-77.637,-750.0,153.32,-15.137,933.8,314.65126142930274
1083,1685766380.91,1.953,-462.891,136.23,-11.23,933.803,318.8400723612782
1084,1685766380.91,29.297,-670.898,-60.059,-32.227,933.807,313.45046973250834
1085,1685766380.92,-43.457,-989.258,-37.598,-45.41,933.811,310.10385962662883
1086,1685766380.92,-88.379,-979.492,122.07,-23.438,933.815,319.24082939975085
1087,1685766380.92,-24.414,-639.16,163.574,-5.371,933.819,323.08615803024816
1088,1685766380.93,25.391,-671.875,-43.945,-22.949,933.823,315.94893803747755
1089,1685766380.93,-29.297,-990.723,-48.34,-39.062,933.827,318.1920552608838
1090,1685766380.93,-91.797,-723.145,203.613,-19.531,933.831,317.33134699723513
1091,1685766380.94,-43.457,-504.883,109.375,1.465,933.835,322.4418305226113
1092,1685766380.94,35.156,-731.445,-70.312,-6.348,933.836,314.85986073464295
1093,1685766380.94,3.906,-703.125,12.207,-43.945,933.84,314.18197788674746
1094,1685766380.95,-83.008,-612.305,88.379,-52.246,933.844,308.9783166643661
1095,1685766380.95,-77.637,-655.273,67.871,-22.461,933.848,311.00867328491216
1096,1685766380.96,10.254,-814.453,-26.855,-19.043,933.852,319.7024302798465
1097,1685766380.96,25.879,-914.062,-69.824,-29.297,933.856,306.6593135682255
1098,1685766380.96,-50.293,-957.031,-21.973,-33.203,933.86,316.7134138163522
1099,1685766380.97,-75.684,-955.078,3.418,-8.789,933.864,320.192057028674
1100,1685766380.97,0.488,-1000.0,-130.859,8.301,933.867,307.68506937067565
1101,1685766380.98,38.086,-811.035,91.309,-22.461,933.871,312.6764430505407
1102,1685766380.98,-17.578,-607.91,147.461,-51.758,933.875,309.34642725161666
1103,1685766380.98,-81.543,-959.473,-119.141,-33.203,933.879,314.4032526952139
1104,1685766380.98,-38.574,-985.84,-32.227,-12.207,933.881,305.71696745937277
1105,1685766380.99,27.344,-505.371,159.668,-23.926,933.885,306.1892031345464
1106,1685766380.99,-7.812,-407.227,50.781,-41.016,933.889,309.91354974481857
1107,1685766381.0,-77.148,-743.164,-107.91,-32.715,933.892,312.1747516635932
1108,1685766381.0,-49.805,-821.777,-6.836,-9.277,933.896,312.37704467825654
1109,1685766381.0,22.461,-773.926,21.484,-22.949,933.9,323.2987040388952
1110,1685766381.01,6.348,-881.836,-73.242,-53.223,933.904,312.57093546103005
1111,1685766381.01,-73.73,-997.559,-127.93,-45.898,933.908,312.4997741305055
1112,1685766381.02,-82.031,-958.496,2.93,-18.555,933.912,306.00874175252034
1113,1685766381.02,0.488,-641.602,152.344,-25.391,933.916,298.57227302829335
1114,1685766381.02,12.695,-719.727,-55.176,-51.27,933.92,305.8473865720876
1115,1685766381.03,-54.199,-962.891,-131.836,-46.387,933.924,290.08425502912183
1116,1685766381.03,-76.172,-769.043,101.562,-31.738,933.926,299.4227597439231
1117,1685766381.03,-11.23,-411.621,165.527,-33.691,933.93,295.15392054526103
1118,1685766381.04,31.738,-422.852,-54.688,-40.039,933.934,287.3193925558112
1119,1685766381.04,-25.879,-826.66,-142.09,-53.711,933.938,280.3532605536436
1120,1685766381.05,-86.914,-797.363,30.762,-31.738,933.941,280.60958606030937
1121,1685766381.05,-38.574,-778.32,17.578,-6.836,933.945,290.17310769489984
1122,1685766381.05,28.32,-854.004,-28.809,-20.996,933.949,289.9914501057583
1123,1685766381.06,-12.207,-937.988,-136.719,-41.016,933.953,284.97690975351867
1124,1685766381.06,-91.797,-815.43,97.168,-40.527,933.957,277.2452072259466
1125,1685766381.06,-58.594,-439.453,189.941,-20.996,933.961,288.22708505802336
1126,1685766381.07,18.066,-442.871,-21.484,-17.09,933.965,279.4068638567513
1127,1685766381.07,-4.883,-864.746,-54.199,-41.992,933.969,278.99075469370376
1128,1685766381.08,-81.543,-959.473,46.875,-48.34,933.975,277.1666123708504
1129,1685766381.08,-82.52,-669.922,156.25,-20.02,933.978,272.4920791890667
1130,1685766381.08,-4.395,-625.977,-27.344,-15.137,933.982,260.1842568464807
1131,1685766381.09,12.207,-917.48,-123.535,-32.715,933.986,262.06128641646285
1132,1685766381.09,-56.641,-798.34,93.75,-44.922,933.99,262.59807232538867
1133,1685766381.1,-87.891,-829.59,20.996,-24.902,933.994,251.9342599632368
1134,1685766381.1,-21.973,-981.445,-65.43,-19.043,933.998,255.43946710609316
1135,1685766381.1,21.484,-872.559,24.902,-32.715,934.002,262.10496993044023
1136,1685766381.11,-26.367,-564.941,149.902,-39.551,934.006,249.58122548702565
1137,1685766381.11,-84.961,-576.66,29.785,-21.973,934.01,258.1112042248768
1138,1685766381.12,-42.48,-794.922,-82.031,-11.719,934.014,250.27542827542823
1139,1685766381.12,29.297,-576.172,79.59,-29.297,934.018,251.47629758843973
1140,1685766381.12,2.93,-422.852,61.523,-46.387,934.03,243.24703669521907
1141,1685766381.12,-67.871,-593.262,-92.285,-33.691,934.034,248.02717207788538
1142,1685766381.13,-50.293,-916.016,-140.137,-1.953,934.038,245.55071401624676
1143,1685766381.13,22.949,-862.793,-3.418,-9.277,934.042,248.66386692215377
1144,1685766381.14,18.066,-569.336,72.266,-37.109,934.045,243.30900539944773
1145,1685766381.14,-53.223,-857.91,-87.891,-36.133,934.049,245.3491630351554
1146,1685766381.14,-63.965,-1000.0,-189.453,-3.418,934.053,235.1579761443608
1147,1685766381.15,15.625,-801.27,89.355,4.395,934.057,243.08462313693687
1148,1685766381.15,41.504,-401.855,194.824,-24.414,934.061,245.1944136833069
1149,1685766381.16,-32.227,-523.438,-40.039,-28.809,934.065,251.9405017741198
1150,1685766381.16,-78.613,-875.488,-9.766,-3.418,934.069,237.87218128615626
1151,1685766381.16,-16.113,-913.574,98.145,-0.977,934.073,244.95939671126567
1152,1685766381.18,29.785,-657.715,140.625,-21.484,934.076,246.57820067864728
1153,1685766381.18,-19.043,-630.371,-48.828,-36.621,934.08,239.20753956864527
1154,1685766381.19,-78.613,-945.801,-62.012,-24.414,934.084,227.67864419430117
1155,1685766381.19,-36.133,-635.742,192.383,-15.625,934.087,240.6840637564788
1156,1685766381.2,38.086,-375.0,95.215,-30.762,934.091,249.47822793465704
1157,1685766381.2,7.324,-747.559,-104.004,-53.223,934.095,246.96293722065445
1158,1685766381.2,-69.824,-1000.0,-4.395,-35.156,934.099,244.07606642190783
1159,1685766381.21,-60.547,-805.176,173.34,-6.836,934.103,242.39575603030556
1160,1685766381.21,16.113,-388.184,109.863,-21.973,934.107,237.71639970057706
1161,1685766381.22,20.02,-640.137,-129.883,-41.992,934.111,250.14133725864704
1162,1685766381.22,-56.152,-929.199,19.531,-33.203,934.115,241.5233634596039
1163,1685766381.22,-77.148,-592.285,197.266,-9.277,934.119,245.91341037972106
1164,1685766381.22,-0.977,-440.918,83.984,-12.207,934.121,241.21851048146084
1165,1685766381.23,22.461,-718.262,-68.848,-38.086,934.125,244.76926776837513
1166,1685766381.23,-43.945,-754.395,-66.895,-48.828,934.129,240.50026480043388
1167,1685766381.24,-86.426,-596.68,42.969,-20.996,934.133,257.46862623513545
1168,1685766381.24,-31.738,-545.898,14.16,-9.277,934.137,252.27597462390153
1169,1685766381.24,16.602,-879.395,-166.016,-27.832,934.141,257.2717355787085
1170,1685766381.25,-27.344,-918.945,32.227,-54.199,934.145,255.22892289997372
1171,1685766381.25,-85.449,-738.77,105.957,-44.434,934.149,252.65842331247956
1172,1685766381.26,-58.105,-893.555,-32.227,-25.391,934.152,246.02832797227504
1173,1685766381.26,11.23,-984.863,-123.535,-34.18,934.156,248.311610817816
1174,1685766381.26,-7.324,-953.613,60.059,-51.758,934.16,253.88660607795757
1175,1685766381.27,-78.125,-923.34,151.367,-45.898,934.164,258.2452159440486
1176,1685766381.27,-71.289,-849.121,29.785,-20.02,934.166,258.0058304938776
1177,1685766381.27,3.906,-879.395,32.227,-24.902,934.17,256.2155487957947
1178,1685766381.28,15.625,-545.898,145.02,-53.223,934.174,260.92523688741755
1179,1685766381.28,-43.945,-395.996,123.535,-53.711,934.178,256.6957223782232
1180,1685766381.29,-80.078,-692.383,37.109,-32.227,934.182,261.0627941792705
1181,1685766381.29,-17.578,-929.688,26.855,-28.32,934.185,260.0575646758948
1182,1685766381.29,23.926,-724.609,122.559,-45.898,934.189,265.3842912255823
1183,1685766381.3,-28.809,-466.309,121.582,-62.988,934.193,273.385102014178
1184,1685766381.3,-79.59,-800.781,-34.668,-48.34,934.197,255.55206169407546
1185,1685766381.3,-32.227,-868.652,48.34,-31.738,934.201,260.7066714971433
1186,1685766381.31,20.996,-504.395,176.758,-44.922,934.205,268.339374653436
1187,1685766381.31,-16.113,-718.262,-8.789,-60.059,934.209,275.14266912611987
1188,1685766381.32,-74.707,-1000.0,-77.148,-48.34,934.211,273.1584262259102
1189,1685766381.32,-49.805,-760.254,166.504,-28.809,934.215,267.75877984677237
1190,1685766381.32,22.949,-368.164,180.176,-29.297,934.219,273.95826171204385
1191,1685766381.33,9.277,-430.664,20.02,-47.852,934.223,278.2210069544052
1192,1685766381.33,-71.777,-828.125,-52.734,-48.34,934.227,283.3192756851871
1193,1685766381.34,-74.707,-970.215,17.578,-29.785,934.23,283.5254252288412
1194,1685766381.34,0.977,-701.66,143.555,-39.551,934.234,275.13182765590994
1195,1685766381.34,30.273,-496.582,32.227,-54.688,934.238,286.21226575984906
1196,1685766381.35,-30.273,-906.25,-176.27,-47.363,934.242,275.9106872562013
1197,1685766381.35,-76.66,-763.672,117.676,-29.297,934.246,282.4725351820588
1198,1685766381.35,-18.066,-520.02,100.098,-28.809,934.25,275.4106566248717
1199,1685766381.36,30.273,-782.227,-117.188,-37.109,934.254,276.7211304072185
1200,1685766381.36,-25.879,-855.957,24.414,-41.992,934.259,272.024124718591
1201,1685766381.36,-85.449,-891.602,101.074,-28.809,934.263,280.19202374486395
1202,1685766381.37,-30.762,-653.32,145.02,-16.602,934.267,276.1535462237825
1203,1685766381.37,32.227,-510.254,1.465,-31.738,934.271,293.53294658066625
1204,1685766381.38,-13.184,-926.27,-150.879,-54.688,934.275,275.23754521369443
1205,1685766381.38,-85.449,-1000.0,72.266,-51.758,934.279,279.87878355182653
1206,1685766381.38,-65.918,-833.008,155.762,-29.297,934.283,289.8772598769431
1207,1685766381.39,11.719,-772.949,37.109,-33.203,934.287,280.3693208324339
1208,1685766381.39,16.602,-834.961,38.086,-53.711,934.291,287.8654987343148
1209,1685766381.4,-51.27,-592.773,148.926,-57.129,934.295,277.0076776933463
1210,1685766381.4,-67.383,-499.512,79.59,-24.414,934.298,288.2904862914204
1211,1685766381.4,0.488,-668.457,-13.184,-20.02,934.302,290.2646829481152
1212,1685766381.42,33.691,-496.094,66.406,-40.527,934.329,292.2893459058227
1213,1685766381.42,-28.32,-377.93,84.961,-54.199,934.333,275.9401330292963
1214,1685766381.43,-83.008,-534.668,35.156,-31.738,934.337,291.71324732642205
1215,1685766381.43,-23.926,-832.52,-78.613,-22.949,934.341,292.35014797014327
1216,1685766381.44,28.809,-844.238,-17.578,-42.48,934.345,292.35638781906704
1217,1685766381.44,-14.648,-851.562,-17.09,-52.734,934.349,292.25443035973575
1218,1685766381.44,-77.148,-966.797,-34.18,-41.992,934.353,283.5957911216261
1219,1685766381.45,-41.992,-1000.0,-102.051,-21.973,934.357,283.40428615217
1220,1685766381.45,14.648,-571.289,155.762,-27.344,934.349,300.28479735839335
1221,1685766381.45,20.02,-790.039,67.871,-31.25,934.361,300.00158942668685
1222,1685766381.46,-2.93,-384.766,192.383,-56.641,934.364,290.978516853804
1223,1685766381.46,17.09,-343.75,101.074,-52.734,934.353,295.6473543109134
1224,1685766381.46,-69.336,-577.148,-18.066,-39.062,934.368,290.89034349415545
1225,1685766381.46,-56.152,-681.152,-33.203,-57.129,934.357,294.75666532146954
1226,1685766381.46,-60.547,-906.738,28.32,-13.672,934.372,298.8112680234773
1227,1685766381.46,-82.031,-803.223,57.129,-37.598,934.361,300.6607977373765
1228,1685766381.47,-5.859,-443.848,184.57,-38.086,934.365,299.15067411781115
1229,1685766381.47,20.02,-605.957,-22.461,-54.199,934.369,298.3676783891487
1230,1685766381.47,-41.504,-982.91,-73.242,-59.082,934.372,301.41101668755664
1231,1685766381.48,-86.914,-905.273,74.707,-35.156,934.376,307.0979779257226
1232,1685766381.48,-25.391,-485.84,166.016,-13.672,934.38,297.9842194994451
1233,1685766381.49,40.527,-263.672,103.516,-34.18,934.384,303.80381469583386
1234,1685766381.49,0.488,-703.613,-138.672,-54.199,934.388,296.1147917911606
1235,1685766381.49,-67.383,-954.59,8.789,-29.297,934.392,296.35495257305973
1236,1685766381.5,-42.969,-541.016,230.957,-18.066,934.404,310.3046849522834
1237,1685766381.5,28.809,-316.895,86.426,-30.762,934.408,294.48841442398566
1238,1685766381.5,16.113,-773.438,-153.32,-40.039,934.412,295.8084175056546
1239,1685766381.51,-64.453,-817.383,57.129,-43.457,934.415,296.47568963223557
1240,1685766381.51,-60.059,-524.902,176.758,-27.344,934.419,305.56109091262533
1241,1685766381.52,16.602,-717.285,-32.715,-23.438,934.423,296.38274138571046
1242,1685766381.52,20.508,-979.98,-169.434,-41.504,934.427,305.16005973134196
1243,1685766381.52,-47.852,-890.137,59.57,-44.922,934.431,297.8587340686036
1244,1685766381.53,-66.895,-619.141,198.73,-22.949,934.435,299.73210128546185
1245,1685766381.53,2.93,-695.312,35.645,-22.461,934.439,300.6091413642914
1246,1685766381.53,36.133,-910.156,-3.418,-35.645,934.443,306.50878217621056
1247,1685766381.54,-20.508,-919.434,86.914,-48.828,934.447,307.1021737501911
1248,1685766381.54,-74.219,-653.809,155.762,-21.484,934.45,300.34297687948913
1249,1685766381.54,-22.949,-642.578,40.039,2.441,934.454,298.8298226713109
1250,1685766381.55,37.598,-862.305,-14.648,-17.578,934.458,318.6454464430119
1251,1685766381.55,-2.441,-548.34,147.461,-47.363,934.462,301.712227062253
1252,1685766381.56,-74.219,-450.684,129.395,-34.668,934.466,307.60351795714666
1253,1685766381.56,-54.688,-796.387,-45.898,-10.254,934.47,305.08531219139877
1254,1685766381.56,11.719,-832.52,47.363,-20.508,934.473,307.9606589568033
1255,1685766381.57,8.789,-429.199,167.969,-45.41,934.477,302.75695277485903
1256,1685766381.57,-58.105,-474.121,52.734,-47.363,934.481,314.0620271696433
1257,1685766381.57,-66.895,-788.574,-5.859,-18.555,934.485,316.02490750442723
1258,1685766381.58,10.254,-589.355,90.82,-13.672,934.489,299.73122026652453
1259,1685766381.58,28.809,-585.449,56.641,-33.203,934.493,313.95376069375897
1260,1685766381.6,-32.715,-875.0,-56.152,-31.738,934.496,308.8123568509981
1261,1685766381.6,-63.477,-961.914,-95.215,1.465,934.5,300.4870996172948
1262,1685766381.61,6.836,-630.371,105.469,8.789,934.504,305.58346228773127
1263,1685766381.61,51.27,-304.199,145.02,-13.672,934.508,310.34987324393103
1264,1685766381.62,-13.184,-518.066,-41.016,-21.973,934.511,309.47343953311724
1265,1685766381.62,-67.871,-943.848,-113.281,-3.418,934.515,309.0507493208507
1266,1685766381.62,-25.391,-873.535,82.52,1.465,934.519,311.7603582506555
1267,1685766381.63,38.574,-363.77,176.758,-9.277,934.523,310.99123585241296
1268,1685766381.63,11.719,-492.188,-29.785,-24.414,934.527,300.4207677944779
1269,1685766381.64,-63.477,-925.781,-132.812,-19.531,934.531,305.14410562915623
1270,1685766381.64,-44.434,-750.0,97.168,7.324,934.535,320.8789945936245
1271,1685766381.64,27.344,-703.125,129.883,-2.441,934.539,310.2914466737492
1272,1685766381.65,13.184,-787.109,3.906,-36.621,934.545,313.8721667429615
1273,1685766381.65,-67.871,-938.965,-22.461,-37.109,934.548,311.14850942002573
1274,1685766381.65,-84.473,-928.223,133.789,-16.602,934.552,302.76586573140196
1275,1685766381.66,-7.812,-489.746,174.316,-20.996,934.556,304.3437075489264
1276,1685766381.66,18.066,-461.426,-15.625,-40.039,934.56,305.88948664528795
1277,1685766381.67,-38.086,-948.242,-18.066,-34.668,934.564,306.2041705243732
1278,1685766381.67,-74.219,-902.832,175.293,-1.953,934.568,307.3982506467112
1279,1685766381.67,-23.438,-461.914,160.645,-5.371,934.572,303.7401652889877
1280,1685766381.68,24.902,-580.078,-21.973,-33.691,934.576,307.26551756078436
1281,1685766381.68,-20.996,-878.418,21.973,-47.852,934.58,314.6837725956895
1282,1685766381.68,-79.102,-594.727,191.406,-31.738,934.584,312.02915813663407
1283,1685766381.69,-38.086,-470.215,75.195,-10.254,934.588,309.00423823994544
1284,1685766381.69,30.762,-683.105,-66.895,-18.555,934.586,304.42938199286704
1285,1685766381.69,1.465,-640.137,36.621,-48.828,934.59,316.15914785132384
1286,1685766381.7,-70.801,-539.551,117.676,-46.387,934.594,314.6937681688432
1287,1685766381.7,-61.035,-577.148,62.5,-15.625,934.598,302.75111865089303
1288,1685766381.71,16.113,-787.598,-4.395,-15.137,934.602,313.90629232623894
1289,1685766381.71,25.879,-877.93,37.598,-33.203,934.606,316.0929707229524
1290,1685766381.71,-45.898,-924.805,72.266,-38.086,934.61,310.7627637765222
1291,1685766381.72,-64.941,-957.52,73.73,-5.859,934.614,312.2143529472426
1292,1685766381.72,8.789,-1000.0,-104.98,8.301,934.617,317.22484086762046
1293,1685766381.72,34.18,-839.844,70.801,-17.578,934.621,314.46464889312756
1294,1685766381.73,-24.414,-590.332,171.875,-33.203,934.625,307.08480990559167
1295,1685766381.73,-71.289,-932.129,-72.754,-10.742,934.629,310.4074796465669
