,timestamps,TP9,AF7,AF8,TP10,Secondary Timestamp,emg_signal
0,1686880085.893,-21.973,268.066,-51.27,-23.926,1313.789,371
1,1686880085.897,-33.203,57.617,-56.641,-38.086,1313.793,371
2,1686880085.901,-9.766,-67.383,-37.598,21.484,1313.797,371
3,1686880085.905,-1.953,-234.375,-26.855,34.18,1313.801,371
4,1686880085.909,-25.879,30.762,-56.641,-41.016,1313.805,372
5,1686880085.913,-47.363,74.707,-81.543,-83.008,1313.809,372
6,1686880085.916,-30.273,-33.691,-58.594,-20.508,1313.813,372
7,1686880085.92,-7.812,268.066,-28.809,27.344,1313.816,372
8,1686880085.924,-24.414,511.23,-67.383,-16.602,1313.82,372
9,1686880085.928,-48.828,509.277,-91.309,-77.148,1313.824,372
10,1686880085.932,-37.598,-75.684,-109.863,-43.945,1313.828,372
11,1686880085.936,-6.348,-759.766,-54.199,40.039,1313.832,371
12,1686880085.938,2.441,217.285,-4.883,16.602,1313.85,371
13,1686880085.942,-29.785,538.086,-75.684,-54.688,1313.854,371
14,1686880085.946,-41.504,8.789,-74.219,-40.527,1313.858,371
15,1686880085.95,-14.648,306.152,-43.457,25.391,1313.862,370
16,1686880085.954,-10.254,532.227,-67.871,13.184,1313.866,370
17,1686880085.958,-32.227,59.57,-104.492,-58.594,1313.87,370
18,1686880085.961,-39.062,-715.332,-102.539,-62.988,1313.874,370
19,1686880085.965,-20.508,-416.504,-29.297,-2.93,1313.878,370
20,1686880085.969,-5.371,522.461,-22.461,14.648,1313.881,370
21,1686880085.973,-28.32,344.238,-94.727,-49.316,1313.885,371
22,1686880085.977,-51.27,-329.102,-60.547,-79.102,1313.889,371
23,1686880085.981,-38.086,124.023,-7.324,-16.113,1313.893,371
24,1686880085.983,-18.066,496.094,-54.688,39.062,1313.894,371
25,1686880085.987,-26.855,-34.18,-82.031,-1.465,1313.898,371
26,1686880085.991,-52.246,-477.051,-38.086,-67.383,1313.902,371
27,1686880085.995,-41.504,100.098,-13.184,-36.621,1313.906,371
28,1686880085.999,5.371,559.082,-41.016,37.109,1313.91,371
29,1686880086.003,14.16,62.988,-80.078,18.555,1313.913,371
30,1686880086.006,-18.555,-413.086,-29.297,-48.828,1313.917,371
31,1686880086.01,-40.039,175.781,2.441,-56.641,1313.921,371
32,1686880086.014,-23.926,541.016,-48.828,18.066,1313.925,369
33,1686880086.018,-12.695,27.832,-74.707,41.992,1313.929,369
34,1686880086.022,-44.922,-191.406,-17.09,-42.48,1313.933,369
35,1686880086.026,-52.734,348.145,-9.277,-77.148,1313.937,369
36,1686880086.043,-15.137,429.199,-44.434,0.977,1313.94,369
37,1686880086.047,-0.977,97.168,-59.57,42.969,1313.944,369
38,1686880086.051,-25.879,226.562,-44.434,-16.113,1313.948,369
39,1686880086.055,-42.48,433.594,-43.945,-71.289,1313.952,370
40,1686880086.059,-35.645,282.715,-59.57,-31.738,1313.956,370
41,1686880086.063,-10.254,-189.941,-54.688,35.645,1313.96,370
42,1686880086.066,-21.973,-127.441,-37.598,-9.766,1313.963,370
43,1686880086.07,-42.969,326.66,-39.062,-94.727,1313.967,370
44,1686880086.074,-26.855,164.062,-60.059,-56.641,1313.971,371
45,1686880086.078,-3.906,-496.094,-65.918,35.645,1313.975,371
46,1686880086.082,1.953,-6.348,-22.461,26.367,1313.979,371
47,1686880086.086,-21.973,430.664,-39.062,-56.641,1313.983,370
48,1686880086.088,-38.574,-134.766,-75.195,-67.871,1313.984,370
49,1686880086.092,-6.836,-746.582,-52.246,28.32,1313.988,370
50,1686880086.096,15.625,24.902,8.301,37.598,1313.992,370
51,1686880086.1,-25.879,605.469,-29.785,-50.781,1313.996,369
52,1686880086.104,-50.293,97.168,-68.848,-80.566,1314.0,369
53,1686880086.108,-24.902,-191.895,-42.969,-14.648,1314.004,369
54,1686880086.111,2.93,140.625,-9.766,40.527,1314.008,369
55,1686880086.115,-6.836,536.133,-38.574,-9.277,1314.012,368
56,1686880086.119,-41.504,-38.086,-102.539,-68.848,1314.015,368
57,1686880086.123,-31.738,-479.98,-16.113,-27.344,1314.019,368
58,1686880086.127,6.836,388.672,15.625,40.039,1314.023,369
59,1686880086.131,0.488,585.449,-56.641,3.418,1314.027,369
60,1686880086.133,-30.273,51.27,-73.242,-54.199,1314.029,369
61,1686880086.137,-30.762,149.902,-43.945,-36.133,1314.033,369
62,1686880086.141,-3.418,316.895,-38.574,28.809,1314.037,369
63,1686880086.145,2.441,116.211,-64.453,31.738,1314.041,369
64,1686880086.149,-28.32,-332.52,-81.055,-43.457,1314.045,369
65,1686880086.153,-43.457,-373.535,-35.156,-51.758,1314.049,370
66,1686880086.156,-17.578,177.734,0.0,12.207,1314.053,370
67,1686880086.16,-7.324,386.719,-46.875,19.043,1314.057,370
68,1686880086.164,-29.297,-437.5,-87.891,-40.039,1314.061,370
69,1686880086.168,-45.41,-169.922,-14.648,-84.473,1314.065,369
70,1686880086.172,-29.785,485.84,-22.949,-33.203,1314.068,369
71,1686880086.176,-11.23,242.676,-44.434,22.949,1314.072,369
72,1686880086.178,-21.484,152.832,-43.945,-26.855,1314.075,369
73,1686880086.182,-48.828,27.832,-48.828,-92.285,1314.079,368
74,1686880086.186,-39.062,311.035,-21.484,-55.664,1314.082,368
75,1686880086.19,0.977,296.875,-47.363,26.367,1314.086,368
76,1686880086.194,-2.93,-258.789,-31.25,13.672,1314.09,368
77,1686880086.198,-40.039,-119.141,-27.344,-57.617,1314.094,368
78,1686880086.201,-56.152,79.102,-38.086,-56.152,1314.098,368
79,1686880086.205,-29.785,-69.336,-57.129,17.09,1314.102,368
80,1686880086.209,-23.926,-669.434,-60.059,23.926,1314.106,370
81,1686880086.213,-46.387,37.598,-4.395,-70.801,1314.11,370
82,1686880086.217,-45.898,645.02,-30.273,-82.52,1314.114,370
83,1686880086.221,-30.273,273.926,-57.617,-6.348,1314.118,370
84,1686880086.223,-13.672,485.84,-21.484,16.602,1314.119,371
85,1686880086.227,-34.18,652.344,-42.969,-49.316,1314.123,371
86,1686880086.231,-60.547,310.059,-70.801,-99.609,1314.127,371
87,1686880086.235,-36.133,50.293,-47.363,-44.922,1314.131,371
88,1686880086.239,-18.066,319.336,-36.621,15.137,1314.135,371
89,1686880086.243,-35.645,203.613,-69.824,-23.926,1314.139,371
90,1686880086.246,-61.523,-218.262,-78.613,-94.727,1314.143,371
91,1686880086.25,-53.223,-737.305,-81.543,-62.988,1314.147,371
92,1686880086.254,-17.09,-306.641,-2.93,10.254,1314.151,370
93,1686880086.258,-11.23,583.496,-4.395,-11.23,1314.154,370
94,1686880086.262,-32.715,278.32,-77.637,-75.684,1314.158,370
95,1686880086.266,-37.598,-266.113,-34.668,-61.523,1314.162,369
96,1686880086.268,-15.625,122.07,-7.812,7.324,1314.164,369
97,1686880086.272,1.953,286.621,-48.828,25.879,1314.168,369
98,1686880086.276,-24.902,-32.715,-60.547,-49.316,1314.172,369
99,1686880086.28,-47.852,-361.328,-21.973,-92.285,1314.176,369
100,1686880086.284,-19.043,179.199,-1.465,-21.973,1314.18,369
101,1686880086.288,-6.348,421.387,-37.598,28.809,1314.184,369
102,1686880086.291,-25.879,-82.52,-59.57,-23.438,1314.188,369
103,1686880086.295,-41.504,-502.93,-14.648,-71.289,1314.192,370
104,1686880086.299,-21.973,242.676,20.508,-20.996,1314.196,370
105,1686880086.303,6.348,656.25,-34.18,34.668,1314.2,370
106,1686880086.307,-3.418,122.07,-68.359,0.977,1314.203,371
107,1686880086.311,-45.898,78.613,-39.551,-73.242,1314.207,371
108,1686880086.313,-47.852,437.5,-17.09,-58.594,1314.223,371
109,1686880086.317,-16.602,457.031,-35.156,20.996,1314.227,370
110,1686880086.321,-9.277,19.043,-58.105,18.555,1314.231,370
111,1686880086.325,-30.273,97.168,-31.25,-71.289,1314.235,370
112,1686880086.329,-54.688,329.59,-27.832,-88.379,1314.238,370
113,1686880086.333,-30.762,62.5,-47.852,-7.324,1314.242,369
114,1686880086.336,-6.836,-518.066,-75.195,18.555,1314.246,369
115,1686880086.34,-27.344,-253.418,-23.438,-49.316,1314.25,369
116,1686880086.344,-47.852,420.41,-14.16,-84.473,1314.254,369
117,1686880086.348,-29.785,346.68,-50.781,-15.137,1314.258,369
118,1686880086.352,-0.488,229.004,-19.043,33.691,1314.262,369
119,1686880086.356,-17.09,385.254,-28.32,-35.645,1314.266,369
120,1686880086.373,-53.223,329.102,-57.617,-87.891,1314.269,369
121,1686880086.377,-51.27,-130.371,-61.523,-42.969,1314.273,370
122,1686880086.381,-23.926,-675.293,-46.875,28.32,1314.277,370
123,1686880086.385,-21.484,36.133,-7.812,6.348,1314.281,370
124,1686880086.389,-42.969,518.555,-27.832,-60.059,1314.285,370
125,1686880086.393,-46.875,-201.66,-62.012,-55.176,1314.289,370
126,1686880086.396,-32.227,-657.227,-30.273,20.508,1314.293,370
127,1686880086.4,-20.02,229.492,5.859,31.25,1314.297,370
128,1686880086.404,-39.062,572.754,-51.27,-47.852,1314.301,369
129,1686880086.408,-54.688,0.977,-85.449,-77.148,1314.304,369
130,1686880086.412,-23.438,82.031,-25.879,-7.324,1314.308,369
131,1686880086.416,1.465,519.043,-8.789,26.367,1314.312,368
132,1686880086.418,-21.973,390.625,-52.246,-41.016,1314.317,368
133,1686880086.422,-54.199,-57.617,-66.406,-84.961,1314.32,368
134,1686880086.426,-28.809,81.543,-31.25,-21.484,1314.324,368
135,1686880086.43,0.977,206.055,-42.48,31.25,1314.328,368
136,1686880086.434,-22.461,-62.988,-76.172,-18.066,1314.332,368
137,1686880086.438,-52.734,-628.418,-97.656,-79.102,1314.336,368
138,1686880086.441,-41.504,-403.809,-12.207,-46.875,1314.34,368
139,1686880086.445,-19.531,467.773,0.488,17.09,1314.344,368
140,1686880086.449,-31.25,385.742,-69.336,-11.719,1314.348,368
141,1686880086.453,-61.035,-550.781,-95.215,-74.219,1314.352,368
142,1686880086.457,-61.035,-240.723,-21.484,-65.43,1314.356,370
143,1686880086.461,-29.297,525.391,-16.113,4.883,1314.359,370
144,1686880086.463,-19.043,266.602,-68.359,22.461,1314.359,370
145,1686880086.467,-49.316,-159.668,-56.641,-50.293,1314.363,370
146,1686880086.471,-55.176,114.258,-25.391,-75.195,1314.367,370
147,1686880086.475,-25.879,440.918,-27.344,-5.859,1314.371,370
148,1686880086.479,-15.625,203.613,-58.594,32.715,1314.375,370
149,1686880086.483,-36.133,-260.742,-58.105,-24.414,1314.379,370
150,1686880086.486,-63.965,-281.25,-43.457,-78.125,1314.383,369
151,1686880086.49,-51.27,100.586,-18.066,-27.344,1314.387,369
152,1686880086.494,-24.414,20.996,-63.965,35.156,1314.391,369
153,1686880086.498,-36.621,-828.125,-83.008,-6.348,1314.395,369
154,1686880086.502,-57.617,-178.711,8.789,-73.242,1314.399,369
155,1686880086.506,-51.27,496.094,-17.09,-44.922,1314.402,369
156,1686880086.508,-21.973,183.594,-62.988,37.598,1314.404,369
157,1686880086.512,-11.23,359.863,-33.691,32.227,1314.408,369
158,1686880086.516,-37.109,448.242,-37.598,-55.176,1314.412,369
159,1686880086.52,-55.176,148.438,-53.711,-61.035,1314.416,369
160,1686880086.524,-22.461,-33.203,-35.645,23.926,1314.42,369
161,1686880086.528,-2.441,-47.852,-40.527,44.434,1314.424,370
162,1686880086.531,-39.062,76.172,-16.113,-35.156,1314.428,370
163,1686880086.535,-66.895,160.156,-32.227,-67.871,1314.432,370
164,1686880086.539,-43.457,-646.973,-71.289,12.695,1314.435,371
165,1686880086.543,-15.625,-292.48,28.32,61.035,1314.439,371
166,1686880086.547,-29.297,552.734,-2.93,-12.695,1314.443,371
167,1686880086.551,-53.711,275.391,-59.082,-71.777,1314.447,371
168,1686880086.553,-39.062,-95.703,-27.832,-15.137,1314.449,371
169,1686880086.557,-18.066,-9.766,-22.461,51.758,1314.453,371
170,1686880086.561,-30.273,426.758,-21.973,12.207,1314.457,371
171,1686880086.565,-53.711,143.555,-57.129,-62.988,1314.461,371
172,1686880086.569,-61.035,-450.684,-12.207,-46.875,1314.465,370
173,1686880086.573,-34.18,-131.836,3.906,31.25,1314.469,370
174,1686880086.576,-20.508,293.457,-30.273,22.461,1314.473,370
175,1686880086.58,-42.969,3.906,-75.195,-60.059,1314.477,369
176,1686880086.584,-50.781,-516.113,-13.184,-58.105,1314.481,369
177,1686880086.588,-25.879,268.066,20.508,4.395,1314.484,369
178,1686880086.592,-1.465,614.746,-54.688,30.762,1314.488,369
179,1686880086.596,-36.133,49.316,-87.891,-37.109,1314.492,370
180,1686880086.6,-189.453,-10.742,-164.551,-213.867,1314.5,370
181,1686880086.604,-361.816,362.305,-240.234,-346.68,1314.504,370
182,1686880086.608,-468.75,319.824,-307.617,-422.363,1314.508,371
183,1686880086.612,-554.688,-387.207,-370.117,-533.203,1314.512,371
184,1686880086.616,-601.562,-343.75,-339.844,-615.234,1314.516,371
185,1686880086.62,-587.402,-130.859,-316.895,-582.52,1314.52,372
186,1686880086.623,-533.203,-241.699,-304.199,-492.676,1314.524,372
187,1686880086.627,-517.578,-657.227,-307.617,-496.094,1314.528,372
188,1686880086.631,-537.598,-438.477,-289.551,-563.477,1314.532,372
189,1686880086.635,-520.996,167.969,-283.691,-548.34,1314.536,372
190,1686880086.639,-475.098,32.227,-282.715,-461.426,1314.539,372
191,1686880086.643,-446.289,-61.523,-274.414,-438.477,1314.543,372
192,1686880086.644,-449.219,-85.938,-281.25,-492.188,1314.543,372
193,1686880086.648,-442.871,-406.738,-275.391,-493.164,1314.547,372
194,1686880086.652,-390.137,-555.664,-258.301,-401.855,1314.551,371
195,1686880086.656,-356.445,-466.797,-201.66,-354.98,1314.555,371
196,1686880086.66,-371.582,2.93,-227.539,-411.621,1314.558,371
197,1686880086.664,-382.324,-111.328,-255.859,-432.617,1314.562,370
198,1686880086.667,-348.145,-484.863,-236.328,-347.168,1314.566,370
199,1686880086.671,-304.688,-932.129,-225.098,-264.16,1314.57,370
200,1686880086.675,-302.246,-422.363,-199.707,-306.641,1314.574,370
201,1686880086.679,-301.758,263.672,-216.309,-350.098,1314.578,371
202,1686880086.683,-258.789,-66.406,-215.82,-279.785,1314.582,371
203,1686880086.687,-232.91,81.055,-199.219,-207.031,1314.586,371
204,1686880086.688,-250.488,386.719,-189.453,-237.305,1314.598,371
205,1686880086.692,-271.973,147.949,-207.52,-305.176,1314.602,372
206,1686880086.696,-258.789,-272.461,-209.961,-275.879,1314.606,372
207,1686880086.7,-205.078,-38.574,-175.293,-168.945,1314.61,372
208,1686880086.704,-185.059,60.547,-189.453,-145.02,1314.614,373
209,1686880086.708,-199.707,-287.598,-191.895,-209.961,1314.618,373
210,1686880086.711,-209.961,-860.84,-185.059,-217.285,1314.622,373
211,1686880086.715,-184.082,-615.723,-128.418,-139.16,1314.625,373
212,1686880086.719,-139.648,318.359,-147.461,-90.82,1314.629,373
213,1686880086.723,-147.949,232.91,-182.617,-139.16,1314.633,373
214,1686880086.727,-167.969,-103.516,-148.438,-180.664,1314.637,373
215,1686880086.731,-143.555,150.391,-146.484,-124.023,1314.641,371
216,1686880086.748,-111.816,265.625,-165.039,-58.594,1314.659,371
217,1686880086.752,-112.793,-235.84,-169.922,-88.379,1314.663,371
218,1686880086.756,-133.789,-647.949,-112.305,-143.066,1314.667,371
219,1686880086.76,-123.047,-60.547,-107.422,-103.027,1314.671,372
220,1686880086.764,-82.031,392.09,-140.137,-18.066,1314.675,372
221,1686880086.768,-73.73,-71.777,-145.996,-25.391,1314.679,372
222,1686880086.771,-96.68,-602.051,-103.516,-98.145,1314.683,372
223,1686880086.775,-100.586,-201.66,-90.332,-104.492,1314.686,373
224,1686880086.779,-76.172,368.164,-130.859,-33.203,1314.69,373
225,1686880086.783,-58.105,59.57,-149.902,-3.906,1314.694,373
226,1686880086.787,-74.219,-253.418,-104.492,-63.965,1314.698,373
227,1686880086.791,-99.121,182.129,-100.098,-101.562,1314.702,374
228,1686880086.808,-78.613,305.176,-114.746,-43.457,1314.719,374
229,1686880086.812,-44.922,82.031,-125.0,6.348,1314.723,374
230,1686880086.816,-64.941,196.777,-116.699,-50.293,1314.727,373
231,1686880086.82,-87.402,289.551,-115.723,-118.652,1314.731,373
232,1686880086.824,-69.336,104.98,-119.141,-75.684,1314.735,373
233,1686880086.828,-46.387,-304.688,-99.609,-4.883,1314.739,373
234,1686880086.831,-49.316,-298.828,-109.863,-39.551,1314.743,373
235,1686880086.835,-73.242,109.375,-116.699,-109.375,1314.746,373
236,1686880086.839,-70.312,43.457,-132.812,-82.031,1314.75,373
237,1686880086.843,-44.922,-716.797,-130.371,0.488,1314.754,374
238,1686880086.847,-38.574,-287.109,-59.57,0.488,1314.758,374
239,1686880086.851,-65.918,402.832,-86.426,-82.52,1314.762,374
240,1686880086.853,-80.078,55.176,-148.438,-95.703,1314.749,374
241,1686880086.857,-55.176,-850.098,-124.512,-13.184,1314.753,375
242,1686880086.861,-37.598,-478.516,-22.461,4.395,1314.757,375
243,1686880086.865,-54.688,462.891,-58.594,-72.266,1314.761,375
244,1686880086.869,-79.59,191.895,-120.117,-109.375,1314.765,375
245,1686880086.873,-69.824,-172.363,-88.379,-41.016,1314.769,375
246,1686880086.876,-43.457,84.473,-68.848,20.508,1314.773,375
247,1686880086.88,-45.898,388.672,-101.074,-31.738,1314.777,375
248,1686880086.883,-63.477,-313.477,-143.555,-87.891,1314.779,373
249,1686880086.884,-65.43,-0.977,-125.0,-99.609,1314.781,373
250,1686880086.887,-64.453,-231.934,-87.891,-84.961,1314.783,373
251,1686880086.888,-59.57,-115.723,-68.359,-62.5,1314.785,373
252,1686880086.891,-30.762,319.824,-62.012,-13.672,1314.787,373
253,1686880086.892,-29.785,389.16,-66.406,5.371,1314.788,373
254,1686880086.895,-13.184,319.336,-102.539,2.441,1314.791,371
255,1686880086.896,-32.715,342.773,-122.07,-20.996,1314.792,371
256,1686880086.899,-49.805,-530.762,-153.32,-67.871,1314.795,371
257,1686880086.903,-71.289,-866.699,-75.684,-89.355,1314.799,371
258,1686880086.906,-42.48,-19.043,-37.598,-13.184,1314.803,371
259,1686880086.91,-19.043,307.129,-95.703,25.879,1314.807,371
260,1686880086.914,-38.574,-169.922,-76.172,-41.016,1314.81,372
261,1686880086.918,-56.152,-37.598,-65.918,-93.75,1314.814,372
262,1686880086.922,-42.969,361.328,-77.148,-51.27,1314.818,372
263,1686880086.926,-27.832,208.008,-101.074,1.465,1314.822,373
264,1686880086.928,-41.016,-673.34,-117.676,-41.504,1314.825,373
265,1686880086.932,-69.336,-559.57,-73.73,-108.398,1314.829,373
266,1686880086.936,-65.43,91.309,-73.73,-79.59,1314.832,373
267,1686880086.94,-30.273,-24.902,-93.262,-0.488,1314.836,372
268,1686880086.944,-28.32,-669.922,-94.238,-7.812,1314.84,372
269,1686880086.948,-62.5,-443.359,-58.105,-89.844,1314.844,372
270,1686880086.951,-67.383,217.285,-54.688,-96.191,1314.848,372
271,1686880086.955,-35.156,104.492,-84.961,-15.137,1314.852,370
272,1686880086.959,-24.414,-307.617,-49.805,0.0,1314.856,370
273,1686880086.963,-46.875,286.133,-39.551,-85.449,1314.86,370
274,1686880086.967,-67.871,499.512,-94.727,-122.07,1314.864,367
275,1686880086.971,-48.34,-23.926,-134.277,-48.34,1314.868,367
276,1686880086.974,-25.879,125.0,-72.266,5.371,1314.871,367
277,1686880086.978,-47.363,488.281,-63.965,-55.664,1314.875,367
278,1686880086.982,-69.336,263.184,-101.074,-104.492,1314.879,366
279,1686880086.986,-54.199,-50.781,-78.125,-49.316,1314.883,366
280,1686880086.99,-27.832,139.648,-59.57,3.418,1314.887,366
281,1686880086.994,-31.25,106.934,-87.402,-39.062,1314.891,366
282,1686880086.997,-62.5,-226.562,-107.91,-114.746,1314.895,366
283,1686880087.001,-65.918,-833.496,-104.98,-85.938,1314.899,366
284,1686880087.005,-36.621,-547.363,-15.137,-2.93,1314.903,366
285,1686880087.009,-27.832,428.223,-38.574,-11.719,1314.907,366
286,1686880087.013,-55.176,285.645,-105.469,-83.008,1314.91,366
287,1686880087.017,-70.801,-1.953,-60.547,-92.773,1314.914,366
288,1686880087.018,-43.945,216.797,-52.246,-14.648,1314.914,366
289,1686880087.022,-22.461,117.676,-85.449,14.648,1314.918,366
290,1686880087.026,-42.969,-178.223,-79.102,-67.383,1314.922,366
291,1686880087.03,-65.43,-185.059,-37.109,-114.746,1314.926,366
292,1686880087.034,-47.852,181.152,-43.457,-47.852,1314.93,366
293,1686880087.038,-19.531,168.945,-65.43,16.602,1314.934,365
294,1686880087.041,-29.297,-178.223,-96.191,-30.273,1314.938,365
295,1686880087.045,-50.781,-871.094,-113.281,-86.914,1314.942,365
296,1686880087.049,-44.922,-401.855,-22.461,-44.922,1314.945,365
297,1686880087.053,-23.438,541.504,-32.715,26.367,1314.949,365
298,1686880087.057,-19.531,170.898,-112.793,-1.953,1314.953,365
299,1686880087.061,-36.133,-53.711,-72.754,-80.566,1314.957,365
300,1686880087.063,-43.945,331.055,-55.176,-74.219,1314.973,365
301,1686880087.067,-22.461,377.441,-62.5,6.348,1314.977,365
302,1686880087.071,-11.23,79.102,-78.613,12.695,1314.98,365
303,1686880087.075,-39.062,111.816,-75.684,-70.801,1314.984,366
304,1686880087.079,-63.477,203.125,-63.477,-87.402,1314.988,366
305,1686880087.083,-34.668,-97.656,-86.914,-9.277,1314.992,366
306,1686880087.086,-3.906,-638.672,-103.027,30.273,1314.996,366
307,1686880087.09,-27.832,-312.5,-50.781,-42.48,1315.0,366
308,1686880087.094,-39.062,281.738,-59.57,-97.168,1315.004,368
309,1686880087.098,-13.672,107.422,-85.449,-34.668,1315.008,368
310,1686880087.102,2.93,-186.035,-72.266,31.25,1315.012,368
311,1686880087.106,-5.371,66.895,-55.664,-14.648,1315.016,369
312,1686880087.108,-31.25,170.898,-71.289,-93.75,1315.018,369
313,1686880087.112,-33.203,-288.086,-82.031,-58.105,1315.022,369
314,1686880087.116,-4.395,-812.988,-72.754,29.297,1315.026,368
315,1686880087.12,-8.789,-121.582,-22.949,16.602,1315.03,368
316,1686880087.124,-43.945,464.355,-60.547,-68.359,1315.034,368
317,1686880087.128,-44.922,-174.805,-96.68,-67.871,1315.038,368
318,1686880087.131,-9.277,-416.016,-23.926,23.438,1315.041,368
319,1686880087.135,10.742,254.395,-28.809,40.039,1315.045,368
320,1686880087.139,-15.625,393.555,-72.754,-42.48,1315.049,368
321,1686880087.143,-41.504,-60.547,-87.891,-74.219,1315.053,368
322,1686880087.147,-20.02,-17.09,-47.363,-2.93,1315.057,370
323,1686880087.151,16.113,370.117,-37.109,43.457,1315.061,370
324,1686880087.155,0.977,208.496,-87.402,-17.578,1315.063,370
325,1686880087.159,-28.32,-370.117,-100.586,-77.148,1315.067,371
326,1686880087.163,-6.836,-200.684,-50.781,-31.738,1315.071,371
327,1686880087.167,16.602,292.48,-37.598,32.715,1315.074,371
328,1686880087.171,8.301,199.219,-83.008,-2.93,1315.078,371
329,1686880087.175,-21.484,-659.668,-122.07,-70.801,1315.082,372
330,1686880087.178,-24.414,-563.477,-39.062,-54.688,1315.086,372
331,1686880087.182,7.812,303.711,-17.09,22.461,1315.09,372
332,1686880087.186,0.977,179.199,-84.473,16.113,1315.094,372
333,1686880087.19,-27.832,-547.363,-81.055,-67.871,1315.098,372
334,1686880087.194,-30.273,-243.652,-36.621,-67.383,1315.102,372
335,1686880087.198,-11.23,261.23,-51.27,11.23,1315.106,372
336,1686880087.213,0.0,29.785,-75.684,33.691,1315.109,372
337,1686880087.217,-20.996,-363.281,-63.965,-42.969,1315.113,372
338,1686880087.221,-37.598,-104.98,-56.152,-84.961,1315.117,372
339,1686880087.225,-14.16,82.52,-71.289,-12.695,1315.121,372
340,1686880087.229,4.395,-215.332,-84.473,41.992,1315.125,372
341,1686880087.233,-19.043,-840.332,-88.867,-16.602,1315.129,372
342,1686880087.236,-44.922,-550.781,-36.133,-91.309,1315.133,372
343,1686880087.24,-27.832,195.312,-40.039,-43.457,1315.137,372
344,1686880087.244,3.906,63.965,-64.453,41.504,1315.141,374
345,1686880087.248,-1.953,-53.223,-32.227,12.695,1315.145,374
346,1686880087.252,-27.832,263.672,-36.621,-65.918,1315.148,374
347,1686880087.256,-36.621,245.605,-61.035,-57.129,1315.152,375
348,1686880087.258,-6.348,-65.43,-65.43,26.855,1315.154,375
349,1686880087.262,3.418,90.332,-37.598,33.691,1315.158,375
350,1686880087.266,-26.855,254.395,-52.246,-44.434,1315.162,375
351,1686880087.27,-29.785,37.598,-62.988,-45.898,1315.166,374
352,1686880087.274,-6.836,-230.957,-56.641,38.086,1315.17,374
353,1686880087.278,4.395,-312.5,-57.617,67.383,1315.174,374
354,1686880087.281,-15.137,-273.438,-58.594,-7.812,1315.178,374
355,1686880087.285,-33.203,-331.055,-77.637,-70.312,1315.182,373
356,1686880087.289,-18.066,-839.844,-89.844,-3.906,1315.186,373
357,1686880087.293,-9.277,-551.27,16.113,50.781,1315.189,373
358,1686880087.297,-22.461,280.762,-8.301,-8.789,1315.193,373
359,1686880087.301,-40.039,180.176,-75.684,-70.801,1315.197,373
360,1686880087.303,-40.039,-131.348,-58.594,-34.668,1315.199,373
361,1686880087.307,-11.719,-102.051,-55.176,50.781,1315.203,373
362,1686880087.311,-2.93,300.293,-51.758,26.855,1315.207,374
363,1686880087.315,-29.785,-12.207,-84.473,-61.035,1315.211,374
364,1686880087.319,-37.598,-572.266,-37.109,-42.48,1315.215,374
365,1686880087.323,-10.742,-210.938,-27.344,40.039,1315.219,374
366,1686880087.326,-0.488,41.992,-56.641,42.969,1315.223,376
367,1686880087.33,-22.949,-170.41,-63.965,-27.832,1315.227,376
368,1686880087.334,-30.273,-611.816,-28.32,-49.805,1315.23,376
369,1686880087.338,-6.836,-66.406,2.93,17.578,1315.234,377
370,1686880087.342,3.418,512.695,-44.922,47.363,1315.238,377
371,1686880087.346,-19.043,18.555,-95.703,-21.484,1315.242,377
372,1686880087.348,-44.922,-136.23,-44.434,-75.195,1315.244,377
373,1686880087.352,-31.738,333.496,-18.066,-12.207,1315.248,378
374,1686880087.356,5.859,361.328,-45.41,57.617,1315.252,378
375,1686880087.36,-7.812,3.418,-61.523,6.836,1315.256,378
376,1686880087.364,-41.504,10.742,-54.199,-69.824,1315.26,378
377,1686880087.368,-34.18,-107.91,-52.246,-37.598,1315.264,377
378,1686880087.371,-1.465,-243.164,-55.664,45.898,1315.268,377
379,1686880087.375,3.418,-584.473,-82.031,33.691,1315.272,377
380,1686880087.379,-31.738,-347.168,-28.809,-49.316,1315.276,378
381,1686880087.383,-42.48,271.484,-20.02,-60.059,1315.28,378
382,1686880087.387,-10.254,147.461,-57.617,20.508,1315.284,378
383,1686880087.391,13.184,-121.582,-47.363,42.969,1315.287,380
384,1686880087.393,-7.812,-57.617,-59.57,-38.086,1315.29,380
385,1686880087.397,-35.645,-75.684,-64.453,-74.219,1315.294,380
386,1686880087.401,-13.184,-211.914,-56.152,1.465,1315.297,380
387,1686880087.405,3.418,-720.703,-82.031,49.805,1315.301,380
388,1686880087.409,-20.508,-232.422,-42.48,-16.602,1315.305,382
389,1686880087.413,-39.551,122.559,-55.176,-71.777,1315.309,382
390,1686880087.416,-26.367,-353.516,-72.754,-17.09,1315.313,382
391,1686880087.42,2.93,-529.785,-15.137,58.594,1315.317,383
392,1686880087.424,8.789,163.086,-17.578,23.926,1315.321,383
393,1686880087.428,-15.137,410.645,-72.754,-49.805,1315.325,383
394,1686880087.432,-23.438,-39.062,-69.824,-30.273,1315.329,383
395,1686880087.436,0.977,19.043,-29.785,50.781,1315.333,383
396,1686880087.443,17.09,404.297,-26.367,48.34,1315.344,383
397,1686880087.447,-8.301,210.449,-63.965,-32.715,1315.348,383
398,1686880087.451,-30.273,-461.426,-90.82,-44.434,1315.352,383
399,1686880087.455,-4.395,-178.223,-32.227,22.949,1315.356,383
400,1686880087.459,15.625,359.863,-26.855,48.828,1315.36,383
401,1686880087.463,-6.348,-106.445,-75.684,-15.625,1315.364,383
402,1686880087.466,-30.762,-805.664,-91.309,-60.547,1315.367,383
403,1686880087.47,-18.555,-323.73,-15.625,-1.953,1315.371,383
404,1686880087.474,8.789,424.316,-18.555,55.664,1315.375,383
405,1686880087.478,-4.395,206.543,-80.566,0.488,1315.379,384
406,1686880087.482,-41.016,-163.574,-58.105,-73.242,1315.383,384
407,1686880087.483,0.488,272.949,-56.641,41.504,1315.394,384
408,1686880087.486,-40.039,63.477,-35.156,-43.457,1315.387,384
409,1686880087.487,9.766,-174.805,-77.637,30.273,1315.398,384
410,1686880087.491,-35.156,-397.461,-41.504,-63.965,1315.401,386
411,1686880087.495,-45.898,4.395,-37.109,-61.523,1315.405,386
412,1686880087.499,-16.113,79.59,-55.664,19.531,1315.409,386
413,1686880087.503,-10.742,-239.746,-82.031,29.785,1315.413,386
414,1686880087.506,-34.668,-918.457,-84.473,-47.363,1315.417,386
415,1686880087.51,-60.059,-548.828,10.742,-78.613,1315.421,386
416,1686880087.514,-36.133,293.457,-23.438,1.465,1315.425,386
417,1686880087.518,-6.348,151.855,-87.402,38.086,1315.429,384
418,1686880087.522,-21.973,130.371,-66.406,-35.645,1315.433,384
419,1686880087.526,-46.387,309.57,-53.223,-81.543,1315.437,384
420,1686880087.543,-32.715,279.785,-60.059,-19.531,1315.439,379
421,1686880087.547,-10.742,0.488,-81.543,46.387,1315.443,379
422,1686880087.551,-22.949,80.566,-57.129,-3.906,1315.447,379
423,1686880087.555,-52.246,276.855,-50.293,-85.938,1315.451,379
424,1686880087.559,-35.645,105.957,-71.289,-42.969,1315.455,375
425,1686880087.563,-1.465,-354.492,-66.406,44.922,1315.459,375
426,1686880087.566,-7.812,-330.566,-41.992,17.578,1315.463,375
427,1686880087.57,-35.156,-85.938,-55.176,-69.336,1315.467,375
428,1686880087.574,-38.086,-33.691,-74.219,-62.988,1315.471,371
429,1686880087.578,-14.648,-644.531,-78.125,30.273,1315.475,371
430,1686880087.582,-7.324,-389.16,-12.695,41.016,1315.478,371
431,1686880087.586,-27.832,312.988,-37.598,-44.922,1315.482,371
432,1686880087.588,-47.852,58.105,-80.566,-75.195,1315.484,366
433,1686880087.592,-24.414,-266.602,-41.016,0.0,1315.488,366
434,1686880087.596,-4.883,152.832,-22.949,44.434,1315.492,366
435,1686880087.6,-27.344,391.602,-61.035,-23.438,1315.496,361
436,1686880087.604,-48.34,-80.566,-87.402,-85.938,1315.5,361
437,1686880087.608,-33.203,-516.113,-47.852,-32.227,1315.504,361
438,1686880087.611,-9.277,-129.395,-18.555,35.645,1315.508,361
439,1686880087.615,-21.484,334.473,-52.246,-7.812,1315.512,357
440,1686880087.619,-41.504,-129.395,-90.82,-78.613,1315.516,357
441,1686880087.623,-29.297,-719.238,-27.832,-45.41,1315.519,357
442,1686880087.627,-1.465,-39.551,12.207,35.645,1315.523,357
443,1686880087.631,1.953,461.426,-51.758,26.855,1315.527,356
444,1686880087.633,-22.461,-137.207,-91.797,-50.293,1315.529,356
445,1686880087.637,-37.109,-241.211,-41.016,-63.477,1315.533,356
446,1686880087.641,-17.578,295.41,-17.09,6.836,1315.537,357
447,1686880087.645,-13.672,337.891,-57.617,21.484,1315.541,357
448,1686880087.649,-40.527,-71.289,-76.66,-50.781,1315.545,357
449,1686880087.653,-55.176,-314.453,-84.473,-88.867,1315.549,358
450,1686880087.656,-27.832,-199.219,-60.059,-18.555,1315.553,358
451,1686880087.66,-6.348,54.688,-54.688,39.551,1315.556,358
452,1686880087.664,-25.879,-547.852,-96.191,-26.855,1315.56,358
453,1686880087.668,-53.223,-377.441,-35.156,-95.215,1315.564,358
454,1686880087.672,-43.457,321.289,-35.645,-46.387,1315.568,360
455,1686880087.676,-14.648,203.613,-74.219,18.555,1315.572,360
456,1686880087.678,-20.508,-140.625,-71.289,-23.926,1315.574,360
457,1686880087.682,-50.781,-287.109,-73.73,-98.145,1315.578,363
458,1686880087.686,-50.781,64.453,-42.48,-67.383,1315.582,363
459,1686880087.69,-15.625,98.145,-70.312,14.648,1315.586,363
460,1686880087.694,-3.418,-725.098,-102.539,11.23,1315.59,370
461,1686880087.698,-33.203,-584.961,-54.199,-72.754,1315.594,370
462,1686880087.701,-52.734,0.0,-42.48,-87.891,1315.598,370
463,1686880087.705,-27.344,-98.633,-77.637,-3.906,1315.602,370
464,1686880087.709,-12.207,-470.703,-39.062,27.344,1315.605,370
465,1686880087.713,-40.039,147.949,-22.461,-49.805,1315.609,379
466,1686880087.717,-60.059,415.039,-63.477,-88.867,1315.613,379
467,1686880087.721,-34.668,39.551,-82.52,-24.902,1315.617,379
468,1686880087.723,-10.254,184.57,-57.129,23.926,1315.619,388
469,1686880087.727,-24.414,410.156,-53.223,-20.996,1315.623,388
470,1686880087.731,-45.898,105.957,-97.168,-83.984,1315.627,388
471,1686880087.735,-39.062,-454.59,-101.562,-46.875,1315.631,395
472,1686880087.739,-12.695,-102.051,-33.203,23.926,1315.635,395
473,1686880087.743,-17.09,125.977,-53.711,-4.883,1315.639,395
474,1686880087.746,-42.969,-250.977,-87.891,-73.73,1315.643,395
475,1686880087.75,-42.969,-719.238,-82.031,-55.176,1315.647,395
476,1686880087.754,-12.695,-215.82,-14.16,22.949,1315.651,397
477,1686880087.758,0.488,533.203,-26.855,35.156,1315.655,397
478,1686880087.762,-19.531,250.488,-81.055,-41.016,1315.658,397
479,1686880087.766,-35.645,-17.578,-44.922,-64.453,1315.662,398
480,1686880087.768,-21.973,118.164,-36.133,11.23,1315.664,398
481,1686880087.772,-3.906,94.238,-62.012,38.086,1315.668,398
482,1686880087.776,-24.414,-195.801,-80.566,-36.133,1315.672,398
483,1686880087.78,-50.293,-562.5,-38.086,-86.426,1315.676,396
484,1686880087.784,-35.645,-36.621,-34.18,-36.133,1315.68,396
485,1686880087.788,-14.16,224.121,-74.707,33.203,1315.684,396
486,1686880087.791,-22.949,-204.102,-88.379,-8.789,1315.688,396
487,1686880087.795,-47.363,-829.59,-91.797,-84.961,1315.692,396
488,1686880087.799,-38.086,-111.328,-9.277,-62.012,1315.696,396
489,1686880087.803,-7.324,525.391,-48.34,14.648,1315.699,396
490,1686880087.807,-8.789,183.594,-96.191,4.395,1315.703,393
491,1686880087.811,-39.062,199.707,-62.5,-67.383,1315.707,393
492,1686880087.813,-47.363,335.938,-57.617,-60.547,1315.722,393
493,1686880087.817,-21.484,294.922,-66.406,15.625,1315.726,393
494,1686880087.821,-10.254,-21.484,-83.984,27.344,1315.73,386
495,1686880087.825,-31.738,78.613,-62.5,-52.734,1315.734,386
496,1686880087.829,-43.457,233.398,-55.176,-78.125,1315.738,386
497,1686880087.833,-34.18,-127.93,-81.055,-7.812,1315.742,379
498,1686880087.836,-27.344,-671.875,-100.586,29.785,1315.746,379
499,1686880087.84,-36.133,-478.516,-55.664,-39.551,1315.75,379
500,1686880087.844,-41.016,5.859,-37.109,-85.938,1315.754,379
501,1686880087.848,-21.484,55.664,-66.895,-16.113,1315.758,373
502,1686880087.852,3.906,-290.527,-55.664,52.734,1315.762,373
503,1686880087.856,4.883,-32.715,-26.367,23.438,1315.765,373
504,1686880087.858,-22.949,230.469,-59.57,-62.012,1315.769,373
505,1686880087.862,-21.484,-266.113,-77.637,-46.387,1315.772,368
506,1686880087.866,13.672,-595.703,-35.156,48.828,1315.776,368
507,1686880087.87,5.371,128.418,-20.996,33.203,1315.78,368
508,1686880087.874,-27.344,423.34,-70.801,-51.758,1315.784,364
509,1686880087.878,-33.203,-263.184,-87.891,-59.57,1315.788,364
510,1686880087.881,-14.16,-514.648,-26.855,7.812,1315.792,364
511,1686880087.885,0.488,233.887,-14.16,19.531,1315.796,364
512,1686880087.889,-20.508,402.832,-62.012,-51.27,1315.8,358
513,1686880087.893,-42.969,-79.102,-80.566,-78.613,1315.804,358
514,1686880087.897,-14.648,-193.359,-53.711,-15.625,1315.808,358
515,1686880087.901,11.719,159.18,-17.09,23.438,1315.812,358
516,1686880087.905,-8.789,337.891,-55.664,-41.992,1315.813,352
517,1686880087.909,-29.297,-235.84,-111.816,-105.957,1315.817,352
518,1686880087.913,-19.043,-237.305,-53.711,-59.082,1315.821,352
519,1686880087.917,-2.441,342.773,-27.344,16.113,1315.825,349
520,1686880087.921,-15.625,224.121,-83.984,-17.578,1315.828,349
521,1686880087.925,-47.852,-434.57,-101.074,-90.332,1315.832,349
522,1686880087.928,-41.504,-391.113,-45.41,-71.777,1315.836,349
523,1686880087.932,-12.207,229.004,-41.016,4.395,1315.84,348
524,1686880087.936,-23.438,176.758,-86.914,-0.488,1315.844,348
525,1686880087.94,-49.805,-612.305,-93.75,-69.824,1315.848,348
526,1686880087.944,-56.152,-290.039,-28.809,-89.355,1315.852,349
527,1686880087.948,-35.156,312.012,-41.016,-14.16,1315.856,349
528,1686880087.963,-22.949,74.219,-76.172,24.414,1315.859,350
529,1686880087.967,-46.387,-353.516,-64.453,-38.574,1315.863,350
530,1686880087.971,-60.059,-337.402,-52.734,-80.566,1315.867,351
531,1686880087.975,-36.133,176.758,-37.109,-19.531,1315.871,351
532,1686880087.979,-18.555,112.793,-76.66,47.852,1315.875,351
533,1686880087.983,-45.898,-783.691,-88.379,-1.465,1315.879,351
534,1686880087.986,-69.336,-473.633,-17.578,-77.637,1315.883,359
535,1686880087.99,-62.5,325.195,-25.879,-48.828,1315.886,359
536,1686880087.994,-33.691,131.348,-54.688,35.156,1315.89,359
537,1686880087.998,-29.785,-9.766,-33.203,12.207,1315.894,365
538,1686880088.002,-55.176,272.461,-36.133,-83.984,1315.898,365
539,1686880088.006,-61.035,289.062,-54.688,-79.102,1315.902,365
540,1686880088.008,-31.25,42.48,-66.895,4.883,1315.904,365
541,1686880088.012,-23.438,158.203,-47.852,9.766,1315.908,378
542,1686880088.016,-48.34,314.941,-51.758,-74.219,1315.912,378
543,1686880088.02,-53.711,11.23,-79.59,-88.379,1315.916,378
544,1686880088.024,-34.18,-531.25,-93.262,1.953,1315.92,378
545,1686880088.028,-17.09,-467.285,-50.293,40.527,1315.924,392
546,1686880088.031,-24.902,29.297,-21.973,-28.809,1315.928,392
547,1686880088.035,-46.875,114.746,-71.777,-80.566,1315.932,392
548,1686880088.039,-41.016,-608.398,-96.68,-20.508,1315.936,409
549,1686880088.043,-12.207,-215.332,-14.648,39.062,1315.94,409
550,1686880088.047,-13.672,479.98,-34.18,-4.883,1315.943,409
551,1686880088.051,-41.992,173.34,-73.242,-78.613,1315.947,409
552,1686880088.053,-41.504,-156.738,-52.246,-49.316,1315.949,409
553,1686880088.057,-18.555,-115.234,-32.227,33.203,1315.953,423
554,1686880088.061,-8.301,289.551,-34.18,15.137,1315.957,423
555,1686880088.065,-25.879,57.617,-80.566,-65.918,1315.961,423
556,1686880088.069,-38.574,-549.805,-40.039,-62.988,1315.965,434
557,1686880088.073,-16.113,-277.832,-25.879,12.207,1315.969,434
558,1686880088.076,-5.859,33.203,-41.504,21.973,1315.973,434
559,1686880088.08,-32.227,-219.727,-76.66,-51.758,1315.977,434
560,1686880088.084,-45.898,-846.191,-79.102,-74.219,1315.98,444
561,1686880088.088,-20.996,-38.086,4.883,-3.906,1315.984,444
562,1686880088.092,3.418,596.191,-40.039,42.48,1315.988,444
563,1686880088.096,-14.16,162.598,-84.473,-18.555,1315.992,453
564,1686880088.098,-38.086,161.133,-51.27,-76.66,1315.994,453
565,1686880088.102,-17.578,405.762,-29.297,-17.09,1315.998,453
566,1686880088.106,-20.996,385.254,-46.387,23.438,1316.002,453
567,1686880088.11,-55.664,-4.395,-70.312,-47.852,1316.006,460
568,1686880088.114,-70.801,14.648,-51.758,-120.605,1316.01,460
569,1686880088.118,-74.219,-54.688,-37.109,-97.656,1316.014,460
570,1686880088.121,-60.059,-145.508,-40.527,-30.762,1316.018,460
571,1686880088.125,-56.152,-480.957,-81.055,-31.738,1316.021,462
572,1686880088.129,-74.707,-382.324,-22.949,-107.91,1316.025,462
573,1686880088.133,-79.102,104.492,-5.859,-122.559,1316.029,462
574,1686880088.137,-45.41,104.98,-44.434,-25.391,1316.033,460
575,1686880088.141,-28.809,-141.113,-23.438,8.301,1316.037,460
576,1686880088.143,-52.734,52.246,-31.738,-69.336,1316.039,460
577,1686880088.147,-67.871,55.176,-48.828,-104.004,1316.043,460
578,1686880088.151,-45.41,-150.391,-34.668,-32.715,1316.047,454
579,1686880088.155,-22.461,-331.543,-3.418,22.461,1316.051,454
580,1686880088.159,-30.273,184.57,-3.906,-34.18,1316.055,454
581,1686880088.163,-55.664,229.004,-55.664,-97.168,1316.059,454
582,1686880088.166,-55.176,-269.531,-59.57,-49.316,1316.063,444
583,1686880088.17,-23.438,-511.23,-12.207,29.785,1316.067,444
584,1686880088.174,-27.832,225.586,5.859,-3.418,1316.07,444
585,1686880088.178,-57.617,508.789,-51.27,-88.867,1316.074,431
586,1686880088.182,-59.082,74.707,-70.312,-71.777,1316.078,431
587,1686880088.186,-25.391,18.066,-44.922,13.672,1316.082,431
588,1686880088.188,-8.301,328.125,-18.555,3.418,1316.085,431
589,1686880088.192,-39.551,380.859,-42.969,-80.078,1316.089,415
590,1686880088.196,-62.012,-271.484,-86.426,-84.961,1316.093,415
591,1686880088.2,-40.039,-143.066,-27.832,-10.254,1316.097,415
592,1686880088.204,-16.113,422.852,-7.324,20.02,1316.101,415
593,1686880088.208,-35.156,31.738,-81.055,-48.828,1316.104,395
594,1686880088.211,-54.688,-709.961,-97.168,-103.027,1316.108,395
595,1686880088.215,-38.086,-295.41,-7.324,-52.246,1316.112,395
596,1686880088.219,-7.324,442.871,-22.949,14.648,1316.116,376
597,1686880088.223,-20.996,287.109,-68.359,-24.902,1316.12,376
598,1686880088.227,-55.176,-14.16,-41.992,-89.844,1316.124,376
599,1686880088.231,-50.781,175.293,-27.832,-54.199,1316.128,357
600,1686880088.248,-22.461,343.75,-44.922,28.809,1316.144,341
601,1686880088.252,-19.043,-167.969,-79.59,20.02,1316.148,341
602,1686880088.256,-46.875,-822.754,-70.312,-63.965,1316.152,341
603,1686880088.26,-53.223,-210.449,-3.418,-69.824,1316.156,331
604,1686880088.264,-25.879,489.746,-18.066,12.207,1316.16,331
605,1686880088.268,-22.461,4.883,-83.008,34.18,1316.164,331
606,1686880088.271,-54.199,-802.734,-62.5,-45.898,1316.168,331
607,1686880088.275,-66.406,-129.883,2.441,-88.379,1316.172,324
608,1686880088.279,-36.621,467.285,-39.551,-15.625,1316.176,324
609,1686880088.279,-45.41,177.246,-48.34,-48.34,1316.189,324
610,1686880088.283,-16.113,182.617,-71.777,23.438,1316.179,324
611,1686880088.283,-17.09,12.207,-74.219,23.438,1316.193,324
612,1686880088.287,-32.715,136.719,-58.105,-34.668,1316.183,319
613,1686880088.287,-22.949,82.52,-58.594,-17.578,1316.197,319
614,1686880088.291,-57.129,116.211,-43.945,-91.309,1316.187,319
615,1686880088.291,-52.246,223.145,-45.898,-94.238,1316.201,319
616,1686880088.295,-47.852,5.859,-66.406,-62.988,1316.205,319
617,1686880088.299,-20.996,-547.852,-91.309,29.785,1316.209,313
618,1686880088.302,-22.949,-443.848,-45.898,8.789,1316.212,313
619,1686880088.306,-46.875,121.582,-39.062,-89.355,1316.216,313
620,1686880088.31,-61.035,47.363,-81.543,-86.426,1316.22,313
621,1686880088.314,-42.48,-668.945,-85.449,5.859,1316.224,313
622,1686880088.318,-20.02,-224.609,-15.137,25.391,1316.228,311
623,1686880088.322,-38.086,425.293,-38.574,-54.688,1316.232,311
624,1686880088.338,-65.43,50.781,-74.219,-91.309,1316.234,311
625,1686880088.342,-46.387,-340.332,-47.852,-21.484,1316.238,313
626,1686880088.346,-20.996,102.051,-24.414,28.32,1316.242,313
627,1686880088.35,-37.598,437.012,-45.898,-32.715,1316.246,313
628,1686880088.354,-66.895,-55.176,-83.984,-102.051,1316.25,313
629,1686880088.358,-58.105,-639.648,-43.457,-50.293,1316.254,316
630,1686880088.361,-19.531,-258.789,-2.93,30.273,1316.258,316
631,1686880088.365,-26.367,94.727,-45.898,-14.648,1316.261,316
632,1686880088.369,-52.246,-307.129,-89.355,-87.402,1316.265,318
633,1686880088.373,-45.41,-781.738,-37.109,-58.594,1316.269,318
634,1686880088.377,-15.137,29.785,15.625,18.555,1316.273,318
635,1686880088.381,-11.719,443.848,-45.898,19.043,1316.277,318
636,1686880088.383,-44.922,-48.828,-69.824,-66.895,1316.279,319
637,1686880088.387,-54.199,-4.395,-35.156,-84.473,1316.283,319
638,1686880088.391,-23.438,272.461,-27.344,-0.488,1316.287,319
639,1686880088.395,-15.625,204.59,-52.734,27.344,1316.291,319
640,1686880088.399,-43.945,-242.188,-64.941,-51.27,1316.295,322
641,1686880088.403,-66.895,-432.129,-58.594,-96.191,1316.299,322
642,1686880088.406,-49.805,-171.387,-32.227,-31.25,1316.303,322
643,1686880088.41,-25.391,111.816,-45.898,28.32,1316.307,325
644,1686880088.414,-41.504,-543.945,-90.332,-24.414,1316.311,325
645,1686880088.418,-62.5,-557.617,-31.738,-88.867,1316.314,325
646,1686880088.422,-49.316,19.043,-10.742,-43.457,1316.318,325
647,1686880088.426,-23.926,95.215,-44.922,32.715,1316.322,330
648,1686880088.428,-17.578,-387.695,-50.781,10.742,1316.324,330
649,1686880088.432,-41.992,-407.715,-37.598,-68.848,1316.328,330
650,1686880088.436,-54.688,120.605,-24.414,-63.965,1316.332,330
651,1686880088.44,-22.461,90.82,-48.34,21.484,1316.336,334
652,1686880088.444,-9.277,-446.777,-32.715,30.273,1316.34,334
653,1686880088.448,-41.992,-302.246,-24.414,-60.547,1316.344,334
654,1686880088.451,-51.758,27.344,-34.18,-83.008,1316.348,336
655,1686880088.455,-19.531,-106.934,-60.059,4.395,1316.352,336
656,1686880088.459,-10.742,-548.34,-34.18,41.992,1316.355,336
657,1686880088.463,-30.762,79.102,-4.883,-24.902,1316.359,336
658,1686880088.467,-44.922,334.961,-45.898,-70.312,1316.363,336
659,1686880088.471,-23.926,-104.004,-64.453,-8.301,1316.367,337
660,1686880088.473,1.465,-125.0,-48.34,49.805,1316.369,337
661,1686880088.477,-9.277,169.434,-26.367,-5.371,1316.373,337
662,1686880088.481,-27.344,150.391,-65.918,-73.73,1316.377,339
663,1686880088.485,-21.973,-393.066,-96.68,-33.203,1316.381,339
664,1686880088.489,2.441,-227.051,-36.621,48.34,1316.385,339
665,1686880088.493,4.395,27.832,-38.574,28.809,1316.388,342
666,1686880088.496,-20.996,-318.848,-85.938,-54.199,1316.392,342
667,1686880088.5,-27.832,-759.766,-80.078,-51.27,1316.396,342
668,1686880088.504,-0.488,-297.852,-3.418,25.879,1316.4,342
669,1686880088.508,29.297,360.84,-28.809,57.129,1316.404,342
670,1686880088.512,14.16,85.449,-74.707,-9.277,1316.408,345
671,1686880088.516,-27.344,-195.801,-33.203,-62.988,1316.412,345
672,1686880088.518,-11.23,-28.32,-31.738,5.371,1316.414,345
673,1686880088.522,29.297,-41.504,-44.434,66.895,1316.418,347
674,1686880088.526,22.949,-330.566,-65.43,14.648,1316.422,347
675,1686880088.53,-8.301,-808.594,-65.43,-45.41,1316.425,347
676,1686880088.534,11.719,-250.977,-6.836,11.23,1316.429,349
677,1686880088.538,55.664,191.895,-25.879,99.609,1316.433,349
678,1686880088.541,51.758,-217.773,-68.359,71.289,1316.437,349
679,1686880088.545,29.297,-636.719,-38.574,-7.812,1316.441,349
680,1686880088.549,35.156,8.789,6.348,6.348,1316.445,350
681,1686880088.553,58.594,437.5,-24.414,86.914,1316.449,350
682,1686880088.557,60.547,127.93,-58.105,88.379,1316.453,350
683,1686880088.561,36.133,73.242,-41.504,10.254,1316.457,350
684,1686880088.563,24.902,185.059,-20.508,-5.371,1316.488,353
685,1686880088.567,42.969,206.055,-31.738,70.312,1316.492,353
686,1686880088.571,47.852,-72.266,-49.805,96.191,1316.496,353
687,1686880088.575,32.715,-17.09,-33.203,33.203,1316.5,353
688,1686880088.579,20.02,64.453,-33.203,-2.93,1316.504,357
689,1686880088.583,35.645,-220.215,-57.129,61.523,1316.508,357
690,1686880088.586,63.965,-757.324,-77.148,121.582,1316.512,357
691,1686880088.59,50.293,-657.715,-9.277,54.199,1316.516,357
692,1686880088.594,20.996,64.453,-16.602,-17.578,1316.52,360
693,1686880088.598,32.715,12.695,-57.129,37.109,1316.524,360
694,1686880088.602,76.172,-235.352,-16.113,116.699,1316.528,360
695,1686880088.606,80.078,115.234,-15.137,90.332,1316.531,364
696,1686880088.608,49.805,114.258,-59.082,18.066,1316.533,364
697,1686880088.612,46.387,-433.105,-76.172,50.781,1316.537,364
698,1686880088.616,71.289,-741.211,-31.25,138.672,1316.541,364
699,1686880088.62,83.984,-68.848,-3.906,128.906,1316.545,366
700,1686880088.624,58.105,294.922,-46.875,45.898,1316.549,366
701,1686880088.628,36.621,-284.668,-70.801,41.504,1316.553,366
702,1686880088.631,63.477,-496.094,-14.16,123.535,1316.557,367
703,1686880088.635,82.52,88.379,-13.672,161.133,1316.561,367
704,1686880088.639,60.059,33.203,-64.453,90.332,1316.565,367
705,1686880088.643,47.852,-360.84,-62.988,41.016,1316.568,369
706,1686880088.647,70.312,-174.805,-17.578,106.445,1316.572,369
707,1686880088.651,94.238,229.98,-17.578,166.504,1316.576,369
708,1686880088.668,87.891,237.305,-57.129,122.07,1316.564,372
709,1686880088.672,64.941,-423.828,-91.797,67.871,1316.568,372
710,1686880088.676,78.613,-608.887,-3.418,113.281,1316.572,375
711,1686880088.68,110.84,195.801,9.766,179.688,1316.576,375
712,1686880088.684,102.051,247.07,-71.289,147.461,1316.58,375
713,1686880088.688,80.566,-422.852,-68.848,79.59,1316.584,375
714,1686880088.691,87.402,-395.508,-30.273,84.961,1316.588,375
715,1686880088.695,117.188,241.211,-23.926,155.762,1316.592,375
716,1686880088.699,128.418,220.703,-58.105,166.504,1316.595,375
717,1686880088.703,106.445,-542.969,-72.754,84.961,1316.599,375
718,1686880088.707,96.68,-460.449,-38.574,52.734,1316.603,375
719,1686880088.711,126.465,-41.504,-22.949,136.719,1316.607,375
720,1686880088.713,147.461,58.105,-60.059,187.988,1316.61,375
721,1686880088.717,123.047,-771.973,-97.168,128.418,1316.613,376
722,1686880088.721,90.82,-694.824,12.207,69.824,1316.617,376
723,1686880088.725,105.957,251.465,5.371,122.559,1316.621,376
724,1686880088.729,145.996,276.367,-63.477,192.383,1316.625,377
725,1686880088.733,140.625,-80.566,-57.617,152.344,1316.629,377
726,1686880088.736,109.863,-95.703,-32.715,79.102,1316.633,377
727,1686880088.74,115.723,253.418,-43.945,103.027,1316.637,377
728,1686880088.744,143.555,-50.293,-82.52,177.734,1316.641,378
729,1686880088.748,145.508,-556.641,-25.879,168.457,1316.645,378
730,1686880088.752,126.465,38.086,-17.578,101.562,1316.649,378
731,1686880088.756,121.582,273.926,-64.941,95.215,1316.653,379
732,1686880088.758,141.602,-105.469,-83.008,175.293,1316.654,379
733,1686880088.762,158.691,-177.246,-73.242,214.844,1316.658,379
734,1686880088.766,131.836,105.469,-44.922,129.883,1316.662,379
735,1686880088.77,104.492,156.25,-59.57,77.148,1316.666,379
736,1686880088.774,128.418,-393.555,-99.121,146.484,1316.67,379
737,1686880088.778,144.531,-491.699,-69.824,180.664,1316.674,379
738,1686880088.781,127.93,-25.391,-45.41,119.629,1316.678,379
739,1686880088.785,108.398,79.102,-84.961,67.383,1316.682,378
740,1686880088.789,108.887,-607.422,-113.281,111.816,1316.685,378
741,1686880088.793,139.16,-303.711,-36.621,181.152,1316.689,378
742,1686880088.797,137.695,351.562,-40.039,149.414,1316.693,378
743,1686880088.801,107.422,125.488,-85.449,73.73,1316.697,378
744,1686880088.803,114.746,-234.863,-74.219,102.051,1316.699,378
745,1686880088.807,150.879,-236.328,-56.152,188.477,1316.703,378
746,1686880088.811,158.203,171.875,-47.363,173.34,1316.707,378
747,1686880088.815,132.812,-67.871,-95.703,92.773,1316.711,380
748,1686880088.819,113.77,-851.562,-97.168,92.773,1316.715,380
749,1686880088.823,140.137,-553.223,-27.344,179.199,1316.719,380
750,1686880088.826,162.109,132.324,-32.227,204.102,1316.723,380
751,1686880088.83,143.066,-62.5,-92.285,128.906,1316.727,380
752,1686880088.834,122.07,-641.602,-52.246,98.145,1316.731,380
753,1686880088.838,136.719,74.219,-13.184,163.574,1316.734,379
754,1686880088.842,158.691,515.625,-82.52,204.59,1316.738,379
755,1686880088.846,150.391,83.984,-109.863,155.762,1316.742,379
756,1686880088.848,123.535,16.113,-87.402,102.051,1316.744,379
757,1686880088.852,127.93,224.609,-65.918,141.113,1316.748,374
758,1686880088.856,163.574,249.512,-74.219,215.82,1316.752,374
759,1686880088.86,154.297,-45.41,-102.051,187.012,1316.756,374
760,1686880088.864,122.559,-66.406,-98.633,107.91,1316.76,374
761,1686880088.868,129.395,-217.773,-99.609,127.93,1316.764,371
762,1686880088.871,162.109,-291.016,-98.633,207.52,1316.768,371
763,1686880088.875,165.527,-701.172,-128.906,215.82,1316.772,371
764,1686880088.879,142.578,-674.316,-47.363,141.602,1316.776,369
765,1686880088.883,137.695,155.762,-40.527,119.629,1316.779,369
766,1686880088.887,155.762,139.648,-104.98,196.289,1316.783,369
767,1686880088.891,171.387,-2.441,-66.406,227.051,1316.787,369
768,1686880088.893,146.973,122.559,-80.566,147.461,1316.789,368
769,1686880088.897,118.164,-109.863,-109.863,88.867,1316.793,368
770,1686880088.901,128.906,-316.895,-93.262,147.461,1316.797,368
771,1686880088.905,148.438,-556.152,-50.781,217.285,1316.801,368
772,1686880088.909,132.324,-50.293,-55.664,164.551,1316.805,365
773,1686880088.913,112.305,36.133,-115.723,86.426,1316.809,365
774,1686880088.916,123.047,-441.406,-103.516,117.676,1316.813,365
775,1686880088.92,145.02,-615.723,-51.758,187.5,1316.817,365
776,1686880088.924,146.973,47.363,-45.41,172.852,1316.821,365
777,1686880088.928,123.535,98.633,-106.934,94.238,1316.825,365
778,1686880088.932,111.328,-310.059,-107.91,95.703,1316.828,365
779,1686880088.936,136.719,-77.637,-45.898,181.152,1316.832,360
780,1686880088.938,151.855,402.344,-50.293,195.312,1316.848,360
781,1686880088.942,130.371,305.176,-95.215,116.699,1316.852,360
782,1686880088.946,115.723,-98.145,-104.98,93.75,1316.856,360
783,1686880088.95,130.859,106.934,-70.801,169.922,1316.86,360
784,1686880088.954,143.066,382.812,-74.707,211.426,1316.864,360
785,1686880088.958,122.559,-14.648,-113.281,141.602,1316.868,360
786,1686880088.961,94.238,-759.766,-114.746,83.984,1316.872,360
787,1686880088.965,109.375,-412.598,-38.574,136.23,1316.875,367
788,1686880088.969,139.648,373.047,-51.758,205.078,1316.879,367
789,1686880088.973,125.0,218.75,-114.258,156.25,1316.883,367
790,1686880088.977,95.215,-161.133,-94.238,71.777,1316.887,373
791,1686880088.981,94.238,-141.113,-87.891,93.75,1316.891,373
792,1686880088.984,114.258,37.598,-84.961,169.434,1316.893,373
793,1686880088.988,116.211,-110.352,-108.398,166.992,1316.897,387
794,1686880088.992,81.543,-790.039,-113.281,92.773,1316.901,387
795,1686880088.996,72.754,-337.891,-53.711,75.684,1316.905,387
796,1686880089.0,111.816,375.977,-67.383,144.531,1316.909,387
797,1686880089.004,125.977,-51.758,-107.91,174.316,1316.912,387
798,1686880089.007,95.703,-474.121,-46.387,100.098,1316.916,397
799,1686880089.011,78.125,87.402,-43.945,44.922,1316.92,397
800,1686880089.015,94.727,360.84,-92.285,111.816,1316.924,397
801,1686880089.019,108.398,71.289,-92.285,162.109,1316.928,409
802,1686880089.023,87.402,25.879,-76.66,98.145,1316.932,409
803,1686880089.027,65.918,218.75,-82.52,42.969,1316.936,409
804,1686880089.044,72.754,196.777,-89.844,86.914,1316.943,417
805,1686880089.048,91.309,-139.16,-105.957,151.855,1316.947,430
806,1686880089.052,77.148,-232.91,-96.191,122.559,1316.951,430
807,1686880089.056,47.363,68.848,-73.242,36.621,1316.954,430
808,1686880089.06,45.41,184.082,-89.844,40.527,1316.958,441
809,1686880089.064,73.242,-550.781,-130.371,133.301,1316.962,441
810,1686880089.067,90.82,-667.969,-42.969,138.184,1316.966,441
811,1686880089.071,52.734,215.332,-37.109,41.992,1316.97,449
812,1686880089.075,10.254,138.184,-97.168,5.371,1316.974,449
813,1686880089.079,20.996,-206.543,-38.086,73.73,1316.978,449
814,1686880089.083,26.367,146.484,-41.504,97.168,1316.982,449
815,1686880089.087,8.301,294.434,-91.309,15.137,1316.986,456
816,1686880089.088,2.441,-46.875,-101.074,-25.879,1316.984,456
817,1686880089.092,13.184,-412.109,-71.777,43.945,1316.988,456
818,1686880089.096,21.973,4.395,-45.41,91.797,1316.992,456
819,1686880089.1,13.184,306.152,-72.266,38.086,1316.996,458
820,1686880089.104,-8.789,-161.621,-117.676,-15.625,1317.0,458
821,1686880089.108,-0.977,-858.887,-95.703,35.156,1317.004,458
822,1686880089.111,41.504,-452.637,-30.273,107.422,1317.008,458
823,1686880089.115,36.621,345.703,-53.223,70.312,1317.012,457
824,1686880089.119,-0.977,-10.254,-113.281,-6.348,1317.016,457
825,1686880089.123,-9.277,-852.051,-83.008,9.766,1317.02,457
826,1686880089.127,19.043,-89.355,-11.719,88.867,1317.023,457
827,1686880089.131,25.391,443.848,-54.688,93.262,1317.027,455
828,1686880089.133,-5.859,37.109,-99.121,7.812,1317.029,455
829,1686880089.137,-17.578,77.637,-57.617,-20.996,1317.033,455
830,1686880089.141,11.719,343.262,-42.969,52.734,1317.037,449
831,1686880089.145,29.297,362.793,-64.941,94.727,1317.041,449
832,1686880089.149,9.766,-51.27,-85.938,26.855,1317.045,449
833,1686880089.153,-20.02,-259.277,-80.078,-31.738,1317.049,449
834,1686880089.156,-9.766,-98.633,-57.129,26.855,1317.053,440
835,1686880089.16,22.461,60.059,-72.266,88.867,1317.057,440
836,1686880089.164,4.395,-574.219,-115.723,37.109,1317.061,440
837,1686880089.168,-20.996,-623.535,-35.645,-40.039,1317.065,427
838,1686880089.172,-10.254,297.852,-22.461,-12.695,1317.069,427
839,1686880089.176,12.695,376.953,-91.797,62.5,1317.072,427
840,1686880089.178,4.883,56.641,-96.68,43.457,1317.075,427
841,1686880089.182,-28.32,-63.965,-89.844,-38.574,1317.079,411
842,1686880089.186,-38.086,266.602,-69.824,-50.293,1317.083,411
843,1686880089.19,-11.719,219.238,-91.797,27.344,1317.087,411
844,1686880089.194,2.93,-399.902,-72.754,55.176,1317.091,411
845,1686880089.198,-20.996,-235.84,-62.988,-24.902,1317.095,395
846,1686880089.201,-42.969,133.301,-72.754,-70.312,1317.099,395
847,1686880089.205,-31.25,20.508,-84.961,3.906,1317.103,395
848,1686880089.209,-12.207,-402.832,-53.223,59.57,1317.106,381
849,1686880089.213,-22.461,126.465,-40.039,-7.812,1317.11,381
850,1686880089.217,-50.293,158.691,-104.004,-83.496,1317.114,381
851,1686880089.221,-44.434,-180.664,-88.379,-30.762,1317.118,366
852,1686880089.223,-22.949,109.863,-36.621,38.574,1317.119,366
853,1686880089.227,-32.715,505.859,-52.246,-12.207,1317.123,366
854,1686880089.231,-65.918,331.543,-91.797,-92.285,1317.127,366
855,1686880089.235,-69.824,-42.48,-87.402,-74.707,1317.131,366
856,1686880089.239,-39.062,203.125,-50.781,0.977,1317.135,353
857,1686880089.243,-38.086,197.266,-65.43,-7.324,1317.139,353
858,1686880089.246,-69.824,-80.566,-88.379,-86.914,1317.143,353
859,1686880089.25,-74.707,-621.094,-100.586,-90.82,1317.147,340
860,1686880089.254,-48.828,-395.996,-11.719,-10.742,1317.151,340
861,1686880089.258,-49.316,558.594,-28.809,1.465,1317.154,340
862,1686880089.262,-81.055,414.062,-104.492,-83.008,1317.158,340
863,1686880089.266,-98.633,79.59,-79.102,-128.906,1317.162,333
864,1686880089.269,-84.961,124.512,-66.895,-57.617,1317.179,333
865,1686880089.273,-70.801,119.141,-66.895,0.0,1317.182,333
866,1686880089.277,-90.82,-70.312,-91.797,-61.035,1317.186,333
867,1686880089.281,-116.211,-729.004,-98.633,-125.977,1317.19,329
868,1686880089.285,-106.934,-201.172,-32.715,-82.52,1317.194,329
869,1686880089.289,-77.148,429.688,-41.016,-10.742,1317.198,329
870,1686880089.292,-88.379,-27.344,-82.031,-39.062,1317.202,328
871,1686880089.296,-119.141,-523.438,-41.504,-113.281,1317.206,328
872,1686880089.3,-121.582,175.293,-2.441,-110.84,1317.21,328
873,1686880089.304,-96.191,599.609,-39.551,-32.715,1317.214,328
874,1686880089.308,-85.938,292.969,-53.711,-28.809,1317.218,329
875,1686880089.312,-109.863,298.34,-36.621,-116.699,1317.222,329
876,1686880089.313,-130.859,442.383,-24.902,-144.531,1317.223,329
877,1686880089.317,-111.816,441.406,-33.691,-73.242,1317.227,329
878,1686880089.321,-94.238,73.242,-60.059,-39.062,1317.231,330
879,1686880089.325,-116.211,-75.195,-39.551,-99.121,1317.235,330
880,1686880089.329,-146.484,193.848,-13.672,-153.32,1317.238,330
881,1686880089.333,-137.695,75.195,-47.363,-97.656,1317.242,333
882,1686880089.336,-110.352,-499.512,-79.102,-31.738,1317.246,333
883,1686880089.34,-119.141,-362.793,-4.883,-85.938,1317.25,333
884,1686880089.344,-148.926,401.367,12.207,-163.086,1317.254,333
885,1686880089.348,-151.855,369.141,-49.316,-135.742,1317.258,333
886,1686880089.352,-129.883,-344.727,-51.27,-67.383,1317.262,337
887,1686880089.356,-123.535,64.453,-0.977,-91.797,1317.266,337
888,1686880089.358,-145.02,455.566,-37.109,-173.828,1317.268,337
889,1686880089.362,-155.273,-87.891,-53.711,-171.387,1317.272,345
890,1686880089.366,-131.348,-395.508,4.883,-83.984,1317.276,345
891,1686880089.37,-121.582,315.43,23.438,-84.473,1317.28,345
892,1686880089.374,-145.996,628.418,-28.809,-175.293,1317.284,350
893,1686880089.378,-165.527,58.105,-37.598,-197.754,1317.288,350
894,1686880089.381,-151.367,-275.391,9.766,-125.0,1317.292,350
895,1686880089.385,-135.254,167.48,35.156,-91.797,1317.296,350
896,1686880089.389,-156.738,628.906,-3.418,-163.086,1317.3,354
897,1686880089.393,-180.664,76.172,-54.199,-224.609,1317.304,354
898,1686880089.397,-167.48,-450.684,33.203,-161.621,1317.308,354
899,1686880089.401,-136.719,429.199,62.5,-82.52,1317.311,354
900,1686880089.418,-142.09,692.383,-10.742,-124.023,1317.314,356
901,1686880089.422,-182.129,155.762,-31.738,-213.379,1317.318,356
902,1686880089.426,-196.777,220.215,-7.812,-204.102,1317.322,356
903,1686880089.43,-161.621,553.711,11.719,-108.887,1317.326,357
904,1686880089.434,-145.02,498.047,-21.973,-106.445,1317.33,357
905,1686880089.438,-178.711,-164.551,-51.27,-196.289,1317.334,357
906,1686880089.441,-184.082,-131.348,15.625,-209.473,1317.338,357
907,1686880089.445,-145.996,419.434,28.809,-116.699,1317.342,358
908,1686880089.449,-134.277,229.492,-30.762,-89.355,1317.346,358
909,1686880089.453,-164.551,-567.871,-55.664,-169.922,1317.349,358
910,1686880089.457,-179.688,-375.488,44.922,-208.496,1317.353,358
911,1686880089.461,-153.32,524.414,54.199,-142.09,1317.357,359
912,1686880089.463,-133.301,415.039,-9.766,-102.539,1317.359,359
913,1686880089.467,-162.109,-28.32,14.16,-171.875,1317.363,359
914,1686880089.471,-186.523,218.75,39.551,-233.887,1317.367,358
915,1686880089.475,-176.27,527.344,23.438,-181.152,1317.371,358
916,1686880089.479,-153.32,251.953,12.695,-105.957,1317.375,358
917,1686880089.483,-157.715,-260.742,28.809,-145.02,1317.379,358
918,1686880089.486,-183.105,-79.59,40.039,-234.375,1317.383,354
919,1686880089.49,-183.594,442.871,37.109,-226.074,1317.387,354
920,1686880089.494,-162.109,155.273,4.395,-141.602,1317.391,354
921,1686880089.498,-158.203,-375.0,41.504,-138.672,1317.394,354
922,1686880089.502,-188.965,109.863,47.852,-230.469,1317.398,351
923,1686880089.506,-201.66,171.875,7.812,-244.141,1317.402,351
924,1686880089.508,-174.316,-63.477,19.531,-151.855,1317.404,351
925,1686880089.512,-159.668,219.238,49.316,-125.488,1317.408,350
926,1686880089.516,-186.035,586.914,39.551,-215.82,1317.412,350
927,1686880089.52,-205.566,432.129,20.508,-255.371,1317.416,350
928,1686880089.524,-183.105,152.832,33.691,-180.176,1317.42,350
929,1686880089.528,-163.574,71.289,33.691,-130.371,1317.424,351
930,1686880089.531,-185.547,274.902,55.176,-185.547,1317.428,351
931,1686880089.535,-214.844,356.445,27.344,-246.582,1317.432,351
932,1686880089.539,-201.172,-408.203,-12.695,-199.707,1317.436,351
933,1686880089.543,-167.48,-42.969,81.543,-124.512,1317.44,350
934,1686880089.547,-170.41,674.316,54.688,-149.902,1317.443,350
935,1686880089.551,-202.637,244.141,17.578,-231.445,1317.447,350
936,1686880089.554,-202.637,74.707,64.453,-225.586,1317.454,350
937,1686880089.558,-181.152,152.344,57.617,-154.297,1317.458,350
938,1686880089.562,-178.223,253.906,53.711,-160.645,1317.462,350
939,1686880089.566,-209.961,131.836,31.25,-246.094,1317.466,349
940,1686880089.57,-220.215,-621.582,15.137,-251.465,1317.47,349
941,1686880089.574,-194.336,-348.145,77.148,-173.34,1317.473,349
942,1686880089.577,-187.012,530.762,85.449,-145.02,1317.477,349
943,1686880089.581,-203.613,354.98,22.949,-211.914,1317.481,349
944,1686880089.585,-225.586,-314.453,59.57,-258.789,1317.485,350
945,1686880089.589,-210.449,375.977,110.84,-202.637,1317.489,350
946,1686880089.593,-183.105,790.039,59.57,-139.16,1317.493,350
947,1686880089.597,-189.453,381.836,28.32,-188.477,1317.497,352
948,1686880089.598,-214.355,374.023,47.852,-268.066,1317.495,352
949,1686880089.602,-205.078,579.102,69.824,-225.586,1317.499,352
950,1686880089.606,-171.875,596.68,69.336,-140.625,1317.502,352
951,1686880089.61,-179.199,168.945,38.574,-168.945,1317.506,356
952,1686880089.614,-211.426,-5.371,53.223,-256.348,1317.51,356
953,1686880089.618,-221.191,103.027,67.871,-266.602,1317.514,356
954,1686880089.621,-198.242,169.434,52.734,-181.641,1317.518,356
955,1686880089.625,-194.336,-356.445,10.742,-158.691,1317.522,359
956,1686880089.629,-222.656,-520.996,96.68,-245.117,1317.526,359
957,1686880089.633,-219.727,476.074,117.188,-254.395,1317.53,359
958,1686880089.637,-182.617,593.75,58.105,-170.898,1317.534,364
959,1686880089.641,-187.988,378.906,87.891,-171.387,1317.538,364
960,1686880089.643,-218.75,471.68,69.336,-247.559,1317.539,364
961,1686880089.647,-237.305,250.0,57.129,-293.457,1317.543,364
962,1686880089.651,-239.258,32.715,55.664,-247.07,1317.547,364
963,1686880089.655,-223.633,-202.148,76.172,-176.27,1317.551,368
964,1686880089.659,-215.82,312.012,89.844,-208.984,1317.555,368
965,1686880089.663,-250.0,372.559,43.457,-297.363,1317.559,368
966,1686880089.666,-258.789,-88.867,31.738,-282.715,1317.562,374
967,1686880089.67,-224.609,-657.715,43.945,-196.289,1317.566,374
968,1686880089.674,-217.285,118.652,106.934,-194.824,1317.57,374
969,1686880089.678,-228.027,801.758,78.613,-263.672,1317.574,379
970,1686880089.682,-219.727,339.355,41.016,-265.625,1317.578,379
971,1686880089.686,-193.848,437.012,85.449,-188.965,1317.582,379
972,1686880089.688,-176.758,747.07,91.797,-164.551,1317.584,379
973,1686880089.692,-199.707,579.59,50.781,-230.469,1317.588,384
974,1686880089.696,-227.051,139.16,37.109,-273.926,1317.592,384
975,1686880089.7,-208.008,263.184,69.824,-218.75,1317.596,384
976,1686880089.704,-177.246,562.988,76.172,-169.922,1317.6,387
977,1686880089.708,-187.012,246.582,21.973,-220.703,1317.604,387
978,1686880089.711,-215.332,-529.785,-1.953,-275.879,1317.608,387
979,1686880089.715,-202.637,-272.949,98.145,-233.398,1317.611,387
980,1686880089.719,-176.27,539.062,96.68,-156.738,1317.615,387
981,1686880089.723,-194.824,247.559,21.973,-189.453,1317.619,387
982,1686880089.727,-228.027,-283.691,45.41,-267.09,1317.623,387
983,1686880089.731,-230.469,261.719,89.844,-245.605,1317.627,387
984,1686880089.733,-202.637,673.828,58.594,-164.062,1317.644,385
985,1686880089.737,-189.453,113.281,23.438,-160.156,1317.647,385
986,1686880089.741,-212.402,-398.438,42.48,-240.234,1317.651,385
987,1686880089.745,-218.262,221.191,75.195,-268.066,1317.655,385
988,1686880089.749,-188.477,771.973,57.129,-194.824,1317.659,385
989,1686880089.753,-175.293,244.141,12.207,-158.691,1317.663,385
990,1686880089.756,-201.172,-538.574,35.156,-225.586,1317.667,385
991,1686880089.76,-220.703,207.031,91.309,-278.809,1317.671,385
992,1686880089.764,-193.848,770.02,58.594,-210.449,1317.675,385
993,1686880089.768,-169.922,475.098,34.18,-153.809,1317.679,385
994,1686880089.772,-178.711,508.789,42.48,-205.566,1317.683,385
995,1686880089.776,-201.66,436.523,45.41,-256.348,1317.687,385
996,1686880089.78,-200.195,359.375,64.453,-218.262,1317.688,385
997,1686880089.784,-172.363,212.891,41.504,-138.672,1317.692,385
998,1686880089.788,-165.039,276.367,69.336,-156.738,1317.695,382
999,1686880089.792,-190.918,589.844,81.543,-241.211,1317.699,382
1000,1686880089.796,-207.52,456.543,52.246,-239.746,1317.703,382
1001,1686880089.8,-171.875,-20.508,44.434,-148.926,1317.707,382
1002,1686880089.803,-157.715,94.238,82.52,-136.719,1317.711,377
1003,1686880089.807,-185.059,587.402,82.031,-232.91,1317.715,377
1004,1686880089.811,-206.055,401.367,36.133,-258.789,1317.719,377
1005,1686880089.815,-189.453,-277.832,25.391,-170.898,1317.723,372
1006,1686880089.819,-175.781,163.574,83.008,-136.23,1317.727,372
1007,1686880089.823,-192.871,744.629,68.848,-198.73,1317.731,372
1008,1686880089.839,-200.195,381.348,27.344,-244.141,1317.737,369
1009,1686880089.843,-183.105,-88.379,57.129,-187.5,1317.741,369
1010,1686880089.847,-159.668,134.277,89.355,-120.605,1317.745,366
1011,1686880089.851,-162.109,632.812,77.637,-165.527,1317.749,366
1012,1686880089.855,-189.453,376.953,19.531,-242.676,1317.753,366
1013,1686880089.859,-194.824,-750.977,17.09,-211.914,1317.757,364
1014,1686880089.862,-171.387,-281.25,122.07,-147.461,1317.761,364
1015,1686880089.866,-177.246,828.125,94.238,-169.922,1317.765,364
1016,1686880089.87,-198.73,503.906,27.832,-242.188,1317.769,360
1017,1686880089.874,-196.777,307.129,75.195,-238.281,1317.773,360
1018,1686880089.878,-172.363,650.879,86.914,-154.785,1317.777,360
1019,1686880089.882,-161.133,675.781,47.363,-136.23,1317.78,360
1020,1686880089.883,-180.176,336.914,24.902,-205.078,1317.779,360
1021,1686880089.887,-195.312,310.059,51.27,-235.352,1317.783,354
1022,1686880089.891,-177.734,580.566,67.383,-168.945,1317.787,354
1023,1686880089.895,-154.297,609.375,53.711,-115.234,1317.791,354
1024,1686880089.899,-168.945,130.371,23.438,-175.781,1317.795,349
1025,1686880089.903,-189.453,-130.371,37.109,-243.652,1317.799,349
1026,1686880089.906,-175.293,60.059,83.008,-185.547,1317.803,349
1027,1686880089.91,-144.531,452.148,79.102,-104.004,1317.807,344
1028,1686880089.914,-150.879,-234.863,0.0,-138.672,1317.811,344
1029,1686880089.918,-184.57,-523.926,86.426,-220.215,1317.815,344
1030,1686880089.922,-187.012,519.531,112.793,-207.52,1317.819,344
1031,1686880089.926,-156.25,688.477,46.875,-128.906,1317.822,341
1032,1686880089.928,-150.391,344.727,51.758,-131.348,1317.824,341
1033,1686880089.932,-184.082,176.27,48.34,-208.496,1317.828,341
1034,1686880089.936,-193.848,480.957,62.5,-218.75,1317.832,341
1035,1686880089.94,-161.133,449.707,32.715,-128.418,1317.836,336
1036,1686880089.944,-141.113,-106.445,47.363,-97.168,1317.84,336
1037,1686880089.948,-165.039,56.152,65.43,-177.734,1317.844,336
1038,1686880089.951,-190.918,340.332,60.547,-213.379,1317.848,336
1039,1686880089.955,-176.758,218.262,40.039,-139.648,1317.852,332
1040,1686880089.959,-156.25,-505.859,29.297,-77.637,1317.856,332
1041,1686880089.963,-165.039,224.121,90.82,-136.719,1317.859,332
1042,1686880089.967,-183.105,832.52,50.293,-208.984,1317.863,328
1043,1686880089.971,-177.246,328.613,14.16,-167.969,1317.867,328
1044,1686880089.973,-151.367,527.344,59.57,-103.027,1317.869,328
1045,1686880089.977,-153.32,839.844,58.594,-130.371,1317.873,328
1046,1686880089.981,-186.035,638.672,26.367,-205.078,1317.877,326
1047,1686880089.985,-185.059,224.121,25.879,-196.289,1317.881,326
1048,1686880089.989,-145.508,378.418,67.871,-112.793,1317.885,326
1049,1686880089.993,-135.254,452.637,59.57,-100.586,1317.889,326
1050,1686880089.996,-161.621,186.523,34.18,-173.34,1317.893,325
1051,1686880090.0,-171.875,-308.594,26.367,-190.43,1317.896,325
1052,1686880090.004,-150.391,39.551,98.145,-120.117,1317.9,325
1053,1686880090.008,-129.883,780.273,73.242,-90.332,1317.904,326
1054,1686880090.012,-151.855,330.566,3.418,-168.945,1317.908,326
1055,1686880090.016,-176.27,-84.473,38.086,-214.355,1317.912,326
1056,1686880090.018,-159.18,352.539,58.105,-146.973,1317.914,326
1057,1686880090.022,-135.742,577.637,44.922,-80.566,1317.918,325
1058,1686880090.026,-145.508,382.324,28.32,-118.164,1317.922,325
1059,1686880090.03,-170.898,-123.047,47.852,-186.523,1317.926,325
1060,1686880090.034,-162.109,347.656,77.148,-157.715,1317.93,325
1061,1686880090.038,-128.906,660.645,39.551,-81.543,1317.934,324
1062,1686880090.041,-126.953,194.824,24.902,-103.516,1317.938,324
1063,1686880090.045,-159.18,-290.039,52.246,-186.035,1317.942,324
1064,1686880090.049,-175.293,449.707,100.586,-198.73,1317.946,322
1065,1686880090.053,-150.879,970.703,64.453,-114.258,1317.949,322
1066,1686880090.057,-135.742,634.277,23.926,-97.168,1317.953,322
1067,1686880090.061,-162.109,599.609,42.48,-183.105,1317.957,324
1068,1686880090.064,-170.898,521.973,45.898,-211.426,1317.962,324
1069,1686880090.068,-135.742,377.441,41.016,-132.324,1317.966,324
1070,1686880090.072,-111.816,241.699,28.32,-80.078,1317.97,324
1071,1686880090.076,-134.277,414.062,52.246,-148.438,1317.974,324
1072,1686880090.08,-165.527,670.41,44.922,-214.355,1317.978,326
1073,1686880090.084,-156.25,379.395,15.137,-159.668,1317.981,326
1074,1686880090.087,-133.301,-131.348,9.766,-86.426,1317.985,326
1075,1686880090.091,-121.582,122.559,70.312,-118.652,1317.989,330
1076,1686880090.095,-126.465,769.531,64.453,-179.688,1317.993,330
1077,1686880090.099,-142.09,594.238,24.414,-161.133,1317.997,330
1078,1686880090.103,-122.559,410.645,66.406,-83.008,1318.001,330
1079,1686880090.107,-105.957,699.707,69.336,-78.125,1318.005,332
1080,1686880090.108,-136.719,690.918,30.762,-152.832,1318.019,332
1081,1686880090.112,-151.855,124.512,6.836,-161.133,1318.023,332
1082,1686880090.116,-119.141,-372.07,31.738,-80.078,1318.027,332
1083,1686880090.12,-97.656,183.594,63.965,-52.734,1318.031,333
1084,1686880090.124,-111.328,726.562,46.387,-129.395,1318.034,333
1085,1686880090.128,-131.836,285.156,3.906,-178.223,1318.038,333
1086,1686880090.131,-122.559,-569.336,4.883,-115.723,1318.042,335
1087,1686880090.135,-105.957,190.918,89.355,-78.613,1318.046,335
1088,1686880090.139,-118.652,950.684,37.109,-145.02,1318.05,335
1089,1686880090.143,-146.973,489.746,-7.812,-206.543,1318.054,335
1090,1686880090.147,-136.23,512.207,49.316,-158.203,1318.058,337
1091,1686880090.151,-95.215,848.633,51.758,-75.195,1318.062,337
1092,1686880090.154,-98.633,751.465,24.414,-103.516,1318.064,337
1093,1686880090.158,-135.254,336.426,11.23,-182.617,1318.068,337
1094,1686880090.162,-136.23,385.742,43.457,-163.086,1318.072,340
1095,1686880090.166,-105.469,750.977,55.664,-76.66,1318.076,340
1096,1686880090.17,-99.609,658.691,14.16,-72.754,1318.08,340
1097,1686880090.174,-124.512,18.555,-2.441,-152.344,1318.083,343
1098,1686880090.177,-131.348,-89.844,26.855,-172.363,1318.087,343
1099,1686880090.181,-109.863,269.531,44.434,-100.586,1318.091,343
1100,1686880090.185,-95.215,559.082,25.879,-69.336,1318.095,343
1101,1686880090.189,-123.047,-186.035,-34.668,-129.883,1318.099,344
1102,1686880090.193,-143.066,-235.84,48.34,-174.316,1318.103,344
1103,1686880090.197,-115.723,743.164,69.336,-111.816,1318.107,344
1104,1686880090.213,-85.449,673.828,7.324,-40.039,1318.109,344
1105,1686880090.217,-102.051,154.297,16.602,-98.633,1318.113,344
1106,1686880090.221,-139.16,349.121,30.273,-185.547,1318.117,344
1107,1686880090.225,-131.836,645.508,21.484,-147.949,1318.121,344
1108,1686880090.229,-91.797,400.391,1.953,-65.918,1318.125,345
1109,1686880090.233,-98.633,-280.762,17.578,-87.891,1318.129,345
1110,1686880090.236,-126.465,39.062,52.734,-169.434,1318.133,345
1111,1686880090.24,-117.676,651.367,39.551,-158.203,1318.137,345
1112,1686880090.244,-96.68,230.957,-2.441,-70.801,1318.141,347
1113,1686880090.248,-90.332,-472.168,14.648,-62.5,1318.145,347
1114,1686880090.252,-115.723,348.633,63.965,-156.25,1318.148,347
1115,1686880090.256,-137.695,798.34,11.719,-185.059,1318.152,348
1116,1686880090.259,-122.559,350.098,-10.742,-99.121,1318.156,348
1117,1686880090.263,-105.469,502.441,20.996,-63.477,1318.16,348
1118,1686880090.267,-118.164,688.477,20.02,-133.789,1318.164,348
1119,1686880090.271,-134.277,479.004,-0.977,-180.664,1318.168,349
1120,1686880090.275,-125.977,149.414,-7.324,-125.977,1318.172,349
1121,1686880090.279,-103.027,67.871,3.906,-61.035,1318.176,349
1122,1686880090.282,-98.145,228.027,18.555,-104.004,1318.18,350
1123,1686880090.286,-111.816,395.996,3.418,-164.062,1318.183,350
1124,1686880090.29,-119.629,-253.906,-43.457,-129.395,1318.187,350
1125,1686880090.294,-104.004,-44.434,34.668,-67.871,1318.191,350
1126,1686880090.298,-89.355,660.156,33.203,-76.66,1318.195,352
1127,1686880090.302,-110.84,192.383,-21.484,-141.602,1318.199,352
1128,1686880090.303,-129.883,-301.758,15.625,-142.09,1318.199,352
1129,1686880090.307,-105.957,68.848,49.316,-70.312,1318.203,352
1130,1686880090.311,-85.938,608.398,17.578,-72.266,1318.207,357
1131,1686880090.315,-108.887,368.652,-14.648,-154.297,1318.211,357
1132,1686880090.319,-127.93,27.832,19.531,-179.199,1318.215,357
1133,1686880090.323,-102.051,70.312,27.832,-108.398,1318.219,362
1134,1686880090.326,-73.242,367.676,42.48,-61.523,1318.223,362
1135,1686880090.33,-86.914,256.836,-3.418,-118.652,1318.227,362
1136,1686880090.334,-113.77,-724.609,-17.09,-165.527,1318.231,362
1137,1686880090.338,-93.75,25.879,69.824,-113.77,1318.234,362
1138,1686880090.342,-62.5,845.215,47.852,-51.758,1318.238,366
1139,1686880090.346,-68.848,445.312,-11.719,-89.844,1318.242,366
1140,1686880090.349,-98.145,296.875,-8.789,-162.109,1318.248,366
1141,1686880090.353,-102.051,236.816,7.812,-145.996,1318.252,369
1142,1686880090.357,-78.125,360.84,23.926,-68.848,1318.256,369
1143,1686880090.361,-78.613,134.766,-18.066,-63.477,1318.26,369
1144,1686880090.365,-101.074,117.188,9.766,-132.812,1318.264,372
1145,1686880090.369,-104.98,172.852,20.996,-134.766,1318.268,372
1146,1686880090.372,-83.008,66.895,3.418,-60.547,1318.271,372
1147,1686880090.376,-71.777,-252.93,-23.926,-44.922,1318.275,372
1148,1686880090.38,-95.215,-98.145,30.762,-124.512,1318.279,376
1149,1686880090.384,-120.605,559.082,28.809,-170.898,1318.283,376
1150,1686880090.388,-102.051,385.254,-13.184,-103.027,1318.287,376
1151,1686880090.392,-76.172,199.219,29.785,-46.387,1318.291,376
1152,1686880090.393,-92.773,297.852,3.906,-104.004,1318.289,380
1153,1686880090.397,-114.258,117.676,-17.09,-169.434,1318.293,380
1154,1686880090.401,-109.863,-83.008,-3.418,-128.906,1318.297,380
1155,1686880090.405,-83.984,-441.406,6.348,-48.828,1318.301,385
1156,1686880090.409,-85.938,-111.328,15.625,-68.848,1318.305,385
1157,1686880090.413,-119.141,155.762,1.953,-151.367,1318.309,385
1158,1686880090.416,-120.605,-29.785,-6.836,-136.23,1318.313,385
1159,1686880090.42,-94.727,-625.977,-19.043,-50.781,1318.317,385
1160,1686880090.424,-84.961,3.906,39.062,-66.895,1318.321,388
1161,1686880090.428,-106.934,713.867,5.371,-152.344,1318.325,388
1162,1686880090.432,-129.395,293.457,-34.18,-163.574,1318.328,388
1163,1686880090.436,-105.469,362.305,10.742,-84.473,1318.332,390
1164,1686880090.438,-78.613,646.484,16.113,-38.574,1318.35,390
1165,1686880090.442,-103.516,454.102,-14.648,-114.258,1318.354,390
1166,1686880090.446,-125.488,38.574,-26.367,-170.41,1318.358,390
1167,1686880090.45,-104.004,204.59,10.742,-101.074,1318.362,392
1168,1686880090.454,-70.312,445.312,14.16,-39.062,1318.366,392
1169,1686880090.458,-78.125,71.777,-38.086,-90.82,1318.37,392
1170,1686880090.461,-108.887,-697.266,-69.336,-156.25,1318.374,392
1171,1686880090.465,-97.656,-550.781,42.48,-115.723,1318.378,395
1172,1686880090.469,-69.824,438.477,52.734,-50.781,1318.382,395
1173,1686880090.473,-79.59,429.688,-20.996,-73.73,1318.385,395
1174,1686880090.477,-104.98,-98.145,8.301,-150.879,1318.389,398
1175,1686880090.481,-107.422,134.766,33.691,-145.508,1318.393,398
1176,1686880090.483,-83.984,378.906,4.395,-49.316,1318.394,398
1177,1686880090.487,-72.754,-39.551,-24.902,-28.809,1318.397,398
1178,1686880090.491,-93.75,-577.637,-5.371,-110.84,1318.401,401
1179,1686880090.495,-108.887,-52.734,31.25,-145.508,1318.405,401
1180,1686880090.499,-83.496,515.625,9.766,-67.383,1318.409,401
1181,1686880090.503,-66.406,48.828,-31.738,-24.414,1318.413,401
1182,1686880090.506,-91.797,-505.859,8.301,-87.891,1318.417,402
1183,1686880090.51,-106.934,48.828,44.434,-139.648,1318.421,402
1184,1686880090.514,-85.449,386.719,7.324,-76.66,1318.425,402
1185,1686880090.518,-58.105,-76.172,-10.254,-3.906,1318.429,403
1186,1686880090.522,-70.801,-316.895,31.738,-47.363,1318.433,403
1187,1686880090.526,-101.562,198.73,29.785,-127.93,1318.436,403
1188,1686880090.543,-100.098,333.984,-1.465,-103.027,1318.44,403
1189,1686880090.547,-71.777,7.812,-20.508,-15.137,1318.443,405
1190,1686880090.551,-68.848,130.859,2.93,-22.949,1318.447,405
1191,1686880090.555,-98.145,311.035,13.184,-111.816,1318.451,405
1192,1686880090.559,-104.492,123.047,-16.113,-114.746,1318.455,407
1193,1686880090.563,-82.52,-393.066,-25.391,-24.902,1318.459,407
1194,1686880090.566,-74.219,-314.453,15.625,-11.23,1318.463,407
1195,1686880090.57,-90.82,218.75,24.902,-93.262,1318.467,407
1196,1686880090.574,-110.84,77.637,-20.508,-138.672,1318.471,408
1197,1686880090.578,-93.262,-640.137,-35.645,-67.383,1318.475,408
1198,1686880090.582,-70.312,-243.652,37.598,-19.531,1318.479,408
1199,1686880090.586,-91.309,251.953,21.484,-85.938,1318.483,408
1200,1686880090.588,-116.211,-290.039,-30.762,-144.043,1318.486,408
1201,1686880090.592,-100.586,-859.375,-19.531,-92.285,1318.49,408
1202,1686880090.596,-62.5,-192.871,61.523,-15.137,1318.494,408
1203,1686880090.6,-64.453,440.918,24.414,-50.781,1318.498,408
1204,1686880090.604,-98.145,80.566,-23.438,-132.812,1318.502,408
1205,1686880090.608,-96.191,-248.535,6.836,-107.91,1318.505,408
1206,1686880090.611,-64.941,-127.441,37.598,-13.184,1318.509,408
1207,1686880090.615,-57.617,361.816,39.062,-22.949,1318.513,408
1208,1686880090.619,-87.402,19.531,-23.438,-101.074,1318.517,408
1209,1686880090.623,-102.051,-640.137,9.766,-103.516,1318.521,408
1210,1686880090.627,-69.336,145.02,63.965,-32.227,1318.525,410
1211,1686880090.631,-53.223,527.832,13.672,-10.742,1318.529,410
1212,1686880090.634,-80.566,73.73,-11.719,-83.496,1318.533,410
1213,1686880090.638,-101.562,-0.977,4.883,-116.699,1318.537,410
1214,1686880090.642,-69.336,26.855,34.668,-47.363,1318.541,410
1215,1686880090.646,-10.742,177.246,75.684,31.25,1318.545,410
1216,1686880090.65,-10.254,-132.324,25.879,-5.859,1318.548,410
1217,1686880090.654,-40.527,-424.805,40.039,-77.148,1318.552,410
1218,1686880090.657,-39.551,-37.109,95.703,-43.457,1318.556,411
1219,1686880090.661,-13.184,334.961,58.594,25.391,1318.56,411
1220,1686880090.665,-12.695,-388.672,-1.465,10.742,1318.564,411
1221,1686880090.669,-42.48,-499.512,85.938,-72.266,1318.568,410
1222,1686880090.673,-49.805,354.98,89.355,-73.73,1318.572,410
1223,1686880090.677,-25.879,345.703,30.273,12.207,1318.576,410
1224,1686880090.678,-25.391,4.883,29.785,10.254,1318.574,410
1225,1686880090.682,-56.641,-97.168,37.109,-74.219,1318.578,410
1226,1686880090.686,-72.754,235.84,55.176,-95.215,1318.582,409
1227,1686880090.69,-59.082,165.039,21.484,-21.973,1318.586,409
1228,1686880090.694,-55.664,-460.449,40.039,6.836,1318.59,409
1229,1686880090.698,-76.172,-270.996,51.27,-67.383,1318.594,410
1230,1686880090.701,-100.586,17.09,25.391,-120.117,1318.598,410
1231,1686880090.705,-86.426,-104.492,9.766,-67.871,1318.601,410
1232,1686880090.709,-60.059,-704.59,-8.301,-7.812,1318.605,410
1233,1686880090.713,-62.988,-102.539,48.828,-58.594,1318.609,410
1234,1686880090.717,-91.797,553.711,23.926,-122.559,1318.613,410
1235,1686880090.721,-98.145,176.27,-20.02,-86.914,1318.617,410
1236,1686880090.723,-64.453,292.969,11.23,-14.16,1318.619,410
1237,1686880090.727,-58.594,534.18,9.277,-30.762,1318.623,411
1238,1686880090.731,-82.031,292.48,-11.23,-109.375,1318.627,411
1239,1686880090.735,-88.379,-45.41,-7.812,-108.887,1318.631,411
1240,1686880090.739,-60.547,118.164,10.742,-28.809,1318.635,411
1241,1686880090.743,-51.758,74.219,-4.883,-11.23,1318.639,411
1242,1686880090.746,-76.172,-68.359,-22.461,-87.402,1318.643,411
1243,1686880090.75,-90.82,-623.535,-56.641,-117.676,1318.647,410
1244,1686880090.754,-72.266,-598.633,34.668,-47.363,1318.651,410
1245,1686880090.758,-47.363,484.375,42.969,-7.324,1318.654,410
1246,1686880090.762,-62.012,437.988,-25.391,-66.406,1318.658,410
1247,1686880090.766,-93.75,45.898,11.23,-130.371,1318.662,409
1248,1686880090.768,-84.961,199.707,18.555,-77.637,1318.664,409
1249,1686880090.772,-54.688,217.773,-7.324,-8.301,1318.668,409
1250,1686880090.776,-66.895,-22.949,-32.227,-46.875,1318.672,409
1251,1686880090.78,-91.797,-509.766,-20.02,-109.863,1318.676,409
1252,1686880090.784,-85.449,-60.059,17.578,-83.984,1318.68,409
1253,1686880090.788,-56.641,287.109,5.859,-6.836,1318.684,409
1254,1686880090.791,-49.805,-82.52,-18.555,-12.207,1318.688,409
1255,1686880090.795,-83.984,-540.527,0.488,-92.285,1318.692,409
1256,1686880090.799,-96.68,121.094,36.133,-105.957,1318.695,409
1257,1686880090.803,-65.918,583.008,-5.371,-20.508,1318.699,409
1258,1686880090.807,-47.363,115.723,-22.949,4.395,1318.703,410
1259,1686880090.811,-69.824,-26.855,17.09,-83.496,1318.707,410
1260,1686880090.813,-95.703,344.238,19.043,-127.441,1318.723,410
1261,1686880090.817,-74.707,416.992,-5.371,-49.805,1318.727,410
1262,1686880090.821,-49.805,79.59,-22.461,5.371,1318.731,409
1263,1686880090.825,-69.336,168.457,-11.719,-62.5,1318.735,409
1264,1686880090.829,-92.773,288.086,-10.742,-116.211,1318.739,409
1265,1686880090.833,-78.613,17.09,-28.32,-51.758,1318.743,409
1266,1686880090.836,-50.293,-482.91,-47.363,21.973,1318.747,407
1267,1686880090.84,-58.594,-307.617,11.719,-23.926,1318.751,407
1268,1686880090.844,-85.938,370.605,8.789,-110.84,1318.754,407
1269,1686880090.848,-82.52,283.203,-26.367,-92.773,1318.758,406
1270,1686880090.852,-56.152,104.004,5.859,-9.766,1318.762,406
1271,1686880090.856,-45.41,352.539,9.766,-3.418,1318.766,406
1272,1686880090.859,-64.941,263.184,-23.926,-80.566,1318.767,406
1273,1686880090.863,-77.637,-211.426,-37.109,-90.332,1318.771,405
1274,1686880090.867,-51.758,-797.363,-39.551,-6.348,1318.775,405
1275,1686880090.871,-31.25,-135.742,33.203,13.672,1318.779,405
1276,1686880090.875,-54.688,569.336,7.812,-63.477,1318.783,405
1277,1686880090.879,-74.219,-57.617,-41.992,-94.727,1318.787,406
1278,1686880090.882,-56.152,-448.242,29.297,-29.297,1318.791,406
1279,1686880090.886,-38.574,347.168,46.387,20.996,1318.795,406
1280,1686880090.89,-55.176,634.766,-14.648,-32.715,1318.799,406
1281,1686880090.894,-77.637,123.047,-45.41,-108.398,1318.803,406
1282,1686880090.898,-75.684,71.289,-3.418,-83.496,1318.807,406
1283,1686880090.902,-59.082,439.453,15.625,-7.812,1318.81,404
1284,1686880090.904,-57.617,398.926,-24.414,-26.855,1318.814,404
1285,1686880090.908,-81.543,-13.672,-54.688,-100.098,1318.818,404
1286,1686880090.912,-80.078,-22.949,-29.297,-81.543,1318.822,404
1287,1686880090.916,-52.734,91.309,-8.789,-1.953,1318.826,404
1288,1686880090.92,-36.621,279.785,-12.695,7.812,1318.83,402
1289,1686880090.924,-57.617,-355.469,-80.078,-59.57,1318.834,402
1290,1686880090.927,-75.684,-633.301,7.324,-84.473,1318.838,402
1291,1686880090.931,-46.387,371.582,41.992,-12.207,1318.842,401
1292,1686880090.935,-28.809,505.371,-31.25,26.367,1318.846,401
1293,1686880090.939,-57.617,36.621,-32.715,-40.527,1318.849,401
1294,1686880090.943,-78.613,189.453,-16.602,-89.844,1318.853,401
1295,1686880090.947,-58.594,473.145,-17.09,-38.574,1318.857,401
