,timestamps,TP9,AF7,AF8,TP10,Secondary Timestamp,emg_signal
0,1685917474.945,-56.152,255.859,11.719,-47.852,19225.045,312
1,1685917474.949,17.578,387.207,69.336,-21.484,19225.049,312
2,1685917474.953,40.527,185.547,-45.898,-13.184,19225.053,312
3,1685917474.957,-32.715,89.355,-40.039,-37.109,19225.057,312
4,1685917474.961,-70.312,195.312,7.812,-48.34,19225.061,312
5,1685917474.965,-4.883,93.75,-116.211,-22.949,19225.065,312
6,1685917474.968,30.762,-475.586,-352.539,-5.371,19225.069,311
7,1685917474.972,-29.297,-730.957,-397.461,-31.738,19225.073,311
8,1685917474.976,-83.008,2.93,-13.184,-50.293,19225.076,311
9,1685917474.98,-39.062,284.18,49.316,-34.18,19225.08,310
10,1685917474.984,20.508,-104.98,-122.07,-20.508,19225.084,310
11,1685917474.988,-8.789,-68.359,-50.781,-32.227,19225.088,310
12,1685917474.991,-43.945,245.117,26.367,-25.391,19225.104,310
13,1685917474.995,-63.477,-175.781,-252.441,-24.414,19225.108,311
14,1685917474.998,0.977,-273.926,-174.805,-7.324,19225.112,311
15,1685917475.002,34.18,198.73,54.199,-13.672,19225.116,311
16,1685917475.006,-26.367,390.137,29.785,-25.879,19225.12,311
17,1685917475.01,-73.242,34.18,-188.477,-28.32,19225.124,313
18,1685917475.014,-27.832,-805.176,-503.418,-28.809,19225.128,313
19,1685917475.018,25.879,-401.855,-163.574,-27.344,19225.131,313
20,1685917475.021,-10.742,428.223,111.328,-39.062,19225.137,314
21,1685917475.025,-68.848,8.789,-181.152,-42.48,19225.141,314
22,1685917475.029,-18.555,-97.656,-172.363,-16.602,19225.145,314
23,1685917475.033,25.879,363.281,94.238,-20.02,19225.149,314
24,1685917475.037,-24.902,445.801,44.434,-43.945,19225.153,313
25,1685917475.041,-93.262,-309.082,-290.527,-35.645,19225.157,313
26,1685917475.044,-83.496,-607.91,-375.0,-21.484,19225.161,313
27,1685917475.048,-0.977,155.762,-16.602,-14.16,19225.165,313
28,1685917475.052,4.395,390.625,68.359,-18.066,19225.169,312
29,1685917475.056,-71.289,-226.562,-197.754,-27.832,19225.172,312
30,1685917475.06,-83.008,-298.828,-164.551,-27.344,19225.176,312
31,1685917475.064,-12.207,215.82,36.621,-17.578,19225.18,312
32,1685917475.081,15.137,138.672,-59.57,-19.531,19225.18,313
33,1685917475.085,-49.316,-548.828,-410.156,-29.297,19225.183,313
34,1685917475.089,-85.449,-549.805,-279.785,-35.156,19225.187,314
35,1685917475.093,-25.391,259.766,97.168,-20.996,19225.191,314
36,1685917475.097,20.996,260.742,-30.273,-2.93,19225.195,314
37,1685917475.101,-23.438,-366.211,-279.297,-14.16,19225.199,314
38,1685917475.104,-78.125,-398.926,-268.555,-35.645,19225.203,314
39,1685917475.108,-46.387,195.801,-27.832,-30.762,19225.207,314
40,1685917475.112,21.484,145.508,-57.129,-18.555,19225.211,314
41,1685917475.116,-3.418,-391.602,-277.344,-30.762,19225.215,314
42,1685917475.12,-86.914,-139.648,-119.141,-45.41,19225.219,313
43,1685917475.124,-79.59,249.023,23.926,-34.668,19225.223,313
44,1685917475.125,-4.395,51.758,-89.355,-21.973,19225.225,313
45,1685917475.129,15.137,42.48,-84.961,-29.297,19225.229,313
46,1685917475.133,-55.176,169.434,0.488,-52.734,19225.232,312
47,1685917475.137,-80.078,-72.754,-208.496,-41.504,19225.236,312
48,1685917475.141,-10.742,-412.109,-314.941,-18.555,19225.24,312
49,1685917475.145,20.996,-510.742,-296.387,-25.879,19225.244,312
50,1685917475.148,-25.391,-146.484,-201.172,-39.551,19225.248,312
51,1685917475.152,-74.707,168.457,-135.742,-46.387,19225.252,312
52,1685917475.156,-38.574,-397.949,-334.473,-29.297,19225.256,312
53,1685917475.16,18.555,-599.121,-260.742,-23.926,19225.26,313
54,1685917475.164,-7.324,268.066,78.613,-36.133,19225.264,313
55,1685917475.168,-73.242,168.945,-52.734,-39.062,19225.268,313
56,1685917475.171,-51.758,-91.797,-176.27,-27.832,19225.27,313
57,1685917475.175,19.043,-24.902,-85.938,-11.23,19225.273,314
58,1685917475.179,7.324,126.953,28.32,-28.32,19225.277,314
59,1685917475.183,-68.848,168.457,-64.941,-46.387,19225.281,314
60,1685917475.187,-74.707,-456.543,-332.52,-25.879,19225.285,314
61,1685917475.191,2.441,-431.152,-243.164,-10.254,19225.289,313
62,1685917475.194,10.254,-24.414,-165.039,-20.508,19225.293,313
63,1685917475.198,-56.152,-111.816,-241.699,-34.18,19225.297,313
64,1685917475.202,-88.379,-770.508,-474.609,-32.227,19225.301,312
65,1685917475.206,-27.344,-544.434,-262.695,-20.02,19225.305,312
66,1685917475.21,30.273,452.637,145.996,-16.602,19225.309,312
67,1685917475.214,-22.949,214.844,-76.172,-37.109,19225.313,311
68,1685917475.215,-89.355,-63.965,-155.762,-42.969,19225.315,311
69,1685917475.219,-46.875,278.809,63.965,-29.297,19225.319,311
70,1685917475.223,21.973,424.316,74.219,-25.879,19225.323,311
71,1685917475.227,-16.602,145.508,-34.668,-33.691,19225.327,311
72,1685917475.231,-81.543,-29.785,-97.168,-42.969,19225.33,311
73,1685917475.235,-61.035,-88.379,-194.824,-31.738,19225.334,311
74,1685917475.238,10.254,0.977,-125.977,-14.648,19225.338,311
75,1685917475.242,2.441,-414.062,-283.691,-11.23,19225.342,312
76,1685917475.246,-67.871,-787.598,-418.945,-19.043,19225.346,312
77,1685917475.25,-75.684,-12.695,-20.508,-25.879,19225.35,312
78,1685917475.254,-10.254,352.539,67.383,-24.902,19225.354,313
79,1685917475.258,24.902,-55.176,-117.188,-23.438,19225.358,313
80,1685917475.261,-27.832,-103.516,-79.59,-42.48,19225.36,313
81,1685917475.265,-74.219,5.371,-80.078,-49.316,19225.364,313
82,1685917475.269,-22.461,-81.543,-213.379,-23.438,19225.368,313
83,1685917475.273,27.832,-241.699,-184.082,-8.789,19225.372,313
84,1685917475.277,-19.531,-174.316,-65.43,-22.461,19225.375,313
85,1685917475.281,-78.125,-96.68,-173.828,-30.762,19225.379,313
86,1685917475.284,-34.668,-169.434,-249.023,-13.184,19225.383,311
87,1685917475.288,31.738,-450.684,-236.328,0.977,19225.387,311
88,1685917475.292,0.488,-194.824,-33.691,-19.531,19225.391,311
89,1685917475.296,-62.012,349.121,73.242,-40.527,19225.395,310
90,1685917475.3,-54.199,-84.961,-222.656,-24.414,19225.399,310
91,1685917475.304,10.254,-158.203,-210.449,-7.812,19225.403,310
92,1685917475.308,17.578,332.52,76.66,-15.137,19225.411,310
93,1685917475.312,-53.223,364.746,45.898,-36.621,19225.415,311
94,1685917475.316,-79.59,-127.441,-172.852,-49.316,19225.419,311
95,1685917475.32,-17.578,-125.488,-121.582,-31.738,19225.423,311
96,1685917475.324,13.672,316.406,59.082,-26.855,19225.427,313
97,1685917475.328,-35.156,114.258,-132.812,-35.156,19225.431,313
98,1685917475.331,-70.801,-574.707,-416.992,-37.109,19225.435,313
99,1685917475.335,-25.391,-678.711,-307.617,-22.461,19225.439,313
100,1685917475.339,25.879,246.582,136.719,-13.184,19225.443,313
101,1685917475.343,-10.742,372.07,44.922,-27.344,19225.447,313
102,1685917475.347,-65.918,-41.992,-178.223,-36.621,19225.45,313
103,1685917475.351,-47.852,24.902,-77.148,-34.18,19225.454,313
104,1685917475.351,8.789,316.895,80.078,-28.809,19225.453,313
105,1685917475.355,-4.395,92.285,-56.152,-36.621,19225.457,312
106,1685917475.359,-74.707,-349.609,-273.926,-48.34,19225.461,312
107,1685917475.363,-68.848,-139.648,-132.324,-36.133,19225.465,312
108,1685917475.367,11.719,294.434,86.914,-21.973,19225.469,311
109,1685917475.371,16.602,136.23,-30.762,-28.32,19225.473,311
110,1685917475.374,-70.801,-666.992,-445.801,-42.48,19225.477,311
111,1685917475.378,-88.379,-964.355,-457.031,-39.551,19225.481,311
112,1685917475.382,-15.137,-7.812,60.059,-29.297,19225.485,311
113,1685917475.386,20.508,306.641,31.738,-32.227,19225.488,311
114,1685917475.39,-24.414,31.738,-114.258,-38.574,19225.492,311
115,1685917475.394,-73.242,282.227,72.266,-40.039,19225.496,312
116,1685917475.396,-24.902,249.023,28.32,-24.902,19225.524,312
117,1685917475.4,30.762,-15.137,-86.914,-7.812,19225.528,312
118,1685917475.404,-4.395,159.18,15.137,-22.949,19225.532,312
119,1685917475.408,-69.824,160.645,-14.648,-40.527,19225.536,314
120,1685917475.412,-49.805,-35.645,-154.785,-24.902,19225.54,314
121,1685917475.416,17.09,-371.582,-294.922,-9.766,19225.544,314
122,1685917475.419,2.93,-809.082,-349.609,-21.484,19225.548,314
123,1685917475.423,-59.57,-150.391,-15.625,-39.062,19225.552,314
124,1685917475.427,-69.336,237.305,20.02,-38.086,19225.556,314
125,1685917475.431,-4.395,83.008,-24.902,-27.832,19225.559,314
126,1685917475.435,23.438,271.484,57.617,-17.578,19225.563,313
127,1685917475.439,-43.457,379.883,68.359,-25.391,19225.567,313
128,1685917475.455,-87.891,166.504,-26.367,-40.527,19225.555,312
129,1685917475.459,-29.297,-221.191,-181.641,-23.438,19225.558,312
130,1685917475.463,13.184,-78.613,-83.984,-11.719,19225.562,313
131,1685917475.467,-33.203,328.613,107.422,-32.715,19225.566,313
132,1685917475.471,-83.496,175.781,-13.184,-37.109,19225.57,313
133,1685917475.475,-55.176,-478.516,-241.699,-21.973,19225.574,315
134,1685917475.478,11.23,-475.098,-121.094,-20.02,19225.578,315
135,1685917475.482,1.953,117.188,81.543,-35.156,19225.582,315
136,1685917475.486,-75.195,-4.395,-96.68,-44.434,19225.586,315
137,1685917475.49,-64.453,-270.02,-198.73,-41.016,19225.59,317
138,1685917475.494,30.273,145.996,70.801,-13.672,19225.594,317
139,1685917475.498,21.484,473.633,162.109,-16.113,19225.598,317
140,1685917475.501,-79.59,-6.348,-174.805,-55.176,19225.599,317
141,1685917475.505,-100.586,-805.176,-438.477,-60.059,19225.603,317
142,1685917475.509,-24.902,-201.172,13.184,-40.527,19225.607,317
143,1685917475.513,17.09,407.227,152.832,-26.367,19225.611,317
144,1685917475.517,-34.668,-9.766,-101.074,-38.574,19225.615,315
145,1685917475.521,-93.262,-388.184,-263.672,-41.992,19225.619,315
146,1685917475.524,-49.805,-126.953,-59.57,-26.855,19225.623,315
147,1685917475.528,17.09,393.066,155.762,-23.438,19225.627,315
148,1685917475.532,-29.785,-284.668,-231.934,-29.785,19225.631,314
149,1685917475.536,-91.309,-778.32,-380.859,-27.344,19225.635,314
150,1685917475.54,-53.711,90.82,52.246,-29.785,19225.639,314
151,1685917475.544,5.859,348.145,80.566,-34.18,19225.642,315
152,1685917475.546,-11.719,23.926,-99.121,-44.922,19225.645,315
153,1685917475.55,-89.355,-296.387,-249.512,-49.805,19225.649,315
154,1685917475.554,-88.379,-101.074,-94.727,-37.109,19225.653,315
155,1685917475.558,-5.859,231.445,22.949,-18.555,19225.657,316
156,1685917475.562,1.465,-198.73,-138.672,-21.973,19225.66,316
157,1685917475.566,-73.242,-471.68,-250.488,-41.992,19225.664,316
158,1685917475.569,-94.238,-119.629,-81.543,-43.457,19225.668,316
159,1685917475.573,-21.484,111.816,41.504,-20.508,19225.672,317
160,1685917475.577,15.137,-373.047,-163.574,-14.648,19225.676,317
161,1685917475.581,-42.969,-175.293,-15.625,-35.156,19225.68,317
162,1685917475.585,-81.055,355.957,99.121,-48.828,19225.684,316
163,1685917475.589,-34.18,-29.785,-104.004,-30.762,19225.688,316
164,1685917475.59,17.578,-102.539,-102.051,-20.508,19225.689,316
165,1685917475.594,-15.625,312.988,90.332,-35.156,19225.693,316
166,1685917475.598,-74.707,319.336,83.008,-38.574,19225.697,314
167,1685917475.602,-53.711,-95.703,-45.898,-25.879,19225.701,314
168,1685917475.606,13.672,-122.559,-63.477,-13.184,19225.705,314
169,1685917475.61,0.977,28.809,-5.371,-24.902,19225.709,314
170,1685917475.613,-69.824,-89.355,-96.191,-39.062,19225.713,314
171,1685917475.617,-76.172,-551.27,-348.633,-26.367,19225.717,314
172,1685917475.621,-1.465,-636.23,-231.934,-13.184,19225.721,314
173,1685917475.625,33.691,286.621,147.949,-11.23,19225.725,314
174,1685917475.629,-19.043,334.473,55.664,-11.23,19225.729,315
175,1685917475.633,-63.477,-28.809,-95.703,-29.297,19225.732,315
176,1685917475.636,-28.32,106.445,-9.766,-35.645,19225.738,315
177,1685917475.64,13.672,102.539,61.523,-28.32,19225.742,316
178,1685917475.644,-35.645,-68.848,-66.406,-44.922,19225.746,316
179,1685917475.648,-110.352,-657.715,-435.547,-68.359,19225.75,316
180,1685917475.652,-63.477,-631.348,-298.828,-52.246,19225.754,316
181,1685917475.656,2.93,54.688,89.844,-31.25,19225.758,317
182,1685917475.659,-28.32,-58.105,-57.617,-44.922,19225.762,317
183,1685917475.663,-82.031,-547.852,-249.512,-52.734,19225.766,317
184,1685917475.667,-75.195,-221.68,-6.348,-49.805,19225.769,316
185,1685917475.671,-7.324,523.438,206.055,-46.387,19225.773,316
186,1685917475.675,-8.789,290.527,-1.465,-45.898,19225.777,316
187,1685917475.679,-90.82,-6.836,-96.68,-62.012,19225.781,316
188,1685917475.681,-100.586,235.84,91.309,-62.012,19225.78,316
189,1685917475.685,-15.625,407.227,139.16,-38.574,19225.784,314
190,1685917475.689,-1.953,177.246,9.277,-40.039,19225.788,314
191,1685917475.693,-70.312,41.016,-29.785,-60.059,19225.791,314
192,1685917475.697,-94.238,13.672,-40.039,-56.152,19225.795,314
193,1685917475.701,-41.992,-34.668,-7.324,-41.992,19225.799,314
194,1685917475.704,-0.977,-382.812,-178.711,-45.898,19225.803,314
195,1685917475.708,-50.781,-833.008,-356.445,-64.453,19225.807,315
196,1685917475.712,-100.098,-169.434,0.488,-78.613,19225.811,315
197,1685917475.716,-65.43,233.398,48.828,-62.5,19225.815,315
198,1685917475.72,3.906,149.902,67.383,-43.945,19225.819,315
199,1685917475.724,-20.508,260.742,119.141,-58.594,19225.823,315
200,1685917475.725,-103.516,344.727,83.984,-75.684,19225.838,316
201,1685917475.729,-96.191,86.426,-36.621,-66.406,19225.842,316
202,1685917475.733,-22.461,-450.195,-163.086,-42.48,19225.846,316
203,1685917475.737,-20.02,-145.996,42.48,-47.852,19225.85,316
204,1685917475.741,-85.449,314.941,96.191,-73.73,19225.854,316
205,1685917475.745,-98.633,-56.641,-139.648,-74.707,19225.858,316
206,1685917475.748,-31.25,-578.613,-245.605,-55.176,19225.862,316
207,1685917475.752,-2.441,-383.789,-33.203,-54.688,19225.866,315
208,1685917475.756,-65.918,308.105,135.254,-82.52,19225.87,315
209,1685917475.76,-108.398,90.82,-67.383,-85.449,19225.873,315
210,1685917475.764,-56.152,-285.156,-158.203,-59.082,19225.877,315
211,1685917475.768,-11.719,221.191,98.145,-58.105,19225.881,313
212,1685917475.771,-54.199,481.934,152.832,-76.172,19225.883,313
213,1685917475.775,-101.074,60.059,-57.129,-80.566,19225.887,313
214,1685917475.779,-73.242,-57.129,-46.387,-72.266,19225.891,313
215,1685917475.783,-2.441,365.234,150.879,-53.711,19225.895,313
216,1685917475.787,-22.461,450.684,139.16,-55.176,19225.899,313
217,1685917475.791,-107.91,-308.105,-186.523,-72.754,19225.903,315
218,1685917475.794,-106.934,-567.383,-231.445,-71.777,19225.907,315
219,1685917475.798,-31.25,231.934,159.668,-63.477,19225.911,315
220,1685917475.802,-26.367,435.059,113.281,-69.824,19225.914,315
221,1685917475.806,-99.121,-287.598,-179.199,-82.031,19225.918,315
222,1685917475.81,-123.535,-528.809,-156.25,-86.914,19225.922,315
223,1685917475.814,-53.223,179.688,124.512,-78.613,19225.926,315
224,1685917475.83,-18.555,307.617,90.82,-84.473,19225.929,315
225,1685917475.834,-92.773,-429.199,-206.055,-110.352,19225.933,315
226,1685917475.838,-152.344,-560.059,-155.273,-116.699,19225.937,313
227,1685917475.842,-97.656,200.684,133.301,-96.68,19225.941,313
228,1685917475.846,-32.715,359.863,80.078,-91.309,19225.945,313
229,1685917475.85,-77.637,-411.621,-222.656,-103.027,19225.949,312
230,1685917475.853,-138.672,-503.418,-154.785,-113.281,19225.953,312
231,1685917475.857,-109.863,231.445,108.887,-99.121,19225.957,312
232,1685917475.861,-22.949,200.195,18.555,-64.941,19225.961,313
233,1685917475.865,-16.113,-145.508,-50.781,-62.012,19225.965,313
234,1685917475.869,-118.652,92.285,63.965,-93.75,19225.968,313
235,1685917475.873,-148.926,270.996,71.777,-101.562,19225.972,313
236,1685917475.875,-81.055,-91.309,-97.168,-87.402,19225.974,313
237,1685917475.879,-55.176,-125.488,-110.84,-83.008,19225.978,314
238,1685917475.883,-104.492,244.141,82.52,-90.82,19225.982,314
239,1685917475.887,-145.996,222.656,65.43,-89.355,19225.986,314
240,1685917475.891,-80.078,-132.812,-44.434,-61.523,19225.99,315
241,1685917475.895,-19.531,-286.133,-42.48,-55.664,19225.994,315
242,1685917475.898,-68.848,-129.395,1.953,-72.754,19225.998,315
243,1685917475.902,-103.516,127.93,69.336,-58.594,19226.002,314
244,1685917475.906,-54.199,-385.254,-184.57,-23.438,19226.005,314
245,1685917475.91,8.789,-671.875,-236.816,-6.836,19226.009,314
246,1685917475.914,10.742,210.449,133.789,-10.254,19226.013,314
247,1685917475.918,-38.574,198.242,10.742,-11.719,19226.017,312
248,1685917475.921,-41.016,-83.008,-78.613,-13.672,19226.02,312
249,1685917475.925,11.719,-42.969,3.418,-9.277,19226.024,312
250,1685917475.929,9.277,-37.598,15.137,-2.93,19226.028,312
251,1685917475.933,-55.176,-23.926,-19.043,-8.301,19226.031,312
252,1685917475.937,-80.566,-605.957,-312.5,-0.488,19226.035,312
253,1685917475.941,-14.648,-819.336,-291.504,13.184,19226.039,312
254,1685917475.944,24.414,44.922,120.117,2.93,19226.043,313
255,1685917475.948,-37.598,190.918,6.348,-20.02,19226.047,313
256,1685917475.952,-89.844,-549.805,-247.559,-26.367,19226.051,313
257,1685917475.956,-33.203,-212.891,12.207,-12.207,19226.055,313
258,1685917475.96,25.879,533.691,214.844,-9.277,19226.059,314
259,1685917475.964,-27.344,210.938,11.719,-24.414,19226.063,314
260,1685917475.965,-98.145,-53.711,-62.988,-37.598,19226.065,314
261,1685917475.969,-61.035,268.555,118.652,-32.227,19226.069,314
262,1685917475.973,6.348,480.469,169.922,-35.156,19226.073,315
263,1685917475.977,-27.832,199.707,54.199,-52.734,19226.076,315
264,1685917475.981,-94.727,-38.086,-22.949,-55.664,19226.08,315
265,1685917475.985,-82.031,-91.797,-26.855,-41.992,19226.084,314
266,1685917475.988,-15.137,-17.09,36.133,-40.527,19226.088,314
267,1685917475.992,-18.555,-356.445,-168.457,-42.969,19226.092,314
268,1685917475.996,-92.773,-838.867,-373.535,-52.246,19226.096,314
269,1685917476.0,-109.375,-146.484,7.324,-66.895,19226.1,313
270,1685917476.004,-41.504,299.805,108.887,-57.617,19226.104,313
271,1685917476.008,-14.16,191.406,81.055,-55.664,19226.108,313
272,1685917476.01,-75.195,249.512,122.07,-75.684,19226.124,313
273,1685917476.014,-119.629,93.75,16.113,-84.473,19226.128,313
274,1685917476.018,-69.336,-117.676,-35.645,-68.359,19226.132,313
275,1685917476.022,-21.973,-313.965,-79.102,-64.453,19226.136,313
276,1685917476.026,-58.594,-140.625,-4.883,-78.125,19226.14,313
277,1685917476.03,-109.863,0.0,3.418,-84.473,19226.144,314
278,1685917476.033,-94.238,-175.781,-103.516,-85.938,19226.148,314
279,1685917476.037,-38.086,-498.535,-180.176,-81.543,19226.152,314
280,1685917476.041,-41.992,-391.113,-35.645,-90.82,19226.155,315
281,1685917476.045,-108.398,283.691,144.531,-106.934,19226.159,315
282,1685917476.049,-119.141,78.613,-49.316,-85.449,19226.163,315
283,1685917476.053,-51.27,-187.5,-90.82,-59.57,19226.167,315
284,1685917476.056,-37.109,304.688,137.207,-74.707,19226.155,315
285,1685917476.06,-100.098,417.969,106.445,-90.82,19226.159,315
286,1685917476.064,-122.559,42.48,-13.184,-87.891,19226.163,315
287,1685917476.068,-67.383,76.172,39.062,-88.867,19226.166,315
288,1685917476.072,-33.691,406.25,169.922,-88.379,19226.17,313
289,1685917476.076,-96.68,158.691,-7.812,-103.027,19226.174,313
290,1685917476.079,-135.742,-587.891,-374.023,-103.516,19226.178,313
291,1685917476.083,-79.59,-616.699,-218.75,-85.449,19226.182,312
292,1685917476.087,-25.391,264.648,175.781,-83.984,19226.186,312
293,1685917476.091,-52.734,455.078,126.465,-92.773,19226.19,312
294,1685917476.095,-121.582,-429.688,-260.254,-91.797,19226.194,311
295,1685917476.099,-98.145,-662.598,-251.953,-79.102,19226.198,311
296,1685917476.101,-28.809,306.152,177.246,-78.613,19226.214,311
297,1685917476.105,-45.898,324.219,109.375,-91.309,19226.218,311
298,1685917476.109,-122.559,-543.457,-241.699,-95.703,19226.221,311
299,1685917476.113,-129.395,-458.008,-170.898,-91.797,19226.225,312
300,1685917476.117,-52.246,389.648,166.992,-77.637,19226.229,312
301,1685917476.121,-40.039,222.168,38.574,-81.543,19226.233,312
302,1685917476.124,-115.723,-483.887,-174.316,-101.562,19226.237,312
303,1685917476.128,-136.719,-333.984,-46.875,-95.703,19226.241,312
304,1685917476.132,-65.43,372.559,145.996,-82.52,19226.245,312
305,1685917476.136,-29.297,292.969,61.035,-81.055,19226.249,311
306,1685917476.14,-71.289,59.57,-34.668,-97.656,19226.253,311
307,1685917476.144,-126.465,190.43,80.078,-107.91,19226.257,311
308,1685917476.147,-92.773,321.289,126.465,-87.891,19226.25,311
309,1685917476.151,-37.598,56.641,-27.344,-76.172,19226.254,309
310,1685917476.155,-79.102,-62.012,-29.297,-85.938,19226.258,309
311,1685917476.159,-136.23,229.98,97.168,-89.355,19226.262,309
312,1685917476.163,-113.77,296.387,108.398,-89.844,19226.266,308
313,1685917476.167,-47.363,-335.449,-167.48,-75.684,19226.27,308
314,1685917476.17,-58.105,-663.574,-230.469,-88.867,19226.274,308
315,1685917476.174,-118.164,101.562,110.84,-113.77,19226.278,308
316,1685917476.178,-131.836,271.973,95.215,-104.98,19226.282,308
317,1685917476.182,-67.871,22.949,0.0,-88.867,19226.285,308
318,1685917476.186,-37.598,124.023,47.852,-89.355,19226.289,308
319,1685917476.19,-104.98,320.801,111.328,-111.328,19226.293,308
320,1685917476.221,-147.461,197.266,56.152,-115.234,19226.32,309
321,1685917476.225,-85.449,-193.848,-84.473,-86.426,19226.324,309
322,1685917476.229,-41.016,-87.891,-21.973,-73.242,19226.328,309
323,1685917476.233,-83.496,132.812,23.926,-86.426,19226.332,307
324,1685917476.237,-139.16,-117.188,-126.953,-93.262,19226.336,307
325,1685917476.241,-117.188,-725.098,-370.117,-81.543,19226.34,307
326,1685917476.244,-47.852,-810.059,-273.926,-67.871,19226.344,307
327,1685917476.248,-62.988,150.879,145.02,-86.426,19226.348,307
328,1685917476.251,-117.188,66.406,-25.391,-124.023,19226.35,307
329,1685917476.252,-134.766,133.789,-24.902,-101.562,19226.352,307
330,1685917476.255,-147.949,-197.754,-123.047,-118.652,19226.353,307
331,1685917476.256,-131.348,-85.449,-80.566,-93.262,19226.355,307
332,1685917476.259,-78.125,258.301,139.16,-97.168,19226.357,307
333,1685917476.26,-58.594,336.914,144.531,-81.543,19226.359,307
334,1685917476.263,-37.598,416.016,177.246,-93.262,19226.361,308
335,1685917476.264,-46.875,524.414,184.57,-95.703,19226.363,308
336,1685917476.267,-100.098,28.32,-26.855,-108.398,19226.365,308
337,1685917476.271,-140.625,-402.344,-235.352,-116.699,19226.369,308
338,1685917476.274,-84.961,-270.996,-93.75,-91.309,19226.373,310
339,1685917476.278,-26.367,34.18,78.613,-74.219,19226.377,310
340,1685917476.282,-56.641,-345.215,-133.301,-84.473,19226.381,310
341,1685917476.286,-123.047,-401.855,-132.324,-96.68,19226.385,310
342,1685917476.29,-96.68,163.574,94.727,-92.285,19226.389,310
343,1685917476.294,-27.832,406.25,149.414,-78.613,19226.393,310
344,1685917476.296,-45.41,-230.957,-141.602,-83.984,19226.395,310
345,1685917476.3,-116.211,-984.375,-427.246,-87.402,19226.398,310
346,1685917476.304,-115.723,-244.141,-56.152,-79.102,19226.402,310
347,1685917476.308,-50.781,303.711,128.418,-68.848,19226.406,310
348,1685917476.312,-46.875,-42.48,-55.176,-72.266,19226.41,310
349,1685917476.316,-107.422,-266.602,-149.414,-88.379,19226.414,309
350,1685917476.319,-126.953,-30.762,20.508,-83.984,19226.418,309
351,1685917476.323,-62.012,193.359,65.918,-69.824,19226.422,309
352,1685917476.327,-23.926,-381.348,-156.25,-75.195,19226.426,309
353,1685917476.331,-82.52,-411.133,-30.273,-95.215,19226.43,310
354,1685917476.335,-131.348,256.836,174.316,-103.516,19226.434,310
355,1685917476.339,-88.379,73.73,-8.301,-81.543,19226.438,310
356,1685917476.34,-32.227,-146.484,-81.543,-70.801,19226.44,310
357,1685917476.344,-61.035,319.336,140.137,-82.031,19226.444,312
358,1685917476.348,-120.605,387.207,124.512,-94.727,19226.448,312
359,1685917476.352,-99.609,72.754,6.836,-81.055,19226.452,312
360,1685917476.356,-25.879,93.262,9.766,-69.824,19226.455,313
361,1685917476.36,-31.738,67.383,5.371,-80.078,19226.459,313
362,1685917476.363,-107.91,-58.105,-15.137,-93.75,19226.463,313
363,1685917476.367,-120.117,-463.867,-232.422,-88.867,19226.467,313
364,1685917476.371,-46.875,-573.242,-205.566,-70.312,19226.471,313
365,1685917476.375,-17.578,333.984,194.824,-76.172,19226.475,312
366,1685917476.379,-75.195,404.297,97.656,-87.891,19226.479,312
367,1685917476.383,-110.352,-158.203,-154.297,-89.355,19226.483,312
368,1685917476.385,-56.641,-57.129,-67.383,-72.754,19226.485,310
369,1685917476.389,-18.555,184.082,87.891,-65.43,19226.489,310
370,1685917476.393,-65.43,79.59,39.551,-86.914,19226.492,310
371,1685917476.397,-123.047,-558.594,-304.688,-90.332,19226.496,306
372,1685917476.401,-87.891,-601.074,-271.484,-72.754,19226.5,306
373,1685917476.405,-15.625,135.742,138.184,-64.941,19226.504,306
374,1685917476.408,-50.293,41.992,17.578,-80.566,19226.508,306
375,1685917476.412,-113.77,-478.516,-177.246,-84.473,19226.512,306
376,1685917476.416,-89.844,-255.859,-6.348,-63.477,19226.516,304
377,1685917476.42,-13.672,480.957,192.871,-60.547,19226.52,304
378,1685917476.424,-17.578,324.219,36.621,-68.848,19226.524,304
379,1685917476.428,-88.867,57.617,-28.32,-84.473,19226.528,303
380,1685917476.437,-103.027,252.441,81.543,-80.078,19226.543,300
381,1685917476.441,-31.738,445.801,150.391,-56.641,19226.547,300
382,1685917476.445,-17.09,-63.477,-91.797,-62.012,19226.551,300
383,1685917476.449,-75.684,-332.52,-197.266,-69.824,19226.555,300
384,1685917476.453,-95.703,123.535,71.777,-62.988,19226.559,300
385,1685917476.457,-40.039,90.332,71.289,-47.852,19226.563,296
386,1685917476.46,-5.371,-443.848,-191.406,-47.363,19226.567,296
387,1685917476.464,-73.242,-618.164,-237.793,-76.66,19226.571,296
388,1685917476.468,-127.93,118.652,91.797,-85.938,19226.575,291
389,1685917476.472,-98.145,291.016,81.543,-67.383,19226.578,291
390,1685917476.475,-101.074,302.246,90.332,-74.707,19226.588,291
391,1685917476.476,-30.762,146.484,83.496,-58.594,19226.582,291
392,1685917476.479,-103.027,35.645,-28.809,-63.965,19226.592,287
393,1685917476.48,-33.691,231.934,117.676,-63.477,19226.586,287
394,1685917476.483,-32.715,-438.477,-116.699,-52.734,19226.596,287
395,1685917476.487,-14.648,-148.926,41.504,-56.152,19226.6,287
396,1685917476.491,-80.566,213.379,51.27,-61.035,19226.604,287
397,1685917476.495,-100.586,-39.551,-55.176,-60.547,19226.608,285
398,1685917476.498,-47.852,-641.602,-290.527,-50.781,19226.612,285
399,1685917476.502,-18.555,-417.48,-169.434,-48.828,19226.616,285
400,1685917476.506,-62.5,432.617,143.555,-67.871,19226.62,285
401,1685917476.51,-112.793,82.52,-77.637,-84.961,19226.624,285
402,1685917476.514,-74.219,-126.465,-121.582,-74.219,19226.627,285
403,1685917476.518,-19.043,311.523,113.77,-62.012,19226.631,285
404,1685917476.521,-55.176,462.891,164.551,-76.66,19226.634,285
405,1685917476.525,-110.352,7.324,-70.801,-84.473,19226.637,286
406,1685917476.529,-87.891,-161.621,-129.883,-75.195,19226.641,286
407,1685917476.533,-21.484,311.523,133.301,-69.824,19226.645,286
408,1685917476.537,-35.156,451.66,132.812,-79.102,19226.649,286
409,1685917476.541,-112.793,-347.168,-238.77,-86.914,19226.653,286
410,1685917476.544,-114.258,-685.059,-282.227,-71.777,19226.657,286
411,1685917476.548,-40.039,-19.531,35.156,-56.641,19226.661,287
412,1685917476.552,-17.578,294.434,98.145,-56.641,19226.665,287
413,1685917476.556,-92.285,-292.48,-175.293,-76.66,19226.669,287
414,1685917476.56,-123.047,-526.855,-211.426,-88.379,19226.673,287
415,1685917476.564,-55.664,276.855,139.648,-78.613,19226.677,287
416,1685917476.58,-11.719,384.277,78.125,-74.219,19226.68,293
417,1685917476.584,-61.523,-92.773,-129.395,-83.496,19226.684,293
418,1685917476.588,-118.652,-155.762,-78.125,-85.449,19226.688,296
419,1685917476.592,-72.266,289.551,126.465,-64.453,19226.691,296
420,1685917476.596,-8.301,328.125,83.008,-56.641,19226.695,296
421,1685917476.6,-53.223,-429.199,-202.148,-73.73,19226.699,296
422,1685917476.603,-113.77,-527.832,-158.203,-80.566,19226.703,296
423,1685917476.607,-90.332,228.027,137.695,-75.684,19226.707,297
424,1685917476.611,-31.25,223.633,37.109,-73.73,19226.711,297
425,1685917476.615,-34.668,-231.934,-142.09,-75.684,19226.715,297
426,1685917476.619,-102.051,-165.527,-39.551,-87.402,19226.719,296
427,1685917476.623,-110.352,254.883,107.422,-89.844,19226.723,296
428,1685917476.627,-38.574,43.457,-64.941,-75.195,19226.727,296
429,1685917476.631,-21.973,-225.586,-143.066,-70.312,19226.731,292
430,1685917476.635,-86.426,186.523,76.172,-80.078,19226.735,292
431,1685917476.639,-119.141,288.086,62.012,-88.867,19226.739,292
432,1685917476.643,-52.734,14.16,-39.551,-62.988,19226.743,292
433,1685917476.647,5.859,-203.613,-95.215,-46.387,19226.746,290
434,1685917476.65,-51.27,-53.223,-31.738,-81.055,19226.75,290
435,1685917476.654,-121.094,233.887,58.105,-104.492,19226.754,290
436,1685917476.658,-89.844,-353.027,-204.102,-85.449,19226.758,290
437,1685917476.662,-19.043,-605.469,-237.305,-64.941,19226.762,288
438,1685917476.666,-31.25,295.41,150.391,-62.5,19226.766,288
439,1685917476.67,-102.051,250.488,22.461,-75.684,19226.77,288
440,1685917476.67,-98.145,-188.477,-198.242,-67.383,19226.769,288
441,1685917476.674,-20.508,-225.586,-196.777,-51.27,19226.773,288
442,1685917476.678,-3.906,-81.543,-91.309,-56.152,19226.777,286
443,1685917476.682,-75.195,53.711,-61.523,-62.988,19226.781,286
444,1685917476.686,-93.75,-458.496,-262.695,-58.594,19226.785,286
445,1685917476.69,-23.438,-526.367,-176.27,-45.898,19226.789,282
446,1685917476.693,0.488,66.895,88.379,-54.688,19226.793,282
447,1685917476.697,-57.129,174.805,33.203,-73.73,19226.797,282
448,1685917476.701,-101.074,-646.484,-405.762,-63.965,19226.801,276
449,1685917476.705,-54.199,-715.82,-288.086,-41.504,19226.805,276
450,1685917476.709,5.371,400.879,191.895,-29.297,19226.809,276
451,1685917476.713,-31.25,317.383,-3.906,-42.969,19226.812,276
452,1685917476.731,-88.867,-2.93,-98.145,-49.805,19226.844,269
453,1685917476.735,-53.223,291.016,86.426,-29.297,19226.848,269
454,1685917476.739,18.555,484.375,147.949,-22.461,19226.852,269
455,1685917476.743,-12.695,-49.805,-117.676,-40.527,19226.856,270
456,1685917476.747,-89.355,-364.746,-226.562,-56.152,19226.86,270
457,1685917476.751,-72.754,-116.699,-38.086,-48.34,19226.864,270
458,1685917476.754,0.488,48.34,38.086,-36.621,19226.867,270
459,1685917476.758,-2.93,-311.523,-170.41,-45.41,19226.871,273
460,1685917476.76,-55.176,219.727,94.238,-36.621,19226.86,273
461,1685917476.762,-68.848,-604.004,-283.691,-59.082,19226.875,273
462,1685917476.764,-103.027,53.223,-83.496,-44.922,19226.864,273
463,1685917476.766,-92.773,164.062,82.52,-55.664,19226.879,273
464,1685917476.768,-52.734,-111.816,-140.625,-33.691,19226.867,273
465,1685917476.77,-35.156,386.719,92.285,-35.156,19226.883,277
466,1685917476.772,3.906,-10.742,-19.531,-33.691,19226.871,277
467,1685917476.774,-1.465,214.844,99.609,-23.926,19226.887,277
468,1685917476.776,-35.156,168.457,30.762,-41.504,19226.875,277
469,1685917476.78,-93.262,29.297,-39.062,-43.457,19226.879,277
470,1685917476.783,-62.988,-188.477,-189.453,-38.086,19226.883,281
471,1685917476.787,0.977,-592.285,-279.297,-26.855,19226.887,281
472,1685917476.791,-11.719,-261.719,-19.531,-38.086,19226.891,281
473,1685917476.795,-71.289,403.32,141.602,-49.316,19226.895,281
474,1685917476.799,-71.777,41.016,-64.941,-37.598,19226.899,288
475,1685917476.803,-14.16,-373.047,-203.125,-17.578,19226.903,288
476,1685917476.805,4.883,113.281,67.871,-36.133,19226.904,288
477,1685917476.809,-60.059,553.711,177.246,-66.895,19226.908,288
478,1685917476.813,-98.633,-26.367,-182.617,-58.594,19226.912,300
479,1685917476.817,-39.062,-700.195,-351.074,-38.086,19226.916,300
480,1685917476.821,11.719,-34.18,43.457,-32.715,19226.92,300
481,1685917476.825,-37.109,283.203,79.59,-51.27,19226.924,311
482,1685917476.828,-104.98,-469.727,-269.043,-69.824,19226.928,311
483,1685917476.832,-69.336,-599.121,-259.277,-48.34,19226.932,311
484,1685917476.836,1.953,105.469,96.68,-27.832,19226.936,311
485,1685917476.84,-15.625,349.609,73.73,-39.551,19226.94,323
486,1685917476.844,-86.426,-103.027,-98.145,-59.57,19226.943,323
487,1685917476.848,-79.59,-145.508,-21.484,-53.223,19226.947,323
488,1685917476.851,-0.488,402.832,151.855,-41.992,19226.964,332
489,1685917476.855,0.977,229.004,17.09,-51.27,19226.968,332
490,1685917476.859,-81.543,-416.016,-204.59,-62.012,19226.971,332
491,1685917476.863,-102.051,-277.344,-41.016,-56.152,19226.975,332
492,1685917476.867,-26.367,372.559,159.18,-37.598,19226.979,341
493,1685917476.871,-3.906,186.523,2.93,-47.363,19226.983,341
494,1685917476.874,-67.871,-500.977,-226.074,-62.5,19226.987,341
495,1685917476.878,-101.074,-273.438,-37.598,-61.523,19226.991,341
496,1685917476.882,-42.969,467.285,183.105,-46.875,19226.995,351
497,1685917476.886,2.93,334.473,39.062,-36.133,19226.999,351
498,1685917476.89,-43.457,-23.926,-125.488,-50.293,19227.003,351
499,1685917476.894,-93.75,-11.23,-45.41,-55.664,19227.007,359
500,1685917476.898,-61.523,352.539,134.766,-38.574,19227.001,359
501,1685917476.902,-1.953,181.152,-22.949,-30.273,19227.005,359
502,1685917476.906,-19.531,-160.156,-149.902,-37.598,19227.009,359
503,1685917476.91,-75.195,186.523,41.016,-44.922,19227.013,365
504,1685917476.914,-64.941,376.953,110.352,-42.48,19227.017,365
505,1685917476.918,-3.906,-147.461,-118.164,-35.156,19227.021,365
506,1685917476.921,2.441,-320.312,-152.344,-37.109,19227.025,370
507,1685917476.925,-55.176,239.746,73.73,-37.109,19227.029,370
508,1685917476.929,-80.078,293.457,20.508,-28.809,19227.033,370
509,1685917476.933,-19.043,-119.629,-59.082,-25.391,19227.037,369
510,1685917476.937,20.02,-71.289,18.555,-29.297,19227.04,369
511,1685917476.941,-38.086,396.973,123.535,-34.668,19227.044,369
512,1685917476.956,-89.355,202.637,2.441,-37.109,19227.055,369
513,1685917476.96,-39.551,-133.301,-122.07,-28.32,19227.058,369
514,1685917476.964,17.09,-191.895,-64.453,-19.531,19227.062,370
515,1685917476.968,-20.02,49.316,33.203,-35.156,19227.066,370
516,1685917476.972,-73.242,212.891,33.691,-44.434,19227.07,370
517,1685917476.976,-51.758,-552.246,-343.75,-26.855,19227.074,370
518,1685917476.979,2.93,-990.234,-422.363,-13.672,19227.078,370
519,1685917476.983,-9.766,2.93,91.309,-30.273,19227.082,370
520,1685917476.987,-68.848,236.816,23.926,-48.828,19227.086,370
521,1685917476.991,-67.383,-23.438,-94.727,-38.086,19227.09,369
522,1685917476.995,1.953,318.359,104.492,-16.113,19227.094,369
523,1685917476.999,8.789,530.273,170.898,-30.762,19227.098,369
524,1685917477.001,-60.059,186.523,-31.738,-47.852,19227.102,369
525,1685917477.005,-78.613,-66.895,-113.281,-35.645,19227.106,366
526,1685917477.009,-20.996,272.949,112.793,-29.785,19227.11,366
527,1685917477.013,16.113,447.754,138.672,-27.832,19227.114,366
528,1685917477.017,-31.738,-137.207,-138.672,-28.32,19227.118,366
529,1685917477.021,-78.125,-636.23,-357.91,-31.738,19227.122,362
530,1685917477.024,-36.133,-145.02,-90.332,-29.785,19227.125,362
531,1685917477.028,15.625,466.309,190.918,-30.273,19227.129,362
532,1685917477.032,-23.926,-168.945,-165.039,-38.574,19227.133,359
533,1685917477.036,-85.938,-693.359,-308.105,-44.922,19227.137,359
534,1685917477.04,-46.875,136.719,104.492,-30.273,19227.141,359
535,1685917477.044,24.902,370.117,84.473,-6.836,19227.145,358
536,1685917477.046,8.301,151.855,-37.598,-11.23,19227.145,358
537,1685917477.05,-72.754,-120.117,-129.395,-29.785,19227.149,358
538,1685917477.054,-79.59,-75.684,-19.043,-22.949,19227.152,358
539,1685917477.058,6.836,228.027,90.82,-1.953,19227.156,358
540,1685917477.062,40.039,-106.934,-102.539,9.766,19227.16,359
541,1685917477.066,-45.898,-380.859,-206.543,-20.996,19227.164,359
542,1685917477.069,-104.98,-271.973,-205.078,-62.5,19227.168,359
543,1685917477.073,-48.828,-58.594,-86.914,-62.988,19227.172,358
544,1685917477.077,-17.578,-595.215,-297.363,-60.547,19227.176,358
545,1685917477.081,-63.965,-784.668,-343.75,-66.406,19227.18,358
546,1685917477.085,-121.094,135.742,54.199,-84.961,19227.184,354
547,1685917477.089,-97.168,191.406,15.137,-83.008,19227.188,354
548,1685917477.091,-20.02,51.758,6.348,-65.918,19227.189,354
549,1685917477.095,-42.969,358.398,124.512,-75.684,19227.193,354
550,1685917477.099,-117.676,431.641,114.258,-80.078,19227.197,354
551,1685917477.103,-97.656,45.898,-6.348,-63.477,19227.201,351
552,1685917477.107,-13.184,75.684,-0.977,-48.34,19227.205,351
553,1685917477.111,-5.371,187.988,67.383,-49.316,19227.209,351
554,1685917477.114,-69.824,-13.184,-17.09,-52.734,19227.213,348
555,1685917477.118,-89.355,-511.23,-321.289,-47.852,19227.217,348
556,1685917477.122,-27.344,-617.676,-252.93,-40.039,19227.221,348
557,1685917477.126,2.441,61.523,115.723,-44.922,19227.225,346
558,1685917477.13,-49.316,272.461,62.988,-55.176,19227.228,346
559,1685917477.134,-88.379,-152.344,-88.867,-49.316,19227.232,346
560,1685917477.137,-28.809,-51.758,22.461,-29.297,19227.238,346
561,1685917477.141,21.973,294.434,111.328,-19.043,19227.242,346
562,1685917477.145,-17.09,76.66,-7.324,-36.621,19227.246,344
563,1685917477.149,-70.312,-375.0,-151.367,-43.457,19227.25,344
564,1685917477.153,-45.898,-265.137,-42.48,-26.367,19227.253,344
565,1685917477.157,20.508,158.691,105.469,-18.555,19227.257,340
566,1685917477.16,2.441,37.598,-4.395,-17.09,19227.261,340
567,1685917477.164,-72.266,-462.891,-204.59,-28.32,19227.265,340
568,1685917477.168,-69.824,-237.793,-12.695,-23.438,19227.269,340
569,1685917477.172,8.789,552.246,203.125,-3.906,19227.273,333
570,1685917477.176,16.602,358.398,38.574,-19.531,19227.277,333
571,1685917477.18,-52.246,-76.172,-109.375,-40.527,19227.281,333
572,1685917477.18,-68.848,-21.973,-21.484,-31.738,19227.279,333
573,1685917477.184,-7.812,385.742,170.898,-24.902,19227.283,325
574,1685917477.188,22.461,160.645,-6.348,-29.785,19227.287,325
575,1685917477.192,-30.762,-154.785,-145.02,-45.898,19227.291,325
576,1685917477.196,-75.684,158.203,58.594,-46.875,19227.295,317
577,1685917477.2,-31.25,150.391,97.168,-20.996,19227.299,317
578,1685917477.203,20.02,-275.391,-121.094,-10.254,19227.303,317
579,1685917477.207,-20.996,-760.254,-315.918,-31.25,19227.307,317
580,1685917477.211,-75.684,-165.527,3.418,-49.805,19227.311,310
581,1685917477.215,-45.41,269.043,73.73,-31.738,19227.315,310
582,1685917477.219,21.973,177.246,93.75,-14.648,19227.319,310
583,1685917477.223,7.812,331.055,153.32,-34.668,19227.322,310
584,1685917477.226,-61.035,373.047,80.078,-48.34,19227.339,303
585,1685917477.23,-60.059,139.648,37.598,-31.738,19227.343,303
586,1685917477.234,-2.93,-577.637,-249.023,-2.93,19227.347,303
587,1685917477.238,9.277,-765.137,-295.41,-11.719,19227.351,293
588,1685917477.242,-39.551,72.266,56.152,-39.062,19227.355,293
589,1685917477.246,-67.871,61.035,-62.012,-34.18,19227.358,293
590,1685917477.249,-16.113,-558.105,-205.078,-11.719,19227.362,293
591,1685917477.253,28.809,-134.766,49.805,-5.859,19227.366,283
592,1685917477.257,-18.555,570.801,202.637,-32.715,19227.37,283
593,1685917477.261,-75.195,210.449,18.066,-43.457,19227.374,283
594,1685917477.265,-23.438,56.152,5.371,-21.973,19227.378,273
595,1685917477.269,44.922,430.176,162.109,-18.066,19227.382,273
596,1685917477.271,11.719,553.711,160.156,-36.621,19227.386,273
597,1685917477.275,-61.523,145.996,-21.484,-37.109,19227.39,273
598,1685917477.279,-50.293,-22.949,-37.109,-19.043,19227.394,267
599,1685917477.283,21.484,362.305,148.438,-8.789,19227.398,267
600,1685917477.287,18.066,404.297,108.398,-11.23,19227.402,267
601,1685917477.291,-50.781,-295.898,-193.359,-20.508,19227.406,267
602,1685917477.294,-64.941,-788.086,-376.465,-16.113,19227.41,266
603,1685917477.298,8.789,-126.465,-12.695,-6.348,19227.414,266
604,1685917477.302,33.203,435.547,195.312,-15.625,19227.418,266
605,1685917477.306,-35.156,-255.371,-159.18,-34.18,19227.421,266
606,1685917477.31,-65.43,-517.578,-200.195,-33.203,19227.425,266
607,1685917477.314,-1.953,323.242,163.574,-2.93,19227.429,266
608,1685917477.33,50.781,473.145,139.16,16.113,19227.446,267
609,1685917477.334,-2.441,-15.625,-93.75,-6.836,19227.45,269
610,1685917477.338,-64.453,-144.531,-64.453,-25.391,19227.454,269
611,1685917477.342,-29.785,276.855,160.156,-9.766,19227.457,269
612,1685917477.346,33.203,432.129,142.578,-3.418,19227.461,270
613,1685917477.35,6.836,-432.129,-222.168,-18.066,19227.465,270
614,1685917477.353,-62.5,-677.246,-240.723,-34.18,19227.469,270
615,1685917477.357,-48.34,45.41,83.008,-22.949,19227.473,270
616,1685917477.361,29.297,-17.09,14.16,-2.93,19227.477,270
617,1685917477.365,34.18,-248.535,-88.379,-11.719,19227.481,273
618,1685917477.369,-35.156,32.715,29.297,-30.273,19227.485,273
619,1685917477.373,-62.012,342.285,132.812,-31.738,19227.489,273
620,1685917477.375,-8.301,106.445,27.344,-13.184,19227.475,276
621,1685917477.379,26.855,100.098,40.527,-7.812,19227.479,276
622,1685917477.383,-22.461,331.543,130.371,-23.438,19227.483,276
623,1685917477.387,-60.547,312.012,108.887,-31.738,19227.487,276
624,1685917477.391,-7.812,36.621,12.207,-12.207,19227.49,280
625,1685917477.395,39.062,-193.359,-42.969,-6.836,19227.494,280
626,1685917477.398,6.348,-41.016,29.297,-28.32,19227.498,280
627,1685917477.402,-48.34,234.863,124.023,-29.785,19227.502,280
628,1685917477.406,-32.715,-313.477,-146.973,-7.812,19227.506,282
629,1685917477.41,34.18,-632.324,-231.934,4.883,19227.51,282
630,1685917477.414,20.02,2.441,116.699,-11.719,19227.514,282
631,1685917477.418,-53.711,224.609,112.793,-30.273,19227.518,283
632,1685917477.42,-56.152,-306.641,-133.789,-11.719,19227.52,283
633,1685917477.424,14.648,-520.508,-87.891,4.395,19227.524,283
634,1685917477.428,34.668,157.715,179.199,-9.277,19227.527,285
635,1685917477.432,-33.691,313.477,98.633,-26.367,19227.531,285
636,1685917477.436,-68.359,-346.191,-125.488,-26.367,19227.535,285
637,1685917477.44,-3.906,-437.5,-47.852,-3.418,19227.539,285
638,1685917477.443,34.18,125.977,137.207,-0.488,19227.543,285
639,1685917477.447,-19.043,198.73,68.848,-11.719,19227.547,288
640,1685917477.451,-62.5,-457.031,-171.387,-14.16,19227.551,288
641,1685917477.455,-16.113,-210.449,56.641,-8.301,19227.555,288
642,1685917477.459,43.457,539.551,245.117,-0.488,19227.559,292
643,1685917477.463,22.949,224.609,37.109,-8.789,19227.563,292
644,1685917477.465,-41.992,-249.023,-83.984,-20.508,19227.565,292
645,1685917477.469,-28.32,-50.781,61.035,-12.695,19227.569,292
646,1685917477.473,46.875,475.098,226.562,10.742,19227.573,295
647,1685917477.477,25.879,118.164,-32.715,7.812,19227.576,295
648,1685917477.481,-49.805,-368.652,-198.73,-9.277,19227.58,295
649,1685917477.485,-41.992,-149.902,15.137,2.441,19227.584,295
650,1685917477.488,50.293,60.059,121.094,31.738,19227.588,298
651,1685917477.492,49.805,-291.016,-104.98,14.648,19227.592,298
652,1685917477.496,-46.387,-572.266,-189.453,-23.926,19227.596,298
653,1685917477.5,-64.453,107.91,134.766,-23.926,19227.6,300
654,1685917477.504,8.301,307.617,139.648,3.906,19227.604,300
655,1685917477.508,49.805,218.75,153.32,19.043,19227.608,300
656,1685917477.51,12.207,153.32,107.422,23.438,19227.61,300
657,1685917477.514,-33.203,-90.82,27.344,29.785,19227.614,303
658,1685917477.518,-3.418,-48.34,95.215,32.227,19227.618,303
659,1685917477.522,47.852,-513.672,-156.25,34.18,19227.622,303
660,1685917477.526,26.855,-609.375,-154.297,23.926,19227.626,303
661,1685917477.53,-29.785,-16.602,106.445,8.789,19227.63,307
662,1685917477.533,-27.344,-83.984,32.715,19.043,19227.633,307
663,1685917477.537,35.645,-434.082,-36.133,30.762,19227.637,307
664,1685917477.541,41.992,-130.371,78.125,15.137,19227.641,312
665,1685917477.545,-22.461,471.68,196.289,-7.812,19227.645,312
666,1685917477.549,-41.504,150.879,44.434,0.488,19227.649,312
667,1685917477.553,27.344,89.844,89.355,18.066,19227.653,312
668,1685917477.556,49.316,462.891,228.027,5.371,19227.654,314
669,1685917477.56,-17.09,499.512,211.914,-19.043,19227.658,314
670,1685917477.564,-50.781,90.82,53.223,-27.832,19227.662,314
671,1685917477.568,9.277,74.707,91.797,-7.812,19227.666,314
672,1685917477.572,45.898,318.359,173.34,0.0,19227.67,314
673,1685917477.576,-9.277,69.824,103.516,-26.367,19227.674,314
674,1685917477.579,-63.477,-474.609,-127.93,-28.809,19227.678,314
675,1685917477.583,-30.762,-902.344,-293.945,-9.766,19227.682,313
676,1685917477.587,40.527,-13.672,159.668,-0.977,19227.686,313
677,1685917477.591,20.996,479.004,220.215,-10.254,19227.69,313
678,1685917477.595,-55.176,32.227,60.059,-22.461,19227.694,313
679,1685917477.599,-55.176,66.406,126.953,-14.16,19227.697,314
680,1685917477.6,22.461,376.953,194.336,5.859,19227.713,314
681,1685917477.604,27.344,201.172,135.254,0.977,19227.717,314
682,1685917477.608,-55.176,-480.957,-75.684,-21.973,19227.721,314
683,1685917477.612,-74.707,-368.652,10.254,-24.414,19227.725,315
684,1685917477.616,2.93,313.477,210.938,-4.395,19227.729,315
685,1685917477.62,40.039,212.891,130.859,0.977,19227.733,315
686,1685917477.623,-25.879,-483.887,-66.406,-16.113,19227.737,314
687,1685917477.627,-57.129,-356.934,20.02,-22.461,19227.741,314
688,1685917477.631,-7.324,149.414,139.16,-9.766,19227.744,314
689,1685917477.635,27.832,-3.418,79.102,-9.277,19227.748,314
690,1685917477.639,-16.113,-136.719,82.031,-30.762,19227.752,313
691,1685917477.643,-70.801,140.625,159.18,-42.48,19227.756,313
692,1685917477.645,-41.016,371.094,190.918,-23.926,19227.759,313
693,1685917477.649,22.461,192.383,105.469,-3.418,19227.763,313
694,1685917477.653,22.949,144.531,144.531,-7.324,19227.767,310
695,1685917477.657,-52.246,283.203,187.988,-27.832,19227.771,310
696,1685917477.661,-59.57,320.801,165.039,-24.902,19227.775,310
697,1685917477.665,14.16,-271.484,-58.105,3.906,19227.778,309
698,1685917477.668,18.555,-526.855,-99.121,0.977,19227.782,309
699,1685917477.672,-42.48,215.82,207.52,-29.297,19227.786,309
700,1685917477.676,-61.035,303.223,167.969,-28.32,19227.79,309
701,1685917477.68,9.277,36.133,152.344,1.465,19227.794,311
702,1685917477.684,46.387,60.059,150.391,1.465,19227.798,311
703,1685917477.688,-18.066,94.727,124.512,-23.926,19227.802,311
704,1685917477.705,-59.57,195.312,168.457,-19.043,19227.805,314
705,1685917477.709,-16.602,-444.824,-138.672,-6.348,19227.808,318
706,1685917477.713,34.18,-656.738,-159.668,-5.371,19227.812,318
707,1685917477.717,10.254,232.91,228.027,-23.438,19227.816,318
708,1685917477.721,-56.152,191.895,139.16,-34.668,19227.82,321
709,1685917477.725,-42.969,-235.84,34.668,-13.672,19227.824,321
710,1685917477.728,20.996,-157.227,103.516,-6.836,19227.828,321
711,1685917477.732,16.113,303.711,201.172,-20.02,19227.832,323
712,1685917477.736,-53.223,148.438,92.285,-45.41,19227.836,323
713,1685917477.74,-64.941,-438.965,-67.871,-33.203,19227.84,323
714,1685917477.744,25.391,4.395,154.297,5.859,19227.844,323
715,1685917477.748,47.852,547.363,294.434,-3.418,19227.848,324
716,1685917477.75,-45.41,149.902,88.379,-40.527,19227.85,324
717,1685917477.754,-91.797,-282.715,-0.977,-48.828,19227.853,324
718,1685917477.758,-36.133,-37.109,166.504,-49.805,19227.857,324
719,1685917477.762,15.137,455.566,293.457,-52.734,19227.861,326
720,1685917477.766,-34.18,21.484,4.395,-56.152,19227.865,326
721,1685917477.77,-98.145,-659.18,-181.152,-60.547,19227.869,326
722,1685917477.773,-48.828,-232.422,131.836,-51.27,19227.873,325
723,1685917477.777,14.16,436.035,311.523,-39.551,19227.877,325
724,1685917477.781,-24.414,-154.297,-12.207,-50.781,19227.881,325
725,1685917477.785,-86.914,-668.457,-156.738,-57.617,19227.885,325
726,1685917477.789,-55.664,92.773,200.195,-44.434,19227.889,322
727,1685917477.793,13.184,333.496,203.125,-28.32,19227.893,322
728,1685917477.795,17.578,172.363,187.5,-26.855,19227.895,322
729,1685917477.799,-62.012,-109.863,123.535,-38.574,19227.899,322
730,1685917477.803,-74.707,-40.039,130.859,-39.062,19227.903,316
731,1685917477.807,14.648,309.57,226.562,-17.578,19227.907,316
732,1685917477.811,27.344,-395.996,-101.562,-7.812,19227.911,316
733,1685917477.815,-36.133,-867.188,-190.43,-24.902,19227.915,309
734,1685917477.818,-72.266,-131.348,175.293,-39.062,19227.918,309
735,1685917477.822,-20.02,194.336,195.312,-32.227,19227.922,309
736,1685917477.826,30.273,-410.156,3.418,-24.902,19227.926,309
737,1685917477.83,-0.977,-234.375,125.488,-42.969,19227.93,305
738,1685917477.834,-52.734,369.629,231.445,-53.711,19227.934,305
739,1685917477.838,-16.113,80.078,105.957,-30.273,19227.938,305
740,1685917477.86,52.734,33.203,140.625,-7.324,19227.969,301
741,1685917477.864,14.16,325.195,225.098,-23.438,19227.973,301
742,1685917477.868,-65.43,261.23,214.844,-41.016,19227.977,301
743,1685917477.872,-65.43,-29.785,98.633,-23.438,19227.98,298
744,1685917477.876,5.371,17.578,129.883,-10.742,19227.984,298
745,1685917477.88,17.578,40.527,162.598,-15.137,19227.988,298
746,1685917477.883,-46.387,-172.852,99.121,-32.715,19227.992,299
747,1685917477.885,-17.578,146.973,222.656,-7.324,19227.985,299
748,1685917477.887,-64.453,-579.102,-70.312,-27.832,19227.996,299
749,1685917477.889,42.969,251.465,193.359,-4.395,19227.989,299
750,1685917477.891,8.301,-873.535,-174.805,-4.883,19228.0,299
751,1685917477.893,-5.859,1.953,112.793,-25.391,19227.992,299
752,1685917477.895,51.758,15.137,183.594,-9.766,19228.004,299
753,1685917477.897,-84.473,-444.336,-20.996,-38.574,19227.996,299
754,1685917477.899,-10.254,374.512,207.52,-25.879,19228.008,299
755,1685917477.901,-45.41,-308.594,112.305,-25.391,19228.0,301
756,1685917477.903,-66.895,-47.363,135.742,-25.391,19228.012,301
757,1685917477.905,29.297,155.762,238.77,-14.648,19228.004,301
758,1685917477.908,9.277,-25.879,127.441,-30.762,19228.008,301
759,1685917477.912,-61.523,-197.754,126.465,-39.551,19228.012,309
760,1685917477.916,-67.871,74.707,207.52,-32.227,19228.016,309
761,1685917477.92,-2.441,216.797,209.961,-20.508,19228.02,309
762,1685917477.924,12.695,23.926,138.672,-21.484,19228.024,318
763,1685917477.928,-53.223,-501.953,-13.672,-38.574,19228.028,318
764,1685917477.93,-80.566,-354.492,108.398,-46.387,19228.03,318
765,1685917477.934,-10.254,398.926,316.406,-33.691,19228.034,318
766,1685917477.938,28.32,153.32,118.652,-26.855,19228.037,318
767,1685917477.942,-28.32,-435.547,34.18,-33.203,19228.041,330
768,1685917477.946,-71.289,13.184,233.887,-34.668,19228.045,330
769,1685917477.95,-24.414,271.973,240.723,-17.578,19228.049,330
770,1685917477.953,32.227,-304.688,25.879,-5.371,19228.053,340
771,1685917477.957,-5.371,-519.043,3.906,-23.926,19228.057,340
772,1685917477.961,-73.73,188.965,271.484,-44.434,19228.061,340
773,1685917477.965,-51.27,380.371,256.348,-28.32,19228.065,350
774,1685917477.969,24.902,243.164,248.535,-12.207,19228.069,350
775,1685917477.973,18.066,151.367,190.918,-27.832,19228.073,350
776,1685917477.976,-59.57,72.754,148.926,-44.922,19228.078,350
777,1685917477.98,-67.383,155.273,197.754,-44.434,19228.082,350
778,1685917477.984,-3.418,-492.676,0.488,-18.555,19228.086,358
779,1685917477.988,15.137,-570.801,28.32,-15.137,19228.089,358
780,1685917477.992,-41.016,284.668,251.465,-29.785,19228.093,358
781,1685917477.996,-63.477,95.703,141.113,-14.16,19228.097,367
782,1685917477.999,-5.371,-541.016,-1.953,1.465,19228.101,367
783,1685917478.003,24.902,-180.176,151.367,-18.066,19228.105,367
784,1685917478.007,-25.391,500.977,288.086,-37.598,19228.109,367
785,1685917478.011,-90.332,153.809,144.043,-53.223,19228.113,374
786,1685917478.015,-77.148,-0.977,191.406,-60.059,19228.117,374
787,1685917478.019,-21.484,390.625,314.941,-48.828,19228.121,374
788,1685917478.035,-39.062,554.199,305.176,-54.688,19228.135,377
789,1685917478.039,-109.375,135.254,138.672,-69.824,19228.139,377
790,1685917478.043,-109.863,-259.277,84.961,-64.453,19228.142,377
791,1685917478.047,-29.785,143.066,260.254,-46.875,19228.146,377
792,1685917478.051,-14.16,526.367,348.145,-44.922,19228.15,373
793,1685917478.055,-84.473,-166.504,20.02,-52.734,19228.154,373
794,1685917478.058,-100.586,-930.176,-231.445,-44.922,19228.158,373
795,1685917478.062,-20.508,-127.93,185.547,-30.273,19228.162,373
796,1685917478.066,16.602,478.027,305.664,-26.855,19228.166,368
797,1685917478.07,-43.945,141.113,201.172,-37.109,19228.17,368
798,1685917478.074,-79.59,77.637,203.125,-40.039,19228.174,368
799,1685917478.078,-35.156,308.105,250.488,-31.25,19228.178,363
800,1685917478.08,17.09,403.32,283.691,-27.344,19228.18,363
801,1685917478.084,-12.207,-11.23,197.754,-29.297,19228.184,363
802,1685917478.088,-73.242,-167.48,184.082,-31.738,19228.188,363
803,1685917478.092,-42.969,265.625,289.551,-22.949,19228.192,356
804,1685917478.096,18.066,373.047,280.273,-12.207,19228.196,356
805,1685917478.1,-10.742,-338.867,16.602,-17.578,19228.199,356
806,1685917478.103,-77.637,-650.391,5.859,-27.832,19228.203,356
807,1685917478.107,-78.125,41.504,257.812,-25.391,19228.207,346
808,1685917478.111,-6.348,314.453,272.461,-11.23,19228.211,346
809,1685917478.115,9.766,-354.98,81.543,-15.625,19228.215,346
810,1685917478.119,-55.664,-202.148,175.781,-36.133,19228.219,333
811,1685917478.123,-82.031,421.387,326.66,-35.156,19228.223,333
812,1685917478.125,-17.578,203.613,218.75,-23.438,19228.225,333
813,1685917478.129,28.32,129.395,220.215,-21.973,19228.229,333
814,1685917478.133,-32.715,333.496,290.527,-27.832,19228.232,320
815,1685917478.137,-83.984,313.965,260.254,-28.809,19228.236,320
816,1685917478.141,-30.762,83.008,176.27,-7.324,19228.24,320
817,1685917478.145,18.555,-83.496,176.27,-6.348,19228.244,308
818,1685917478.148,-11.23,-61.035,200.684,-23.926,19228.248,308
819,1685917478.152,-66.406,-11.23,192.383,-35.645,19228.252,308
820,1685917478.156,-45.898,-447.266,15.137,-20.996,19228.256,308
821,1685917478.16,18.066,-770.996,18.555,-7.324,19228.26,300
822,1685917478.164,5.859,77.637,333.984,-25.391,19228.264,300
823,1685917478.168,-56.152,330.566,241.211,-38.086,19228.268,300
824,1685917478.171,-60.059,26.855,194.336,-28.809,19228.284,300
825,1685917478.175,6.836,5.371,235.352,-8.789,19228.288,295
826,1685917478.179,18.555,183.105,261.23,-8.301,19228.292,295
827,1685917478.183,-51.27,305.664,225.098,-31.738,19228.296,295
828,1685917478.187,-82.52,-358.398,14.648,-32.715,19228.3,290
829,1685917478.191,-10.254,-498.535,93.75,-5.859,19228.304,290
830,1685917478.194,30.762,132.324,273.926,-3.906,19228.308,290
831,1685917478.198,-28.809,261.23,228.027,-26.855,19228.311,290
832,1685917478.202,-88.867,-434.57,13.672,-44.434,19228.315,290
833,1685917478.206,-51.758,-283.203,144.531,-32.227,19228.319,287
834,1685917478.21,15.625,240.723,285.156,-12.695,19228.323,287
835,1685917478.214,-14.648,-92.773,129.395,-20.996,19228.327,287
836,1685917478.215,-83.984,-297.363,115.723,-47.852,19228.315,287
837,1685917478.219,-58.105,149.414,281.738,-44.922,19228.319,287
838,1685917478.223,17.09,448.242,329.102,-22.461,19228.323,287
839,1685917478.227,3.906,243.164,206.055,-29.297,19228.327,290
840,1685917478.231,-69.824,82.52,152.832,-46.387,19228.33,290
841,1685917478.235,-79.59,6.836,201.172,-38.086,19228.334,290
842,1685917478.238,-7.324,39.551,239.746,-21.484,19228.338,290
843,1685917478.242,9.766,-272.461,99.121,-29.785,19228.342,290
844,1685917478.246,-53.223,-343.262,112.305,-38.086,19228.346,297
845,1685917478.25,-74.707,230.957,279.785,-35.156,19228.35,297
846,1685917478.254,-16.602,406.738,274.902,-22.461,19228.354,297
847,1685917478.258,14.648,-135.742,133.789,-11.23,19228.358,303
848,1685917478.261,-41.504,-409.668,70.801,-26.367,19228.363,303
849,1685917478.265,-88.379,-120.605,164.062,-40.527,19228.367,303
850,1685917478.269,-45.41,-7.812,204.59,-20.02,19228.371,307
851,1685917478.273,14.648,-415.527,87.891,-6.348,19228.375,307
852,1685917478.277,-20.996,-595.703,82.52,-36.621,19228.379,307
853,1685917478.281,-83.984,-61.523,191.406,-56.641,19228.382,307
854,1685917478.284,-70.312,-16.602,175.293,-32.227,19228.386,307
855,1685917478.288,0.488,-379.883,157.227,-10.742,19228.39,310
856,1685917478.292,20.02,-103.516,240.234,-16.113,19228.394,310
857,1685917478.296,-48.34,503.418,295.898,-28.32,19228.398,310
858,1685917478.3,-73.73,148.438,178.711,-25.879,19228.402,311
859,1685917478.304,-1.465,93.75,230.957,-16.113,19228.406,311
860,1685917478.306,30.273,485.84,332.031,-19.531,19228.405,311
861,1685917478.31,-31.738,525.879,287.109,-34.668,19228.409,314
862,1685917478.314,-76.66,45.41,111.328,-30.273,19228.412,314
863,1685917478.318,-33.691,-229.98,113.77,-20.996,19228.416,314
864,1685917478.322,26.855,201.66,281.738,-17.09,19228.42,314
865,1685917478.326,-7.324,216.797,266.602,-26.855,19228.424,316
866,1685917478.329,-87.891,-468.262,-11.719,-45.41,19228.428,316
867,1685917478.333,-63.965,-910.645,-162.109,-40.527,19228.432,316
868,1685917478.337,18.066,-41.016,234.375,-27.344,19228.436,316
869,1685917478.341,0.488,521.484,335.938,-32.227,19228.44,317
870,1685917478.345,-80.078,91.309,223.633,-49.805,19228.444,317
871,1685917478.349,-81.055,80.078,248.047,-43.457,19228.448,317
872,1685917478.351,1.465,252.441,285.156,-22.461,19228.466,317
873,1685917478.355,17.578,121.582,235.84,-27.832,19228.47,315
874,1685917478.359,-61.523,-423.34,37.598,-41.992,19228.473,315
875,1685917478.363,-85.449,-317.383,142.09,-42.48,19228.477,315
876,1685917478.367,-8.301,294.922,286.133,-28.809,19228.481,312
877,1685917478.371,22.461,194.824,229.492,-32.715,19228.485,312
878,1685917478.374,-41.504,-554.199,-29.297,-46.875,19228.489,312
879,1685917478.378,-84.473,-624.023,17.578,-56.152,19228.493,312
880,1685917478.382,-36.621,314.453,324.219,-49.805,19228.497,308
881,1685917478.386,22.461,290.527,250.488,-36.133,19228.501,308
882,1685917478.39,-13.672,16.602,222.168,-48.828,19228.505,308
883,1685917478.394,-73.73,225.586,247.07,-58.594,19228.509,308
884,1685917478.396,-39.551,390.625,288.574,-40.039,19228.508,304
885,1685917478.4,34.18,208.984,233.887,-27.832,19228.512,304
886,1685917478.404,6.836,48.34,179.199,-29.297,19228.516,304
887,1685917478.408,-70.801,201.66,230.957,-44.434,19228.52,300
888,1685917478.412,-69.336,293.457,258.789,-49.805,19228.524,300
889,1685917478.416,-3.418,-256.348,25.391,-24.414,19228.528,300
890,1685917478.419,18.555,-538.086,20.508,-24.414,19228.532,294
891,1685917478.423,-37.109,140.137,279.785,-44.922,19228.536,294
892,1685917478.427,-76.66,168.457,185.059,-33.203,19228.54,294
893,1685917478.431,-28.32,-459.473,48.34,-17.09,19228.544,294
894,1685917478.435,23.926,-371.094,158.691,-15.137,19228.548,294
895,1685917478.439,-16.602,328.125,310.547,-33.691,19228.551,288
896,1685917478.456,-75.684,227.051,194.824,-52.246,19228.555,285
897,1685917478.46,-44.434,-215.332,154.785,-37.598,19228.559,285
898,1685917478.464,13.672,-80.078,225.098,-22.461,19228.562,284
899,1685917478.468,-0.488,387.695,292.48,-36.133,19228.566,284
900,1685917478.472,-67.871,262.207,215.332,-43.945,19228.57,284
901,1685917478.476,-63.477,-526.855,-68.359,-36.621,19228.574,286
902,1685917478.479,16.113,-450.684,80.078,-35.156,19228.578,286
903,1685917478.483,22.461,387.695,346.191,-42.969,19228.582,286
904,1685917478.487,-54.688,162.109,162.598,-46.875,19228.586,286
905,1685917478.491,-82.52,-275.391,125.0,-39.551,19228.59,291
906,1685917478.495,-10.742,77.637,280.762,-25.879,19228.594,291
907,1685917478.499,20.02,228.516,270.996,-22.949,19228.598,291
908,1685917478.5,-44.922,-161.133,101.562,-40.527,19228.6,291
909,1685917478.504,-82.52,-351.074,101.562,-34.668,19228.603,298
910,1685917478.508,-6.348,147.461,289.062,-7.812,19228.607,298
911,1685917478.512,41.016,453.613,298.34,-25.391,19228.611,298
912,1685917478.516,-33.691,101.074,152.832,-60.547,19228.615,298
913,1685917478.52,-96.191,-363.77,59.57,-66.895,19228.619,303
914,1685917478.523,-62.988,-163.086,186.523,-62.5,19228.623,303
915,1685917478.527,2.441,395.996,335.449,-58.105,19228.627,303
916,1685917478.531,-21.484,-166.992,69.336,-55.664,19228.631,311
917,1685917478.535,-96.68,-683.105,-44.922,-69.336,19228.635,311
918,1685917478.539,-90.82,113.281,292.48,-70.312,19228.639,311
919,1685917478.543,-21.973,384.277,305.176,-50.781,19228.643,311
920,1685917478.546,-9.277,153.32,240.234,-48.828,19228.648,311
921,1685917478.55,-68.359,-82.52,171.387,-50.293,19228.652,320
922,1685917478.554,-87.891,-220.703,130.859,-44.922,19228.656,320
923,1685917478.558,-8.301,-2.441,229.004,-32.227,19228.66,320
924,1685917478.562,22.949,-392.578,31.25,-22.461,19228.664,328
925,1685917478.566,-38.086,-796.387,-64.941,-41.504,19228.667,328
926,1685917478.569,-84.473,-276.367,161.621,-56.641,19228.671,328
927,1685917478.573,-38.086,-44.434,166.504,-38.086,19228.675,334
928,1685917478.577,24.414,-412.598,96.68,-19.043,19228.679,334
929,1685917478.581,-10.254,-137.207,209.473,-28.32,19228.683,334
930,1685917478.585,-71.777,415.527,296.875,-43.945,19228.687,334
931,1685917478.589,-48.828,123.047,167.969,-28.32,19228.691,338
932,1685917478.591,26.855,126.953,222.656,-16.113,19228.69,338
933,1685917478.595,9.766,398.926,307.129,-30.273,19228.694,338
934,1685917478.599,-58.594,400.879,262.695,-41.016,19228.698,338
935,1685917478.603,-55.664,0.488,136.719,-30.762,19228.702,339
936,1685917478.607,7.324,-227.539,142.578,-14.16,19228.706,339
937,1685917478.611,33.203,-25.391,214.355,-19.531,19228.71,339
938,1685917478.614,-29.297,1.953,203.613,-41.016,19228.714,338
939,1685917478.618,-62.012,-424.316,5.859,-34.668,19228.717,338
940,1685917478.622,-1.953,-847.168,-111.816,-10.254,19228.721,338
941,1685917478.626,34.18,1.465,277.344,-8.789,19228.725,338
942,1685917478.63,-13.184,461.914,312.5,-18.066,19228.729,338
943,1685917478.634,-59.57,68.848,202.148,-22.949,19228.733,338
944,1685917478.665,-8.789,159.18,276.855,-9.277,19228.765,339
945,1685917478.669,48.34,191.895,268.555,0.977,19228.769,339
946,1685917478.673,17.578,76.172,211.426,-19.043,19228.773,336
947,1685917478.677,-46.875,-345.215,69.336,-34.668,19228.777,336
948,1685917478.68,-76.172,268.066,296.387,-38.086,19228.78,336
949,1685917478.681,-39.551,-240.723,168.457,-26.855,19228.781,336
950,1685917478.684,-9.766,479.492,306.641,-19.531,19228.784,334
951,1685917478.685,27.344,170.41,263.672,-19.531,19228.785,334
952,1685917478.688,18.066,35.645,221.191,-24.902,19228.789,334
953,1685917478.688,35.156,286.133,235.84,-20.02,19228.788,334
954,1685917478.692,-67.383,-583.496,-47.363,-27.344,19228.792,334
955,1685917478.692,-20.02,119.141,190.918,-36.133,19228.792,334
956,1685917478.696,-74.219,-783.203,-99.121,-19.531,19228.796,334
957,1685917478.696,-69.824,229.492,239.258,-40.527,19228.795,334
958,1685917478.7,10.254,273.926,335.938,-5.859,19228.8,332
959,1685917478.7,-37.598,91.309,205.078,-33.203,19228.799,332
960,1685917478.703,24.902,-196.289,108.398,-15.625,19228.803,332
961,1685917478.704,38.086,389.16,261.23,-3.906,19228.804,332
962,1685917478.707,8.301,-24.902,178.223,-25.391,19228.807,332
963,1685917478.708,-29.297,-7.324,185.547,-25.879,19228.808,332
964,1685917478.711,-49.805,337.891,284.668,-37.598,19228.811,333
965,1685917478.715,-41.992,160.156,211.426,-20.508,19228.815,333
966,1685917478.719,23.438,-148.926,205.078,-11.23,19228.819,333
967,1685917478.723,22.949,61.035,255.859,-23.438,19228.823,332
968,1685917478.725,-51.758,306.152,244.141,-35.645,19228.853,332
969,1685917478.729,-66.895,60.547,220.215,-24.902,19228.857,332
970,1685917478.733,-1.953,-519.043,55.176,0.488,19228.861,332
971,1685917478.737,18.066,-1000.0,-144.531,1.953,19228.865,332
972,1685917478.741,-43.457,-252.93,156.738,-27.344,19228.869,330
973,1685917478.745,-82.031,119.141,251.953,-24.414,19228.873,330
974,1685917478.748,-29.297,-563.477,0.488,2.93,19228.877,330
975,1685917478.752,35.156,-200.684,167.48,0.0,19228.88,326
976,1685917478.756,3.906,556.152,350.586,-19.531,19228.884,326
977,1685917478.76,-67.871,222.168,193.848,-26.367,19228.888,326
978,1685917478.764,-40.039,105.469,222.168,-9.766,19228.892,322
979,1685917478.768,36.621,437.5,329.59,1.953,19228.896,322
980,1685917478.773,17.09,282.227,264.648,-14.648,19228.877,322
981,1685917478.777,-62.5,-203.613,91.797,-29.785,19228.881,322
982,1685917478.781,-53.223,-301.27,105.957,-19.531,19228.885,320
983,1685917478.785,25.391,302.734,312.988,-5.859,19228.889,320
984,1685917478.789,23.438,571.289,331.543,-9.766,19228.893,320
985,1685917478.793,-47.852,-158.691,38.574,-18.066,19228.897,320
986,1685917478.796,-67.871,-565.918,8.301,-18.066,19228.9,320
987,1685917478.8,8.789,293.945,370.605,-10.742,19228.904,320
988,1685917478.804,47.852,572.266,336.914,-15.625,19228.908,318
989,1685917478.808,-16.602,71.289,229.492,-25.391,19228.912,318
990,1685917478.812,-77.148,4.395,237.793,-19.531,19228.916,318
991,1685917478.816,-28.32,366.699,305.664,-11.23,19228.92,318
992,1685917478.831,40.527,445.312,327.637,-9.277,19228.929,315
993,1685917478.835,-0.977,34.18,210.449,-26.855,19228.933,312
994,1685917478.839,-77.637,-268.555,141.113,-35.156,19228.937,312
995,1685917478.843,-49.316,13.672,235.84,-25.879,19228.941,312
996,1685917478.847,25.879,416.016,338.867,-25.879,19228.945,312
997,1685917478.851,2.441,-315.43,-14.648,-25.879,19228.949,308
998,1685917478.854,-73.73,-1000.0,-231.445,-35.645,19228.953,308
999,1685917478.858,-66.406,-103.516,213.379,-38.086,19228.957,308
1000,1685917478.862,10.742,385.742,311.523,-20.996,19228.961,307
1001,1685917478.866,28.32,200.684,243.164,-26.367,19228.964,307
1002,1685917478.87,-41.016,348.145,278.32,-50.781,19228.968,307
1003,1685917478.874,-83.008,394.043,270.02,-50.781,19228.972,307
1004,1685917478.876,-16.113,181.641,229.004,-20.02,19228.975,308
1005,1685917478.88,39.062,134.277,215.82,-11.23,19228.979,308
1006,1685917478.884,-14.648,363.77,289.551,-31.25,19228.983,308
1007,1685917478.888,-67.383,347.656,283.203,-40.527,19228.987,308
1008,1685917478.892,-28.809,7.812,174.805,-25.879,19228.991,309
1009,1685917478.896,38.086,-189.453,160.156,-2.93,19228.994,309
1010,1685917478.899,9.277,-118.652,199.219,-19.531,19228.998,309
1011,1685917478.903,-72.754,-45.41,207.52,-44.922,19229.002,308
1012,1685917478.907,-55.176,-369.629,56.641,-15.625,19229.006,308
1013,1685917478.911,23.926,-784.668,62.5,2.441,19229.01,308
1014,1685917478.915,32.715,12.207,343.75,-17.578,19229.014,308
1015,1685917478.919,-29.785,401.367,275.879,-24.414,19229.018,307
1016,1685917478.921,-57.617,73.73,233.887,-28.32,19229.02,307
1017,1685917478.925,-21.973,-51.27,233.398,-36.133,19229.024,307
1018,1685917478.929,-6.348,166.504,272.949,-47.852,19229.027,307
1019,1685917478.933,-62.012,399.902,280.273,-54.688,19229.031,306
1020,1685917478.937,-120.605,-274.902,55.664,-64.453,19229.035,306
1021,1685917478.941,-87.891,-494.629,104.98,-67.383,19229.039,306
1022,1685917478.944,-52.246,144.531,286.621,-80.566,19229.043,306
1023,1685917478.948,-101.074,305.664,291.016,-108.398,19229.047,306
1024,1685917478.952,-166.992,-601.074,-55.176,-114.746,19229.051,306
1025,1685917478.956,-145.996,-653.809,5.371,-117.676,19229.055,306
1026,1685917478.96,-74.707,412.109,377.93,-120.117,19229.059,307
1027,1685917478.964,-95.215,266.602,238.77,-115.234,19229.063,307
1028,1685917478.97,-183.105,-47.852,191.895,-135.254,19229.078,307
1029,1685917478.974,-184.082,274.902,297.363,-141.602,19229.082,308
1030,1685917478.978,-103.027,514.16,347.168,-133.789,19229.086,308
1031,1685917478.982,-104.004,266.602,243.652,-149.902,19229.09,308
1032,1685917478.986,-173.828,32.715,174.805,-154.297,19229.094,306
1033,1685917478.99,-173.34,-19.531,184.082,-135.254,19229.097,306
1034,1685917478.993,-110.352,32.227,254.395,-121.582,19229.101,306
1035,1685917478.997,-98.633,-287.109,87.891,-123.047,19229.105,306
1036,1685917479.001,-142.09,-553.711,17.578,-128.418,19229.109,303
1037,1685917479.005,-161.621,96.68,280.762,-128.418,19229.113,303
1038,1685917479.009,-106.934,144.531,243.164,-113.77,19229.117,303
1039,1685917479.01,-71.777,6.348,242.676,-96.191,19229.11,303
1040,1685917479.013,-44.922,-212.891,185.059,-98.633,19229.121,303
1041,1685917479.014,-130.859,125.0,210.938,-100.586,19229.114,302
1042,1685917479.018,-104.98,-99.121,178.711,-88.379,19229.118,302
1043,1685917479.022,-34.668,-322.754,169.434,-56.152,19229.121,302
1044,1685917479.026,-38.086,-185.059,182.617,-50.781,19229.125,302
1045,1685917479.03,-90.332,15.137,192.871,-70.801,19229.129,302
1046,1685917479.033,-84.473,-102.539,176.758,-64.453,19229.133,302
1047,1685917479.037,-0.977,-435.547,104.492,-27.344,19229.137,302
1048,1685917479.041,20.508,-192.383,202.637,-23.438,19229.141,302
1049,1685917479.045,-48.34,485.84,351.562,-42.969,19229.145,302
1050,1685917479.049,-61.523,175.293,225.098,-25.879,19229.149,302
1051,1685917479.053,10.742,31.738,262.207,-3.906,19229.153,302
1052,1685917479.056,56.641,355.469,318.359,-5.859,19229.158,301
1053,1685917479.06,-0.977,229.98,239.258,-14.16,19229.162,301
1054,1685917479.064,-51.27,-268.555,81.055,-1.465,19229.166,301
1055,1685917479.068,5.859,-313.965,118.652,17.09,19229.17,298
1056,1685917479.072,66.895,299.805,318.359,20.02,19229.174,298
1057,1685917479.076,29.785,265.625,269.043,7.324,19229.178,298
1058,1685917479.079,-42.48,-443.848,22.461,-4.883,19229.182,298
1059,1685917479.083,-23.926,-628.418,3.906,3.418,19229.186,298
1060,1685917479.087,57.617,270.02,354.98,17.578,19229.19,295
1061,1685917479.091,52.246,489.258,337.402,20.996,19229.194,295
1062,1685917479.095,-21.484,52.734,248.047,0.488,19229.197,295
1063,1685917479.099,-26.367,84.473,285.156,2.441,19229.201,293
1064,1685917479.115,49.316,408.691,341.309,29.297,19229.215,293
1065,1685917479.119,70.312,317.383,307.129,21.484,19229.219,293
1066,1685917479.123,-2.441,-376.465,87.402,-1.465,19229.223,293
1067,1685917479.127,-40.039,-527.344,85.449,-5.371,19229.226,292
1068,1685917479.131,22.461,68.848,263.672,11.719,19229.23,292
1069,1685917479.135,66.406,213.867,292.48,19.043,19229.234,292
1070,1685917479.138,14.648,-559.082,-45.898,4.883,19229.238,290
1071,1685917479.142,-33.691,-759.277,-58.594,9.766,19229.242,290
1072,1685917479.146,14.648,233.887,362.793,26.855,19229.246,290
1073,1685917479.146,-21.973,334.961,299.805,12.207,19229.258,290
1074,1685917479.15,70.801,354.004,312.988,33.691,19229.25,288
1075,1685917479.15,63.477,151.367,251.465,26.855,19229.262,288
1076,1685917479.154,33.691,147.949,263.672,28.32,19229.254,288
1077,1685917479.154,62.5,78.125,241.211,20.02,19229.266,288
1078,1685917479.158,-26.367,257.324,281.738,2.93,19229.27,288
1079,1685917479.158,-40.039,310.547,295.41,13.672,19229.258,288
1080,1685917479.162,-42.969,286.133,296.875,17.09,19229.274,288
1081,1685917479.166,35.156,-184.082,152.344,37.109,19229.278,287
1082,1685917479.169,50.293,-457.031,123.535,27.832,19229.282,287
1083,1685917479.173,-11.719,-85.449,264.648,0.488,19229.286,287
1084,1685917479.177,-41.504,265.625,329.102,-13.672,19229.29,287
1085,1685917479.181,-0.488,-222.656,134.277,-1.953,19229.293,287
1086,1685917479.185,45.41,-795.898,83.496,16.602,19229.297,287
1087,1685917479.189,6.836,37.598,343.75,3.906,19229.301,287
1088,1685917479.206,-58.594,246.094,257.812,-16.602,19229.305,290
1089,1685917479.21,-32.227,-239.746,215.332,-8.301,19229.309,290
1090,1685917479.214,38.574,-7.812,318.359,-0.488,19229.313,290
1091,1685917479.218,30.762,389.648,349.609,-6.348,19229.317,290
1092,1685917479.222,-28.809,351.074,296.387,-7.812,19229.321,290
1093,1685917479.226,-32.227,-529.785,40.527,3.418,19229.325,290
1094,1685917479.229,28.809,-606.445,130.859,1.953,19229.329,290
1095,1685917479.233,30.762,407.227,399.902,-24.414,19229.333,290
1096,1685917479.237,-49.316,165.527,225.586,-41.992,19229.337,289
1097,1685917479.241,-81.055,-452.148,181.152,-26.855,19229.34,289
1098,1685917479.245,-20.02,27.344,353.027,-15.137,19229.344,289
1099,1685917479.249,15.625,644.531,406.25,-15.137,19229.348,290
1100,1685917479.25,-37.109,249.512,248.047,-29.785,19229.35,290
1101,1685917479.254,-84.473,-68.359,218.75,-33.203,19229.354,290
1102,1685917479.258,-24.902,285.645,354.98,-5.859,19229.357,290
1103,1685917479.262,35.645,513.672,375.0,-2.93,19229.361,292
1104,1685917479.266,-12.695,211.426,248.535,-24.414,19229.365,292
1105,1685917479.27,-68.848,-316.406,144.043,-34.668,19229.369,292
1106,1685917479.273,-38.574,-168.457,263.672,-23.438,19229.373,292
1107,1685917479.277,31.738,429.688,393.066,-8.789,19229.377,293
1108,1685917479.281,19.043,-89.355,159.18,-10.742,19229.381,293
1109,1685917479.285,-52.246,-617.188,112.793,-13.184,19229.385,293
1110,1685917479.289,-52.734,66.895,350.586,-8.301,19229.389,295
1111,1685917479.293,16.113,136.719,305.176,-7.324,19229.393,295
1112,1685917479.296,16.602,-227.051,236.816,-15.625,19229.395,295
1113,1685917479.3,-49.316,-355.469,203.125,-28.32,19229.399,295
1114,1685917479.304,-67.871,-58.105,283.203,-24.902,19229.402,294
1115,1685917479.308,1.465,270.508,337.891,-3.906,19229.406,294
1116,1685917479.312,33.691,-188.965,211.914,0.488,19229.41,294
1117,1685917479.316,-27.832,-485.84,192.383,-9.277,19229.414,294
1118,1685917479.319,-66.406,-23.438,298.828,-12.695,19229.418,294
1119,1685917479.323,-9.277,198.73,308.594,-5.371,19229.422,294
1120,1685917479.327,50.781,-359.375,215.82,-3.418,19229.426,294
1121,1685917479.331,9.277,-189.453,305.176,-23.926,19229.43,294
1122,1685917479.335,-53.711,421.875,362.305,-24.902,19229.434,294
1123,1685917479.339,-35.645,145.02,255.371,-10.254,19229.438,294
1124,1685917479.341,23.438,145.996,320.801,-9.277,19229.443,294
1125,1685917479.345,23.438,257.324,329.59,-10.254,19229.447,297
1126,1685917479.349,-35.645,167.969,298.34,-8.301,19229.451,297
1127,1685917479.353,-48.34,-91.797,219.727,-12.207,19229.455,297
1128,1685917479.357,17.578,-243.164,225.098,1.465,19229.459,297
1129,1685917479.361,38.574,33.203,323.73,1.953,19229.463,299
1130,1685917479.364,-26.367,20.02,276.367,-20.02,19229.467,299
1131,1685917479.368,-63.965,-400.391,132.812,-20.996,19229.47,299
1132,1685917479.372,-19.043,-549.316,178.711,-10.742,19229.474,300
1133,1685917479.376,32.715,348.633,415.039,-11.719,19229.478,300
1134,1685917479.38,-10.742,485.352,334.473,-26.855,19229.482,300
1135,1685917479.384,-69.336,61.523,318.359,-34.668,19229.486,300
1136,1685917479.386,-33.203,189.453,372.559,-22.949,19229.485,300
1137,1685917479.39,20.996,252.93,321.289,-15.137,19229.488,299
1138,1685917479.394,-2.93,90.332,304.688,-20.02,19229.492,299
1139,1685917479.398,-67.383,-343.262,198.73,-21.973,19229.496,299
1140,1685917479.402,-52.246,-429.688,214.355,-9.766,19229.5,299
1141,1685917479.406,20.508,34.668,336.426,-2.441,19229.504,299
1142,1685917479.409,15.625,159.18,343.262,-14.648,19229.508,299
1143,1685917479.413,-50.781,-537.109,110.84,-27.344,19229.512,300
1144,1685917479.417,-70.312,-705.078,152.344,-22.461,19229.516,300
1145,1685917479.421,0.488,387.695,434.57,-13.184,19229.52,300
1146,1685917479.425,39.551,459.961,356.445,-13.672,19229.524,300
1147,1685917479.429,-20.996,147.949,335.938,-24.414,19229.527,301
1148,1685917479.43,-62.5,302.246,370.117,-28.809,19229.53,301
1149,1685917479.434,-10.254,439.941,387.695,-5.859,19229.534,301
1150,1685917479.438,31.738,267.09,330.078,6.348,19229.537,301
1151,1685917479.442,-1.953,169.922,329.59,-6.836,19229.541,303
1152,1685917479.446,-61.523,250.977,354.492,-17.578,19229.545,303
1153,1685917479.45,-35.156,78.613,324.219,-7.324,19229.549,303
1154,1685917479.453,34.668,-319.824,190.43,7.324,19229.553,304
1155,1685917479.457,12.207,-785.645,165.039,3.906,19229.557,304
1156,1685917479.461,-56.152,-148.438,354.492,-21.973,19229.561,304
1157,1685917479.465,-52.246,364.746,362.305,-18.066,19229.565,304
1158,1685917479.469,21.973,154.785,374.023,1.465,19229.569,303
1159,1685917479.473,28.32,226.562,375.0,-8.301,19229.573,303
1160,1685917479.476,-41.504,372.07,368.164,-19.043,19229.588,303
1161,1685917479.48,-61.035,132.812,327.637,-19.531,19229.592,303
1162,1685917479.484,-2.441,-414.551,231.445,-0.977,19229.596,303
1163,1685917479.488,30.273,-189.941,309.082,6.348,19229.6,303
1164,1685917479.492,-21.973,306.152,363.281,-13.672,19229.604,305
1165,1685917479.496,-66.895,31.738,282.227,-20.996,19229.608,305
1166,1685917479.499,-26.367,-546.875,191.895,-4.395,19229.611,305
1167,1685917479.503,31.25,-250.0,289.551,-5.859,19229.615,305
1168,1685917479.507,3.906,473.145,394.531,-22.461,19229.619,305
1169,1685917479.511,-68.848,86.914,273.438,-23.926,19229.623,307
1170,1685917479.515,-37.598,-276.367,271.484,-11.719,19229.627,307
1171,1685917479.519,42.48,250.0,412.598,-0.977,19229.631,307
1172,1685917479.52,24.902,588.379,436.035,-11.23,19229.634,307
1173,1685917479.524,-46.387,112.305,282.227,-14.16,19229.638,309
1174,1685917479.528,-56.641,-83.008,268.066,-14.648,19229.642,309
1175,1685917479.532,7.812,334.473,405.273,-15.625,19229.646,309
1176,1685917479.536,30.273,479.98,417.969,-18.066,19229.65,309
1177,1685917479.54,-52.734,-201.172,176.27,-34.668,19229.654,309
1178,1685917479.543,-88.867,-651.855,135.742,-37.598,19229.658,309
1179,1685917479.547,-12.695,125.0,386.719,-16.602,19229.662,309
1180,1685917479.551,36.133,478.516,411.133,-12.207,19229.665,308
1181,1685917479.555,-40.039,39.551,333.984,-45.41,19229.669,308
1182,1685917479.559,-112.793,-47.852,323.242,-61.523,19229.673,308
1183,1685917479.563,-55.176,268.555,384.766,-37.109,19229.677,308
1184,1685917479.581,26.855,261.23,386.719,-18.066,19229.68,309
1185,1685917479.585,-1.465,-453.125,166.016,-25.879,19229.684,309
1186,1685917479.589,-73.73,-692.383,156.25,-34.668,19229.688,309
1187,1685917479.593,-37.598,228.027,438.477,-10.742,19229.692,310
1188,1685917479.597,47.363,403.32,385.254,16.602,19229.696,310
1189,1685917479.601,42.48,-48.828,286.133,9.766,19229.699,310
1190,1685917479.604,-20.508,-107.91,332.52,-6.348,19229.703,310
1191,1685917479.608,-18.066,284.18,392.578,1.465,19229.707,310
1192,1685917479.612,68.848,311.523,366.211,30.762,19229.711,310
1193,1685917479.616,92.773,-156.25,332.031,36.621,19229.715,310
1194,1685917479.62,27.832,7.324,374.023,26.367,19229.719,309
1195,1685917479.624,-1.953,392.578,402.832,38.574,19229.723,309
1196,1685917479.641,50.781,130.859,355.957,51.758,19229.755,307
1197,1685917479.645,103.516,116.211,352.051,51.758,19229.759,307
1198,1685917479.649,62.988,180.664,341.309,48.828,19229.762,307
1199,1685917479.653,9.766,111.816,354.492,38.574,19229.766,307
1200,1685917479.657,36.621,-76.66,257.324,52.246,19229.77,307
1201,1685917479.661,97.656,-431.641,211.914,57.129,19229.774,308
1202,1685917479.664,66.895,-45.898,349.121,28.32,19229.778,308
1203,1685917479.668,-14.648,360.84,380.859,17.09,19229.782,308
1204,1685917479.67,-23.438,18.555,351.562,5.859,19229.77,308
1205,1685917479.672,-2.93,-239.746,180.664,33.203,19229.786,308
1206,1685917479.674,48.828,-56.641,354.004,27.344,19229.774,310
1207,1685917479.676,72.266,-573.242,188.965,57.617,19229.79,310
1208,1685917479.678,80.566,198.242,388.184,23.926,19229.778,310
1209,1685917479.68,72.266,317.871,435.547,35.156,19229.794,310
1210,1685917479.682,14.648,389.16,390.137,4.395,19229.782,310
1211,1685917479.684,-2.441,379.395,364.258,1.953,19229.798,310
1212,1685917479.686,-37.109,-299.805,224.121,1.953,19229.786,310
1213,1685917479.69,15.137,-419.922,281.25,17.578,19229.789,310
1214,1685917479.693,70.801,83.008,396.484,15.625,19229.793,310
1215,1685917479.697,20.02,7.812,322.266,-9.766,19229.797,310
1216,1685917479.701,-53.711,-142.09,288.086,-4.395,19229.801,310
1217,1685917479.705,-21.973,95.215,365.234,13.184,19229.805,309
1218,1685917479.709,60.547,531.25,440.918,16.113,19229.809,309
1219,1685917479.713,39.551,331.055,348.145,2.93,19229.813,309
1220,1685917479.715,-41.992,-380.371,277.344,-13.672,19229.815,308
1221,1685917479.719,-34.668,-82.52,376.953,-4.395,19229.819,308
1222,1685917479.723,47.363,511.719,419.434,7.324,19229.823,308
1223,1685917479.727,56.641,193.359,289.062,0.488,19229.826,308
1224,1685917479.731,-15.625,-647.461,191.895,-7.324,19229.83,308
1225,1685917479.735,-43.945,-505.859,295.41,-14.16,19229.834,308
1226,1685917479.738,14.648,30.762,338.379,-10.742,19229.838,308
1227,1685917479.742,45.41,-243.652,191.406,-6.836,19229.842,308
1228,1685917479.746,-9.766,-781.25,179.688,-11.719,19229.846,310
1229,1685917479.75,-53.711,-126.953,401.367,-12.695,19229.85,310
1230,1685917479.754,7.812,475.098,405.762,5.371,19229.854,310
1231,1685917479.758,59.082,306.152,388.672,13.672,19229.858,312
1232,1685917479.79,13.672,322.266,388.672,-5.859,19229.891,311
1233,1685917479.794,-44.922,178.223,325.684,-26.367,19229.894,311
1234,1685917479.798,-33.203,26.855,311.035,-20.996,19229.898,310
1235,1685917479.802,29.297,-219.238,275.879,-12.695,19229.902,310
1236,1685917479.805,39.062,334.961,407.227,0.977,19229.905,310
1237,1685917479.806,21.973,-115.723,309.57,-15.625,19229.906,310
1238,1685917479.809,-4.883,607.91,422.363,-16.113,19229.909,310
1239,1685917479.81,-43.945,103.027,326.172,-20.508,19229.91,310
1240,1685917479.813,-52.246,-60.059,300.781,-13.184,19229.914,311
1241,1685917479.813,-58.105,121.094,290.039,-27.344,19229.912,311
1242,1685917479.817,11.719,-414.062,264.16,8.789,19229.918,311
1243,1685917479.817,-17.578,13.184,308.594,-7.324,19229.916,311
1244,1685917479.821,40.039,-148.926,335.938,0.977,19229.922,311
1245,1685917479.821,47.852,471.68,417.969,9.766,19229.92,311
1246,1685917479.825,18.555,208.008,336.426,-13.672,19229.924,313
1247,1685917479.825,-22.461,529.297,404.785,-18.066,19229.926,313
1248,1685917479.828,-57.129,-250.488,231.934,-24.902,19229.928,313
1249,1685917479.829,-64.941,99.121,288.574,-14.648,19229.93,313
1250,1685917479.832,-39.062,-62.012,306.152,-6.836,19229.932,313
1251,1685917479.833,-4.883,-206.543,294.922,0.977,19229.933,313
1252,1685917479.836,32.715,393.066,423.828,2.93,19229.936,313
1253,1685917479.84,16.113,528.32,409.18,-17.09,19229.94,314
1254,1685917479.844,-55.176,-65.43,274.902,-35.645,19229.944,314
1255,1685917479.848,-64.941,-174.316,306.152,-25.879,19229.948,314
1256,1685917479.851,6.348,282.715,390.625,-6.836,19229.953,314
1257,1685917479.855,24.414,189.941,349.609,-9.277,19229.957,313
1258,1685917479.859,-42.969,-450.684,157.715,-23.438,19229.961,313
1259,1685917479.863,-79.102,-1000.0,-7.324,-9.766,19229.965,313
1260,1685917479.867,-21.973,-297.852,270.508,-2.441,19229.969,312
1261,1685917479.871,28.32,241.699,359.863,-7.324,19229.973,312
1262,1685917479.874,-22.949,-449.219,164.062,-15.625,19229.977,312
1263,1685917479.878,-74.707,-346.68,267.09,-40.527,19229.981,312
1264,1685917479.882,-36.621,466.797,425.781,-35.156,19229.985,311
1265,1685917479.886,24.902,381.348,368.652,-11.23,19229.989,311
1266,1685917479.89,16.113,133.789,348.633,-18.555,19229.992,311
1267,1685917479.894,-46.875,307.617,347.168,-33.203,19229.996,312
1268,1685917479.896,-37.598,432.129,383.789,-28.32,19230.011,312
1269,1685917479.9,36.133,240.234,333.496,-5.859,19230.015,312
1270,1685917479.904,32.715,135.742,300.781,-10.742,19230.019,312
1271,1685917479.908,-48.828,103.027,281.738,-31.25,19230.023,314
1272,1685917479.912,-64.941,30.273,292.48,-20.996,19230.027,314
1273,1685917479.916,7.324,-202.637,205.566,-0.977,19230.031,314
1274,1685917479.919,32.227,-751.953,126.465,14.16,19230.035,314
1275,1685917479.923,-20.996,-199.219,311.523,-4.883,19230.039,314
1276,1685917479.927,-61.035,320.801,339.355,-24.902,19230.042,314
1277,1685917479.931,-14.648,126.465,332.52,-7.324,19230.046,314
1278,1685917479.935,39.551,253.906,375.488,14.16,19230.05,313
1279,1685917479.939,10.742,507.324,397.949,-3.418,19230.054,313
1280,1685917479.956,-56.641,362.305,335.449,-22.949,19230.055,312
1281,1685917479.96,-44.434,-97.656,287.109,-12.695,19230.059,312
1282,1685917479.964,25.391,-24.414,345.703,-4.883,19230.063,312
1283,1685917479.968,19.043,390.137,385.742,-26.855,19230.067,312
1284,1685917479.972,-46.387,319.824,326.172,-35.156,19230.071,312
1285,1685917479.976,-53.223,-512.207,81.543,-13.672,19230.075,314
1286,1685917479.979,8.301,-792.48,130.371,-6.836,19230.079,314
1287,1685917479.983,22.949,88.867,381.836,-19.043,19230.082,314
1288,1685917479.987,-37.598,250.0,308.594,-40.527,19230.086,314
1289,1685917479.991,-68.359,-302.734,277.344,-40.527,19230.09,316
1290,1685917479.995,0.488,-4.395,372.559,-17.09,19230.094,316
1291,1685917479.999,44.434,589.844,433.594,-1.953,19230.098,316
