,timestamps,TP9,AF7,AF8,TP10,Secondary Timestamp,emg_signal
0,1686274916.34,-5.371,443.848,94.727,23.438,1622.246,354.7890080189463
1,1686274916.34,34.18,272.461,21.484,20.508,1622.25,352.20670062409147
2,1686274916.34,-20.508,-218.75,-194.824,-47.363,1622.254,345.63313134335124
3,1686274916.35,-77.148,-129.395,-118.164,-61.523,1622.258,354.8912368463925
4,1686274916.35,-37.109,244.629,41.504,1.953,1622.262,361.2177080443362
5,1686274916.36,26.367,-63.477,-130.371,39.062,1622.266,354.7097190078656
6,1686274916.36,-2.441,-880.859,-450.684,-4.395,1622.27,359.9162302722969
7,1686274916.36,-64.941,-737.793,-312.5,-56.152,1622.274,360.3718819699918
8,1686274916.37,-38.086,200.684,75.195,-29.785,1622.277,360.4981991990872
9,1686274916.37,36.621,-4.883,-76.172,36.133,1622.281,356.22551668465854
10,1686274916.38,28.32,-246.094,-193.848,7.324,1622.285,357.27616149380515
11,1686274916.38,-45.41,275.391,40.039,-64.941,1622.289,357.20529934336577
12,1686274916.39,-63.965,318.359,39.062,-47.363,1622.29,352.2124117288537
13,1686274916.39,4.883,136.719,-38.086,23.438,1622.294,367.543802119641
14,1686274916.4,32.227,202.148,-11.719,15.625,1622.298,361.89803414560214
15,1686274916.4,-30.762,360.352,37.598,-59.57,1622.302,355.8279565649909
16,1686274916.4,-85.938,260.742,-9.277,-76.172,1622.306,361.84534693435137
17,1686274916.41,-40.527,-105.957,-114.258,-6.836,1622.309,362.93462900958957
18,1686274916.41,24.414,-115.723,-64.941,10.254,1622.313,360.99662090330014
19,1686274916.41,-10.742,258.301,55.176,-66.406,1622.317,356.55206649954016
20,1686274916.42,-61.035,214.355,-32.227,-87.891,1622.321,361.45564182484605
21,1686274916.42,-43.457,-464.844,-205.566,-20.02,1622.325,353.03940684451555
22,1686274916.43,12.207,-376.953,-71.289,20.508,1622.329,361.11568029348376
23,1686274916.43,7.812,351.562,102.539,-37.109,1622.333,367.62215738694215
24,1686274916.44,-59.082,130.371,-68.848,-81.543,1622.337,370.27867946685416
25,1686274916.44,-61.523,-204.59,-135.742,-33.691,1622.341,361.33696121134676
26,1686274916.45,7.324,-124.512,-47.363,17.578,1622.345,348.7936928145582
27,1686274916.45,10.742,68.848,13.184,-18.066,1622.348,367.6502912682828
28,1686274916.46,-56.641,65.918,-57.617,-87.891,1622.352,356.754389992468
29,1686274916.46,-95.215,-832.031,-466.309,-58.105,1622.356,352.85403569630864
30,1686274916.46,-26.367,-723.145,-255.371,8.789,1622.36,358.07420034431595
31,1686274916.47,30.273,305.664,108.887,-9.766,1622.364,368.1027791727407
32,1686274916.47,-27.344,86.914,-72.266,-71.289,1622.368,349.51833601537845
33,1686274916.48,-67.383,-89.355,-76.172,-77.637,1622.372,355.0560722880658
34,1686274916.48,-20.996,358.887,79.102,-18.066,1622.376,351.470082163802
35,1686274916.48,25.879,420.898,60.547,9.277,1622.38,356.50963756024214
36,1686274916.49,-13.672,3.418,-67.871,-48.34,1622.382,346.69032788572196
37,1686274916.49,-71.777,-19.531,-38.574,-84.473,1622.386,362.56816889553704
38,1686274916.49,-42.48,361.328,75.195,-29.785,1622.39,354.2049320406742
39,1686274916.5,32.715,375.0,56.152,9.766,1622.394,353.1309853663846
40,1686274916.5,18.066,4.883,-93.262,-35.645,1622.398,362.0061050840068
41,1686274916.51,-56.152,-286.133,-221.191,-87.891,1622.402,350.1207969469458
42,1686274916.51,-48.828,-82.031,-59.57,-50.293,1622.406,360.92209543834076
43,1686274916.51,27.832,270.508,62.5,20.508,1622.409,358.1957632360372
44,1686274916.52,34.668,-354.98,-225.098,4.883,1622.413,358.2891951597256
45,1686274916.52,-38.086,-514.16,-172.852,-72.754,1622.417,366.38929656440416
46,1686274916.52,-62.012,260.254,83.984,-67.383,1622.421,365.6079626850097
47,1686274916.53,-1.465,205.566,-0.977,15.137,1622.425,367.6546275561694
48,1686274916.53,33.203,69.824,-40.527,19.043,1622.427,357.2374344823631
49,1686274916.54,-19.043,242.188,38.574,-58.594,1622.431,367.1410363731265
50,1686274916.54,-63.965,55.176,-56.152,-62.012,1622.435,359.2156346616736
51,1686274916.54,-30.762,-256.836,-213.379,13.184,1622.439,357.1753808852047
52,1686274916.55,22.461,-686.523,-277.344,33.691,1622.443,355.7037890952569
53,1686274916.55,-5.859,-562.012,-154.297,-33.203,1622.447,370.3151151430981
54,1686274916.55,-72.754,16.113,1.953,-87.402,1622.451,349.00319542047305
55,1686274916.56,-52.246,-133.789,-145.02,-27.344,1622.455,344.3031497604521
56,1686274916.56,21.484,-488.281,-209.961,41.504,1622.459,369.12369701893226
57,1686274916.57,26.855,149.414,84.473,-12.207,1622.462,361.52830371716146
58,1686274916.57,-41.016,468.75,75.195,-67.383,1622.466,359.4740068625808
59,1686274916.57,-57.617,107.91,-50.781,-30.273,1622.47,357.65404028077637
60,1686274916.58,11.719,124.512,-10.254,23.926,1622.472,365.2565787130322
61,1686274916.58,40.039,428.223,95.703,3.418,1622.476,345.544477584382
62,1686274916.58,-13.672,359.375,27.344,-56.641,1622.48,354.3813429585295
63,1686274916.59,-61.523,-24.414,-84.473,-60.547,1622.484,352.52932457815047
64,1686274916.59,-14.16,-13.184,-45.898,6.348,1622.487,354.99159384332444
65,1686274916.6,32.715,50.293,-29.785,18.555,1622.491,369.3825182245312
66,1686274916.6,-16.113,-66.406,-81.055,-55.176,1622.495,365.68641756222706
67,1686274916.6,-83.496,-621.094,-330.566,-61.035,1622.499,362.2246964231694
68,1686274916.61,-57.129,-680.176,-253.906,-7.812,1622.503,361.5219061009191
69,1686274916.61,21.973,261.719,104.004,-0.488,1622.507,349.3859809975904
70,1686274916.62,3.418,233.398,-22.949,-40.527,1622.511,359.81029438019897
71,1686274916.62,-66.895,-11.719,-66.406,-72.266,1622.515,354.97116986171295
72,1686274916.62,-57.129,229.004,37.598,-29.297,1622.517,354.75845590830374
73,1686274916.62,15.625,421.387,104.492,16.113,1622.521,360.8474365207154
74,1686274916.63,27.344,-22.949,-103.516,-0.488,1622.525,357.6292442282587
75,1686274916.63,-41.992,-531.25,-279.785,-47.852,1622.529,354.9940585398967
76,1686274916.64,-70.312,-60.547,-51.27,-51.758,1622.533,344.85859646064483
77,1686274916.64,-9.766,149.414,30.273,3.418,1622.537,357.50435970636454
78,1686274916.64,13.184,-259.277,-177.734,0.0,1622.54,354.3128261091389
79,1686274916.65,-47.363,-623.535,-330.078,-66.895,1622.544,345.7074458025009
80,1686274916.65,-78.125,-257.812,-54.199,-83.008,1622.548,345.0643940361816
81,1686274916.66,-21.484,371.582,136.23,-23.438,1622.552,352.42312662149385
82,1686274916.66,24.414,50.781,-61.035,9.766,1622.556,361.0893716560184
83,1686274916.66,-13.672,-171.875,-121.582,-54.688,1622.56,347.92356456478467
84,1686274916.68,-66.406,324.219,61.523,-92.285,1622.579,364.68752010076037
85,1686274916.69,-42.48,354.004,46.875,-26.855,1622.583,342.8198752545694
86,1686274916.69,25.391,175.781,40.039,10.742,1622.586,343.1266542185447
87,1686274916.69,21.484,221.68,59.082,-37.598,1622.59,352.11687930037954
88,1686274916.7,-41.992,233.398,-2.441,-81.055,1622.594,352.46681627130675
89,1686274916.7,-40.527,0.0,-81.543,-44.922,1622.598,355.4161180365504
90,1686274916.7,26.367,-541.016,-227.051,28.809,1622.602,349.42916924702877
91,1686274916.71,33.691,-468.262,-138.184,7.812,1622.606,352.21777975071296
92,1686274916.71,7.324,350.098,85.938,-45.41,1622.636,349.88502063870146
93,1686274916.71,-28.32,305.176,100.586,-80.566,1622.61,361.18491168180356
94,1686274916.72,-57.129,220.215,-8.789,-64.453,1622.64,367.015192756644
95,1686274916.72,-55.176,239.746,-8.789,-71.289,1622.614,348.23533005419887
96,1686274916.72,-46.387,-514.16,-231.934,-5.371,1622.643,354.6980762636509
97,1686274916.72,8.301,-73.242,-83.008,7.812,1622.618,355.710819949972
98,1686274916.72,19.531,-331.543,-80.078,20.996,1622.647,344.8038540265336
99,1686274916.72,49.805,20.508,-5.859,12.695,1622.622,340.56648607433397
100,1686274916.73,2.93,326.172,91.309,-37.598,1622.651,365.3163195224149
101,1686274916.73,-68.848,-159.668,-202.637,-56.152,1622.655,354.8274802218818
102,1686274916.73,-56.152,-359.863,-208.496,-5.371,1622.659,334.92134797383096
103,1686274916.74,17.578,211.914,77.148,32.227,1622.663,353.222363813558
104,1686274916.74,16.113,443.359,106.934,2.93,1622.667,357.2682294044843
105,1686274916.75,-48.34,-90.82,-145.996,-20.508,1622.671,354.8383766045739
106,1686274916.75,-59.082,-879.883,-358.887,24.414,1622.675,350.03050458879926
107,1686274916.75,14.648,-170.898,20.508,65.918,1622.679,348.63400344849697
108,1686274916.76,45.41,392.09,86.914,44.922,1622.658,332.1985882901643
109,1686274916.76,-21.973,-93.262,-106.934,-14.16,1622.662,361.4994759227745
110,1686274916.77,-52.246,-30.273,-21.484,-9.766,1622.666,350.67551826647787
111,1686274916.77,13.184,406.738,118.652,58.105,1622.67,363.765553626648
112,1686274916.78,52.246,460.938,58.594,65.43,1622.674,358.1634142617026
113,1686274916.78,-1.953,-280.762,-180.664,10.742,1622.678,343.5992935475
114,1686274916.78,-59.57,-486.328,-126.953,-6.836,1622.682,351.00171496929056
115,1686274916.79,-15.137,266.113,107.422,43.457,1622.686,355.1901519140301
116,1686274916.79,51.27,289.551,14.16,75.195,1622.69,349.7035472403409
117,1686274916.79,20.508,-58.594,-62.5,24.902,1622.694,347.6863120193194
118,1686274916.8,-39.551,32.715,1.465,-18.066,1622.698,357.50610297822317
119,1686274916.8,-30.273,350.098,75.195,11.23,1622.701,346.5872405448383
120,1686274916.82,27.832,231.934,-8.301,55.664,1622.714,358.3887843159378
121,1686274916.82,24.902,-125.488,-88.379,27.344,1622.718,346.1484895316338
122,1686274916.82,-39.551,-121.582,-51.27,-28.32,1622.722,347.37074958482924
123,1686274916.83,-50.781,-104.492,-54.199,-3.906,1622.726,332.6820343964804
124,1686274916.83,12.207,-96.191,-67.383,60.059,1622.73,357.4834367211637
125,1686274916.84,27.832,-775.391,-416.992,56.641,1622.734,337.80733213778143
126,1686274916.84,-35.156,-780.273,-295.898,-27.832,1622.738,350.12276866098784
127,1686274916.84,-61.523,156.25,66.406,-48.34,1622.742,347.5421978838669
128,1686274916.85,-17.578,129.395,-30.273,11.23,1622.745,349.3967726601566
129,1686274916.85,30.762,125.488,7.812,17.09,1622.749,356.23341149753475
130,1686274916.86,2.93,412.598,77.637,-43.457,1622.753,353.9832032043156
131,1686274916.86,-52.734,382.812,42.48,-61.523,1622.757,350.4747041499559
132,1686274916.86,-29.297,84.961,-28.809,-5.859,1622.757,352.6300116633199
133,1686274916.86,34.668,82.52,-9.766,28.32,1622.761,354.8431520393014
134,1686274916.87,17.578,370.117,83.496,-19.531,1622.765,350.02755752407853
135,1686274916.87,-47.852,283.691,33.203,-50.293,1622.769,369.01099173451166
136,1686274916.88,-45.898,55.664,-13.184,-1.953,1622.773,358.2197128049009
137,1686274916.88,17.09,-94.238,-25.391,38.574,1622.777,345.7944631374456
138,1686274916.88,25.391,-180.664,-70.801,4.395,1622.781,348.91124148861974
139,1686274916.89,-36.621,-95.703,-53.711,-54.199,1622.785,360.84528464576204
140,1686274916.89,-66.895,-613.77,-317.383,-24.414,1622.789,346.6300132242334
141,1686274916.9,3.418,-669.922,-254.395,42.48,1622.792,353.9186184456852
142,1686274916.9,42.48,297.852,117.676,16.602,1622.796,347.3122749557186
143,1686274916.9,-26.855,251.465,-33.691,-44.434,1622.8,348.34057012629694
144,1686274916.92,-76.172,-8.789,-77.637,-47.852,1622.817,340.8242343826111
145,1686274916.92,-24.414,268.555,62.988,16.113,1622.821,348.93762356174875
146,1686274916.93,34.668,253.418,46.387,38.086,1622.825,342.41739474814034
147,1686274916.93,-2.441,-201.172,-161.133,-13.184,1622.829,337.34991516267206
148,1686274916.94,-63.477,-500.488,-219.727,-39.551,1622.832,339.65289453661177
149,1686274916.94,-44.434,-270.02,-62.012,16.113,1622.836,342.554330705516
150,1686274916.94,22.461,194.336,86.914,47.852,1622.84,346.5625209269026
151,1686274916.95,16.113,48.828,-78.125,3.906,1622.844,356.3825827750052
152,1686274916.95,-64.941,-602.539,-371.582,-41.016,1622.848,346.72312372592586
153,1686274916.96,-66.406,-211.914,-74.219,-17.09,1622.852,342.49175698924705
154,1686274916.96,4.883,455.078,158.691,39.551,1622.856,333.2341952536823
155,1686274916.96,20.02,17.09,-68.359,20.996,1622.86,350.4017021251522
156,1686274916.97,-42.969,-249.023,-145.508,-46.875,1622.863,346.72351225662726
157,1686274916.97,-66.406,305.664,74.219,-45.898,1622.867,351.8907368004632
158,1686274916.97,4.395,396.484,81.055,24.414,1622.871,349.1693450317175
159,1686274916.98,33.203,183.105,31.25,21.973,1622.875,357.12182994955236
160,1686274916.98,-24.414,160.645,38.086,-50.293,1622.878,336.1015719333556
161,1686274916.99,-70.312,17.578,-42.48,-46.387,1622.882,346.0574286134314
162,1686274916.99,-33.691,-209.961,-124.512,21.484,1622.886,340.6300389816716
163,1686274916.99,17.09,-175.781,-112.793,28.32,1622.89,344.6128383868615
164,1686274917.0,5.371,-500.977,-193.359,-1.465,1622.893,354.5746803653346
165,1686274917.0,-10.742,37.109,-36.621,-38.086,1622.894,352.0575160821771
166,1686274917.0,-59.082,346.68,109.863,-80.078,1622.897,359.5424069910947
167,1686274917.0,-70.312,281.738,48.34,-81.543,1622.898,337.79502646230225
168,1686274917.0,-69.336,46.387,-61.035,-37.598,1622.901,341.4228480776476
169,1686274917.0,-49.316,217.285,1.953,-30.273,1622.902,345.5832133137389
170,1686274917.01,-7.324,-610.84,-243.652,41.992,1622.905,357.4192576667442
171,1686274917.01,20.508,-588.867,-282.715,44.434,1622.906,356.12611830826773
172,1686274917.01,15.625,-188.477,-46.875,6.348,1622.909,355.6691497404576
173,1686274917.02,-42.969,119.141,-0.977,-69.824,1622.913,352.7675534992606
174,1686274917.02,-75.195,-348.145,-244.629,-54.199,1622.916,363.4351410037734
175,1686274917.02,-23.926,-208.984,-164.551,6.348,1622.92,366.887037790646
176,1686274917.03,22.949,275.879,57.617,18.066,1622.924,344.61501027535587
177,1686274917.03,-16.113,429.688,77.637,-40.527,1622.928,348.1849333937749
178,1686274917.04,-73.73,-116.699,-134.277,-54.199,1622.932,348.7288174180699
179,1686274917.04,-49.316,-691.895,-293.945,22.949,1622.936,368.6582820888521
180,1686274917.04,17.578,90.82,47.363,34.668,1622.943,353.47684771015815
181,1686274917.05,2.93,353.516,52.734,-33.691,1622.947,348.14154599839105
182,1686274917.05,-67.871,-129.883,-123.047,-62.5,1622.951,349.57112441568876
183,1686274917.06,-64.453,39.062,5.371,-14.16,1622.955,358.3979983706581
184,1686274917.06,13.672,379.883,99.609,33.203,1622.958,347.5014637944108
185,1686274917.06,24.902,192.871,8.789,2.93,1622.962,367.01041418615426
186,1686274917.07,-51.758,-578.613,-290.527,-48.828,1622.966,361.9176900453571
187,1686274917.07,-73.73,-683.594,-262.695,-32.715,1622.97,350.62087598918936
188,1686274917.07,10.742,262.695,123.535,9.277,1622.974,371.5407026313559
189,1686274917.08,45.41,320.801,25.879,5.371,1622.978,382.1226776665578
190,1686274917.08,-11.719,39.062,-65.918,-50.293,1622.982,358.6915307316445
191,1686274917.09,0.488,416.016,124.512,1.953,1623.011,371.57018657810454
192,1686274917.09,-45.41,168.457,32.227,-56.152,1622.986,372.88565567534044
193,1686274917.09,37.109,314.941,25.391,3.906,1623.015,373.47508464461123
194,1686274917.09,-6.348,-155.273,-134.766,-50.293,1623.019,358.7068891640248
195,1686274917.1,-66.895,-123.535,-40.039,-72.754,1623.023,384.32149410309086
196,1686274917.1,-46.387,105.957,18.555,-21.484,1623.026,378.458823989109
197,1686274917.11,17.09,-136.719,-120.605,25.391,1623.03,381.9946663833156
198,1686274917.11,2.93,-883.789,-440.918,-7.812,1623.034,365.65984724285113
199,1686274917.11,-62.988,-737.793,-257.324,-69.336,1623.038,379.1741684244723
200,1686274917.12,-58.594,186.523,88.867,-52.246,1623.042,375.50797035155784
201,1686274917.12,18.555,153.32,-7.812,9.277,1623.046,385.8468623133568
202,1686274917.12,20.508,133.789,3.418,-22.949,1623.05,371.043309932488
203,1686274917.13,-44.922,404.297,78.613,-81.055,1623.054,378.1986325661382
204,1686274917.13,-60.547,358.887,72.266,-53.711,1623.04,379.19485463563365
205,1686274917.14,1.465,119.141,-14.16,24.414,1623.044,396.9011230120479
206,1686274917.14,36.133,85.449,-18.066,14.16,1623.048,373.9452336061089
207,1686274917.14,-23.926,293.457,75.195,-74.219,1623.052,386.9337784372595
208,1686274917.15,-81.543,308.105,50.781,-94.727,1623.056,379.41899255016483
209,1686274917.15,-41.016,-100.586,-102.051,-20.508,1623.06,379.24820750716196
210,1686274917.16,21.484,-111.816,-45.898,10.742,1623.064,387.7003666259849
211,1686274917.16,-17.09,114.258,20.996,-48.828,1623.068,383.1203338612455
212,1686274917.16,-75.684,-21.484,-91.797,-72.754,1623.072,373.670146840865
213,1686274917.17,-40.527,-121.094,-39.551,-12.207,1623.076,374.27633985463393
214,1686274917.17,33.691,126.465,71.777,18.555,1623.079,404.7385097393015
215,1686274917.18,22.461,357.91,67.383,-36.621,1623.083,388.7295773890201
216,1686274917.19,-42.969,218.262,-4.883,-86.426,1623.087,379.9207102560626
217,1686274917.2,-53.711,-567.871,-294.922,-34.668,1623.091,384.70283233786137
218,1686274917.2,3.418,-716.797,-244.141,28.32,1623.095,390.1168837502379
219,1686274917.2,28.809,111.816,78.125,-7.812,1623.099,379.85468435747737
220,1686274917.21,-35.645,152.344,-20.996,-71.777,1623.103,392.20771126506594
221,1686274917.21,-83.496,-823.242,-444.336,-34.668,1623.107,390.5172763878303
222,1686274917.21,-24.902,-685.547,-244.141,28.32,1623.111,385.5432900077724
223,1686274917.22,31.738,386.719,152.344,-9.277,1623.114,392.7355847190195
224,1686274917.22,-11.719,203.613,-26.855,-61.035,1623.118,385.78900714419143
225,1686274917.23,-62.012,-106.934,-98.633,-68.848,1623.122,389.73967480194233
226,1686274917.23,-21.973,161.621,56.641,-16.113,1623.126,401.2199304517194
227,1686274917.23,42.48,479.98,133.789,20.508,1623.13,390.55548821439913
228,1686274917.24,8.789,-8.301,-83.984,-26.855,1623.132,388.8507628014791
229,1686274917.24,-61.035,-232.91,-103.516,-64.941,1623.136,398.62518624060635
230,1686274917.24,-49.805,320.801,85.938,-21.973,1623.14,385.638550810659
231,1686274917.25,20.02,422.363,76.66,21.973,1623.144,403.3013254140987
232,1686274917.25,16.602,96.191,-54.688,-14.648,1623.148,380.36019904905527
233,1686274917.26,-52.734,-208.984,-115.234,-59.57,1623.152,398.8526360770729
234,1686274917.26,-61.035,-23.926,-2.441,-29.297,1623.155,392.32359004394306
235,1686274917.26,13.672,322.754,43.945,29.785,1623.159,405.57808751305566
236,1686274917.27,40.039,-321.289,-183.594,24.414,1623.163,391.7336005201295
237,1686274917.27,-30.273,-479.004,-130.371,-41.504,1623.167,405.28894381617
238,1686274917.28,-67.871,292.48,90.82,-52.734,1623.171,397.8743062694176
239,1686274917.28,-17.09,219.727,17.09,16.113,1623.175,401.37326599085645
240,1686274917.28,22.461,-134.766,-94.238,26.855,1623.191,389.61142481975196
241,1686274917.28,-15.625,34.668,-20.508,-40.527,1623.195,401.48034825139143
242,1686274917.29,-62.012,93.262,10.254,-57.129,1623.198,392.99058797879707
243,1686274917.29,-31.25,-83.008,-64.453,-1.465,1623.202,402.24685629925204
244,1686274917.3,20.996,-609.375,-256.836,27.832,1623.206,385.5277700144111
245,1686274917.3,1.953,-611.816,-206.055,-27.344,1623.21,395.2150621872145
246,1686274917.3,-48.34,9.277,40.039,-74.219,1623.214,387.46049878206617
247,1686274917.31,-47.852,-219.727,-181.152,-17.578,1623.218,390.19107425032337
248,1686274917.31,12.207,-492.676,-219.238,33.691,1623.222,403.1169051409003
249,1686274917.32,19.043,135.742,119.629,-20.996,1623.226,390.4199975630705
250,1686274917.32,-48.34,434.57,96.68,-84.473,1623.23,409.84018576395846
251,1686274917.32,-65.918,108.398,-23.926,-65.918,1623.234,385.25911140373205
252,1686274917.33,-0.977,140.625,11.719,8.789,1623.222,407.32604515804417
253,1686274917.33,32.227,474.121,123.535,12.695,1623.226,379.89899546012145
254,1686274917.33,-25.879,390.625,66.895,-52.734,1623.23,412.4610260594589
255,1686274917.34,-73.242,-35.645,-65.918,-60.059,1623.234,401.7962736966311
256,1686274917.34,-15.137,34.18,-24.414,2.441,1623.238,394.0686842549329
257,1686274917.35,34.668,90.332,0.488,21.484,1623.242,400.1182783996503
258,1686274917.35,-16.113,13.184,-19.043,-48.34,1623.246,399.53640495780644
259,1686274917.35,-82.031,-513.672,-255.859,-68.848,1623.25,399.79147051557845
260,1686274917.36,-54.199,-739.746,-248.047,-11.23,1623.254,401.9905454931965
261,1686274917.36,23.438,191.406,113.77,15.625,1623.258,401.4907051741467
262,1686274917.36,16.602,309.082,14.16,-20.508,1623.261,411.2789660108744
263,1686274917.37,-39.062,-34.668,-66.895,-55.664,1623.265,394.7776425538342
264,1686274917.37,-42.969,194.336,70.801,-24.414,1623.267,404.742183346727
265,1686274917.38,15.137,485.352,119.629,14.16,1623.271,406.4515766187826
266,1686274917.38,24.902,54.199,-79.102,-5.859,1623.275,388.4817755356752
267,1686274917.38,-46.875,-479.004,-216.797,-55.176,1623.279,413.9105080214058
268,1686274917.39,-81.055,-90.332,-52.246,-56.641,1623.283,403.23071666709063
269,1686274917.39,-20.996,133.301,43.945,5.371,1623.287,398.9376345264182
270,1686274917.39,17.578,-198.242,-134.277,9.277,1623.29,404.76407312910857
271,1686274917.4,-39.062,-777.832,-327.148,-52.246,1623.294,408.10467499440045
272,1686274917.4,-78.613,-228.027,13.184,-75.195,1623.298,412.1647637497377
273,1686274917.41,-26.855,466.309,126.465,-12.695,1623.302,411.9938888681125
274,1686274917.41,32.715,179.199,-9.277,24.414,1623.306,402.9865326304931
275,1686274917.41,-4.395,147.949,7.812,-39.062,1623.31,389.994105440939
276,1686274917.42,-70.801,333.496,63.965,-69.336,1623.314,411.4189396867808
277,1686274917.42,-44.922,344.727,83.008,-21.484,1623.318,416.4607209984296
278,1686274917.42,27.832,121.582,6.348,17.578,1623.322,398.4760184979578
279,1686274917.43,30.273,143.555,25.391,-22.949,1623.326,402.28037490750796
280,1686274917.43,-40.039,263.184,35.645,-78.125,1623.33,397.6149352661956
281,1686274917.44,-65.918,36.133,-40.527,-44.922,1623.334,396.8492875914095
282,1686274917.44,5.371,-542.48,-198.73,29.785,1623.338,401.54200413084163
283,1686274917.44,25.391,-530.762,-165.039,2.441,1623.342,414.2184624145467
284,1686274917.45,-35.645,43.457,37.109,-80.566,1623.346,406.4244163535813
285,1686274917.45,-60.547,83.496,-2.93,-63.965,1623.349,406.29827044516213
286,1686274917.46,-5.371,-58.594,-19.531,16.113,1623.353,404.2462356370736
287,1686274917.46,32.227,151.367,52.246,20.508,1623.357,399.8637210550965
288,1686274917.48,-9.766,408.203,97.168,-53.711,1623.372,396.69258645818877
289,1686274917.48,-55.176,179.199,11.23,-66.406,1623.376,383.3026513216234
290,1686274917.48,-23.926,-155.273,-91.309,14.648,1623.38,393.44086375276936
291,1686274917.49,32.715,65.43,44.434,42.48,1623.384,408.1623304589433
292,1686274917.49,6.836,363.77,85.449,-25.879,1623.388,399.0423520361538
293,1686274917.5,-53.711,-79.102,-140.625,-56.641,1623.391,401.46393345715023
294,1686274917.5,-47.852,-912.109,-412.598,3.906,1623.395,416.621328659577
295,1686274917.5,13.184,-518.555,-154.297,32.227,1623.399,408.74752914010236
296,1686274917.51,20.508,380.371,152.344,-18.555,1623.403,398.893040269653
297,1686274917.51,28.32,392.09,85.449,-9.766,1623.43,405.3012789338928
298,1686274917.51,-43.457,125.488,-24.414,-62.988,1623.407,386.818638948536
299,1686274917.51,-34.18,-108.887,-78.613,-68.359,1623.434,409.611165256851
300,1686274917.52,-64.453,-74.707,-89.355,-42.48,1623.411,398.1995414594261
301,1686274917.52,-84.473,-256.348,-91.309,-73.73,1623.438,397.6872713325982
302,1686274917.52,-3.418,145.02,27.344,5.371,1623.415,409.6310696988717
303,1686274917.52,-31.25,351.562,93.75,-17.578,1623.442,394.8340264591055
304,1686274917.52,22.461,411.621,90.82,-1.465,1623.446,394.8376202147647
305,1686274917.53,-20.996,-83.984,-113.77,-51.758,1623.45,407.7570912336976
306,1686274917.53,-82.52,-193.848,-73.242,-74.707,1623.454,401.2593888975663
307,1686274917.54,-50.781,206.055,69.824,-22.949,1623.458,392.5072935141356
308,1686274917.54,23.926,307.617,4.883,21.973,1623.461,403.4100690622493
309,1686274917.54,-5.371,-397.461,-207.52,-19.043,1623.465,407.551362332549
310,1686274917.55,-76.66,-450.684,-110.352,-74.707,1623.469,407.48148355049005
311,1686274917.55,-58.105,325.684,109.863,-33.691,1623.473,393.14030257820735
312,1686274917.57,19.531,221.68,13.184,24.902,1623.463,390.61257811018373
313,1686274917.57,16.602,-149.414,-97.168,-17.09,1623.467,417.28371522851677
314,1686274917.57,-50.781,-264.16,-140.625,-73.73,1623.471,381.42882937306854
315,1686274917.58,-69.824,-76.172,-27.832,-58.594,1623.475,389.8776735664638
316,1686274917.58,-14.648,85.938,15.625,2.441,1623.479,396.88899992693615
317,1686274917.59,10.742,-754.395,-408.203,19.531,1623.482,384.0289669477425
318,1686274917.59,-41.016,-726.074,-271.973,-53.711,1623.486,380.38546465054014
319,1686274917.59,-77.637,299.805,135.742,-80.566,1623.49,396.26801704831007
320,1686274917.6,-31.25,124.023,-45.898,-2.93,1623.494,387.2707756063938
321,1686274917.6,31.738,-5.859,-69.336,19.531,1623.498,392.9808380586685
322,1686274917.6,6.348,352.051,95.215,-38.574,1623.502,379.39681008362277
323,1686274917.61,-57.617,374.512,61.523,-66.406,1623.506,391.4575179375542
324,1686274917.63,-44.922,40.527,-52.246,-14.16,1623.523,376.27903694740485
325,1686274917.63,21.484,62.5,19.043,21.973,1623.527,362.2563709570279
326,1686274917.63,15.625,415.039,103.516,-35.156,1623.531,372.5436351712113
327,1686274917.64,-61.035,258.301,6.348,-86.914,1623.534,365.3176966222304
328,1686274917.64,-67.383,-98.145,-88.867,-44.922,1623.538,359.91717497614303
329,1686274917.65,12.207,-202.148,-62.988,23.926,1623.542,356.9021072808077
330,1686274917.65,17.09,-27.344,38.574,-8.301,1623.546,371.22405898766647
331,1686274917.65,-50.293,215.332,51.27,-92.285,1623.55,364.7139169578513
332,1686274917.66,-67.383,-5.859,-58.594,-63.477,1623.552,344.2684523427426
333,1686274917.66,-73.242,-497.559,-266.113,-56.641,1623.554,363.36744196011347
334,1686274917.66,-34.668,219.238,50.293,-16.602,1623.556,348.37226936589855
335,1686274917.66,-21.973,-618.652,-230.957,15.625,1623.558,336.88926101881066
336,1686274917.66,26.367,187.012,33.691,5.859,1623.56,334.9150674554785
337,1686274917.66,30.273,336.426,123.535,-12.207,1623.562,349.7708042697852
338,1686274917.67,-7.324,-190.918,-124.023,-44.434,1623.564,343.9348554146586
339,1686274917.67,-5.371,247.07,11.23,-61.523,1623.566,349.4577402560232
340,1686274917.67,-69.824,-486.816,-208.008,-75.195,1623.568,344.6898345241876
341,1686274917.68,-57.129,-328.613,-90.332,-30.273,1623.572,321.61652525351866
342,1686274917.68,12.695,-31.25,16.113,8.301,1623.576,337.2033374681572
343,1686274917.68,13.184,-239.258,-159.18,-20.02,1623.58,342.38480378094425
344,1686274917.69,-62.5,-247.07,-188.477,-69.336,1623.584,324.0207480014886
345,1686274917.69,-70.801,255.859,74.219,-53.711,1623.587,328.2810614484063
346,1686274917.7,2.93,487.305,133.301,7.324,1623.591,327.5750344648524
347,1686274917.7,25.391,-84.473,-133.301,10.254,1623.595,314.53833672228126
348,1686274917.7,-45.41,-846.191,-339.355,-50.293,1623.598,329.96183195095387
349,1686274917.7,-78.125,-124.023,3.906,-64.941,1623.602,318.68460281817863
350,1686274917.71,-13.672,416.016,103.027,12.207,1623.606,314.2722798269064
351,1686274917.71,28.809,135.254,-25.391,27.344,1623.61,309.42135805299597
352,1686274917.72,-13.184,131.836,-19.531,-51.27,1623.614,312.8269763042244
353,1686274917.72,-64.453,41.504,-21.973,-78.613,1623.618,310.5116427153441
354,1686274917.72,-39.551,-8.301,-0.977,-20.508,1623.622,302.04047471417
355,1686274917.73,18.066,-417.969,-167.969,15.625,1623.625,298.05542954725246
356,1686274917.73,4.395,-513.672,-186.035,-39.551,1623.629,309.0309620185272
357,1686274917.74,-56.641,67.871,58.105,-88.867,1623.633,306.5002556651196
358,1686274917.74,-53.711,150.879,28.32,-33.691,1623.637,300.17745664345347
359,1686274917.74,15.137,-13.184,23.438,25.391,1623.641,286.8421173939502
360,1686274917.75,17.578,137.207,62.5,-16.113,1623.647,292.87192148078384
361,1686274917.75,-45.41,418.945,82.52,-73.242,1623.651,301.3795436666665
362,1686274917.75,-58.594,64.941,-44.434,-27.344,1623.655,274.1686973920827
363,1686274917.76,2.441,-270.508,-114.258,40.039,1623.659,283.23468275348944
364,1686274917.76,31.25,142.09,55.176,11.23,1623.663,273.86778370044567
365,1686274917.77,-26.367,136.719,-0.488,-59.082,1623.666,271.75482718316124
366,1686274917.77,-68.848,-280.273,-166.992,-60.059,1623.67,274.2055425503665
367,1686274917.77,-24.414,-665.039,-246.094,18.555,1623.674,279.1904704290265
368,1686274917.78,28.32,-160.156,24.902,26.855,1623.678,264.1264212795644
369,1686274917.78,-3.418,393.066,106.934,-35.645,1623.682,255.19120577339015
370,1686274917.78,-56.152,125.0,-33.691,-45.898,1623.686,268.66886381230046
371,1686274917.79,-34.18,-78.125,-70.801,0.977,1623.69,271.318803643522
372,1686274917.79,33.203,147.461,36.133,21.973,1623.694,265.90671500176495
373,1686274917.8,13.184,405.762,85.938,-29.785,1623.697,264.08560281677
374,1686274917.8,-59.57,-135.742,-74.219,-62.5,1623.701,276.5967732527617
375,1686274917.81,-55.176,-217.773,-41.992,-23.438,1623.705,243.86772959705385
376,1686274917.81,18.066,305.176,62.5,25.879,1623.709,247.92265360815233
377,1686274917.81,28.809,200.195,16.602,2.441,1623.713,262.63523438183705
378,1686274917.82,-47.852,-510.742,-218.262,-59.082,1623.717,262.4742153945642
379,1686274917.82,-71.289,-515.625,-182.129,-42.969,1623.721,268.9400095606842
380,1686274917.82,-7.812,357.422,110.84,9.277,1623.725,266.14316423728377
381,1686274917.83,23.438,344.238,25.391,6.348,1623.729,255.92546213860766
382,1686274917.83,-21.973,94.727,-30.762,-56.152,1623.733,261.1025225915886
383,1686274917.84,-63.477,201.66,38.574,-67.383,1623.736,264.9778659541444
384,1686274917.85,-19.043,413.574,114.746,5.371,1623.747,262.60497713178086
385,1686274917.86,37.109,247.07,21.484,24.902,1623.751,255.63297314709422
386,1686274917.86,-1.953,-189.941,-145.02,-42.48,1623.755,266.3473260684561
387,1686274917.86,-60.059,-269.043,-99.609,-76.172,1623.759,252.51027776052902
388,1686274917.87,-37.109,1.465,8.301,-22.461,1623.763,257.9201159736449
389,1686274917.87,25.879,-65.43,-71.777,22.461,1623.766,279.48063699120945
390,1686274917.87,2.441,-883.301,-444.824,-8.301,1623.77,270.72042334999657
391,1686274917.88,-67.383,-759.766,-260.254,-68.848,1623.774,269.54783703643784
392,1686274917.88,-58.105,210.938,124.512,-60.547,1623.778,268.6043500955506
393,1686274917.88,-48.828,316.406,48.828,-51.758,1623.791,280.2324277737968
394,1686274917.89,4.883,140.137,6.836,20.508,1623.795,275.88391061522515
395,1686274917.89,15.137,233.887,21.973,7.812,1623.782,261.75802740332693
396,1686274917.89,34.668,152.832,3.906,0.977,1623.786,269.92240820631736
397,1686274917.89,45.41,184.082,14.16,20.996,1623.799,261.05616374176765
398,1686274917.89,-1.953,335.938,69.824,-52.734,1623.803,274.95562789825055
399,1686274917.89,-20.508,342.773,51.758,-59.57,1623.79,281.4509053608794
400,1686274917.9,-56.641,164.062,-15.625,-53.223,1623.807,263.57831231245336
401,1686274917.9,-28.32,-282.227,-131.836,18.555,1623.811,278.6858181171117
402,1686274917.9,29.297,-378.418,-89.844,41.016,1623.814,283.91850112012827
403,1686274917.91,18.066,48.34,22.949,-15.625,1623.818,274.08925695710246
404,1686274917.91,-51.758,252.93,25.879,-70.801,1623.822,283.4075856178447
405,1686274917.92,-67.383,-452.148,-193.359,-33.691,1623.826,304.17967992200613
406,1686274917.92,11.719,-396.484,-90.82,13.184,1623.83,296.3190609994723
407,1686274917.92,39.551,409.668,127.93,-29.297,1623.834,289.9453502747319
408,1686274917.94,-39.551,214.355,-1.953,-79.59,1623.837,294.1913824552996
409,1686274917.94,-68.359,-3.906,-60.059,-43.945,1623.841,294.68614203532
410,1686274917.95,9.766,-2.441,-27.344,30.762,1623.845,288.10055473206506
411,1686274917.95,26.855,117.188,49.316,0.488,1623.849,293.97005269137486
412,1686274917.96,-36.621,87.402,-52.734,-73.73,1623.853,298.220772407599
413,1686274917.96,-72.266,-649.414,-321.777,-48.828,1623.857,302.01856273000186
414,1686274917.96,-19.043,-382.324,-81.543,13.184,1623.86,307.9410239912361
415,1686274917.97,33.691,196.289,77.637,14.648,1623.864,308.4846323569091
416,1686274917.97,-11.719,-220.703,-187.5,-48.34,1623.868,311.92271160659993
417,1686274917.98,-70.312,-731.934,-333.984,-69.336,1623.872,303.5643215169671
418,1686274917.98,-43.457,-72.754,22.949,-24.414,1623.876,319.60586594476166
419,1686274917.98,20.02,444.824,109.863,-0.488,1623.88,301.11877289576915
420,1686274917.99,4.395,18.555,-53.711,-37.109,1623.897,298.6615490965807
421,1686274917.99,-62.988,27.344,-10.254,-82.52,1623.901,314.96379667198215
422,1686274917.99,-58.105,252.441,54.199,-44.434,1623.904,315.1838321471902
423,1686274918.0,14.648,263.672,39.551,11.719,1623.908,315.3055063185052
424,1686274918.0,12.207,114.746,-10.742,-20.02,1623.912,310.147400041625
425,1686274918.01,-65.43,-151.855,-71.289,-77.637,1623.916,311.0338212890621
426,1686274918.01,-88.867,-75.684,-2.93,-59.57,1623.92,298.3645124583743
427,1686274918.01,-18.066,294.922,67.383,5.371,1623.924,305.03966358568243
428,1686274918.02,12.695,-290.039,-190.918,5.859,1623.928,297.5898539085266
429,1686274918.02,-47.363,-542.969,-203.613,-71.289,1623.932,314.7188674524552
430,1686274918.02,-78.613,70.801,67.383,-82.52,1623.936,305.5699134322195
431,1686274918.03,-26.367,114.258,16.113,-5.859,1623.94,303.4856450371623
432,1686274918.03,26.367,-98.145,-21.973,16.113,1623.941,305.00087301382973
433,1686274918.04,-9.277,87.402,43.945,-41.016,1623.945,305.6643175907001
434,1686274918.04,-68.359,108.887,-19.043,-73.242,1623.949,304.2265309608335
435,1686274918.04,-45.41,-202.637,-118.652,-13.184,1623.952,301.8231906169682
436,1686274918.05,17.09,-323.242,-114.258,25.879,1623.956,300.11270513164504
437,1686274918.05,2.441,-185.547,-27.344,-37.109,1623.96,298.5489322063148
438,1686274918.05,-61.523,110.352,49.805,-83.984,1623.964,308.28287429872864
439,1686274918.06,-58.594,-66.406,-125.977,-38.086,1623.968,318.58039869833914
440,1686274918.06,14.16,-259.766,-187.988,21.484,1623.972,304.19244160547686
441,1686274918.07,24.902,308.105,123.535,-7.324,1623.976,310.8417702708137
442,1686274918.07,-30.762,513.672,121.094,-68.848,1623.98,306.05570738978645
443,1686274918.07,-51.27,-149.902,-165.039,-39.062,1623.984,308.53730545755064
444,1686274918.08,-1.465,-622.559,-253.418,26.367,1623.978,309.9349849624067
445,1686274918.08,37.598,77.637,76.66,2.441,1623.982,313.8152157451622
446,1686274918.09,-12.207,431.152,73.242,-62.012,1623.986,312.9674450814521
447,1686274918.09,-69.336,-98.633,-92.773,-50.293,1623.99,314.07107017678317
448,1686274918.09,-30.273,-140.625,-27.344,33.203,1623.994,313.2739992109461
449,1686274918.1,21.973,159.668,26.367,29.297,1623.998,310.0038587054053
450,1686274918.1,-10.254,18.066,-51.758,-51.27,1624.001,312.41509264293336
451,1686274918.1,-54.199,-305.176,-124.023,-60.059,1624.005,318.82687165139146
452,1686274918.11,-30.273,-93.75,4.395,6.836,1624.009,309.99390001630013
453,1686274918.11,41.016,436.523,132.812,46.387,1624.013,318.94092457761235
454,1686274918.12,41.504,287.109,20.02,-8.301,1624.017,329.28233559135435
455,1686274918.12,-32.715,-121.582,-113.281,-53.223,1624.021,321.1536885602664
456,1686274918.12,-37.109,52.734,-2.441,-20.02,1624.017,326.670756113167
457,1686274918.12,38.574,454.102,138.184,27.344,1624.021,326.86007650427166
458,1686274918.13,57.129,70.312,-53.711,17.578,1624.025,335.8900708191666
459,1686274918.13,-15.137,-570.312,-278.32,-39.062,1624.029,324.65710670029614
460,1686274918.14,-55.664,-201.66,-74.707,-45.898,1624.033,339.3290832729454
461,1686274918.14,-1.953,119.141,45.41,19.043,1624.037,337.29225642039074
462,1686274918.14,34.668,-128.906,-101.562,33.691,1624.04,351.6279169215566
463,1686274918.15,-26.855,-843.262,-437.988,-21.484,1624.044,338.30890474187277
464,1686274918.15,-79.102,-681.152,-239.746,-52.734,1624.048,352.21019045674336
465,1686274918.16,-24.902,348.145,142.578,-6.836,1624.052,350.45109023800535
466,1686274918.16,37.109,244.141,14.16,30.762,1624.056,349.39376946829526
467,1686274918.16,12.207,107.91,-5.371,-26.367,1624.06,374.6484862946508
468,1686274918.17,-50.293,334.473,54.688,-70.801,1624.077,374.24997557627074
469,1686274918.17,-42.969,371.094,50.781,-15.625,1624.081,378.4483609822981
470,1686274918.18,19.531,191.895,56.641,40.039,1624.085,372.0979998828678
471,1686274918.18,17.09,250.0,83.496,-1.953,1624.089,406.1395731425085
472,1686274918.18,-46.875,288.574,-5.859,-56.641,1624.093,407.51714246470584
473,1686274918.19,-53.223,78.125,-21.484,-17.09,1624.097,384.9019238220566
474,1686274918.19,3.418,-528.32,-221.68,57.617,1624.101,395.235973216174
475,1686274918.19,21.484,-615.234,-233.887,28.32,1624.105,423.8349543987511
476,1686274918.2,-28.32,168.945,83.008,-62.988,1624.109,419.378017437676
477,1686274918.2,-68.359,117.676,-13.184,-58.105,1624.113,415.42583706564596
478,1686274918.21,-15.625,-7.324,-6.348,11.23,1624.116,421.17074367936067
479,1686274918.21,35.645,294.922,103.516,7.812,1624.12,434.66618704346087
480,1686274918.23,-4.395,469.238,92.285,-63.965,1624.122,460.8238821391163
481,1686274918.23,-57.617,218.262,-19.043,-77.148,1624.126,451.0917635092806
482,1686274918.23,-33.691,-172.852,-113.77,-4.395,1624.13,470.8569778454329
483,1686274918.24,34.18,13.672,17.578,27.832,1624.134,454.5512924749025
484,1686274918.24,22.461,420.898,124.023,-40.527,1624.138,465.27545664031175
485,1686274918.25,-51.27,-11.23,-120.605,-77.637,1624.142,459.4293467006138
486,1686274918.25,-59.57,-771.484,-304.688,-14.648,1624.146,476.05128308100075
487,1686274918.25,13.184,-235.352,16.113,23.926,1624.149,483.0832043593532
488,1686274918.26,24.902,306.641,109.863,-24.902,1624.153,465.6312382881948
489,1686274918.26,15.625,550.293,155.273,-14.16,1624.166,469.4754528964527
490,1686274918.26,-51.27,-192.871,-175.781,-76.172,1624.157,494.1348249831107
491,1686274918.26,-46.387,195.312,-8.301,-73.242,1624.17,482.86065745165195
492,1686274918.26,-89.844,-805.664,-324.707,-49.316,1624.161,477.9211903446527
493,1686274918.27,-90.332,188.965,38.086,-75.195,1624.174,478.4497764569839
494,1686274918.27,-24.414,-114.746,54.688,0.488,1624.165,480.9454295514211
495,1686274918.27,-42.48,465.82,134.766,-12.207,1624.178,482.6692374495277
496,1686274918.27,10.742,479.004,96.68,0.0,1624.181,502.6368747328037
497,1686274918.28,-19.043,25.879,-65.918,-58.105,1624.185,467.0075848004278
498,1686274918.28,-74.707,-59.082,-13.672,-85.449,1624.189,486.4166421732045
499,1686274918.28,-53.223,326.66,138.672,-42.48,1624.193,480.72398542130384
500,1686274918.29,15.625,434.57,81.543,-5.371,1624.197,495.316424479448
501,1686274918.29,-1.953,-320.312,-182.617,-37.598,1624.201,469.4555586152276
502,1686274918.3,-75.195,-501.953,-164.551,-83.984,1624.205,489.00875192594197
503,1686274918.3,-76.172,170.898,99.121,-54.199,1624.209,488.4948860806919
504,1686274918.32,1.953,232.91,50.293,7.324,1624.212,488.7152359535408
505,1686274918.32,15.137,0.0,-14.16,-19.531,1624.216,465.16139455741836
506,1686274918.32,-62.988,-139.16,-32.715,-85.938,1624.22,469.2187452605718
507,1686274918.33,-69.336,109.863,41.992,-49.805,1624.224,477.55940668573555
508,1686274918.33,6.348,279.297,40.039,27.832,1624.227,454.82004126305645
509,1686274918.34,5.859,-536.621,-231.934,14.648,1624.231,485.97997249905177
510,1686274918.34,-65.918,-385.742,-44.922,-72.754,1624.235,473.9128546512912
511,1686274918.34,-103.027,467.285,166.504,-91.309,1624.239,465.7736515764336
512,1686274918.35,-77.637,85.938,-81.543,-25.879,1624.243,465.84755215567395
513,1686274918.35,-22.949,-138.672,-145.996,4.883,1624.247,471.8204955372085
514,1686274918.36,-34.18,404.785,128.906,-62.5,1624.251,455.882890247916
515,1686274918.36,-105.469,443.848,109.375,-119.629,1624.255,471.7775677661595
516,1686274918.36,-94.727,130.371,-6.348,-67.383,1624.258,467.3550883288398
517,1686274918.36,-26.855,-27.832,-28.809,-10.742,1624.262,464.612251207539
518,1686274918.37,-25.391,198.73,52.246,-40.527,1624.266,470.5009915075724
519,1686274918.37,-77.148,372.559,48.34,-97.168,1624.27,461.9247455203618
520,1686274918.38,-92.773,-147.461,-94.727,-58.594,1624.274,453.7230251805699
521,1686274918.38,-27.344,-448.242,-118.164,20.996,1624.278,444.8077255466834
522,1686274918.38,9.766,40.039,48.34,-4.395,1624.281,438.81990015633437
523,1686274918.39,-40.039,393.066,78.613,-77.637,1624.285,438.49061951064056
524,1686274918.39,-82.031,-362.305,-209.473,-50.781,1624.289,453.6742480281762
525,1686274918.4,-34.18,-432.129,-101.074,11.23,1624.293,444.2339789148225
526,1686274918.4,18.066,407.227,139.648,-3.906,1624.297,453.4506334386408
527,1686274918.4,-24.902,221.191,-12.695,-64.453,1624.301,431.0382193917986
528,1686274918.41,-87.402,-12.207,-48.34,-90.332,1624.302,438.2311310238987
529,1686274918.41,-52.246,252.441,71.289,-30.273,1624.306,442.84020026747453
530,1686274918.41,15.137,259.277,61.035,10.254,1624.31,425.33790741210186
531,1686274918.42,-9.277,-165.527,-129.395,-39.062,1624.314,427.07412092372806
532,1686274918.42,-70.312,-664.062,-298.828,-80.078,1624.318,436.6002021854484
533,1686274918.43,-59.57,-496.094,-150.879,-37.598,1624.322,416.07509090762454
534,1686274918.43,16.602,175.293,98.145,12.207,1624.326,404.4456100219145
535,1686274918.43,16.602,75.684,-101.562,-24.902,1624.33,419.0587984637089
536,1686274918.44,-59.57,-715.82,-371.582,-67.871,1624.334,386.2805432269314
537,1686274918.44,-74.219,-202.148,-16.602,-51.27,1624.337,398.77640059984526
538,1686274918.44,-2.93,483.887,121.094,-2.93,1624.341,395.1510995902404
539,1686274918.45,30.762,183.105,-15.137,-7.812,1624.345,388.59402731264936
540,1686274918.45,-25.879,106.934,-28.809,-66.406,1624.348,405.7309739405077
541,1686274918.46,-74.707,328.125,53.223,-71.777,1624.352,380.3158440324638
542,1686274918.46,-27.832,381.348,66.895,-4.883,1624.356,379.0400880497488
543,1686274918.46,33.691,198.242,62.5,11.719,1624.36,393.0790737446946
544,1686274918.47,1.465,175.781,53.223,-52.246,1624.364,352.6620220349217
545,1686274918.47,-56.641,22.949,-36.133,-67.383,1624.368,346.11014012661155
546,1686274918.47,-34.18,-88.379,-24.414,-2.93,1624.372,348.3494559880911
547,1686274918.48,20.508,-532.227,-241.211,37.598,1624.375,352.75356217726255
548,1686274918.48,0.977,-711.914,-255.371,-7.812,1624.379,329.93723620613764
549,1686274918.49,-53.223,199.219,105.469,-68.848,1624.383,334.65527867026907
550,1686274918.49,-51.758,247.07,-6.348,-25.879,1624.387,334.98477101213587
551,1686274918.49,14.648,15.625,-38.086,27.344,1624.391,320.60316253715644
552,1686274918.5,30.762,254.395,68.848,-7.812,1624.392,314.8952772130357
553,1686274918.5,-30.762,423.34,89.844,-64.453,1624.396,310.45250895986334
554,1686274918.5,-65.43,81.055,-39.551,-47.852,1624.4,316.69989605964923
555,1686274918.51,-11.719,-286.133,-105.957,12.207,1624.404,303.009545634693
556,1686274918.51,22.949,92.773,20.02,-1.953,1624.408,298.0166241677045
557,1686274918.52,-32.715,87.402,-43.457,-66.406,1624.412,292.2107327161696
558,1686274918.52,-83.008,-275.879,-213.379,-65.43,1624.415,291.0403699779603
559,1686274918.52,-41.504,-669.922,-274.902,9.766,1624.419,288.2070198864956
560,1686274918.53,16.113,-204.102,-10.254,6.836,1624.423,278.0886208923296
561,1686274918.53,-13.672,201.172,22.461,-67.383,1624.427,279.2116042093708
562,1686274918.54,-65.43,-349.121,-202.148,-69.336,1624.431,258.6573257334649
563,1686274918.54,-42.969,-297.852,-142.09,-15.137,1624.435,282.32418126291844
564,1686274918.56,17.578,379.883,107.422,6.836,1624.458,264.6539709561869
565,1686274918.56,9.277,377.93,54.199,-31.25,1624.462,256.1417388187211
566,1686274918.57,-53.223,27.344,-64.453,-68.848,1624.466,240.7736456879831
567,1686274918.57,-56.641,123.535,4.395,-33.691,1624.47,241.08401678075722
568,1686274918.58,5.859,378.418,87.402,16.113,1624.474,246.28415694354692
569,1686274918.58,13.184,167.969,-4.395,-10.742,1624.478,232.39733639349194
570,1686274918.58,-61.035,-573.73,-270.508,-62.5,1624.482,223.59540171449413
571,1686274918.59,-91.309,-561.523,-222.656,-55.664,1624.486,230.76260669411607
572,1686274918.59,-41.504,111.816,11.719,-8.301,1624.495,249.4151871993849
573,1686274918.59,-22.461,296.387,110.84,-2.93,1624.49,245.07623965237636
574,1686274918.59,18.066,194.336,18.066,12.207,1624.499,239.04118208907843
575,1686274918.59,22.461,293.457,20.02,2.441,1624.493,235.64119592297575
576,1686274918.6,-9.766,-267.578,-147.949,-37.598,1624.503,229.01668207743037
577,1686274918.6,-23.926,78.613,-45.41,-60.059,1624.497,241.9381348017416
578,1686274918.6,-67.383,-225.586,-88.379,-74.707,1624.507,237.8061506998409
579,1686274918.6,-70.801,39.551,-22.949,-73.73,1624.501,227.53854340048616
580,1686274918.6,-45.898,225.586,55.664,-33.203,1624.511,230.75646321324888
581,1686274918.61,14.16,-97.656,-124.512,31.738,1624.515,231.81790737958846
582,1686274918.61,6.348,-346.191,-195.312,-5.859,1624.519,225.8881783576596
583,1686274918.61,-58.105,163.086,45.898,-83.008,1624.523,234.67965879203942
584,1686274918.62,-69.336,178.223,17.578,-51.758,1624.527,239.31819545718665
585,1686274918.62,-8.301,-229.492,-152.344,16.602,1624.531,237.08897133699847
586,1686274918.63,-3.418,-924.316,-461.426,16.602,1624.534,236.00590810285894
587,1686274918.63,-58.105,-679.199,-272.461,-56.152,1624.538,225.10390932523578
588,1686274918.64,-77.637,232.91,96.191,-73.242,1624.556,240.37057793674632
589,1686274918.64,-22.461,172.852,-7.812,3.906,1624.56,234.72249714588824
590,1686274918.64,33.691,9.766,-62.5,17.09,1624.563,226.95357239450902
591,1686274918.65,-3.906,195.312,8.789,-52.734,1624.567,247.88696372779464
592,1686274918.65,-61.523,432.617,69.336,-80.566,1624.571,238.82514701046108
593,1686274918.66,-36.621,-335.938,-209.473,0.488,1624.575,245.35089316344903
594,1686274918.66,24.414,-700.684,-238.77,39.062,1624.579,241.8025393510456
595,1686274918.66,8.789,280.273,114.746,-48.34,1624.583,246.0034160525461
596,1686274918.67,-53.711,330.566,-20.508,-85.938,1624.587,239.52291507430854
597,1686274918.67,-47.852,32.715,-46.387,-21.484,1624.591,228.87097217465015
598,1686274918.67,20.508,284.668,90.82,33.203,1624.595,240.77524224813834
599,1686274918.68,23.438,440.43,89.355,-8.789,1624.599,237.4020850700732
600,1686274918.69,-50.781,194.336,-34.18,-76.66,1624.587,238.06821163454202
601,1686274918.7,-78.125,50.293,-67.383,-55.176,1624.591,257.636868403828
602,1686274918.7,-4.395,0.488,-13.672,11.719,1624.595,257.6138876179147
603,1686274918.7,32.715,54.688,0.0,-1.953,1624.599,249.3066932162511
604,1686274918.71,-24.902,89.844,-46.387,-68.848,1624.603,261.08546841690696
605,1686274918.71,-71.289,-753.418,-412.109,-38.574,1624.607,253.12112722637022
606,1686274918.71,-30.762,-890.625,-380.371,26.855,1624.611,256.35618337585566
607,1686274918.72,24.902,126.465,57.617,0.488,1624.614,258.68820903613926
608,1686274918.72,-6.348,87.402,-92.773,-56.641,1624.618,265.6652337885966
609,1686274918.73,-63.477,-225.098,-209.473,-65.918,1624.622,255.91876772119008
610,1686274918.73,-21.484,301.27,86.426,-3.418,1624.626,282.3363403550936
611,1686274918.73,57.129,552.734,123.535,44.922,1624.63,274.7759574986095
612,1686274918.74,20.996,-24.414,-109.375,-14.648,1624.646,265.7927017067641
613,1686274918.74,-70.312,-326.66,-197.266,-79.59,1624.65,276.7143625506303
614,1686274918.74,-55.176,248.047,42.969,-30.273,1624.654,261.97602099038545
615,1686274918.75,27.832,377.93,72.754,36.621,1624.658,261.79331780276436
616,1686274918.75,37.109,98.145,-74.707,14.16,1624.661,265.06852765179735
617,1686274918.76,-31.738,-226.562,-193.359,-33.203,1624.665,264.0522376120117
618,1686274918.76,-51.758,-101.074,-61.035,-22.949,1624.669,284.36593479577095
619,1686274918.76,12.695,199.707,67.383,38.086,1624.673,271.8313579551986
620,1686274918.77,33.203,-477.051,-242.188,44.922,1624.677,270.9984083271351
621,1686274918.77,-24.414,-720.215,-272.461,-18.555,1624.681,281.1117781102969
622,1686274918.78,-61.035,222.168,85.938,-40.039,1624.685,269.04000342937354
623,1686274918.78,-17.09,235.84,7.812,25.391,1624.689,278.55938218041166
624,1686274918.78,36.133,26.367,-21.484,45.41,1624.677,284.5127005669148
625,1686274918.78,7.324,299.805,64.453,-21.484,1624.681,280.3681943390474
626,1686274918.79,-54.199,164.551,-8.301,-51.758,1624.685,278.74336299608524
627,1686274918.79,-39.551,-149.902,-102.051,0.977,1624.689,291.75104039029264
628,1686274918.8,24.902,-367.188,-171.387,50.781,1624.692,298.21477785981835
629,1686274918.8,20.02,-236.328,-79.59,7.324,1624.696,298.04032104255776
630,1686274918.8,-38.086,-30.762,-23.926,-50.781,1624.7,299.0643902188514
631,1686274918.81,-44.922,-270.996,-211.914,-25.391,1624.704,297.7847513766486
632,1686274918.81,18.555,-456.055,-185.547,27.344,1624.708,279.65784399546
633,1686274918.82,40.527,76.172,69.336,-4.883,1624.712,312.17746598389573
634,1686274918.82,-14.648,189.941,1.465,-55.664,1624.716,294.4948205002445
635,1686274918.82,-48.828,-392.09,-245.605,-34.668,1624.72,291.7867118846605
636,1686274918.83,-4.883,-552.734,-218.75,17.578,1624.736,291.2371796205569
637,1686274918.83,42.969,263.672,108.398,1.953,1624.74,296.1676564695136
638,1686274918.83,-12.207,256.836,-4.883,-61.035,1624.744,296.73909600259793
639,1686274918.84,-67.383,-100.586,-106.934,-71.777,1624.748,308.2509810063704
640,1686274918.84,-16.602,132.812,-9.766,-10.254,1624.751,297.88664681729716
641,1686274918.85,39.062,81.055,-18.066,23.438,1624.755,299.03369057614594
642,1686274918.85,11.23,35.156,-22.949,-35.156,1624.759,302.3282776488781
643,1686274918.85,-55.176,-484.863,-223.633,-67.383,1624.763,315.57115332742336
644,1686274918.86,-43.945,-469.727,-147.949,-17.09,1624.767,307.512150894196
645,1686274918.86,26.855,467.773,174.805,15.625,1624.771,292.78223181489517
646,1686274918.86,18.066,395.508,38.574,-26.855,1624.775,293.9587939290103
647,1686274918.87,-57.129,108.398,-54.199,-81.543,1624.779,317.6817098018537
648,1686274918.87,-67.383,81.055,-8.301,-45.41,1624.77,322.89848459185964
649,1686274918.88,5.371,173.828,70.801,10.742,1624.774,313.31045105579784
650,1686274918.88,28.809,95.703,-5.371,-8.301,1624.778,302.5642378858696
651,1686274918.88,-44.434,-637.695,-261.23,-60.059,1624.782,304.4450333489485
652,1686274918.89,-88.867,-384.766,-104.004,-62.988,1624.786,311.3591769381199
653,1686274918.89,-32.715,202.637,50.293,4.395,1624.79,311.99153492061896
654,1686274918.9,20.02,-144.531,-139.16,21.973,1624.794,323.6731679739745
655,1686274918.9,-16.602,-575.195,-288.086,-53.711,1624.798,303.9738958029237
656,1686274918.9,-74.219,-70.312,-16.113,-99.609,1624.802,301.8317936783353
657,1686274918.91,-37.598,433.105,99.609,-33.691,1624.806,314.3895298509321
658,1686274918.91,30.762,120.605,-32.715,15.625,1624.81,309.2784023851436
659,1686274918.92,-2.93,13.184,-32.227,-43.457,1624.813,327.4415100368048
660,1686274918.92,-63.477,310.547,64.941,-96.191,1624.814,319.0555282305865
661,1686274918.92,-46.875,375.0,75.684,-48.828,1624.818,312.65309458015713
662,1686274918.92,12.207,139.16,-15.137,10.254,1624.822,328.49180819766565
663,1686274918.93,18.066,-45.898,-37.598,-25.391,1624.826,329.66752393948485
664,1686274918.93,-43.457,83.984,7.812,-78.125,1624.829,323.6399202094115
665,1686274918.94,-55.664,83.008,-19.043,-51.758,1624.833,311.77228307880347
666,1686274918.94,7.812,-529.297,-235.84,28.809,1624.837,322.4113879438921
667,1686274918.94,39.062,-728.516,-219.238,18.555,1624.841,319.06169388480674
668,1686274918.95,-2.441,176.758,104.004,-67.871,1624.845,332.18932265302334
669,1686274918.95,-53.711,311.035,6.348,-71.289,1624.849,315.79917275926204
670,1686274918.96,-15.137,104.492,-15.625,0.488,1624.853,308.74620235392814
671,1686274918.96,41.504,322.754,93.262,20.508,1624.857,338.5322443093312
672,1686274918.96,-0.488,405.273,91.309,-42.969,1624.871,315.8726431123792
673,1686274918.96,-61.035,191.406,-4.395,-62.5,1624.875,336.02613741801144
674,1686274918.97,-34.668,-140.625,-109.863,7.812,1624.879,340.07740422849827
675,1686274918.97,32.715,58.594,30.273,30.273,1624.883,327.8841906030946
676,1686274918.98,14.648,300.293,68.848,-28.809,1624.887,334.028554203412
677,1686274918.98,-49.805,-107.91,-137.207,-63.477,1624.891,326.8701296160358
678,1686274918.98,-53.711,-892.09,-455.078,-10.742,1624.895,320.80825188460824
679,1686274918.99,20.02,-659.668,-237.793,32.715,1624.899,332.7945173880042
680,1686274918.99,59.57,343.262,150.391,-16.602,1624.903,325.25625509841086
681,1686274919.0,-9.277,77.637,-74.707,-67.383,1624.907,331.38210592707344
682,1686274919.0,-33.691,-106.934,-80.566,-47.363,1624.91,327.5488682555859
683,1686274919.0,6.348,366.699,115.723,20.996,1624.914,335.9213772031406
684,1686274919.02,8.789,455.078,91.797,22.461,1624.919,338.20483034232154
685,1686274919.03,-35.645,128.418,-33.203,-43.457,1624.923,338.1756374134017
686,1686274919.03,-75.195,34.18,-37.598,-46.875,1624.927,315.282603533233
687,1686274919.03,-34.668,299.316,81.055,4.883,1624.931,327.11047609441977
688,1686274919.04,29.785,352.051,58.594,20.996,1624.935,334.34926794667064
689,1686274919.04,2.441,-139.16,-123.047,-30.762,1624.939,335.64248671743337
690,1686274919.04,-64.941,-246.094,-67.383,-69.336,1624.943,339.74271018288425
691,1686274919.05,-41.504,189.941,61.523,-22.949,1624.946,333.7615398543412
692,1686274919.05,33.691,180.664,10.254,23.438,1624.95,340.0604752009054
693,1686274919.06,3.418,-575.684,-291.992,-4.883,1624.954,346.1190270739828
694,1686274919.06,-66.406,-686.035,-260.254,-53.711,1624.958,340.38936632555817
695,1686274919.06,-46.875,203.125,95.703,-35.156,1624.962,339.6289150592933
696,1686274919.07,2.441,197.754,-4.395,3.418,1624.962,338.5439881016478
697,1686274919.07,10.742,-3.418,-47.852,-33.691,1624.966,330.54401096389205
698,1686274919.07,-44.434,-89.355,-62.988,-86.914,1624.97,328.52092833146423
699,1686274919.08,-79.102,-25.879,-36.621,-73.73,1624.974,328.57362015363594
700,1686274919.08,-20.508,88.379,-23.926,-11.23,1624.977,334.6226221282559
701,1686274919.09,16.113,-329.59,-203.125,-9.277,1624.981,337.95425916417975
702,1686274919.09,-18.555,-179.199,-77.637,-79.59,1624.985,347.26096085996824
703,1686274919.09,-56.152,314.941,113.77,-100.098,1624.989,339.62975818961564
704,1686274919.1,-34.18,65.918,-75.684,-31.25,1624.993,341.627578253611
705,1686274919.1,14.648,-754.883,-371.094,14.648,1624.997,346.7059494009494
706,1686274919.1,-9.277,-424.316,-167.48,-55.176,1625.001,330.24524162963496
707,1686274919.11,-62.012,82.031,-21.484,-95.215,1625.005,338.3025661241602
708,1686274919.11,-58.105,-290.527,-138.672,-34.18,1625.007,329.30867243367356
709,1686274919.12,9.277,-149.902,-45.41,9.766,1625.011,332.84707465993756
710,1686274919.12,19.043,441.895,123.047,-31.738,1625.015,355.87405052494574
711,1686274919.12,-48.34,374.023,41.016,-89.844,1625.019,339.486387746692
712,1686274919.13,-72.266,75.684,-16.602,-65.918,1625.023,334.12527989776066
713,1686274919.13,-12.207,-127.441,-68.359,17.09,1625.027,337.93222545265803
714,1686274919.13,25.391,30.273,-2.441,6.836,1625.03,338.7824193065984
715,1686274919.14,-34.668,243.164,12.695,-70.801,1625.034,341.7476453629778
716,1686274919.14,-79.102,-461.914,-232.422,-57.617,1625.038,362.4041976077591
717,1686274919.15,-32.715,-439.941,-101.562,12.207,1625.042,340.61073618641166
718,1686274919.15,28.809,455.566,166.016,10.742,1625.046,328.0205369874387
719,1686274919.15,-0.488,280.762,8.301,-55.176,1625.05,350.2430136064986
720,1686274919.17,-60.547,7.324,-56.152,-73.73,1625.076,346.35277225648883
721,1686274919.18,-29.785,86.914,33.203,-4.395,1625.08,351.7776105015692
722,1686274919.18,32.715,21.973,21.973,32.227,1625.083,334.3230945548636
723,1686274919.18,13.672,-94.727,-63.477,-24.902,1625.087,349.980337054136
724,1686274919.19,-60.547,-709.473,-322.754,-60.059,1625.091,340.49052945593564
725,1686274919.19,-68.848,-788.086,-270.996,-20.508,1625.095,353.5760229562806
726,1686274919.2,12.695,91.797,81.055,19.531,1625.099,354.2162620775126
727,1686274919.2,29.785,111.328,-65.918,1.465,1625.103,362.18049631546285
728,1686274919.2,-14.648,105.469,-20.02,-67.871,1625.099,363.07454208372354
729,1686274919.2,-42.48,-500.0,-263.184,-49.316,1625.107,367.5424113014299
730,1686274919.2,-60.059,320.801,51.27,-76.172,1625.103,356.9410990682731
731,1686274919.21,-60.547,64.453,66.406,-42.969,1625.111,345.6628856953246
732,1686274919.21,-11.23,364.746,62.988,-17.09,1625.107,349.8755351739338
733,1686274919.21,8.789,538.086,147.461,20.996,1625.115,359.9989614739383
734,1686274919.21,45.898,116.211,-32.227,-4.883,1625.111,344.23108138656045
735,1686274919.22,44.434,173.34,-1.465,9.766,1625.119,364.46082474681316
736,1686274919.22,11.719,-151.367,-103.027,-49.805,1625.115,351.6747835271405
737,1686274919.22,-49.805,-153.809,-83.984,-63.477,1625.119,357.69393929391333
738,1686274919.22,-43.945,-104.98,-36.133,-17.09,1625.123,369.20677070841924
739,1686274919.23,18.555,-128.906,-52.734,20.508,1625.127,358.09402528164566
740,1686274919.23,21.973,33.203,-27.344,-26.367,1625.131,362.79123818922363
741,1686274919.24,-45.41,265.625,58.105,-77.148,1625.134,358.23810101528824
742,1686274919.24,-62.5,339.844,37.598,-41.992,1625.138,364.31744835450553
743,1686274919.24,-2.441,-446.777,-245.605,34.18,1625.142,376.67692657557603
744,1686274919.25,22.461,-723.633,-239.746,12.695,1625.142,366.2146702123505
745,1686274919.25,-29.785,217.285,99.121,-74.219,1625.146,370.58345627025625
746,1686274919.25,-65.43,95.703,-42.48,-62.012,1625.15,381.1324203064052
747,1686274919.26,-10.254,-358.398,-114.258,16.113,1625.153,378.8873899896805
748,1686274919.26,32.715,54.199,49.316,14.16,1625.157,375.0813854330324
749,1686274919.27,-22.461,79.102,-36.133,-42.969,1625.161,384.9230297670742
750,1686274919.27,-75.195,-279.785,-179.199,-51.758,1625.165,392.8092679296129
751,1686274919.27,-40.039,-859.375,-386.23,15.137,1625.169,379.0792183788956
752,1686274919.28,14.648,-529.785,-171.387,25.391,1625.173,399.80724310696553
753,1686274919.28,-1.953,428.711,136.719,-53.711,1625.177,398.52494838728086
754,1686274919.28,-65.918,140.625,-23.438,-76.66,1625.181,398.7777606995239
755,1686274919.29,-49.805,53.711,0.0,-19.043,1625.185,385.7648064545013
756,1686274919.29,29.785,492.188,139.648,20.996,1625.189,398.55108069124105
757,1686274919.3,20.996,510.254,101.074,-20.02,1625.193,395.1009508018368
758,1686274919.3,-59.57,157.715,-34.18,-70.312,1625.197,403.6044475671075
759,1686274919.3,-70.312,102.051,-14.16,-37.598,1625.201,409.95465533606176
760,1686274919.31,3.906,308.594,72.266,29.785,1625.205,408.329795189042
761,1686274919.31,23.438,194.336,30.273,10.742,1625.209,405.08533853823803
762,1686274919.32,-46.387,-521.973,-240.234,-53.711,1625.213,409.8047940991594
763,1686274919.32,-86.426,-583.496,-212.402,-54.199,1625.217,412.3020508582403
764,1686274919.32,-26.367,259.277,113.281,-1.953,1625.22,422.431850039439
765,1686274919.33,23.926,153.809,-5.371,9.277,1625.224,423.7342685075502
766,1686274919.33,-22.461,-254.883,-130.371,-55.664,1625.228,427.1321529522432
767,1686274919.34,-71.777,-4.395,-7.812,-77.637,1625.232,425.3048548546836
768,1686274919.34,-36.621,397.949,126.465,-11.23,1625.246,443.9858172943715
769,1686274919.34,15.137,252.441,45.41,18.555,1625.25,438.6068232056585
770,1686274919.34,-12.695,-199.219,-136.719,-40.527,1625.254,435.55821468453394
771,1686274919.35,-70.801,-64.453,-40.527,-82.031,1625.258,427.52615635721605
772,1686274919.35,-54.199,319.336,107.91,-35.645,1625.262,437.9888643307314
773,1686274919.36,10.254,75.195,-21.973,21.973,1625.266,450.32074925082156
774,1686274919.36,-4.883,-801.27,-379.395,0.0,1625.27,440.33157542797966
775,1686274919.36,-74.219,-636.23,-250.977,-78.125,1625.274,451.2304341320682
776,1686274919.37,-72.754,314.941,113.281,-78.613,1625.278,451.86478301786576
777,1686274919.37,9.277,202.148,8.789,17.09,1625.282,449.37726301584166
778,1686274919.38,44.922,134.766,-7.812,17.578,1625.285,457.36570413851854
779,1686274919.38,-40.527,245.117,6.836,-76.172,1625.289,474.77592335688627
780,1686274919.38,-98.145,82.52,-24.414,-86.914,1625.284,454.42893691427184
781,1686274919.39,-56.152,-249.512,-94.238,-5.371,1625.288,458.5433244103204
782,1686274919.39,6.836,-137.695,-51.758,14.648,1625.291,471.1779334402926
783,1686274919.4,-17.09,367.188,95.215,-60.547,1625.295,455.3386538492376
784,1686274919.4,-100.098,324.219,49.316,-92.285,1625.299,450.62802079279817
785,1686274919.4,-80.078,-65.43,-78.613,-23.438,1625.303,462.7346085138233
786,1686274919.41,5.859,-114.746,-30.762,17.09,1625.307,450.63236444568093
787,1686274919.41,-4.883,319.336,132.324,-40.527,1625.311,451.0024892145112
788,1686274919.42,-77.637,312.5,33.203,-79.59,1625.315,458.3888327445417
789,1686274919.42,-68.359,-354.492,-135.742,-23.438,1625.319,462.77130818777164
790,1686274919.42,3.418,-200.195,20.02,32.227,1625.323,451.49746223247735
791,1686274919.43,16.602,452.637,141.602,-7.324,1625.327,458.9176781607213
792,1686274919.44,-43.945,217.773,-12.207,-70.801,1625.338,459.3936264219214
793,1686274919.44,-62.988,-29.785,-65.43,-41.504,1625.342,458.6821899015653
794,1686274919.45,-2.441,5.859,-23.438,25.391,1625.346,443.9064588246029
795,1686274919.45,17.578,-47.852,-25.879,12.207,1625.35,437.66815040018594
796,1686274919.46,-36.621,-169.922,-94.238,-50.293,1625.353,433.0695835309494
797,1686274919.46,-89.355,-812.988,-393.066,-38.086,1625.357,450.0882195708979
798,1686274919.46,-53.223,-823.242,-305.664,19.531,1625.361,444.6976536055275
799,1686274919.47,20.02,199.707,92.285,5.859,1625.365,432.31826890380336
800,1686274919.47,-10.742,199.707,6.836,-53.711,1625.369,413.03789931703005
801,1686274919.48,-70.312,-27.832,-75.684,-75.684,1625.373,434.67565982746027
802,1686274919.48,-33.203,365.723,89.355,-17.578,1625.377,435.318596733101
803,1686274919.48,37.598,478.516,122.559,31.738,1625.381,424.25605364048863
804,1686274919.49,24.414,169.922,13.184,-13.672,1625.383,415.81229745824174
805,1686274919.49,-42.969,108.398,-0.977,-68.848,1625.386,406.5614669099469
806,1686274919.49,-49.316,339.844,93.262,-26.855,1625.39,425.17980721425823
807,1686274919.5,11.719,378.418,100.098,31.25,1625.394,391.0371699062523
808,1686274919.5,28.32,99.609,-40.039,0.977,1625.398,399.07774405957815
809,1686274919.51,-35.156,-176.758,-119.141,-63.965,1625.402,396.27492186623795
810,1686274919.51,-65.918,-209.961,-76.66,-48.828,1625.406,390.99913379844577
811,1686274919.51,-6.348,-41.992,-20.508,18.066,1625.41,386.38849940544907
812,1686274919.52,36.133,-476.074,-250.977,29.785,1625.414,385.8748253214058
813,1686274919.52,-19.531,-815.918,-370.605,-34.18,1625.418,377.9885943895972
814,1686274919.52,-65.918,52.246,21.484,-72.266,1625.422,378.5483911930164
815,1686274919.53,-26.367,287.598,48.828,-1.953,1625.425,360.4375058753022
816,1686274919.53,36.621,107.422,0.488,34.668,1625.427,365.85091100861234
817,1686274919.54,16.113,271.484,60.547,-26.855,1625.431,351.7534465378751
818,1686274919.54,-52.246,128.906,-8.789,-68.848,1625.435,350.8607107305181
819,1686274919.54,-45.898,-109.863,-75.684,-27.344,1625.439,346.0404849878057
820,1686274919.55,18.555,-359.375,-170.41,20.02,1625.443,342.1823839230991
821,1686274919.55,28.809,-330.566,-122.559,-11.719,1625.447,349.2845205133428
822,1686274919.55,-33.203,66.895,30.273,-79.102,1625.451,333.64090108229385
823,1686274919.56,-57.617,20.508,-104.98,-57.129,1625.455,352.67470364145686
824,1686274919.56,0.977,-735.352,-319.824,29.297,1625.458,327.2609389321971
825,1686274919.57,38.574,-246.582,2.441,7.812,1625.462,331.80079643346414
826,1686274919.57,-14.16,495.605,119.629,-69.336,1625.466,335.99378897130725
827,1686274919.57,-72.266,96.191,-41.016,-65.918,1625.47,325.6049496111352
828,1686274919.58,-23.926,78.125,6.836,2.93,1625.472,316.9461797763117
829,1686274919.58,31.738,449.707,100.586,11.23,1625.476,309.5397590579873
830,1686274919.58,-15.137,371.582,46.387,-54.688,1625.48,305.95382966589347
831,1686274919.59,-71.777,86.914,-34.18,-70.312,1625.484,309.30385425760807
832,1686274919.59,-43.457,68.359,-33.203,-8.301,1625.487,304.49405165822606
833,1686274919.6,18.555,26.855,-34.18,26.855,1625.491,299.1029159972951
834,1686274919.6,0.977,14.648,-25.879,-34.668,1625.495,303.68525198865945
835,1686274919.6,-71.777,-499.512,-225.586,-75.684,1625.499,294.9074131493784
836,1686274919.61,-68.359,-519.531,-187.5,-34.668,1625.503,303.511627532182
837,1686274919.61,10.254,336.426,124.023,0.977,1625.507,299.23627476620186
838,1686274919.62,13.672,148.926,1.953,-34.668,1625.511,300.95787569026635
839,1686274919.62,-67.871,-288.574,-125.0,-89.355,1625.515,292.20407429228
840,1686274919.62,-78.613,-2.441,-11.23,-74.219,1625.517,283.1474577389938
841,1686274919.62,2.93,419.434,117.676,-15.137,1625.521,295.8656489152797
842,1686274919.63,29.785,83.984,-18.555,-2.93,1625.525,296.2889526121144
843,1686274919.63,-42.48,-457.52,-187.012,-55.176,1625.529,298.90571499826393
844,1686274919.64,-88.379,-93.75,-36.621,-73.73,1625.533,289.88044600370336
845,1686274919.64,-36.133,161.621,65.43,-11.719,1625.537,285.8954606225506
846,1686274919.64,25.879,-183.594,-108.887,22.949,1625.541,282.02039707146713
847,1686274919.65,-12.207,-565.918,-283.203,-34.668,1625.544,306.19148177523755
848,1686274919.65,-78.125,-118.164,-23.438,-76.172,1625.548,312.40725814264823
849,1686274919.66,-53.711,421.387,114.258,-19.531,1625.552,291.4406046359628
850,1686274919.66,10.742,191.406,11.719,21.973,1625.556,302.3843077069716
851,1686274919.66,-3.906,107.422,-14.16,-33.691,1625.56,291.3905833334494
852,1686274919.67,-71.289,173.34,-9.766,-78.125,1625.569,289.1912607707366
853,1686274919.67,-64.941,45.41,-33.203,-41.992,1625.573,291.23164226771746
854,1686274919.68,6.348,-310.547,-123.535,19.043,1625.577,288.5583264544177
855,1686274919.68,17.578,-205.566,-38.086,-5.371,1625.581,313.19490507497346
856,1686274919.68,-44.434,219.727,40.039,-73.73,1625.585,303.01953723114957
857,1686274919.69,-70.312,13.672,-49.316,-50.781,1625.589,314.0951254729315
858,1686274919.69,-11.719,-573.73,-230.469,21.484,1625.592,313.3386080568828
859,1686274919.7,19.531,-520.996,-193.359,15.137,1625.596,323.24298052254846
860,1686274919.7,-19.531,309.082,103.516,-62.012,1625.6,316.82031743266367
861,1686274919.7,-58.105,219.238,-4.395,-63.477,1625.604,312.8945696928426
862,1686274919.71,-24.414,22.949,-18.066,-5.859,1625.608,329.90243939583956
863,1686274919.71,3.418,412.109,80.078,-45.898,1625.621,323.81211303304667
864,1686274919.71,38.086,280.273,80.566,15.625,1625.612,327.4201336090807
865,1686274919.72,-76.66,207.52,26.367,-90.82,1625.625,339.7808180081355
866,1686274919.72,-59.082,-181.152,-113.77,-23.438,1625.629,357.65786873724676
867,1686274919.72,16.113,-197.266,-62.988,34.668,1625.633,353.72173044455553
868,1686274919.73,12.695,98.145,54.688,-23.438,1625.637,344.3302575192712
869,1686274919.73,-56.152,-51.758,-63.965,-91.797,1625.641,363.7767822588641
870,1686274919.73,-72.754,-866.699,-409.18,-42.969,1625.645,361.8495146311256
871,1686274919.74,-13.184,-792.969,-248.047,14.648,1625.649,367.01554760082735
872,1686274919.74,20.02,200.684,127.93,-22.461,1625.652,360.5263605963662
873,1686274919.75,-45.41,166.016,-19.531,-88.867,1625.656,375.6668390227562
874,1686274919.75,-81.055,-0.488,-36.133,-71.289,1625.66,387.8825823801378
875,1686274919.75,-17.09,369.629,114.258,1.953,1625.664,388.20462683663175
876,1686274919.76,24.902,419.434,102.051,8.789,1625.666,386.6752822799102
877,1686274919.76,-22.949,106.934,-20.02,-49.316,1625.67,417.69105038687167
878,1686274919.76,-76.172,60.059,-7.324,-68.848,1625.674,405.6173347638168
879,1686274919.77,-31.25,380.371,127.93,-12.695,1625.678,406.41313674223346
880,1686274919.77,23.438,345.215,57.129,10.742,1625.682,422.3139914492391
881,1686274919.78,-12.207,-179.688,-131.836,-43.945,1625.686,437.18273185475744
882,1686274919.78,-65.43,-370.605,-139.16,-74.219,1625.69,401.4355368721817
883,1686274919.78,-55.176,-46.387,12.207,-32.227,1625.693,430.055761076156
884,1686274919.79,21.484,347.168,105.469,-0.977,1625.697,429.36604377012964
885,1686274919.79,26.367,-374.023,-239.746,-17.578,1625.701,442.84175167394204
886,1686274919.8,-43.457,-697.754,-255.859,-68.359,1625.705,419.3547043888864
887,1686274919.8,-61.523,247.07,134.277,-63.477,1625.709,431.1715083486555
888,1686274919.82,-2.441,315.43,75.195,12.207,1625.712,423.2323875146185
889,1686274919.82,23.926,151.367,37.598,-2.93,1625.716,438.05602518080167
890,1686274919.82,-35.645,-19.043,-12.695,-72.266,1625.719,431.75384777938115
891,1686274919.83,-80.078,16.113,20.996,-63.477,1625.723,439.76969999530723
892,1686274919.83,-31.25,227.051,50.293,4.395,1625.727,433.98715328128736
893,1686274919.84,17.578,-551.27,-211.914,31.738,1625.731,432.58553003219055
894,1686274919.84,-18.555,-437.012,-55.176,-42.48,1625.735,444.0827068079966
895,1686274919.84,-71.777,366.211,143.555,-81.055,1625.739,437.3774917958754
896,1686274919.85,-52.734,-23.926,-139.16,-10.742,1625.743,436.80860356408465
897,1686274919.85,14.648,-531.738,-191.895,33.203,1625.747,454.52134106085595
898,1686274919.86,9.277,90.332,109.375,-38.086,1625.751,447.915999441951
899,1686274919.86,-58.105,442.871,100.586,-88.379,1625.755,447.3809513923826
900,1686274919.86,-55.664,87.891,6.348,-24.414,1625.77,439.26302378497184
901,1686274919.86,7.812,125.0,26.367,31.738,1625.774,448.1281012563662
902,1686274919.87,18.066,419.434,102.539,-2.93,1625.778,428.86656276467096
903,1686274919.87,-43.457,332.031,44.922,-63.477,1625.782,439.41472628432945
904,1686274919.88,-68.359,38.574,-49.316,-42.48,1625.786,432.526694028412
905,1686274919.88,-5.859,-173.34,-69.824,28.809,1625.79,447.0758503476037
906,1686274919.88,42.969,20.02,33.203,19.043,1625.794,447.6210391886264
907,1686274919.89,-5.859,317.871,64.941,-48.828,1625.798,442.38521036058756
908,1686274919.89,-70.312,-409.18,-235.84,-47.363,1625.801,424.2583285193221
909,1686274919.9,-28.32,-512.207,-159.18,5.371,1625.805,434.8934237672874
910,1686274919.9,44.922,295.41,101.074,10.254,1625.809,432.07130998510337
911,1686274919.9,4.883,45.898,-29.297,-50.293,1625.813,439.4957881725901
912,1686274919.91,-60.059,-286.133,-108.398,-82.031,1625.802,445.4275519217983
913,1686274919.91,-33.691,63.477,6.348,-19.531,1625.806,439.14276061462385
914,1686274919.91,27.832,185.059,47.363,30.273,1625.81,441.99801442733144
915,1686274919.92,15.625,-137.695,-73.242,-8.301,1625.814,429.7612484828833
916,1686274919.92,-50.293,-426.758,-182.129,-53.711,1625.818,431.34145293486245
917,1686274919.93,-52.246,-354.98,-132.812,-25.391,1625.822,428.92905216558415
918,1686274919.93,32.715,153.32,83.008,29.297,1625.825,423.6693631882265
919,1686274919.93,48.828,64.453,-60.547,20.996,1625.829,435.06779311278433
920,1686274919.94,-32.227,-544.922,-288.086,-44.434,1625.833,416.00840410108384
921,1686274919.94,-59.57,-20.996,10.254,-46.387,1625.837,416.9182078025382
922,1686274919.94,5.859,513.184,138.184,26.367,1625.841,403.28951074492244
923,1686274919.95,46.387,122.07,11.23,33.691,1625.845,417.97813663500733
924,1686274919.95,-17.09,-8.301,-12.207,-45.41,1625.859,412.84422818942903
925,1686274919.96,-67.871,179.688,17.09,-74.707,1625.863,411.64819037444903
926,1686274919.96,-18.555,59.082,-20.02,-5.859,1625.867,401.95436520499
927,1686274919.96,36.133,-252.441,-82.031,26.367,1625.871,409.6294411918581
928,1686274919.97,5.859,-141.113,-29.785,-35.645,1625.875,377.0663500029752
929,1686274919.97,-53.711,14.648,7.812,-63.477,1625.879,387.9155717307452
930,1686274919.98,-42.969,-71.777,-4.395,-10.254,1625.883,389.5324236191684
931,1686274919.98,16.602,-447.754,-181.641,36.621,1625.887,385.9515614033402
932,1686274919.98,19.043,-487.793,-174.805,-14.16,1625.89,372.4497379615221
933,1686274919.99,-42.48,330.078,118.164,-77.637,1625.894,360.97286924582585
934,1686274919.99,-59.082,240.234,11.719,-32.715,1625.898,379.8431863129894
935,1686274920.0,10.254,47.363,-7.812,35.645,1625.902,351.5760140217431
936,1686274920.0,25.391,289.551,100.098,7.324,1625.895,344.8681950640686
937,1686274920.0,-49.805,438.965,116.699,-78.125,1625.899,327.9983795497931
938,1686274920.01,-77.148,74.219,-33.691,-56.641,1625.903,353.91895024435024
939,1686274920.01,-12.695,-312.988,-102.539,23.926,1625.907,324.11190821897196
940,1686274920.02,37.598,-104.004,-2.93,12.695,1625.911,321.4184837609263
941,1686274920.02,-8.789,-72.266,-48.34,-61.035,1625.915,306.79699032904347
942,1686274920.02,-63.965,-206.055,-111.816,-71.289,1625.918,299.4708851947095
943,1686274920.03,-44.434,-837.402,-368.164,14.16,1625.922,318.06708688606176
944,1686274920.03,20.02,-561.523,-168.945,45.41,1625.926,304.41590611602146
945,1686274920.04,10.742,382.324,141.113,-31.25,1625.93,289.3918736780815
946,1686274920.04,-61.523,135.254,-13.184,-80.078,1625.934,291.53781597138055
947,1686274920.04,23.926,467.773,123.535,30.273,1625.939,287.423260524497
948,1686274920.04,-48.34,71.777,1.953,-25.879,1625.938,283.6965610709479
949,1686274920.05,32.715,438.965,107.91,-4.395,1625.943,281.01091143539304
950,1686274920.05,-35.645,86.426,-14.648,-62.012,1625.947,264.7309061962642
951,1686274920.05,-67.871,105.957,-3.418,-40.527,1625.95,264.5197135606102
952,1686274920.06,-6.836,343.75,83.984,20.02,1625.954,268.7186592517838
953,1686274920.06,32.715,193.848,35.156,6.836,1625.958,276.21722908418855
954,1686274920.06,-19.531,-562.5,-264.16,-46.387,1625.962,270.4657280299363
955,1686274920.07,-69.336,-686.523,-241.699,-53.711,1625.966,262.5621193693137
956,1686274920.07,-11.719,249.023,136.719,4.395,1625.97,255.24186206491314
957,1686274920.08,46.875,395.508,54.199,25.879,1625.974,243.82931677352033
958,1686274920.08,0.0,-148.926,-136.719,-37.598,1625.978,251.95116436373195
959,1686274920.08,-64.941,-80.078,-21.973,-62.5,1625.982,261.76857672484937
960,1686274920.09,-38.574,404.785,134.277,-14.648,1625.996,265.12648204587197
961,1686274920.09,31.25,294.922,58.105,12.695,1626.0,272.38456545704605
962,1686274920.09,10.742,-161.133,-139.648,-37.109,1626.004,241.30702774219708
963,1686274920.1,-58.594,-262.695,-134.766,-76.66,1626.008,246.1042515209963
964,1686274920.1,-50.781,63.477,31.25,-41.992,1626.012,244.83786782217632
965,1686274920.11,27.344,43.457,-12.207,13.672,1626.016,244.52122611435763
966,1686274920.11,28.32,-801.758,-367.188,-0.977,1626.02,244.69735308880746
967,1686274920.11,-45.41,-648.926,-230.957,-76.66,1626.024,250.33084537245708
968,1686274920.12,-60.059,316.895,125.488,-74.707,1626.028,250.49178088187026
969,1686274920.12,-2.441,35.645,-78.613,13.672,1626.031,248.79302172219565
970,1686274920.12,32.715,-71.777,-67.383,20.02,1626.035,250.748068538028
971,1686274920.13,-12.695,349.609,83.984,-61.035,1626.039,262.2826795989215
972,1686274920.13,-56.641,377.93,54.688,-71.777,1626.034,243.94889839060093
973,1686274920.14,-22.461,14.16,-13.184,4.883,1626.038,241.15626186782728
974,1686274920.14,25.879,34.18,23.926,20.02,1626.041,231.1617161064504
975,1686274920.15,-6.348,415.527,102.539,-52.246,1626.045,253.6035960489995
976,1686274920.15,-72.266,336.914,49.805,-74.707,1626.049,249.55478586015883
977,1686274920.15,-59.57,-107.422,-107.91,-5.859,1626.053,258.15064078435626
978,1686274920.16,4.883,-237.793,-92.285,30.762,1626.057,243.3958414961708
979,1686274920.16,4.395,239.746,90.332,-32.227,1626.061,279.07898746685856
980,1686274920.16,-62.012,318.359,25.391,-85.449,1626.065,256.1102839866533
981,1686274920.17,-73.73,-347.656,-137.207,-37.598,1626.069,242.5915654453142
982,1686274920.17,3.418,-209.473,9.277,26.367,1626.073,262.0936950059158
983,1686274920.18,22.949,367.188,85.938,-1.465,1626.077,255.99986343989116
984,1686274920.19,-44.922,-29.297,-90.332,-62.5,1626.087,272.79058008277104
985,1686274920.2,-77.148,-236.816,-44.434,-58.594,1626.091,263.24263499980793
986,1686274920.2,-15.625,-82.52,9.277,17.578,1626.095,264.70070740753107
987,1686274920.2,25.391,45.41,14.648,20.996,1626.099,285.3748148583668
988,1686274920.21,-28.32,84.473,-11.719,-54.199,1626.102,278.78670730436244
989,1686274920.21,-87.402,-735.352,-397.461,-40.527,1626.106,267.1886567946927
990,1686274920.21,-59.082,-855.957,-311.035,18.555,1626.11,279.8985152554148
991,1686274920.22,19.043,163.086,126.465,8.789,1626.114,282.023055874428
992,1686274920.22,-2.93,160.645,-18.555,-62.988,1626.118,286.4658880860374
993,1686274920.23,-66.895,-70.801,-80.078,-92.773,1626.122,288.91196327898064
994,1686274920.23,-48.828,296.387,89.355,-38.086,1626.126,307.02104889210574
995,1686274920.23,17.09,407.227,84.961,4.395,1626.13,295.42816879962805
996,1686274920.24,7.324,106.445,-17.09,-45.41,1626.132,290.6302831475754
997,1686274920.24,-54.199,5.371,-46.387,-99.609,1626.136,274.25571294217593
998,1686274920.24,-64.453,44.922,-13.184,-55.176,1626.14,301.566181939154
999,1686274920.25,-0.977,72.266,10.742,7.324,1626.144,296.5905013338633
1000,1686274920.25,26.855,-169.922,-65.43,1.953,1626.148,307.2907942704938
1001,1686274920.26,-36.621,-494.629,-160.645,-52.734,1626.152,295.581956498954
1002,1686274920.26,-70.801,-146.484,-45.41,-53.223,1626.156,297.94869550266793
1003,1686274920.26,-13.672,239.258,58.594,4.883,1626.16,304.13174639285114
1004,1686274920.27,29.297,-347.168,-174.316,20.508,1626.164,311.80475490799967
1005,1686274920.27,-26.855,-547.363,-176.27,-45.41,1626.168,316.17688120997065
1006,1686274920.28,-76.66,287.598,104.98,-86.914,1626.171,305.98945630230565
1007,1686274920.28,-38.086,218.262,18.555,-20.996,1626.175,291.6468637983613
1008,1686274920.28,24.902,15.625,-10.742,11.719,1626.177,308.1440288836822
1009,1686274920.28,12.207,251.465,74.219,-49.316,1626.181,317.70944441117837
1010,1686274920.29,-56.152,92.773,-55.176,-81.055,1626.185,308.3029544179864
1011,1686274920.29,-54.199,-204.102,-141.602,-28.809,1626.188,301.03790962008947
1012,1686274920.3,19.043,-400.391,-144.043,29.785,1626.192,308.7013843716608
1013,1686274920.3,16.113,-316.895,-89.844,-17.09,1626.196,290.5837421739758
1014,1686274920.3,-53.223,-88.867,-12.695,-83.984,1626.2,313.9541332117612
1015,1686274920.31,-65.43,-217.773,-146.484,-52.734,1626.204,299.0883507969305
1016,1686274920.31,-9.277,-759.766,-308.105,21.484,1626.208,295.1701482418766
1017,1686274920.32,24.414,-313.965,-43.945,3.906,1626.212,312.2662780327218
1018,1686274920.32,-27.832,394.531,115.234,-75.684,1626.216,308.8530927050351
1019,1686274920.32,-69.336,118.652,2.93,-73.73,1626.22,306.6235196369285
1020,1686274920.33,-7.812,119.141,29.297,0.488,1626.222,305.7041484516744
1021,1686274920.33,41.016,431.152,103.516,21.484,1626.226,299.73645765171636
1022,1686274920.33,7.812,336.426,52.734,-35.156,1626.23,313.72141884120697
1023,1686274920.34,-59.57,49.805,-34.18,-60.059,1626.234,306.52055925676166
1024,1686274920.34,-45.898,112.793,-12.695,-11.23,1626.238,318.7546332224164
1025,1686274920.35,28.32,64.941,9.277,28.809,1626.241,314.08048785754823
1026,1686274920.35,16.113,2.441,6.836,-22.461,1626.245,294.41395790616184
1027,1686274920.35,-60.059,-527.832,-271.484,-59.57,1626.249,316.2220626377025
1028,1686274920.36,-62.988,-682.129,-254.883,-13.184,1626.253,294.37529517601206
1029,1686274920.36,18.066,304.688,153.32,24.414,1626.257,306.00408772447497
1030,1686274920.36,32.715,356.445,23.926,-2.93,1626.261,308.82646206878275
1031,1686274920.37,-43.945,-69.824,-79.102,-65.43,1626.265,297.8943353477864
1032,1686274920.37,-77.637,82.031,22.461,-59.082,1626.267,310.0239464024655
1033,1686274920.38,-8.789,407.227,112.793,9.277,1626.271,306.18473582744605
1034,1686274920.38,30.273,124.512,-15.137,14.16,1626.275,310.24505960269124
1035,1686274920.38,-26.367,-422.852,-175.293,-41.992,1626.279,310.25588622300825
1036,1686274920.39,-61.035,-163.086,-49.805,-56.641,1626.283,310.27969686176067
1037,1686274920.39,-16.113,94.727,25.879,-2.441,1626.286,314.5222928225127
1038,1686274920.39,35.156,-160.156,-99.609,29.785,1626.29,321.591950849604
1039,1686274920.4,-0.977,-562.988,-239.746,-24.414,1626.294,307.32810014575335
1040,1686274920.4,-60.059,-89.355,-3.906,-77.637,1626.298,316.3400011415867
1041,1686274920.41,-32.227,479.492,132.812,-25.879,1626.302,326.036436154816
1042,1686274920.41,39.062,-8.301,-80.078,34.668,1626.306,322.68365308898035
1043,1686274920.41,24.902,-160.645,-97.656,-13.184,1626.31,327.9323314093466
1044,1686274920.42,-44.922,303.223,86.914,-74.707,1626.314,312.76078203055505
1045,1686274920.42,-48.828,438.965,99.121,-41.504,1626.317,331.87154178463646
1046,1686274920.42,15.137,-94.238,-62.988,29.297,1626.321,331.7242186398019
1047,1686274920.43,33.691,-212.891,-57.617,4.395,1626.325,320.95928084761266
1048,1686274920.43,-16.602,270.996,61.523,-66.895,1626.329,323.1840887385507
1049,1686274920.44,-48.828,83.984,-20.508,-50.293,1626.333,315.2021465608335
1050,1686274920.44,-8.789,-550.293,-226.562,29.297,1626.337,345.5391514124576
1051,1686274920.44,31.25,-563.965,-186.523,24.902,1626.341,342.0650554729145
1052,1686274920.45,-17.09,282.227,117.188,-69.336,1626.345,334.31350661235666
1053,1686274920.45,-78.613,282.227,24.902,-84.961,1626.349,346.9870499381589
1054,1686274920.46,-43.457,59.57,-14.16,-16.602,1626.353,329.1771447115909
1055,1686274920.46,20.996,233.887,66.406,8.789,1626.357,344.3910121261575
1056,1686274920.46,-4.883,251.953,24.414,-51.27,1626.37,358.55628172727097
1057,1686274920.46,-65.918,-41.504,-49.316,-71.289,1626.374,368.4120695556624
1058,1686274920.47,-36.621,-570.312,-205.566,3.418,1626.378,363.64177910599506
1059,1686274920.47,25.879,-294.922,-54.199,23.926,1626.382,366.16203526012566
1060,1686274920.48,0.977,324.219,107.422,-60.547,1626.386,375.35010228653755
1061,1686274920.48,-67.871,-55.664,-108.887,-100.098,1626.39,376.84204268493664
1062,1686274920.48,-84.473,-829.59,-347.168,-47.852,1626.394,366.55194855761704
1063,1686274920.49,-30.273,-404.297,-80.566,-7.812,1626.398,394.4159041382333
1064,1686274920.49,6.836,452.637,160.156,-35.645,1626.402,400.1445900116361
1065,1686274920.5,-38.574,79.59,-66.895,-101.562,1626.405,397.0226955539833
1066,1686274920.5,-76.172,-79.59,-58.105,-104.004,1626.409,391.1361248110959
1067,1686274920.5,-27.832,323.73,122.07,-37.109,1626.413,423.73437476141766
1068,1686274920.51,27.832,400.391,92.285,-20.508,1626.416,399.93634089987745
1069,1686274920.51,-10.742,85.938,-27.344,-75.195,1626.42,415.6614806911038
1070,1686274920.52,-71.289,-89.355,-46.875,-86.914,1626.424,410.330590603691
1071,1686274920.52,-36.133,-33.691,-5.859,-13.184,1626.428,416.7180094202771
1072,1686274920.52,32.715,205.078,63.965,17.09,1626.432,423.73482426650986
1073,1686274920.53,0.0,-370.117,-208.008,-33.203,1626.436,441.03365249401674
1074,1686274920.53,-81.055,-714.844,-242.676,-70.312,1626.44,442.9527765017325
1075,1686274920.53,-65.918,164.551,111.328,-40.039,1626.444,450.14125848059683
1076,1686274920.54,4.395,295.898,41.016,13.184,1626.448,437.17832969755506
1077,1686274920.54,17.09,16.602,-18.555,-14.648,1626.452,432.7668587537492
1078,1686274920.55,-34.18,80.566,13.184,-75.195,1626.455,453.34477610603966
1079,1686274920.55,-60.547,313.965,76.66,-59.082,1626.459,438.92747057661325
1080,1686274920.57,-4.883,200.684,40.039,9.766,1626.471,449.5023840748146
1081,1686274920.57,36.621,28.809,5.371,4.883,1626.475,457.9039198176519
1082,1686274920.57,-20.996,-129.395,-45.41,-69.336,1626.479,453.0716323032402
1083,1686274920.58,-70.312,-35.156,1.953,-80.078,1626.483,459.08358594734085
1084,1686274920.58,-26.855,118.164,11.23,-9.277,1626.487,451.0700948774356
1085,1686274920.59,20.996,-561.523,-220.215,31.25,1626.49,459.7666010831782
1086,1686274920.59,-3.418,-586.426,-129.883,-31.738,1626.494,445.8997865127884
1087,1686274920.59,-54.199,56.641,74.219,-81.055,1626.498,440.73302785738576
1088,1686274920.6,-29.785,-27.344,-84.961,-26.855,1626.502,452.70458569705363
1089,1686274920.6,39.062,-525.391,-211.914,25.391,1626.506,434.2021631092995
1090,1686274920.6,23.926,3.418,86.426,-21.973,1626.51,446.25120805176425
1091,1686274920.61,-49.316,382.324,92.773,-80.566,1626.514,454.9973044146573
1092,1686274920.61,-60.547,58.105,-4.883,-39.062,1626.507,450.73581705130374
1093,1686274920.62,10.742,100.098,49.316,28.809,1626.511,433.09883791492535
1094,1686274920.62,35.156,361.328,81.543,-1.465,1626.515,447.09442358648766
1095,1686274920.62,-27.344,250.977,29.297,-62.988,1626.519,439.32550425509083
1096,1686274920.63,-58.105,1.465,-53.223,-40.527,1626.523,430.67907043659676
1097,1686274920.63,0.977,-175.293,-92.285,31.738,1626.527,436.9340381317862
1098,1686274920.63,50.293,17.578,31.25,19.531,1626.53,429.7290870871954
1099,1686274920.64,3.418,293.457,64.453,-58.105,1626.534,423.6780556543987
1100,1686274920.64,-65.918,-463.379,-265.625,-51.758,1626.538,429.682863358569
1101,1686274920.65,-29.297,-722.168,-220.703,16.602,1626.542,428.988166650178
1102,1686274920.65,48.828,239.258,137.207,15.137,1626.546,422.730540975208
1103,1686274920.65,26.367,273.438,7.812,-36.133,1626.55,420.4672860124075
1104,1686274920.66,-45.898,-38.086,-48.828,-59.57,1626.552,422.6485776839249
1105,1686274920.66,-41.016,168.457,46.387,-20.996,1626.556,412.58969559021864
1106,1686274920.66,36.133,187.012,53.711,18.555,1626.56,423.3516792255648
1107,1686274920.67,31.25,-108.398,-58.105,-27.344,1626.564,424.44912516611754
1108,1686274920.67,-39.551,-414.551,-192.383,-78.125,1626.568,429.0619662304651
1109,1686274920.68,-51.758,-393.066,-125.977,-43.457,1626.571,426.6512078123448
1110,1686274920.68,14.16,120.117,105.957,9.277,1626.575,409.18648518814257
1111,1686274920.68,35.645,124.512,-24.414,-10.742,1626.579,419.2699747615026
1112,1686274920.69,-33.691,-504.395,-255.371,-63.477,1626.583,419.64384097053636
1113,1686274920.69,-72.266,-26.855,36.133,-67.383,1626.587,405.4711483371656
1114,1686274920.7,-8.301,518.066,165.039,-4.883,1626.591,416.8502289765977
1115,1686274920.7,39.551,-81.055,-96.191,11.23,1626.595,389.18014758806686
1116,1686274920.7,-16.602,-299.805,-159.668,-57.617,1626.597,409.2253706270942
1117,1686274920.7,-65.918,290.527,97.656,-84.961,1626.601,401.05228054534007
1118,1686274920.71,-27.832,384.766,105.469,-20.02,1626.605,402.0193309253783
1119,1686274920.71,29.297,110.352,1.953,10.742,1626.609,414.1552644521878
1120,1686274920.72,0.0,91.309,-13.184,-43.945,1626.613,392.72615591167533
1121,1686274920.72,-66.895,-10.742,-25.391,-79.59,1626.617,406.607675274863
1122,1686274920.72,-49.316,13.184,9.766,-31.738,1626.621,393.01189317725937
1123,1686274920.73,23.926,-371.094,-155.273,28.32,1626.624,415.96833642330137
1124,1686274920.73,14.648,-624.512,-174.805,-14.16,1626.628,408.47665333782396
1125,1686274920.74,-50.781,186.035,117.676,-83.008,1626.632,408.1771332031852
1126,1686274920.74,-69.336,250.0,24.414,-55.664,1626.636,396.51628772719715
1127,1686274920.74,-5.371,82.031,15.625,14.16,1626.64,394.2499373568663
1128,1686274920.75,32.227,271.484,90.82,-2.441,1626.655,393.6184415945172
1129,1686274920.75,-32.227,208.984,4.395,-78.125,1626.659,398.34882954558043
1130,1686274920.76,-68.848,-20.996,-42.48,-69.336,1626.663,396.22149250268666
1131,1686274920.76,-37.109,-610.84,-196.777,13.184,1626.667,415.51927950724894
1132,1686274920.76,7.324,-355.957,-70.312,16.602,1626.671,396.5753464409984
1133,1686274920.77,-19.043,155.762,56.152,-67.871,1626.675,383.02905794515755
1134,1686274920.77,-91.797,-220.703,-117.676,-85.938,1626.679,392.3352950006797
1135,1686274920.77,-70.312,-498.535,-148.926,-12.695,1626.682,390.43118046721656
1136,1686274920.78,4.395,72.266,68.359,17.09,1626.686,388.8289589422032
1137,1686274920.78,-7.324,535.156,153.32,-43.945,1626.69,394.12777401370994
1138,1686274920.79,-79.102,120.117,-4.395,-80.078,1626.694,403.35178173972685
1139,1686274920.79,-75.195,54.199,5.371,-42.969,1626.698,383.4662953133363
1140,1686274920.79,1.465,444.336,144.531,7.812,1626.689,396.81492390790334
1141,1686274920.8,11.23,441.406,106.934,-8.789,1626.693,404.1874714041067
1142,1686274920.8,-55.664,69.824,-23.438,-58.105,1626.697,382.4293655008962
1143,1686274920.8,-83.008,32.715,-2.441,-41.504,1626.701,409.25997005287434
1144,1686274920.81,-28.32,91.797,24.414,12.207,1626.704,396.8194816026887
1145,1686274920.81,11.719,37.598,9.277,0.977,1626.708,380.7106155891177
1146,1686274920.82,-32.227,-472.656,-219.238,-54.688,1626.712,386.2079167557111
1147,1686274920.82,-90.332,-766.602,-238.77,-65.43,1626.716,388.57975262697744
1148,1686274920.82,-35.156,112.793,146.973,-8.301,1626.72,384.16118680117637
1149,1686274920.83,31.25,351.562,77.148,24.414,1626.724,399.5340953028619
1150,1686274920.83,-10.742,66.895,10.254,-38.574,1626.728,390.39067078395647
1151,1686274920.84,-75.195,151.367,69.336,-77.148,1626.732,395.87973729929206
1152,1686274920.84,-50.781,399.414,124.512,-16.113,1626.746,374.01388386132743
1153,1686274920.84,21.973,306.641,54.688,27.832,1626.75,379.3733972654147
1154,1686274920.84,14.16,-154.297,-100.586,-16.602,1626.754,375.59460189013885
1155,1686274920.85,-50.781,-106.445,-13.672,-69.336,1626.758,392.25290559554327
1156,1686274920.85,-64.453,263.672,87.402,-38.086,1626.762,388.6184604783171
1157,1686274920.86,0.977,68.848,-11.23,33.203,1626.766,377.1817020179061
1158,1686274920.86,15.137,-800.293,-357.91,24.902,1626.77,387.5607148821386
1159,1686274920.86,-48.828,-714.355,-252.93,-50.293,1626.774,378.0830756739502
1160,1686274920.87,-68.359,290.039,149.902,-63.477,1626.777,375.737616216862
1161,1686274920.87,-12.207,169.922,-2.93,12.695,1626.781,385.5885969233107
1162,1686274920.88,35.645,7.812,-48.34,13.184,1626.785,385.0852324031336
1163,1686274920.88,-5.371,319.336,95.215,-56.641,1626.789,382.2297542782889
1164,1686274920.88,-55.664,414.062,116.699,-64.453,1626.79,398.7124400086471
1165,1686274920.89,-21.484,-10.742,10.254,6.348,1626.794,376.66343076713474
1166,1686274920.89,36.133,-74.219,15.137,36.133,1626.798,378.4825258998744
1167,1686274920.89,2.93,331.055,84.473,-29.785,1626.802,387.65078699931934
1168,1686274920.9,-66.406,279.297,40.039,-75.195,1626.806,381.95338650347367
1169,1686274920.9,-52.246,-52.734,-47.363,-16.113,1626.81,385.78401690096905
1170,1686274920.9,13.184,-170.898,-15.137,35.645,1626.814,370.3491636092865
1171,1686274920.91,10.254,203.125,119.141,-21.973,1626.818,392.03370684457764
1172,1686274920.91,-58.105,265.137,43.945,-80.078,1626.822,379.10390400016536
1173,1686274920.92,-74.219,-511.23,-231.445,-29.785,1626.825,377.17543167385975
1174,1686274920.92,-5.859,-483.887,-113.281,33.691,1626.829,377.0977369894083
1175,1686274920.92,28.32,378.906,172.852,-3.418,1626.833,384.5556160665156
1176,1686274920.94,-30.762,266.602,24.414,-65.43,1626.837,363.5505993278772
1177,1686274920.94,-75.195,-176.758,-68.848,-49.805,1626.841,383.05673079571807
1178,1686274920.95,-20.02,-167.969,2.441,19.531,1626.845,372.7646647506715
1179,1686274920.95,43.457,-46.387,0.488,29.297,1626.849,381.7310138323289
1180,1686274920.96,6.348,-98.145,-69.824,-39.062,1626.853,370.75014888816366
1181,1686274920.96,-69.336,-760.742,-347.656,-56.152,1626.857,384.72276929616885
1182,1686274920.96,-50.293,-564.941,-183.105,-6.836,1626.861,375.670500605912
1183,1686274920.97,30.273,440.918,189.941,7.324,1626.865,366.156173470354
1184,1686274920.97,22.461,181.152,-21.973,-25.391,1626.868,379.65856504617494
1185,1686274920.98,-50.293,-85.449,-71.289,-58.594,1626.872,363.55334010493664
1186,1686274920.98,-41.992,302.734,119.141,-23.926,1626.876,369.1232263695583
1187,1686274920.98,39.551,463.867,137.207,36.621,1626.88,380.0388818100767
1188,1686274921.0,47.363,-151.367,-96.68,20.02,1626.911,368.537256969107
1189,1686274921.0,-26.855,-356.934,-131.348,-45.898,1626.915,362.5464639962587
1190,1686274921.01,-48.828,273.926,117.188,-35.156,1626.918,350.4430735092728
1191,1686274921.01,16.113,389.16,106.934,32.715,1626.922,349.50369952743966
1192,1686274921.02,41.992,127.93,27.832,24.414,1626.926,356.03926196607523
1193,1686274921.02,-26.367,-194.824,-72.266,-44.434,1626.93,355.81865409787105
1194,1686274921.02,-72.266,-103.516,-16.113,-61.523,1626.934,358.90131064091753
1195,1686274921.03,-22.461,337.402,126.465,-2.93,1626.938,344.9021474423829
1196,1686274921.03,32.227,89.844,19.043,33.203,1626.927,343.5331991778993
1197,1686274921.03,27.832,-289.551,-142.09,31.25,1626.942,356.12316730196466
1198,1686274921.04,9.766,205.078,60.547,-26.855,1626.931,353.82695065598557
1199,1686274921.04,-15.625,-602.051,-190.918,-27.344,1626.946,347.15304760853957
1200,1686274921.04,-66.406,62.5,-1.953,-72.754,1626.935,350.52712408903227
1201,1686274921.04,-65.918,225.586,108.398,-70.312,1626.95,338.6184161537477
1202,1686274921.04,-63.965,-213.867,-71.777,-22.461,1626.939,341.04882243159153
1203,1686274921.04,-32.227,253.906,49.316,-5.859,1626.954,343.1568096007154
1204,1686274921.05,6.348,-389.648,-62.988,42.48,1626.943,353.14111431219993
1205,1686274921.05,15.137,-301.27,-51.758,-0.488,1626.947,342.01641618268303
1206,1686274921.05,-49.316,0.977,0.977,-77.148,1626.951,332.92370254304643
1207,1686274921.06,-71.777,-45.41,-72.266,-51.27,1626.955,331.32123986261337
1208,1686274921.06,-13.672,-606.445,-240.234,28.32,1626.958,337.28140737116286
1209,1686274921.07,26.367,-156.738,11.719,18.555,1626.962,336.08517800727526
1210,1686274921.07,-14.648,497.07,166.504,-52.734,1626.966,311.49293213189713
1211,1686274921.07,-67.871,-99.609,-141.113,-60.059,1626.97,330.7281740897174
1212,1686274921.08,-32.715,-637.695,-196.289,14.16,1626.974,315.0191184100048
1213,1686274921.08,43.945,148.438,152.832,31.738,1626.978,330.15700207756726
1214,1686274921.08,14.648,454.102,95.703,-44.434,1626.981,303.9501498400343
1215,1686274921.09,-58.594,-13.672,-34.668,-69.824,1626.985,323.03100883205224
1216,1686274921.09,-37.598,-39.551,-28.32,-6.836,1626.989,309.5719671155513
1217,1686274921.1,31.738,83.496,19.043,38.086,1626.993,308.10407903373476
1218,1686274921.1,20.508,61.523,44.434,-11.719,1626.997,302.84836247033206
1219,1686274921.1,-60.059,-504.883,-225.586,-60.059,1627.001,299.98442671318026
1220,1686274921.11,-63.965,-722.656,-224.121,-20.996,1627.005,284.8871320146692
1221,1686274921.11,24.902,226.074,176.758,15.625,1627.009,281.10902353517804
1222,1686274921.12,34.668,379.883,60.547,-11.23,1627.013,288.3144346644108
1223,1686274921.12,-39.551,78.125,-18.066,-76.172,1627.017,302.36605175894323
1224,1686274921.14,-56.641,229.004,78.613,-59.082,1627.032,273.74752658554405
1225,1686274921.14,4.395,456.055,124.512,9.766,1627.036,271.48899580400615
1226,1686274921.14,32.715,129.883,16.113,6.348,1627.04,281.4972406971064
1227,1686274921.15,-19.043,-368.652,-141.113,-56.641,1627.044,267.5032211847616
1228,1686274921.15,-62.012,-66.895,-35.156,-81.055,1627.048,256.778787763942
1229,1686274921.16,-35.156,104.492,37.109,-23.926,1627.052,268.69494771454345
1230,1686274921.16,18.066,-90.82,-59.57,5.371,1627.056,275.21540029779874
1231,1686274921.16,-17.578,-720.215,-332.031,-47.363,1627.059,280.17366684162516
1232,1686274921.17,-84.473,-662.598,-200.684,-79.59,1627.063,254.98505341610692
1233,1686274921.17,-67.383,224.609,73.242,-102.539,1627.064,270.08382583966676
1234,1686274921.17,-51.758,286.621,155.273,-41.992,1627.067,241.68407756189774
1235,1686274921.17,-71.777,334.473,76.66,-72.754,1627.068,259.32612458673583
1236,1686274921.18,-0.977,108.398,1.465,-4.883,1627.072,268.49719752452063
1237,1686274921.18,13.672,104.492,-71.777,6.836,1627.071,266.74963031570053
1238,1686274921.18,27.832,173.828,31.25,-21.973,1627.076,250.5114931009408
1239,1686274921.18,-3.418,-224.609,-199.707,-32.227,1627.075,254.6036445293064
1240,1686274921.18,-27.344,307.617,52.734,-88.379,1627.08,257.39454772218863
1241,1686274921.19,-69.824,-47.363,-49.805,-74.219,1627.084,232.01400899099656
1242,1686274921.19,-21.484,-113.281,27.832,-7.324,1627.088,261.6413741425689
1243,1686274921.19,36.621,222.168,124.512,0.0,1627.091,246.5362577906149
1244,1686274921.2,-0.488,359.375,88.867,-52.734,1627.095,258.2676492279762
1245,1686274921.2,-60.547,310.059,62.988,-86.426,1627.099,258.7182551847204
1246,1686274921.21,-41.504,-482.91,-236.816,-15.137,1627.103,249.93365874114215
1247,1686274921.21,17.578,-698.73,-205.566,32.227,1627.107,272.7684009943033
1248,1686274921.21,6.836,222.656,138.184,-43.457,1627.12,265.32707634196436
1249,1686274921.22,-62.5,254.395,20.996,-94.727,1627.124,266.61904885103473
1250,1686274921.22,-54.688,-203.613,-105.469,-40.039,1627.128,251.7046000209881
1251,1686274921.22,22.949,-70.801,12.695,11.719,1627.132,261.9846325992025
1252,1686274921.23,27.344,342.773,115.723,-32.227,1627.136,245.65237047438276
1253,1686274921.23,-40.527,62.012,-16.602,-79.59,1627.14,257.6236205251784
1254,1686274921.24,-74.707,-824.219,-364.258,-48.828,1627.144,246.89672314177201
1255,1686274921.24,-14.648,-676.27,-227.051,7.324,1627.148,258.6338936441481
1256,1686274921.24,39.551,343.262,166.992,-13.184,1627.152,255.0703707019095
1257,1686274921.25,-13.184,28.809,-118.164,-64.941,1627.155,254.04870560236202
1258,1686274921.25,-66.406,-237.305,-184.082,-62.988,1627.159,261.19383192346294
1259,1686274921.26,-19.043,345.703,135.742,-13.672,1627.163,254.8257254289493
1260,1686274921.26,32.227,447.754,85.938,3.906,1627.159,272.3269063733044
1261,1686274921.26,-13.184,-133.301,-85.449,-53.711,1627.162,250.71078301517667
1262,1686274921.27,-72.754,-235.84,-29.785,-92.773,1627.166,270.9040121976155
1263,1686274921.27,-33.203,293.457,116.699,-40.527,1627.17,259.40911107523635
1264,1686274921.28,45.41,379.883,95.703,7.812,1627.174,265.8554811772829
1265,1686274921.28,26.855,-437.012,-246.094,-18.555,1627.178,260.8932860928056
1266,1686274921.28,-50.781,-745.605,-266.602,-69.824,1627.182,275.1929639904773
1267,1686274921.29,-49.805,144.043,123.047,-55.176,1627.186,261.8080754748347
1268,1686274921.29,29.785,341.797,78.125,8.789,1627.19,275.78682731375574
1269,1686274921.29,40.527,9.277,-50.293,-19.531,1627.194,270.4986522324045
1270,1686274921.3,-34.18,3.906,1.465,-91.797,1627.198,275.0574364101382
1271,1686274921.3,-64.453,287.598,80.078,-73.73,1627.202,278.3424137900312
1272,1686274921.32,-1.465,256.348,28.809,-4.395,1627.212,292.67685018842855
1273,1686274921.32,41.504,80.078,15.625,-5.371,1627.216,289.2393417762131
1274,1686274921.32,-21.973,-84.961,-18.555,-61.035,1627.22,272.9500136779376
1275,1686274921.33,-75.195,-250.0,-72.754,-64.453,1627.224,278.68030629989016
1276,1686274921.33,-23.438,-119.629,-20.508,-2.441,1627.228,283.92684652445786
1277,1686274921.34,27.344,-679.688,-271.973,27.832,1627.232,291.8296977332215
1278,1686274921.34,-16.602,-872.07,-305.176,-34.668,1627.236,280.76875834641555
1279,1686274921.34,-63.965,65.918,57.617,-87.402,1627.239,284.37482251768756
1280,1686274921.35,-36.621,175.293,3.906,-27.344,1627.243,281.95210446359073
1281,1686274921.35,27.832,104.98,-6.836,16.602,1627.247,288.2051500034481
1282,1686274921.36,25.879,428.223,121.094,-31.738,1627.251,284.3114487183325
1283,1686274921.36,-41.016,435.547,88.867,-82.031,1627.255,278.8617189424875
1284,1686274921.36,-53.223,81.055,19.531,-52.246,1627.257,295.0572279323672
1285,1686274921.36,14.648,114.258,61.523,-2.441,1627.261,294.46318468441336
1286,1686274921.37,42.969,311.035,97.656,-18.066,1627.265,303.9751201925381
1287,1686274921.37,-19.043,232.422,49.805,-79.102,1627.269,311.4716550652723
1288,1686274921.38,-58.594,16.113,-40.039,-75.684,1627.273,309.3023765708156
1289,1686274921.38,-12.207,-215.332,-60.059,7.324,1627.276,289.55549746813494
1290,1686274921.38,26.367,-111.328,5.859,18.555,1627.28,310.15973737755536
1291,1686274921.39,-15.625,-0.488,6.348,-57.129,1627.284,290.0232212970203
1292,1686274921.39,-64.941,-526.367,-235.84,-60.059,1627.288,298.3000307012445
1293,1686274921.4,-39.551,-703.613,-208.496,9.766,1627.292,294.93888463466715
1294,1686274921.4,20.02,235.352,153.809,16.113,1627.296,305.8370075877971
1295,1686274921.4,-5.371,327.637,29.785,-48.34,1627.3,303.8521747386186
