,timestamps,TP9,AF7,AF8,TP10,Secondary Timestamp,emg_signal
0,1685766388.25,7.812,-548.828,118.164,35.645,941.145,313.9200519020856
1,1685766388.25,69.336,-591.797,-11.23,12.207,941.149,311.95501384044815
2,1685766388.25,36.133,-904.785,-60.547,-4.395,941.153,308.1378351363349
3,1685766388.26,-33.203,-838.867,118.652,7.324,941.156,307.4847460377621
4,1685766388.26,-26.855,-608.887,134.766,20.996,941.16,312.3202500541072
5,1685766388.27,41.504,-822.266,-47.852,12.207,941.164,317.93748307539175
6,1685766388.27,40.039,-1000.0,-134.277,-7.324,941.168,307.4373553045978
7,1685766388.27,-27.832,-897.949,48.34,1.465,941.172,310.8470405892895
8,1685766388.28,-42.48,-671.387,165.527,20.996,941.176,306.60130758521484
9,1685766388.28,20.996,-537.598,64.941,15.625,941.18,310.3148458966715
10,1685766388.28,47.363,-843.262,-60.059,0.488,941.184,316.0017364523713
11,1685766388.29,-13.184,-1000.0,-21.484,-4.883,941.188,308.0452446443889
12,1685766388.29,-13.184,-1000.0,-21.484,-4.883,941.188,314.3587566537647
13,1685766388.29,-59.082,-726.562,165.527,4.395,941.2,301.4774467556181
14,1685766388.29,-5.371,-585.449,78.613,7.324,941.203,307.2186288935198
15,1685766388.3,36.133,-892.578,-137.695,-8.789,941.207,315.6413077264702
16,1685766388.3,-10.254,-782.715,24.414,-30.273,941.211,313.985547383195
17,1685766388.31,-70.312,-834.473,61.523,-15.137,941.215,314.73262288266636
18,1685766388.31,-39.551,-996.094,-28.809,0.488,941.219,304.50360338504385
19,1685766388.31,25.879,-975.586,-76.172,-11.719,941.223,317.0114370655099
20,1685766388.32,9.277,-755.859,133.301,-25.879,941.227,305.79400381594786
21,1685766388.32,-60.059,-613.281,108.887,-20.02,941.231,305.49180953503713
22,1685766388.32,-56.641,-729.98,33.691,1.465,941.235,318.906687567439
23,1685766388.33,16.602,-667.48,100.586,-6.348,941.239,309.8947828427401
24,1685766388.33,22.949,-568.848,60.547,-29.785,941.242,304.4488249115122
25,1685766388.34,-35.645,-648.438,26.367,-28.809,941.245,311.44104836663126
26,1685766388.34,-68.848,-909.668,-46.387,-3.418,941.249,316.4348904903767
27,1685766388.34,-15.625,-714.355,81.055,-11.23,941.253,309.4779082128612
28,1685766388.35,19.043,-424.316,137.207,-46.387,941.257,301.92938464790114
29,1685766388.35,-38.574,-619.629,-8.301,-55.176,941.261,310.8228739804021
30,1685766388.36,-87.891,-940.43,-152.832,-24.902,941.265,310.15076661941725
31,1685766388.36,-41.504,-964.355,51.27,-5.859,941.269,309.119788962909
32,1685766388.36,19.531,-735.352,178.223,-26.367,941.273,308.5102832768676
33,1685766388.37,-5.859,-604.492,37.109,-56.152,941.277,306.9757448796422
34,1685766388.37,-69.824,-890.625,-186.523,-45.898,941.281,315.631640972324
35,1685766388.37,-44.434,-944.336,86.914,-15.137,941.284,306.82271800088756
36,1685766388.38,31.25,-769.531,221.68,-21.484,941.288,315.56800915805286
37,1685766388.4,22.949,-658.203,38.574,-39.062,941.291,293.4248190854993
38,1685766388.4,-48.828,-909.668,-133.301,-34.18,941.295,306.68774831497126
39,1685766388.4,-63.965,-780.762,91.797,-22.461,941.299,306.83869206972156
40,1685766388.41,11.23,-416.016,166.504,-33.203,941.303,312.2697690228428
41,1685766388.41,27.832,-523.926,-41.992,-47.852,941.307,312.1237004224259
42,1685766388.42,-44.434,-950.684,-42.969,-48.34,941.31,305.6616084616559
43,1685766388.42,-77.148,-915.039,144.043,-31.25,941.314,308.21147120734173
44,1685766388.42,-6.348,-513.184,157.715,-20.02,941.318,302.0139080347602
45,1685766388.43,37.598,-610.84,-73.73,-29.297,941.322,311.1952292106172
46,1685766388.43,-23.926,-973.145,-38.086,-46.875,941.326,310.2366101019762
47,1685766388.43,-83.984,-791.016,184.082,-26.855,941.33,326.7450844957518
48,1685766388.44,-36.621,-493.652,106.934,-10.742,941.334,313.4865513035227
49,1685766388.44,26.855,-671.387,-58.105,-31.25,941.336,322.80822793033343
50,1685766388.44,-0.977,-898.926,-10.254,-50.781,941.34,304.61591351684416
51,1685766388.45,-70.312,-747.07,118.164,-40.527,941.344,297.405701733976
52,1685766388.45,-51.27,-622.07,98.633,-20.02,941.348,309.385003471001
53,1685766388.46,15.137,-793.945,-33.691,-22.461,941.352,298.41978104945747
54,1685766388.46,7.324,-970.215,-47.852,-41.992,941.356,319.0230233830547
55,1685766388.46,-55.176,-933.594,60.547,-44.434,941.36,307.166175408647
56,1685766388.47,-64.453,-761.23,92.285,-12.695,941.364,306.8664027980582
57,1685766388.47,2.93,-921.875,-82.52,-2.93,941.367,316.08302985185406
58,1685766388.48,26.367,-797.852,141.113,-27.832,941.371,302.3191332912472
59,1685766388.48,-25.879,-672.852,111.328,-37.598,941.375,311.707826187846
60,1685766388.48,-62.012,-983.398,-97.168,-11.23,941.379,308.6750822561039
61,1685766388.48,-10.742,-1000.0,-83.984,-2.441,941.382,298.62178213312666
62,1685766388.49,39.062,-736.328,155.762,-31.738,941.386,308.0729927629582
63,1685766388.49,-6.836,-515.137,140.137,-49.805,941.39,301.23988675901063
64,1685766388.5,-77.637,-729.98,5.371,-31.25,941.394,309.4367093300839
65,1685766388.5,-44.922,-829.59,59.082,-18.555,941.398,301.19348348320943
66,1685766388.5,22.949,-845.215,61.523,-28.32,941.401,310.47805256956246
67,1685766388.51,-0.977,-841.309,91.797,-51.27,941.405,322.5500228298216
68,1685766388.51,-72.266,-830.078,-43.457,-38.574,941.409,320.68409994234196
69,1685766388.52,-70.801,-987.305,-84.473,-11.719,941.413,319.69481139853855
70,1685766388.52,0.977,-642.09,183.105,-30.762,941.417,316.2128210809164
71,1685766388.52,12.695,-437.988,77.148,-49.316,941.421,310.3942363644577
72,1685766388.53,-48.34,-790.527,-61.035,-38.086,941.425,307.873415355006
73,1685766388.53,-68.848,-806.641,84.473,-11.23,941.43,306.6689796743095
74,1685766388.54,-0.488,-521.973,149.414,-16.113,941.433,303.1782006627161
75,1685766388.54,33.691,-669.922,-42.969,-40.039,941.437,305.4757165228963
76,1685766388.54,-21.484,-974.609,-121.094,-42.48,941.441,321.1721703630618
77,1685766388.55,-65.43,-854.492,91.797,-25.391,941.445,306.91749473089556
78,1685766388.55,-12.207,-857.91,122.559,-13.672,941.449,308.2172506271988
79,1685766388.56,38.086,-955.078,66.895,-30.273,941.453,303.0348174230728
80,1685766388.56,-2.93,-983.398,-97.168,-49.805,941.457,302.4650639554625
81,1685766388.56,-67.871,-912.109,39.062,-39.062,941.461,307.2161937216062
82,1685766388.57,-31.738,-567.871,230.469,-19.531,941.465,299.4631962952554
83,1685766388.57,30.762,-543.457,2.441,-29.785,941.469,314.22197859525266
84,1685766388.57,2.441,-912.598,-187.988,-47.363,941.473,307.64111037641914
85,1685766388.58,-62.012,-811.523,47.852,-38.574,941.474,306.8121686357464
86,1685766388.58,-61.523,-532.715,149.414,-14.648,941.478,315.8916769706416
87,1685766388.59,10.742,-559.082,24.414,-7.812,941.482,305.245759626487
88,1685766388.59,19.531,-716.797,55.176,-23.926,941.486,318.76681188788456
89,1685766388.6,-52.734,-721.68,75.684,-31.25,941.49,309.7760432636201
90,1685766388.6,-76.172,-920.898,39.551,-6.836,941.493,309.54343637572345
91,1685766388.6,-14.16,-978.027,49.316,1.465,941.497,309.7856835544539
92,1685766388.61,13.184,-969.238,-86.426,-23.438,941.501,319.8029986727455
93,1685766388.61,-41.016,-817.383,141.602,-52.246,941.505,314.10708735403443
94,1685766388.61,-87.891,-652.344,154.297,-35.156,941.509,306.3558516547636
95,1685766388.62,-36.621,-723.633,15.625,-16.113,941.513,306.73496650581654
96,1685766388.62,20.02,-631.348,88.867,-41.016,941.517,308.412994143765
97,1685766388.64,-15.137,-527.832,54.688,-63.477,941.545,309.1990632890879
98,1685766388.64,-79.102,-673.828,41.016,-37.598,941.549,303.1191612960472
99,1685766388.64,-56.641,-879.395,-1.465,-12.695,941.552,308.5641022747062
100,1685766388.65,13.672,-620.117,93.262,-28.32,941.556,297.1313164235218
101,1685766388.65,7.324,-490.723,79.59,-51.758,941.56,308.5070599771881
102,1685766388.66,-67.383,-914.551,-75.195,-41.992,941.564,310.75368589999516
103,1685766388.66,-76.172,-1000.0,-80.566,-14.16,941.568,317.7030572839876
104,1685766388.66,-2.441,-916.992,95.703,-20.02,941.572,310.31646869978454
105,1685766388.66,16.113,-587.891,186.523,-55.176,941.575,303.51643433594364
106,1685766388.67,12.695,-627.93,221.191,-48.828,941.576,316.3913150736852
107,1685766388.67,-31.738,-597.168,-13.672,-57.617,941.579,313.45010339923857
108,1685766388.67,-43.945,-560.547,56.152,-50.781,941.58,317.47178730592617
109,1685766388.67,-87.402,-910.645,-3.418,-34.18,941.583,313.34521088208925
110,1685766388.68,-75.195,-926.27,-185.059,-27.344,941.584,309.201840831531
111,1685766388.68,-39.551,-622.559,159.18,-23.438,941.586,318.2844490573202
112,1685766388.68,-21.484,-982.91,29.785,-31.738,941.588,305.5823249320285
113,1685766388.68,24.414,-416.016,103.027,-37.598,941.59,312.3213785601268
114,1685766388.68,-11.719,-778.32,-97.656,-50.781,941.594,313.7637306941793
115,1685766388.69,-81.055,-971.191,-14.16,-33.203,941.598,310.43265767776165
116,1685766388.69,-54.688,-716.309,164.551,-4.395,941.602,309.3247379557079
117,1685766388.7,21.973,-448.73,138.672,-4.395,941.606,310.6258261919194
118,1685766388.7,9.766,-676.758,-113.281,-31.25,941.61,305.2794568057258
119,1685766388.7,-64.453,-1000.0,-197.266,-27.344,941.614,311.66878191362787
120,1685766388.71,-69.336,-774.902,195.801,-2.441,941.618,317.7062966939078
121,1685766388.71,4.395,-416.504,189.941,-3.418,941.619,304.30726679736614
122,1685766388.72,20.996,-659.18,-99.609,-14.16,941.623,308.2549883080236
123,1685766388.72,-48.828,-945.801,11.23,-26.855,941.627,311.39250953908214
124,1685766388.72,-95.703,-650.879,197.754,-12.207,941.631,309.24447128224716
125,1685766388.73,-30.762,-463.379,85.938,2.93,941.635,307.7658257479246
126,1685766388.73,20.508,-820.312,-138.184,-10.254,941.639,306.94682747865994
127,1685766388.74,-28.32,-947.754,14.16,-22.949,941.643,318.01501430315534
128,1685766388.74,-75.195,-665.527,184.57,2.441,941.646,325.74481839366615
129,1685766388.74,-32.715,-584.961,70.312,16.113,941.65,312.3031489594889
130,1685766388.75,31.25,-834.961,-110.352,-3.906,941.654,315.7476591092086
131,1685766388.75,0.977,-774.414,8.301,-32.227,941.658,325.20705043106153
132,1685766388.76,-80.078,-870.605,29.785,-34.668,941.662,308.909569575655
133,1685766388.77,-75.195,-1000.0,13.184,-10.742,941.666,297.6965589908857
134,1685766388.77,-6.836,-845.215,88.867,-21.484,941.67,310.52785425679286
135,1685766388.78,2.93,-554.199,100.586,-44.922,941.674,314.7044948981168
136,1685766388.78,-62.012,-546.875,86.914,-41.016,941.678,313.51795892761214
137,1685766388.79,-84.473,-695.312,15.137,-14.16,941.682,319.8180821889192
138,1685766388.79,-11.719,-975.098,-176.758,-9.277,941.686,308.1241081354566
139,1685766388.79,22.461,-918.457,41.504,-31.738,941.689,305.22605189416606
140,1685766388.8,-35.156,-570.801,179.199,-48.34,941.693,319.1014903195621
141,1685766388.8,-79.59,-725.098,33.691,-20.508,941.697,315.78457928800424
142,1685766388.8,-22.461,-778.809,113.77,-2.441,941.701,308.33665397917895
143,1685766388.81,35.156,-401.855,147.461,-16.602,941.705,307.2531809021589
144,1685766388.81,0.977,-418.945,45.898,-33.203,941.709,299.8885339954128
145,1685766388.82,-63.965,-806.641,-48.34,-29.297,941.711,304.17049586423
146,1685766388.82,-42.48,-691.406,96.191,-17.09,941.715,310.023079769651
147,1685766388.82,16.602,-443.848,104.98,-41.504,941.719,302.88048371025985
148,1685766388.83,-7.324,-779.785,-91.797,-61.523,941.723,303.04566132396627
149,1685766388.83,-80.566,-1000.0,-120.117,-46.387,941.727,315.90791223089093
150,1685766388.84,-81.055,-998.047,74.219,-20.02,941.73,311.3163370119745
151,1685766388.84,-2.93,-773.926,199.219,-23.926,941.734,316.71644830326255
152,1685766388.84,11.23,-561.035,28.32,-49.805,941.738,317.77087151432943
153,1685766388.85,-62.012,-928.711,-199.707,-48.34,941.742,313.1114840629598
154,1685766388.85,-93.262,-896.973,112.305,-18.555,941.746,311.52544492874597
155,1685766388.85,-28.32,-608.887,172.363,-24.902,941.75,315.18913442793496
156,1685766388.86,-1.953,-839.355,-11.23,-49.805,941.754,308.516167563708
157,1685766388.86,-60.059,-995.117,-114.258,-58.105,941.756,301.7830898506514
158,1685766388.86,-98.633,-755.371,96.68,-34.668,941.76,304.4337492109812
159,1685766388.87,-45.898,-459.473,185.059,-20.02,941.764,310.6912547289199
160,1685766388.87,6.836,-477.539,2.441,-43.945,941.768,309.17885029490657
161,1685766388.88,-32.715,-756.348,-28.32,-70.312,941.772,306.94721130221745
162,1685766388.88,-89.355,-957.031,-3.906,-48.34,941.776,313.28590979063864
163,1685766388.88,-54.688,-941.895,113.77,-18.066,941.779,301.6353137480361
164,1685766388.89,12.207,-851.562,64.453,-35.645,941.783,314.97088703955217
165,1685766388.89,-5.371,-955.566,-125.977,-53.711,941.787,307.300179427412
166,1685766388.9,-70.801,-832.031,138.184,-52.734,941.791,311.75561188905306
167,1685766388.9,-77.148,-593.262,175.293,-33.203,941.795,310.882067693087
168,1685766388.9,-4.395,-645.996,-21.484,-34.668,941.799,310.1392373792496
169,1685766388.9,19.043,-620.117,65.43,-52.734,941.801,322.35552506818345
170,1685766388.91,-46.875,-516.602,107.422,-56.641,941.805,313.820629378605
171,1685766388.91,-80.566,-648.438,53.711,-29.297,941.809,311.3873718707273
172,1685766388.92,-16.602,-820.312,-1.953,-22.461,941.813,311.56405799713906
173,1685766388.92,24.902,-635.742,60.547,-38.574,941.817,325.37311299427586
174,1685766388.92,-37.598,-766.113,-17.09,-51.27,941.821,308.97918287015824
175,1685766388.93,-95.703,-1000.0,-6.836,-28.809,941.824,304.43000762874703
176,1685766388.93,-42.48,-986.328,-36.621,-0.977,941.828,303.2213673245192
177,1685766388.94,18.555,-929.199,62.5,-21.973,941.832,315.33120798477154
178,1685766388.94,-8.789,-612.305,192.383,-52.734,941.836,317.2100294520517
179,1685766388.94,-72.754,-635.254,-8.301,-43.457,941.84,318.1863298405008
180,1685766388.95,-61.523,-996.582,-180.176,-11.719,941.844,306.0750939359579
181,1685766388.95,8.301,-827.637,142.578,-20.996,941.846,310.0433207543346
182,1685766388.95,8.789,-443.848,188.477,-54.199,941.85,316.6433355174231
183,1685766388.96,-60.547,-656.738,-24.902,-55.664,941.854,309.8717384046473
184,1685766388.96,-65.918,-785.645,73.242,-22.461,941.858,306.2693643563811
185,1685766388.97,5.859,-463.379,119.629,-13.184,941.862,309.90194716614764
186,1685766388.97,8.301,-698.73,-64.453,-47.363,941.866,322.7743476690815
187,1685766388.97,-50.781,-1000.0,-108.887,-58.594,941.87,316.11055649229957
188,1685766388.98,-77.637,-983.887,-74.707,-20.02,941.874,319.407339919359
189,1685766388.98,-10.254,-614.258,152.344,4.883,941.877,316.7765657358085
190,1685766388.98,47.363,-310.059,139.648,-3.418,941.881,304.583215933399
191,1685766388.99,-10.254,-687.5,-81.055,-25.879,941.885,315.2436660549347
192,1685766388.99,-71.777,-926.758,19.531,-17.09,941.889,318.53062065243745
193,1685766389.0,-37.109,-560.059,162.598,-3.418,941.891,313.46143064335746
194,1685766389.0,20.508,-333.984,84.961,-20.508,941.895,317.34929760006713
195,1685766389.0,0.977,-698.73,-94.727,-43.457,941.899,316.22408305389763
196,1685766389.01,-63.477,-910.156,56.641,-33.691,941.903,314.49620351534463
197,1685766389.01,-48.828,-621.094,158.691,-6.348,941.907,321.6209248643514
198,1685766389.02,24.414,-713.867,22.949,-18.555,941.91,309.6391750990627
199,1685766389.02,21.484,-972.168,-120.117,-39.062,941.914,316.33504887270135
200,1685766389.02,-46.387,-915.039,32.227,-41.504,941.918,315.1208764212372
201,1685766389.03,-66.406,-655.762,187.012,-19.043,941.922,316.0737922885971
202,1685766389.03,-1.465,-493.164,79.59,-16.602,941.926,315.9668588999794
203,1685766389.03,37.109,-833.984,-85.938,-34.18,941.93,306.67076230150667
204,1685766389.04,-17.09,-1000.0,-29.785,-33.691,941.934,312.01549671477267
205,1685766389.04,-68.359,-732.91,158.203,-20.02,941.939,312.8015802170471
206,1685766389.04,-19.531,-691.406,38.086,-18.066,941.943,315.79169804263597
207,1685766389.05,30.273,-979.98,-161.621,-21.484,941.947,317.02740834279876
208,1685766389.05,-7.812,-822.266,134.277,-38.086,941.951,315.86582746832386
209,1685766389.06,-80.566,-611.816,168.945,-30.273,941.955,322.64842684207383
210,1685766389.06,-49.316,-893.555,-90.82,-7.324,941.959,310.0061885986693
211,1685766389.06,21.484,-999.023,-77.148,-23.438,941.963,329.6207743599979
212,1685766389.07,0.977,-619.629,145.996,-51.758,941.967,307.2303734643368
213,1685766389.07,-64.941,-516.602,104.004,-38.086,941.97,315.30879230910404
214,1685766389.08,-57.129,-740.234,-13.184,-5.371,941.974,321.5253867207426
215,1685766389.08,23.926,-673.34,102.539,-6.348,941.978,318.2049083911518
216,1685766389.08,33.691,-459.473,109.375,-24.902,941.982,316.2855187922996
217,1685766389.08,-35.645,-574.219,29.297,-32.715,941.995,327.85815454846437
218,1685766389.09,-64.941,-854.492,-25.391,-22.461,941.999,322.0288885951894
219,1685766389.09,-0.488,-671.875,90.332,-20.508,942.003,318.26084809611166
220,1685766389.1,30.273,-505.371,54.199,-36.621,942.007,327.2877278632519
221,1685766389.1,-30.762,-863.281,-84.473,-57.129,942.011,313.47780937492666
222,1685766389.1,-77.148,-1000.0,-170.41,-33.691,942.015,318.86611056914415
223,1685766389.11,-23.926,-962.891,-20.996,-10.254,942.019,316.3628611304509
224,1685766389.11,39.062,-574.707,202.148,-37.598,942.023,315.7958110266261
225,1685766389.12,4.395,-583.496,6.348,-54.688,942.026,318.0698278565415
226,1685766389.12,-64.453,-895.02,-69.824,-28.809,942.03,318.147532551142
227,1685766389.12,-37.109,-839.844,70.312,-5.859,942.034,307.2663251812522
228,1685766389.13,32.715,-789.062,127.441,-21.484,942.038,316.45063064575277
229,1685766389.14,20.02,-665.527,63.965,-48.828,942.041,318.7725439958463
230,1685766389.15,-56.641,-891.113,-166.504,-46.387,942.045,316.9256237061199
231,1685766389.15,-62.5,-777.344,74.219,-15.137,942.049,308.97455426293857
232,1685766389.16,12.695,-410.156,189.453,-16.602,942.053,322.23908922374693
233,1685766389.16,23.438,-528.32,-55.664,-48.34,942.057,322.69911451721117
234,1685766389.16,-50.293,-918.945,-51.758,-60.059,942.061,318.0413604218288
235,1685766389.17,-79.59,-993.652,119.629,-29.785,942.064,309.5994793835784
236,1685766389.17,-3.906,-738.281,157.227,-16.602,942.068,319.923734100445
237,1685766389.18,38.086,-614.258,7.812,-35.156,942.072,315.0803390072158
238,1685766389.18,-18.555,-911.621,-163.574,-39.551,942.076,317.29228423559863
239,1685766389.18,-69.336,-846.191,100.586,-20.996,942.08,316.8182063339336
240,1685766389.19,-25.879,-691.406,155.762,-16.602,942.084,313.20370441410256
241,1685766389.19,31.738,-670.898,5.371,-19.043,942.091,323.13106961193813
242,1685766389.2,4.395,-642.578,60.059,-32.715,942.095,320.10522884910904
243,1685766389.2,-61.523,-606.934,107.422,-32.227,942.099,300.86306608873406
244,1685766389.2,-43.945,-594.238,83.008,-2.93,942.103,309.386979950948
245,1685766389.21,22.949,-774.414,-16.602,-1.953,942.107,309.24159009431014
246,1685766389.21,15.625,-973.633,-17.578,-20.508,942.111,323.2888994946893
247,1685766389.22,-50.293,-880.371,111.328,-20.996,942.115,311.51235779567156
248,1685766389.22,-58.594,-663.574,94.238,3.418,942.119,313.78297132351753
249,1685766389.22,9.277,-892.578,-136.719,6.348,942.123,323.6611190192564
250,1685766389.23,27.832,-962.402,51.758,-20.508,942.126,307.4762937427597
251,1685766389.23,-29.297,-726.562,180.664,-39.551,942.13,320.66733262074143
252,1685766389.24,-15.625,-935.547,11.23,-0.977,942.131,318.2690362247168
253,1685766389.24,-65.43,-939.453,9.277,-12.207,942.134,313.74130512125987
254,1685766389.24,21.484,-538.574,92.285,-30.273,942.135,309.5990671674808
255,1685766389.24,-25.879,-479.98,69.824,-49.805,942.139,311.4319643260499
256,1685766389.25,-82.031,-720.703,5.371,-28.32,942.143,306.8571610007704
257,1685766389.25,-36.133,-819.336,65.918,-1.953,942.147,317.8659475295873
258,1685766389.26,35.645,-804.199,71.777,-6.836,942.151,312.39806448272384
259,1685766389.26,11.719,-910.156,40.527,-23.926,942.155,312.14303570830856
260,1685766389.26,-61.523,-845.703,34.18,-16.602,942.159,321.2164148994523
261,1685766389.27,-51.758,-991.211,-164.062,15.137,942.162,300.0792958809098
262,1685766389.27,21.484,-923.34,46.387,10.742,942.166,300.25484592136945
263,1685766389.27,21.484,-486.328,174.316,-21.973,942.17,317.51333737515796
264,1685766389.28,-48.828,-722.168,-44.922,-26.855,942.174,316.7469042160932
265,1685766389.28,-76.172,-915.039,33.691,-11.719,942.176,303.3814944091794
266,1685766389.28,-5.859,-487.793,160.156,-11.23,942.18,307.74910818071197
267,1685766389.29,29.297,-345.215,54.199,-25.879,942.183,318.56900623680735
268,1685766389.29,-38.574,-770.508,-126.465,-50.781,942.187,307.84039914673156
269,1685766389.3,-86.914,-870.117,69.824,-31.25,942.191,311.71742803795587
270,1685766389.3,-24.414,-785.645,132.324,-5.371,942.195,311.1871315757206
271,1685766389.3,26.367,-793.457,49.316,-13.672,942.199,309.0949484580171
272,1685766389.31,-20.996,-912.109,-113.281,-21.973,942.203,307.5125158295029
273,1685766389.31,-73.242,-914.551,51.27,-3.906,942.207,315.4299024046063
274,1685766389.31,-25.391,-526.367,224.121,12.695,942.211,310.8894858740945
275,1685766389.32,26.367,-401.367,46.875,-6.836,942.215,313.62716614495076
276,1685766389.32,-7.324,-847.656,-85.938,-29.297,942.219,319.37841251489925
277,1685766389.33,-72.754,-793.945,61.035,-20.508,942.224,324.9995786526027
278,1685766389.33,-68.359,-469.727,156.738,9.766,942.228,315.5931763444652
279,1685766389.33,6.348,-612.305,-32.227,23.438,942.232,326.74108279871376
280,1685766389.34,18.555,-920.898,-156.738,0.488,942.236,315.80142389848777
281,1685766389.34,-48.828,-804.199,75.684,-19.043,942.24,300.56339994342954
282,1685766389.35,-79.102,-838.379,101.074,-0.488,942.244,313.8241288547253
283,1685766389.35,-9.766,-955.566,23.438,8.789,942.248,307.8754653027641
284,1685766389.35,24.414,-945.312,-83.984,-5.859,942.252,306.65131665945773
285,1685766389.36,-23.926,-667.969,97.656,-27.344,942.256,312.42700561857214
286,1685766389.36,-64.453,-487.793,133.789,-10.254,942.26,319.50524996958325
287,1685766389.36,-18.555,-632.324,9.766,3.418,942.264,309.0477579786507
288,1685766389.37,39.551,-591.797,72.266,-17.09,942.267,308.811122889488
289,1685766389.37,5.371,-436.523,102.539,-27.832,942.266,306.42814288838775
290,1685766389.37,-61.523,-540.039,51.27,-4.395,942.27,303.0716180943939
291,1685766389.38,-34.18,-784.18,-44.922,20.508,942.274,307.7530293066539
292,1685766389.38,36.133,-567.383,82.52,7.324,942.278,310.3199388449629
293,1685766389.39,21.484,-473.145,24.414,-22.949,942.282,311.574683442713
294,1685766389.39,-51.758,-898.438,-103.027,-20.02,942.285,308.8342584081481
295,1685766389.39,-63.477,-1000.0,-124.023,7.812,942.289,314.8956698741454
296,1685766389.4,2.441,-929.199,-9.277,11.719,942.293,310.3009241180976
297,1685766389.4,30.273,-566.895,166.504,-14.16,942.297,309.5525369683939
298,1685766389.4,-19.531,-577.148,36.621,-20.02,942.301,321.63652113902975
299,1685766389.41,-53.223,-935.059,-56.641,8.301,942.305,313.95227029671895
300,1685766389.41,-4.883,-929.199,55.664,6.836,942.309,306.0609400844315
301,1685766389.42,26.367,-523.926,166.504,-20.996,942.325,307.32443990186033
302,1685766389.42,-17.578,-542.48,0.977,-26.855,942.329,305.0178703584898
303,1685766389.42,-61.035,-959.961,-177.734,8.301,942.333,304.22121456217843
304,1685766389.43,-17.09,-652.344,106.445,21.973,942.337,301.370229624955
305,1685766389.43,35.645,-321.777,150.879,-5.859,942.341,305.62622037017707
306,1685766389.44,4.883,-729.492,-130.859,-30.762,942.345,299.4098988348465
307,1685766389.44,-66.895,-984.863,-147.949,-7.324,942.349,317.3512752950682
308,1685766389.44,-57.617,-833.496,131.348,21.484,942.353,313.6147302889638
309,1685766389.45,20.508,-589.844,176.27,-4.883,942.356,303.123412341223
310,1685766389.45,22.461,-599.121,-57.129,-31.25,942.36,305.49131186101687
311,1685766389.45,-48.34,-837.891,-6.348,-35.645,942.364,310.7073731140678
312,1685766389.46,-57.617,-650.879,162.598,-14.16,942.368,308.6551898670233
313,1685766389.46,9.766,-441.406,105.957,-2.441,942.37,302.6249339891914
314,1685766389.46,33.203,-609.863,-40.039,-25.391,942.374,308.96506002465014
315,1685766389.47,-18.555,-722.168,45.41,-34.18,942.378,299.1119558541202
316,1685766389.47,-59.57,-557.129,152.344,-11.719,942.382,299.78224490032517
317,1685766389.48,-6.836,-495.605,67.871,0.977,942.386,304.73026401397243
318,1685766389.48,32.715,-797.363,-94.238,-14.16,942.39,300.24243244505334
319,1685766389.48,-14.16,-1000.0,-42.969,-32.715,942.394,288.3860342785071
320,1685766389.49,-64.453,-735.352,146.484,-12.207,942.398,293.4978874390429
321,1685766389.49,-30.273,-544.434,85.449,5.859,942.401,301.5494602761853
322,1685766389.5,25.879,-853.516,-204.59,-7.324,942.405,302.01347082472137
323,1685766389.5,0.977,-1000.0,-16.602,-33.691,942.409,294.94116394388783
324,1685766389.5,-75.684,-961.426,142.578,-34.668,942.413,298.74813992671506
325,1685766389.52,-71.777,-935.547,63.477,-22.461,942.416,287.4699552179644
326,1685766389.52,7.812,-980.469,-82.52,-24.902,942.42,288.0030803639455
327,1685766389.53,13.184,-861.328,100.098,-43.945,942.424,293.96395929539614
328,1685766389.53,-59.082,-568.359,170.898,-53.711,942.428,282.98338336737515
329,1685766389.54,-72.266,-638.184,4.883,-26.855,942.431,287.4762633433435
330,1685766389.54,5.371,-913.086,21.484,-9.766,942.435,297.6047310933856
331,1685766389.54,26.367,-757.324,131.836,-34.18,942.439,288.8084621422569
332,1685766389.55,-40.039,-569.336,88.379,-56.152,942.443,295.3333365939862
333,1685766389.55,-81.055,-791.504,-26.367,-31.738,942.447,298.12188130774075
334,1685766389.56,-25.391,-879.395,4.395,-14.648,942.451,291.8621817486944
335,1685766389.56,23.926,-482.422,144.531,-38.086,942.455,294.9693504341728
336,1685766389.56,-21.973,-437.988,59.082,-60.547,942.459,288.20397844476975
337,1685766389.56,-80.566,-879.395,-67.871,-35.645,942.461,300.73111265748196
338,1685766389.57,-49.805,-862.793,76.66,-16.602,942.465,287.8056991998264
339,1685766389.57,9.766,-447.754,176.758,-34.18,942.469,289.77364968641103
340,1685766389.58,-4.395,-458.984,22.461,-56.641,942.473,300.25335827916984
341,1685766389.58,-72.266,-860.84,-138.184,-53.711,942.477,299.0144111773687
342,1685766389.58,-68.848,-987.305,48.828,-22.461,942.481,284.1319841863766
343,1685766389.59,-1.953,-848.145,176.758,-23.926,942.484,295.187350690736
344,1685766389.59,8.301,-597.656,57.129,-47.363,942.488,290.1524803271129
345,1685766389.6,-51.758,-876.465,-182.129,-41.016,942.492,290.20209129138755
346,1685766389.6,-72.754,-895.02,103.027,-17.578,942.496,299.0952338887882
347,1685766389.6,-3.906,-577.148,217.285,-16.113,942.5,289.2587455276663
348,1685766389.61,28.809,-759.766,6.348,-32.715,942.504,294.2688814949794
349,1685766389.61,-33.691,-971.191,-154.297,-42.48,942.506,296.7273440054386
350,1685766389.61,-87.891,-752.93,54.199,-20.996,942.51,292.2126123198898
351,1685766389.62,-31.738,-424.805,172.363,-3.418,942.514,291.5828042182418
352,1685766389.62,26.855,-544.922,-49.316,-14.648,942.518,292.71039849041637
353,1685766389.63,-13.672,-880.371,-54.199,-38.574,942.522,293.70532062133833
354,1685766389.63,-89.355,-998.047,86.914,-37.598,942.526,292.1078315837413
355,1685766389.63,-63.477,-761.23,160.645,-18.066,942.53,290.1471404764802
356,1685766389.64,10.742,-599.609,7.812,-24.902,942.533,300.5725387747542
357,1685766389.64,1.465,-918.945,-153.809,-31.738,942.537,296.98070969436975
358,1685766389.64,-59.082,-722.168,124.023,-10.254,942.541,298.13253148589695
359,1685766389.65,-60.059,-458.008,138.184,7.812,942.545,299.5786599362147
360,1685766389.65,0.977,-594.238,10.742,-16.602,942.549,295.92191072473685
361,1685766389.66,9.277,-616.211,83.008,-47.363,942.551,289.55146096595126
362,1685766389.66,-43.945,-506.836,103.516,-44.922,942.555,305.621499437389
363,1685766389.66,-71.289,-562.988,49.316,-20.508,942.559,300.62112876694584
364,1685766389.67,-9.277,-715.82,-3.418,-14.648,942.563,298.7401845870046
365,1685766389.67,31.25,-615.234,50.293,-32.715,942.567,295.69793754051904
366,1685766389.68,-25.879,-804.199,-54.199,-47.363,942.571,311.0191995022769
367,1685766389.68,-82.52,-1000.0,-64.941,-29.297,942.575,305.8334247611588
368,1685766389.68,-33.203,-1000.0,-113.281,-12.207,942.578,309.52032577571987
369,1685766389.69,26.367,-940.43,-26.367,-19.043,942.582,299.678944427935
370,1685766389.69,-3.906,-540.039,195.312,-40.527,942.586,323.9527629631252
371,1685766389.69,-74.707,-630.859,46.387,-35.645,942.59,307.77296724488525
372,1685766389.7,-62.012,-964.844,-123.047,-6.348,942.594,321.8727098887942
373,1685766389.7,12.207,-591.309,94.238,-23.438,942.596,316.8809888200871
374,1685766389.7,14.16,-300.293,135.254,-56.641,942.6,319.737395964459
375,1685766389.71,-53.711,-602.051,-22.461,-44.922,942.604,325.0600098637031
376,1685766389.71,-65.918,-801.27,55.664,-0.977,942.608,321.336958421229
377,1685766389.72,15.625,-498.535,123.047,2.93,942.612,327.7206710281855
378,1685766389.72,37.109,-682.617,-46.875,-23.438,942.615,323.8470984798056
379,1685766389.72,-33.691,-987.305,-114.258,-25.391,942.619,321.52477642518267
380,1685766389.73,-69.824,-959.473,-108.398,9.277,942.623,322.1859367998719
381,1685766389.73,-2.93,-806.152,113.77,17.09,942.627,321.9575795283019
382,1685766389.74,47.852,-551.758,189.453,-5.859,942.631,322.7376407160867
383,1685766389.74,0.977,-641.113,-37.109,-29.297,942.635,331.7181698173472
384,1685766389.74,-60.547,-837.402,16.113,-15.137,942.639,326.57090175378585
385,1685766389.76,-25.391,-542.969,163.086,11.23,942.663,323.86642494409125
386,1685766389.77,40.039,-369.141,64.453,-5.859,942.667,330.49203408147423
387,1685766389.77,9.277,-670.898,-48.34,-37.109,942.671,325.85546785707
388,1685766389.78,-59.57,-754.395,54.688,-27.832,942.675,333.226463293762
389,1685766389.78,-55.664,-524.414,124.023,-12.695,942.679,330.654617316708
390,1685766389.78,10.742,-748.047,-41.504,-23.926,942.683,328.416250466523
391,1685766389.79,10.742,-1000.0,-162.598,-35.156,942.687,330.60529672975593
392,1685766389.79,-61.523,-882.324,32.227,-38.086,942.691,325.7808545876481
393,1685766389.79,-89.844,-918.457,69.824,-20.996,942.699,320.4594524078178
394,1685766389.79,-24.902,-721.191,115.234,0.977,942.703,325.03413203094266
395,1685766389.79,-82.52,-539.551,205.078,-20.02,942.695,332.49088611244787
396,1685766389.8,-9.766,-395.02,81.055,-12.695,942.699,331.5923432931055
397,1685766389.8,30.273,-787.109,6.836,-28.32,942.707,330.60406737358596
398,1685766389.8,-29.785,-672.852,63.477,-76.66,942.711,319.65571242037015
399,1685766389.8,12.207,-739.258,-64.453,-31.738,942.703,322.48118760560783
400,1685766389.81,-46.875,-974.121,-44.922,-43.457,942.706,325.55459890801785
401,1685766389.81,-91.309,-538.574,98.633,-54.688,942.715,331.8461410141521
402,1685766389.81,-52.246,-807.129,-62.988,-19.043,942.719,325.09585315241355
403,1685766389.81,20.996,-898.438,-2.93,-28.809,942.723,319.8177070217606
404,1685766389.82,3.906,-634.277,114.258,-53.711,942.727,312.38421444716425
405,1685766389.82,-76.172,-604.98,55.664,-47.852,942.731,315.91815819844874
406,1685766389.82,-66.406,-733.398,-6.348,-16.113,942.734,321.7848869125037
407,1685766389.83,13.184,-989.258,-159.668,-11.719,942.738,324.2825603026327
408,1685766389.83,21.484,-904.785,39.551,-40.527,942.742,310.0192941614908
409,1685766389.84,-37.109,-596.68,160.156,-50.781,942.745,326.13628360419096
410,1685766389.84,-61.035,-823.242,-3.418,-28.32,942.749,317.39732261652125
411,1685766389.84,-1.465,-735.84,123.047,-18.555,942.753,317.93097558557713
412,1685766389.85,31.738,-336.914,139.648,-39.062,942.757,308.1387627573708
413,1685766389.85,-23.438,-459.473,32.227,-57.617,942.761,312.9644284750907
414,1685766389.86,-73.73,-928.711,-168.457,-34.668,942.765,314.0408116586306
415,1685766389.86,-28.809,-856.934,8.789,-19.043,942.769,310.9266608553886
416,1685766389.86,31.25,-343.262,207.52,-44.922,942.773,322.5517980030677
417,1685766389.87,-2.441,-405.273,40.527,-67.871,942.776,320.17883661975594
418,1685766389.87,-72.266,-831.055,-137.207,-45.41,942.78,323.0603345219166
419,1685766389.88,-35.645,-712.402,13.184,-17.578,942.784,301.62953199662377
420,1685766389.88,36.621,-646.484,104.492,-20.02,942.788,297.37512963130774
421,1685766389.9,17.578,-833.496,0.0,-42.48,942.791,294.581993696823
422,1685766389.9,-54.199,-959.961,-147.461,-44.922,942.795,304.11136868731336
423,1685766389.9,-64.453,-685.059,79.102,-26.855,942.799,297.74287152007827
424,1685766389.91,10.742,-392.578,157.227,-30.273,942.803,283.6114287669774
425,1685766389.91,25.879,-590.332,-80.078,-44.922,942.807,294.1013936026555
426,1685766389.92,-42.48,-974.121,-166.504,-39.551,942.811,292.37835891627924
427,1685766389.92,-72.754,-899.414,106.934,-13.184,942.815,307.11196663717976
428,1685766389.92,-10.254,-407.227,190.918,-8.789,942.819,304.59757198899746
429,1685766389.93,34.668,-488.77,-83.984,-34.18,942.823,296.14370247670115
430,1685766389.93,-17.09,-883.301,-58.105,-47.363,942.827,303.9813678628721
431,1685766389.93,-72.754,-662.598,169.434,-19.531,942.83,292.3407690581039
432,1685766389.94,-27.344,-388.672,101.074,-5.371,942.834,288.92585177307797
433,1685766389.94,27.344,-523.438,-23.438,-22.949,942.836,295.1924702979931
434,1685766389.94,-1.953,-660.156,36.133,-34.668,942.84,299.0542928317144
435,1685766389.95,-66.895,-565.43,107.91,-17.578,942.844,303.1658837432786
436,1685766389.95,-44.434,-467.285,88.379,12.695,942.848,296.9800501536273
437,1685766389.96,33.691,-643.555,-43.945,9.766,942.852,297.1001507385307
438,1685766389.96,29.297,-907.227,-92.285,-15.137,942.856,292.0023420363252
439,1685766389.96,-46.387,-934.57,17.578,-28.809,942.86,293.216130256217
440,1685766389.97,-62.012,-906.738,95.703,-9.277,942.864,292.265005962066
441,1685766389.97,9.277,-996.094,-83.984,-2.441,942.867,304.21353879471144
442,1685766389.98,33.691,-896.484,-30.762,-25.879,942.871,303.7854909316425
443,1685766389.98,-26.367,-621.582,161.133,-43.945,942.875,299.76757410685804
444,1685766389.98,-70.312,-885.254,20.996,-21.973,942.879,310.6835953853252
445,1685766389.98,-20.508,-986.328,-115.234,-16.113,942.881,297.8542094265614
446,1685766389.99,25.391,-532.227,76.172,-39.551,942.885,311.21237428429674
447,1685766389.99,-15.137,-340.82,133.301,-52.734,942.889,310.67998220986595
448,1685766390.0,-80.078,-619.629,-8.789,-28.809,942.893,311.7281678766297
449,1685766390.0,-50.293,-732.91,47.852,-8.301,942.897,301.0056695875187
450,1685766390.0,11.719,-699.219,42.969,-26.855,942.9,323.9238473209931
451,1685766390.01,-5.371,-738.281,43.945,-57.129,942.904,310.87996857045425
452,1685766390.01,-65.43,-729.492,-19.043,-48.828,942.908,318.9977177885417
453,1685766390.02,-54.688,-938.477,-139.16,-17.09,942.912,319.9418757454609
454,1685766390.02,15.137,-792.48,73.73,-24.414,942.916,332.5278490332808
455,1685766390.02,9.766,-480.957,122.559,-48.828,942.92,329.75718395489054
456,1685766390.03,-55.176,-732.91,-62.988,-40.527,942.924,335.1477107334781
457,1685766390.03,-70.312,-820.312,25.391,-7.812,942.926,340.3130051648935
458,1685766390.03,-3.906,-391.602,152.832,-18.066,942.93,323.92592167498555
459,1685766390.04,22.949,-265.625,49.805,-48.828,942.934,336.4647710388586
460,1685766390.04,-41.504,-645.996,-104.492,-57.617,942.938,356.66446592536306
461,1685766390.05,-87.402,-738.77,40.039,-33.691,942.942,344.46011059056093
462,1685766390.05,-35.156,-691.406,78.613,-23.926,942.946,354.3409420230636
463,1685766390.05,16.602,-779.297,22.461,-44.922,942.949,342.814471450115
464,1685766390.06,-16.113,-927.734,-107.91,-55.176,942.953,347.98078801838653
465,1685766390.06,-71.777,-878.906,29.785,-32.715,942.957,363.15731515983964
466,1685766390.06,-44.922,-459.473,202.148,-6.836,942.961,353.14075627094735
467,1685766390.07,17.09,-392.578,35.156,-17.578,942.965,349.8365005338594
468,1685766390.07,0.0,-865.723,-196.289,-40.527,942.969,363.39870835481315
469,1685766390.08,-70.801,-1000.0,1.953,-34.668,942.972,366.3943579977618
470,1685766390.08,-63.477,-625.0,191.895,-9.766,942.976,367.18054530111215
471,1685766390.08,8.301,-464.844,51.27,-17.09,942.98,372.75713325247955
472,1685766390.09,10.742,-871.094,-138.672,-46.875,942.984,374.0163059002668
473,1685766390.09,-57.129,-782.715,33.203,-60.547,942.988,371.0964941166142
474,1685766390.1,-73.242,-741.211,114.746,-26.855,942.992,369.5170194399943
475,1685766390.1,-2.93,-879.883,20.996,-9.277,942.996,367.19409193123056
476,1685766390.1,26.367,-921.387,-96.191,-28.809,943.0,369.0811832001999
477,1685766390.11,-33.691,-676.27,91.309,-54.688,943.004,376.1441363511016
478,1685766390.11,-78.125,-480.957,158.203,-41.992,943.007,380.4776339501498
479,1685766390.11,-21.484,-561.035,42.969,-19.531,943.011,380.5967723065758
480,1685766390.12,28.809,-483.887,89.844,-37.109,943.015,384.60638284790974
481,1685766390.12,-13.184,-359.375,86.914,-58.105,943.017,377.94165757128144
482,1685766390.12,-75.684,-513.184,20.996,-39.551,943.021,378.9741828259357
483,1685766390.13,-47.852,-804.688,-33.691,-20.996,943.024,379.0394960567506
484,1685766390.13,24.414,-595.215,111.816,-37.598,943.028,384.32050775905583
485,1685766390.14,9.766,-386.719,87.891,-65.43,943.032,379.76024624139967
486,1685766390.14,-59.082,-819.824,-103.516,-58.594,943.036,392.7536292240568
487,1685766390.14,-60.059,-1000.0,-155.273,-18.555,943.04,384.2105870856511
488,1685766390.15,13.184,-819.336,67.383,-12.207,943.044,378.80806686893374
489,1685766390.15,33.203,-427.246,184.57,-43.457,943.048,385.9692482759036
490,1685766390.16,-37.109,-480.957,17.578,-53.711,943.052,389.2799520831558
491,1685766390.16,-81.543,-920.898,-102.051,-31.738,943.056,385.1592755459402
492,1685766390.16,-18.066,-985.84,23.438,-22.949,943.06,389.09149956544314
493,1685766390.16,26.367,-495.605,168.457,-41.016,943.076,384.87776614197924
494,1685766390.17,-30.762,-497.559,12.207,-60.059,943.079,378.93035207103065
495,1685766390.17,-96.191,-955.566,-152.832,-44.434,943.083,379.9955261389636
496,1685766390.18,-47.852,-627.93,121.094,-27.344,943.087,385.99146183305396
497,1685766390.18,20.508,-314.453,146.484,-34.668,943.091,383.1284883985709
498,1685766390.18,-10.254,-680.664,-117.188,-46.875,943.095,389.33902833770054
499,1685766390.19,-78.125,-1000.0,-163.086,-38.086,943.099,387.63199254639323
500,1685766390.19,-64.453,-808.105,149.902,-20.508,943.103,385.75484836504273
501,1685766390.2,4.883,-364.746,190.43,-25.879,943.107,373.67304964386494
502,1685766390.2,-5.371,-578.613,-84.473,-45.898,943.111,377.8266536612645
503,1685766390.2,-72.754,-866.699,-20.508,-55.176,943.115,384.6974179766507
504,1685766390.21,-80.566,-596.191,148.438,-33.691,943.119,378.2791432463383
505,1685766390.21,-5.371,-347.656,97.168,-24.414,943.12,371.9186945886382
506,1685766390.21,26.855,-507.812,-15.137,-39.551,943.124,374.1397112098031
507,1685766390.22,-37.109,-730.957,24.902,-47.363,943.128,370.9085105782455
508,1685766390.22,-81.543,-562.988,137.207,-30.273,943.132,381.27081083469596
509,1685766390.23,-21.973,-410.156,102.539,-22.949,943.136,380.20818918729015
510,1685766390.23,20.508,-734.375,-113.77,-34.668,943.14,363.35794842244246
511,1685766390.23,-26.855,-975.098,-38.086,-43.457,943.144,377.1737964991659
512,1685766390.24,-68.359,-822.266,130.371,-22.461,943.148,372.29456062309157
513,1685766390.24,-29.297,-846.68,73.73,0.977,943.151,374.91886968109804
514,1685766390.24,23.926,-936.523,-105.957,-14.16,943.155,375.3124166618237
515,1685766390.25,8.789,-952.637,-13.184,-25.879,943.159,369.9590247541411
516,1685766390.25,-42.48,-903.809,178.711,0.0,943.163,369.72358206017515
517,1685766390.27,-45.41,-726.074,107.422,9.766,943.166,368.3824488980176
518,1685766390.27,7.812,-859.375,-99.609,-19.531,943.17,363.82294826161814
519,1685766390.28,13.184,-597.656,75.684,-43.945,943.174,359.0822513471506
520,1685766390.28,-67.383,-354.492,154.297,-56.152,943.178,352.2984399802954
521,1685766390.29,-108.887,-631.836,-24.902,-46.387,943.182,368.0780840746926
522,1685766390.29,-46.387,-897.461,-21.973,-42.969,943.186,350.68703542474367
523,1685766390.29,-14.648,-734.375,102.539,-60.059,943.19,346.3054226200574
524,1685766390.3,-76.172,-460.449,111.328,-76.66,943.194,353.0448047469036
525,1685766390.3,-118.164,-677.246,-31.25,-51.758,943.198,348.4349183038312
526,1685766390.3,-52.246,-875.977,-23.926,-29.297,943.202,338.81914113156955
527,1685766390.31,-6.348,-672.363,115.234,-52.734,943.206,343.6010924088846
528,1685766390.31,-50.781,-504.395,101.562,-80.078,943.209,335.79818458583253
529,1685766390.31,-101.562,-713.867,-44.434,-58.594,943.225,354.91138064300173
530,1685766390.32,-66.895,-776.367,26.367,-31.25,943.228,333.41673179130566
531,1685766390.32,0.488,-407.227,132.324,-41.504,943.232,328.2596455352788
532,1685766390.33,-17.578,-380.859,34.18,-62.5,943.236,336.47172412883407
533,1685766390.33,-86.426,-782.715,-98.145,-52.734,943.24,341.3701901168009
534,1685766390.33,-78.125,-996.582,12.207,-25.879,943.244,325.8717949652032
535,1685766390.34,-9.766,-708.984,157.715,-29.785,943.248,329.86840102986736
536,1685766390.34,7.812,-442.871,56.152,-41.992,943.252,335.2118808552535
537,1685766390.34,-51.758,-871.582,-194.336,-42.48,943.256,318.58380433054947
538,1685766390.35,-79.59,-835.938,63.477,-18.555,943.26,326.1587675046263
539,1685766390.35,-12.695,-459.961,176.758,-7.324,943.264,320.98909097019276
540,1685766390.36,15.137,-693.848,-19.531,-30.762,943.267,323.1508209442803
541,1685766390.38,-39.551,-972.168,-177.734,-38.086,943.272,306.0146799699012
542,1685766390.38,-88.379,-918.457,39.551,-10.742,943.276,307.51667918194295
543,1685766390.38,-37.109,-419.434,217.773,-5.371,943.28,304.0746821550339
544,1685766390.39,25.879,-327.148,-7.812,-18.555,943.284,294.01527272954485
545,1685766390.39,-9.766,-815.918,-68.359,-32.227,943.287,289.32423629037993
546,1685766390.4,-70.312,-996.582,61.523,-32.715,943.291,297.8160382344763
547,1685766390.4,-42.48,-728.516,121.582,-18.555,943.295,292.94251101605823
548,1685766390.4,35.645,-487.793,29.785,-18.066,943.299,294.697452536955
549,1685766390.4,25.879,-573.242,71.777,-29.785,943.301,287.1055631496688
550,1685766390.41,19.043,-843.262,-95.215,-28.809,943.303,286.82445436448523
551,1685766390.41,-37.598,-427.734,105.469,-34.668,943.305,274.2495494806291
552,1685766390.41,-55.176,-690.918,125.488,-30.273,943.307,282.29132200029585
553,1685766390.41,-86.426,-492.676,28.809,-12.695,943.309,282.8637956532687
554,1685766390.41,-60.547,-384.277,130.371,-8.301,943.311,282.02240346483103
555,1685766390.42,-28.32,-715.82,3.418,-3.418,943.313,267.78432446261854
556,1685766390.42,3.906,-525.391,-17.578,-10.742,943.315,275.1688018506175
557,1685766390.42,19.531,-587.891,66.406,-24.902,943.317,270.1833133583068
558,1685766390.42,-29.785,-691.895,-37.109,-35.645,943.321,258.6230841659486
559,1685766390.43,-85.938,-979.98,-33.203,-15.137,943.325,252.9658667348895
560,1685766390.43,-38.086,-948.73,-26.367,-1.465,943.329,254.4949323383032
561,1685766390.44,25.391,-553.223,76.172,-12.207,943.333,253.62778383220822
562,1685766390.44,-1.953,-322.266,101.074,-34.668,943.336,263.5903893957702
563,1685766390.44,-62.988,-550.293,33.203,-23.926,943.34,236.5644491783922
564,1685766390.45,-53.711,-934.082,-226.562,2.93,943.344,242.60473809521932
565,1685766390.45,20.508,-1000.0,-125.488,-1.953,943.346,249.20049669526563
566,1685766390.45,27.832,-530.273,202.637,-35.156,943.35,245.0852704911995
567,1685766390.46,-42.48,-509.766,48.34,-38.574,943.354,244.344040379534
568,1685766390.46,-48.34,-750.0,31.738,-15.137,943.358,244.6130736002044
569,1685766390.47,21.973,-400.879,129.883,-20.996,943.361,238.70337230733108
570,1685766390.47,28.809,-563.477,-7.324,-36.621,943.365,247.56291332958597
571,1685766390.47,-38.574,-930.176,-119.141,-39.062,943.369,241.4796181986567
572,1685766390.48,-73.242,-1000.0,-108.398,-9.766,943.373,227.13148347441734
573,1685766390.48,-10.254,-647.461,197.754,2.93,943.377,243.5606439699651
574,1685766390.48,39.062,-185.547,157.715,-17.09,943.381,233.92696250186222
575,1685766390.49,-5.859,-520.508,-75.684,-32.715,943.385,236.75398099294745
576,1685766390.49,-62.5,-730.469,61.035,-12.207,943.389,239.44262417752716
577,1685766390.5,-18.066,-390.625,134.766,8.789,943.391,217.82630648415966
578,1685766390.5,46.875,-220.703,62.5,-3.418,943.395,228.4665632993793
579,1685766390.5,10.254,-560.547,-74.219,-25.879,943.399,233.6728340729986
580,1685766390.51,-62.5,-756.348,48.828,-9.766,943.403,233.46219156479296
581,1685766390.51,-50.781,-513.672,128.418,11.719,943.407,232.28729982670308
582,1685766390.52,11.719,-641.602,-44.434,-14.16,943.411,229.18913793773308
583,1685766390.52,9.766,-940.918,-132.324,-41.992,943.414,230.67772079820634
584,1685766390.52,-54.688,-861.328,25.391,-38.574,943.418,237.1876971652944
585,1685766390.53,-72.266,-724.121,150.879,-19.531,943.422,226.26702034209632
586,1685766390.53,7.324,-741.699,58.105,-12.695,943.426,234.62009100216872
587,1685766390.53,38.086,-885.742,-111.328,-25.879,943.43,229.26757995268403
588,1685766390.54,-22.461,-948.242,-0.488,-34.18,943.434,234.19786827348463
589,1685766390.54,-66.406,-596.191,171.875,-8.789,943.44,228.59273828600794
590,1685766390.54,-15.137,-472.656,69.824,2.441,943.444,230.76336513678518
591,1685766390.55,34.668,-861.816,-152.344,-18.066,943.448,240.53636950136533
592,1685766390.55,-10.742,-663.574,34.668,-45.41,943.451,218.56256703532205
593,1685766390.56,-71.777,-444.824,139.648,-33.691,943.455,244.86171514130967
594,1685766390.56,-38.086,-804.688,-104.492,-5.859,943.459,227.67262468298637
595,1685766390.56,25.879,-975.586,-162.598,-15.137,943.463,239.71766759273908
596,1685766390.57,6.348,-601.562,116.211,-40.039,943.467,240.90672313318262
597,1685766390.57,-61.523,-460.938,107.422,-30.273,943.471,245.48895525817116
598,1685766390.58,-55.176,-642.09,7.812,-2.93,943.475,232.2680851065543
599,1685766390.58,20.02,-604.004,89.844,-3.418,943.479,246.0472000566278
600,1685766390.58,33.203,-577.148,77.148,-33.203,943.483,249.3443079331288
601,1685766390.59,-37.598,-557.617,65.918,-41.016,943.495,240.22362559331086
602,1685766390.59,-62.5,-687.5,5.859,-7.812,943.499,237.85129346856712
603,1685766390.59,2.441,-606.934,113.281,-7.812,943.503,242.32474425309917
604,1685766390.6,31.25,-303.711,99.121,-27.344,943.507,244.114966774239
605,1685766390.6,-24.414,-418.945,23.926,-41.504,943.511,252.46948074813562
606,1685766390.61,-73.242,-886.23,-160.156,-20.996,943.514,246.9998224288196
607,1685766390.61,-33.203,-1000.0,-81.055,-7.812,943.518,242.22056680784263
608,1685766390.61,27.344,-469.238,232.91,-34.668,943.522,256.8641930304535
609,1685766390.62,-4.395,-437.5,25.879,-51.758,943.526,242.20051563692587
610,1685766390.62,-79.59,-843.262,-125.488,-40.039,943.53,244.64134101256812
611,1685766390.62,-51.27,-700.195,52.246,-26.855,943.534,254.89672114968582
612,1685766390.63,24.902,-613.281,92.285,-31.738,943.538,244.10828232330473
613,1685766390.64,9.277,-572.754,33.691,-49.316,943.542,266.1229232241954
614,1685766390.65,-62.012,-887.207,-178.223,-39.062,943.546,255.33499247579095
615,1685766390.65,-69.824,-858.887,40.527,-12.207,943.55,257.6680776423775
616,1685766390.66,6.348,-304.688,201.66,-16.113,943.554,259.4618485008717
617,1685766390.66,27.832,-338.379,-53.223,-35.645,943.558,272.14563520419483
618,1685766390.66,-40.527,-914.551,-236.816,-40.527,943.562,262.0105337990424
619,1685766390.67,-74.219,-945.312,93.262,-29.297,943.565,256.3543299608873
620,1685766390.67,-8.301,-436.523,199.707,-28.32,943.569,262.64489804571167
621,1685766390.68,40.039,-414.551,-57.129,-41.992,943.573,258.3170453260429
622,1685766390.68,-8.301,-741.699,-7.812,-53.711,943.577,264.25957603280324
623,1685766390.68,-59.082,-589.844,138.672,-22.461,943.581,270.79272112296934
624,1685766390.69,-21.973,-409.668,99.121,-9.277,943.585,271.97550845641786
625,1685766390.69,22.461,-487.305,18.066,-39.062,943.586,260.1839690354934
626,1685766390.69,-1.465,-581.055,48.828,-43.945,943.59,272.82933581411567
627,1685766390.7,-55.664,-501.953,86.426,-24.414,943.594,265.35540119084254
628,1685766390.7,-32.715,-470.703,65.43,-5.859,943.598,277.4026285703019
629,1685766390.71,30.273,-686.523,-36.133,-13.672,943.602,257.9364335416891
630,1685766390.71,28.32,-910.156,-23.926,-30.762,943.606,273.803465923077
631,1685766390.71,-28.32,-912.109,87.402,-23.926,943.61,270.01207474119565
632,1685766390.72,-42.48,-602.051,124.512,2.441,943.613,274.31874495686014
633,1685766390.72,25.879,-822.266,-152.832,8.789,943.617,273.31992692251555
634,1685766390.72,47.363,-807.617,6.348,-10.254,943.621,279.61654376178853
635,1685766390.73,-17.578,-514.648,177.734,-27.832,943.625,275.4539556537087
636,1685766390.73,-55.664,-841.309,-17.09,1.465,943.629,279.2179202804964
637,1685766390.74,1.465,-977.051,-122.07,13.184,943.631,281.0691479604593
638,1685766390.74,44.434,-640.625,86.426,-20.996,943.635,269.26802930381825
639,1685766390.74,3.906,-358.398,139.648,-44.922,943.639,281.27142221177485
640,1685766390.75,-51.27,-571.289,-10.254,-28.809,943.643,285.2061739742127
641,1685766390.75,-10.254,-719.727,48.828,-3.418,943.646,279.1923994761595
642,1685766390.76,54.688,-692.383,49.316,-11.23,943.65,278.4356180655506
643,1685766390.76,28.32,-764.648,43.945,-33.691,943.654,274.05880731629077
644,1685766390.76,-52.246,-888.184,-26.855,-20.996,943.658,280.39892534273463
645,1685766390.77,-52.734,-1000.0,-135.254,2.441,943.662,278.82948839173366
646,1685766390.77,22.461,-586.914,176.758,-12.695,943.666,287.08176997899966
647,1685766390.77,27.832,-230.469,152.832,-35.645,943.67,277.6425634152849
648,1685766390.78,-45.898,-624.512,-88.867,-32.715,943.674,282.90546019106495
649,1685766390.78,-64.453,-691.406,80.566,-15.137,943.676,269.96110966618016
650,1685766390.78,9.277,-293.457,147.949,-19.531,943.68,275.6713071551864
651,1685766390.79,39.551,-229.98,1.953,-33.203,943.684,284.7204320122402
652,1685766390.79,-23.438,-661.621,-130.859,-41.992,943.688,287.55462755107914
653,1685766390.8,-78.613,-739.258,49.805,-21.484,943.691,285.8700718279958
654,1685766390.8,-30.273,-646.973,106.934,-8.789,943.695,286.3474998901322
655,1685766390.8,16.113,-708.496,57.617,-35.645,943.699,286.40581237414756
656,1685766390.81,-28.32,-887.207,-86.914,-52.246,943.703,284.50569788004617
657,1685766390.81,-85.449,-847.656,23.926,-29.297,943.707,296.1801856629886
658,1685766390.82,-50.781,-562.5,155.762,-13.184,943.711,294.21655262575956
659,1685766390.82,19.043,-627.441,54.199,-31.25,943.715,288.18792126960074
660,1685766390.82,1.953,-920.41,-181.152,-44.434,943.719,289.74803626301264
661,1685766390.84,-66.895,-848.145,8.789,-42.48,943.736,293.7567523285072
662,1685766390.84,-57.617,-420.898,205.078,-27.344,943.74,290.09672232946104
663,1685766390.85,10.254,-359.375,52.246,-33.203,943.744,302.0283676231287
664,1685766390.85,13.184,-538.574,41.992,-67.871,943.748,281.00740825008194
665,1685766390.86,-53.223,-518.555,42.48,-68.848,943.752,293.9284704915579
666,1685766390.86,-82.031,-714.355,-44.434,-33.203,943.756,289.65906952064626
667,1685766390.86,-23.926,-848.633,-29.785,-27.344,943.76,288.91070739056113
668,1685766390.87,10.254,-912.109,-106.445,-33.203,943.764,291.4137415052664
669,1685766390.87,-37.109,-633.789,65.918,-40.527,943.767,298.64001783401534
670,1685766390.87,-18.555,-668.457,32.715,-37.598,943.769,283.6444007636103
671,1685766390.88,-84.473,-380.859,120.605,-30.273,943.771,294.7686644114994
672,1685766390.88,-83.984,-610.84,47.852,-26.367,943.773,300.8635812389468
673,1685766390.88,-27.832,-518.555,-20.02,-8.789,943.775,288.80525883724664
674,1685766390.88,-59.57,-686.523,36.133,-5.859,943.777,297.7656117090944
675,1685766390.88,30.762,-592.285,2.441,-15.625,943.779,299.7187657015572
676,1685766390.88,11.23,-621.582,144.531,-18.555,943.781,289.4258329719268
677,1685766390.89,8.789,-412.598,77.148,-43.945,943.785,301.0050866587579
678,1685766390.89,-65.918,-800.781,-103.027,-36.133,943.789,289.2880823413904
679,1685766390.9,-66.895,-1000.0,-58.105,-10.742,943.793,297.4655015997364
680,1685766390.9,5.371,-625.488,137.695,-25.879,943.797,306.71357207709406
681,1685766390.9,16.602,-290.039,133.789,-44.434,943.801,302.3569607576928
682,1685766390.91,-44.434,-430.664,-8.301,-46.875,943.804,303.22855584829637
683,1685766390.91,-72.266,-899.902,-200.195,-19.531,943.808,296.7304997411914
684,1685766390.91,-19.531,-887.207,-0.488,-13.672,943.812,312.2962216462684
685,1685766390.92,14.648,-305.664,214.355,-35.645,943.826,287.5687836192034
686,1685766390.92,-41.504,-354.492,20.996,-45.41,943.83,298.97959013336407
687,1685766390.92,-98.633,-947.266,-133.301,-31.25,943.834,304.6496836965476
688,1685766390.93,-45.41,-717.773,117.188,-13.672,943.838,302.68422399687347
689,1685766390.93,23.926,-230.469,170.41,-26.367,943.842,307.13825192806803
690,1685766390.94,-7.812,-591.309,-131.348,-40.039,943.846,297.52749952510504
691,1685766390.94,-81.543,-1000.0,-175.781,-22.949,943.85,302.7878825777768
692,1685766390.94,-61.523,-739.746,191.406,-10.742,943.854,301.3046821381285
693,1685766390.95,17.09,-205.078,194.336,-21.484,943.858,306.332047166172
694,1685766390.95,15.137,-351.562,-82.031,-38.574,943.861,308.5664111870854
695,1685766390.95,-52.734,-649.902,-29.785,-34.18,943.865,308.50821823275714
696,1685766390.96,-68.359,-482.422,137.207,-13.184,943.869,310.32562281317064
697,1685766390.96,-6.348,-282.227,109.375,-26.855,943.871,318.1935983700492
698,1685766390.96,22.461,-462.891,-41.992,-47.852,943.875,309.9013621520867
699,1685766390.97,-38.574,-661.621,19.531,-49.316,943.879,320.54670800897185
700,1685766390.97,-80.566,-520.996,112.305,-20.02,943.882,312.16106510691543
701,1685766390.98,-19.043,-444.336,49.805,-3.906,943.886,300.97156234919737
702,1685766390.98,27.344,-722.656,-84.473,-19.043,943.89,322.1759608221944
703,1685766390.98,-21.484,-990.723,-25.391,-40.527,943.894,317.33801993802564
704,1685766390.99,-83.496,-864.258,111.328,-24.414,943.898,321.27558995165754
705,1685766390.99,-42.969,-527.832,118.652,-0.977,943.902,331.557272804873
706,1685766391.0,21.484,-783.691,-167.969,-9.766,943.906,318.4970640671921
707,1685766391.0,-5.859,-930.176,-52.246,-31.738,943.91,319.2713715415728
708,1685766391.0,-82.52,-814.941,159.668,-26.855,943.914,315.91229009948705
709,1685766391.02,-63.965,-670.898,89.844,3.418,943.916,324.7660349524135
710,1685766391.02,18.555,-825.195,-112.793,1.953,943.92,332.1342845923341
711,1685766391.03,9.277,-683.105,17.578,-32.715,943.924,326.46598754471404
712,1685766391.03,-53.223,-382.812,148.438,-41.992,943.928,327.5878410012272
713,1685766391.04,-62.5,-536.133,27.832,-9.277,943.932,335.69859680535365
714,1685766391.04,2.93,-853.027,-3.906,-1.465,943.935,332.6426438783554
715,1685766391.04,27.832,-670.898,103.027,-28.32,943.939,337.4651764872074
716,1685766391.05,-32.227,-511.719,110.84,-36.621,943.943,336.083300005355
717,1685766391.05,-76.172,-860.84,-40.527,-4.395,943.947,335.3576785740444
718,1685766391.06,-24.902,-984.375,-139.16,8.301,943.951,335.79861243154403
719,1685766391.06,20.508,-468.262,135.742,-27.344,943.955,333.2636658593141
720,1685766391.06,-17.578,-285.645,99.121,-48.34,943.959,334.19618346766663
721,1685766391.06,-73.73,-715.82,-78.613,-18.066,943.961,338.0450952992228
722,1685766391.07,-46.387,-636.719,91.309,9.766,943.965,331.98159651119323
723,1685766391.07,24.902,-285.645,121.582,-11.719,943.969,332.50858584713137
724,1685766391.08,7.324,-336.426,-7.324,-42.48,943.973,325.59659191521774
725,1685766391.08,-70.801,-770.02,-102.539,-34.668,943.977,336.2599975631646
726,1685766391.08,-61.523,-955.566,6.836,-11.719,943.981,339.1231118310215
727,1685766391.09,19.531,-737.305,115.723,-21.973,943.985,321.25929269177925
728,1685766391.09,20.508,-515.137,89.844,-45.41,943.988,322.36787975589027
729,1685766391.1,-56.641,-836.426,-193.848,-47.852,943.992,335.97124918001145
730,1685766391.1,-68.848,-893.066,-28.32,-17.578,943.996,340.1540225974446
731,1685766391.1,11.23,-641.113,138.184,-2.441,944.0,335.0386156289343
732,1685766391.11,47.363,-710.449,17.578,-25.391,944.004,346.7241496885387
733,1685766391.11,-24.902,-953.613,-170.41,-48.34,944.006,317.8421218916275
734,1685766391.11,-96.191,-854.98,56.641,-42.969,944.01,330.6007751938362
735,1685766391.12,-37.109,-406.738,209.473,-23.926,944.014,321.7525055862671
736,1685766391.12,25.879,-395.02,20.02,-28.32,944.018,340.26327952149524
737,1685766391.13,-17.09,-682.129,18.066,-59.082,944.021,334.35583518772245
738,1685766391.13,-69.824,-892.578,-15.137,-41.504,944.025,330.8282413962357
739,1685766391.13,-40.039,-811.523,58.594,-16.113,944.029,326.75433577536506
740,1685766391.14,23.926,-575.684,36.133,-29.297,944.033,324.96057359114604
741,1685766391.14,10.254,-887.207,-171.875,-44.434,944.037,336.11785032308734
742,1685766391.14,-57.129,-740.234,75.195,-36.621,944.041,319.42186922568374
743,1685766391.15,-61.523,-430.176,138.184,-17.578,944.045,340.24160421467207
744,1685766391.15,6.348,-481.934,16.113,-26.367,944.049,328.97537740450076
745,1685766391.16,21.484,-555.176,11.719,-48.828,944.054,329.4601131009388
746,1685766391.16,-40.527,-746.094,-35.156,-49.316,944.058,326.89245719639706
747,1685766391.16,-79.59,-625.488,54.688,-27.344,944.062,325.9148529944229
748,1685766391.17,-18.066,-616.211,30.762,-17.09,944.066,317.30267509124036
749,1685766391.17,22.949,-676.27,86.426,-31.25,944.07,319.6999868434157
750,1685766391.18,-35.645,-797.363,-6.836,-39.062,944.074,314.70118174826115
751,1685766391.18,-86.914,-966.797,-23.926,-23.438,944.078,325.6420202896706
752,1685766391.18,-34.18,-980.469,-20.996,-9.277,944.082,325.1002884794144
753,1685766391.19,24.902,-770.996,57.129,-25.391,944.086,329.1758766403473
754,1685766391.19,-11.719,-369.141,160.645,-46.387,944.09,320.4999014977748
755,1685766391.2,-72.754,-556.641,-19.531,-31.25,944.094,321.5913292316396
756,1685766391.2,-54.199,-921.875,-170.898,-5.371,944.097,323.0845522940812
757,1685766391.22,16.602,-533.691,77.637,-8.789,944.111,320.1398234889303
758,1685766391.22,22.461,-208.008,136.23,-29.297,944.115,308.79974831156323
759,1685766391.22,-51.27,-507.812,-38.086,-31.738,944.119,316.0275694823254
760,1685766391.23,-63.477,-910.645,-6.836,-2.93,944.123,301.3891203728161
761,1685766391.23,16.602,-698.73,139.16,-4.883,944.127,297.0579311036424
762,1685766391.24,31.25,-628.418,56.641,-29.297,944.131,302.1657328868543
763,1685766391.24,-35.156,-929.199,-74.219,-39.062,944.135,305.1374489662283
764,1685766391.24,-73.242,-1000.0,-120.117,-6.348,944.139,304.23485448631055
765,1685766391.24,-32.715,-490.234,102.051,-8.789,944.141,302.3215749942909
766,1685766391.25,-18.555,-706.055,184.57,11.719,944.143,302.38828409649176
767,1685766391.25,32.715,-298.34,65.918,-23.926,944.145,293.84792454686186
768,1685766391.25,31.738,-284.668,184.082,-18.066,944.147,297.3697382479446
769,1685766391.25,-2.441,-576.66,-73.242,-45.898,944.149,298.1658491964343
770,1685766391.25,-16.113,-553.223,-73.73,-45.41,944.15,295.6584030180432
771,1685766391.26,-76.66,-725.098,-0.488,-42.48,944.153,289.2825919477229
772,1685766391.26,-78.125,-772.949,12.207,-26.855,944.154,293.2557453100475
773,1685766391.26,-58.594,-517.578,124.023,-10.742,944.157,305.9082585416214
774,1685766391.26,17.09,-681.641,-27.832,-7.812,944.161,299.1565616874923
775,1685766391.27,11.23,-935.059,-128.906,-32.715,944.164,294.35179615327183
776,1685766391.27,-62.988,-877.441,42.969,-41.016,944.168,300.06577930465477
777,1685766391.28,-83.008,-562.5,147.949,-19.531,944.172,298.7077092025705
778,1685766391.28,-7.324,-417.969,75.195,-11.719,944.176,300.39197920808084
779,1685766391.28,33.203,-816.895,-285.645,-23.926,944.18,306.2325764926501
780,1685766391.29,-31.738,-1000.0,-220.703,-34.18,944.184,312.14377703581727
781,1685766391.29,-80.078,-726.562,232.91,-13.184,944.201,315.3764799767238
782,1685766391.29,-14.648,-460.449,132.812,3.906,944.204,303.3881431623106
783,1685766391.3,32.227,-681.641,4.395,-29.297,944.208,311.3928245648912
784,1685766391.3,-11.719,-552.246,88.379,-49.316,944.212,308.074597199371
785,1685766391.31,-63.965,-470.215,80.566,-34.668,944.216,315.95878440311304
786,1685766391.31,-26.367,-794.434,-75.684,-19.531,944.22,304.30550865059644
787,1685766391.31,38.086,-967.773,-147.461,-23.438,944.224,321.8357608324047
788,1685766391.32,18.555,-578.613,103.516,-48.828,944.228,316.05914818286186
789,1685766391.32,-47.852,-519.531,88.867,-40.039,944.232,322.80406665270243
790,1685766391.32,-46.875,-869.141,-30.273,-3.418,944.236,330.15261975378945
791,1685766391.33,17.09,-737.305,81.543,-13.672,944.24,323.4947981263145
792,1685766391.33,22.949,-354.004,130.859,-41.504,944.244,333.82833652506514
793,1685766391.34,-39.551,-430.664,14.648,-43.945,944.245,317.7495544197772
794,1685766391.34,-59.082,-755.371,-62.012,-16.113,944.249,344.3830431965662
795,1685766391.34,13.672,-607.91,79.59,-4.395,944.253,350.23768425111376
796,1685766391.35,44.922,-297.363,113.77,-24.902,944.257,346.9997575035967
797,1685766391.35,-10.254,-446.289,-19.043,-31.25,944.261,345.1108452743255
798,1685766391.36,-57.617,-890.625,-121.582,-0.977,944.265,345.0967959269184
799,1685766391.36,-8.301,-936.035,42.969,8.301,944.269,354.8561757456417
800,1685766391.36,44.434,-488.77,145.508,-16.602,944.273,350.84427669443676
801,1685766391.37,6.348,-475.586,-5.371,-40.039,944.277,369.0305919826403
802,1685766391.37,-57.617,-894.043,-205.078,-21.484,944.28,356.90385338255555
803,1685766391.37,-29.785,-908.691,30.762,12.695,944.284,353.69355863535634
804,1685766391.38,40.527,-814.941,157.227,5.859,944.288,363.8200029269768
805,1685766391.4,36.133,-875.0,-34.18,-22.461,944.321,360.01882207756233
806,1685766391.4,-31.738,-998.047,-180.664,-13.672,944.325,355.7211122666445
807,1685766391.4,-35.156,-834.961,140.137,11.23,944.329,358.3563995440093
808,1685766391.41,44.922,-389.16,209.961,6.348,944.333,363.868899398342
809,1685766391.41,62.012,-388.184,-36.133,-6.348,944.336,361.32880055241253
810,1685766391.42,-7.812,-916.016,-67.383,-19.043,944.34,358.3828069830496
811,1685766391.42,-45.41,-893.066,122.559,2.93,944.344,365.40261047305563
812,1685766391.42,15.137,-396.973,161.621,17.09,944.348,361.9853571539493
813,1685766391.43,55.176,-500.0,-76.172,-0.488,944.352,364.19398249983266
814,1685766391.43,0.0,-899.414,-80.566,-12.695,944.356,369.1724415889973
815,1685766391.43,-48.34,-718.75,152.344,3.418,944.36,364.72500558522387
816,1685766391.44,8.301,-440.918,96.191,24.902,944.364,372.5333161337523
817,1685766391.44,71.777,-525.879,-20.02,9.766,944.336,376.6454243531998
818,1685766391.44,36.621,-714.844,-2.441,-6.836,944.34,367.54465138250595
819,1685766391.45,-34.668,-866.211,-35.156,7.324,944.344,368.12980556469915
820,1685766391.45,-16.602,-636.23,62.012,25.391,944.348,363.12417855544203
821,1685766391.46,56.641,-644.531,-24.414,15.137,944.351,364.9697437317609
822,1685766391.46,47.852,-986.816,-35.645,-9.277,944.355,363.65760467256655
823,1685766391.46,-18.555,-903.809,111.328,-4.883,944.359,362.37140785271396
824,1685766391.47,-15.137,-608.398,102.051,37.109,944.363,361.54737003151985
825,1685766391.47,35.156,-840.82,-82.52,28.32,944.367,357.2628937251288
826,1685766391.47,30.762,-755.371,78.613,-18.066,944.371,361.1381336489732
827,1685766391.48,-35.645,-584.961,91.797,-32.227,944.375,356.9128138129646
828,1685766391.48,-65.918,-946.777,-67.383,5.859,944.379,360.1286556269824
829,1685766391.48,2.93,-983.887,-118.164,31.738,944.382,346.0605388940216
830,1685766391.49,39.551,-591.309,89.355,-7.324,944.385,358.1987920812417
831,1685766391.49,-12.207,-372.559,143.066,-33.691,944.389,342.20131498744604
832,1685766391.5,-75.195,-610.84,-23.926,-8.789,944.393,340.0068349814554
833,1685766391.5,-29.785,-958.496,-201.66,22.949,944.397,344.2070134203611
834,1685766391.5,43.945,-924.805,11.719,12.207,944.401,341.66571574149873
835,1685766391.51,19.043,-791.504,176.27,-20.02,944.405,343.7129125293893
836,1685766391.51,-40.527,-892.09,8.301,-9.277,944.409,337.3721004906986
837,1685766391.52,-29.297,-970.215,-99.609,30.762,944.413,337.51157767184174
838,1685766391.52,45.898,-503.906,135.254,17.09,944.417,338.4380179387885
839,1685766391.52,54.688,-160.645,123.047,-13.184,944.421,340.3594478469012
840,1685766391.53,-15.137,-527.832,-76.66,-8.301,944.424,333.40064583691606
841,1685766391.53,-27.344,-666.016,58.594,21.973,944.427,340.5484459535628
842,1685766391.53,47.363,-387.207,102.051,29.785,944.431,330.72970887299573
843,1685766391.54,68.848,-304.199,38.574,2.93,944.435,334.871512068505
844,1685766391.54,8.301,-638.672,-86.426,-12.207,944.438,328.90621903549294
845,1685766391.55,-28.809,-694.824,23.926,14.648,944.442,333.03474916056274
846,1685766391.55,36.133,-692.383,6.836,31.25,944.446,320.15577848886153
847,1685766391.55,95.703,-850.586,-28.32,20.508,944.45,323.7700746199424
848,1685766391.56,43.457,-956.055,-156.25,9.277,944.454,327.5090797468515
849,1685766391.56,-26.367,-1000.0,-89.844,36.621,944.458,315.66537273879425
850,1685766391.56,19.043,-496.582,246.582,66.406,944.462,318.1978798068225
851,1685766391.57,91.797,-332.52,70.312,48.828,944.466,304.28685283955133
852,1685766391.57,70.312,-855.469,-251.953,31.25,944.47,299.80281820306203
853,1685766391.58,-0.488,-757.324,12.207,40.039,944.471,306.8299602218702
854,1685766391.58,7.324,-378.906,158.203,61.035,944.475,293.41026890731393
855,1685766391.58,84.473,-409.18,1.953,57.617,944.479,296.73271422254555
856,1685766391.59,86.914,-680.664,25.391,25.391,944.483,300.6221749293709
857,1685766391.59,18.555,-712.402,41.016,20.508,944.487,297.3771294484576
858,1685766391.6,-6.348,-857.422,29.297,54.199,944.491,294.307514824758
859,1685766391.6,60.547,-905.273,25.879,63.965,944.495,282.98495991144364
860,1685766391.6,94.238,-935.547,-103.516,51.27,944.498,290.9893080190532
861,1685766391.61,42.48,-691.895,85.449,33.691,944.502,273.494771067166
862,1685766391.61,0.488,-626.465,96.68,52.734,944.506,277.32610842001674
863,1685766391.61,46.387,-837.402,18.066,64.453,944.51,295.0763685454204
864,1685766391.62,95.703,-704.59,72.754,40.039,944.514,272.08953727309023
865,1685766391.62,57.617,-432.617,97.168,27.344,944.516,265.5593506616543
866,1685766391.62,-9.766,-456.055,74.707,42.48,944.52,270.9805955977201
867,1685766391.63,18.555,-687.988,16.113,65.918,944.524,267.6243418428058
868,1685766391.63,94.238,-497.559,112.793,55.664,944.528,265.46642403511987
869,1685766391.64,83.008,-321.289,74.707,36.621,944.532,261.0111813970667
870,1685766391.64,8.301,-765.625,-93.75,38.086,944.536,269.4586148368612
871,1685766391.64,3.418,-1000.0,-125.977,61.035,944.54,266.78021314688095
872,1685766391.65,82.52,-770.02,62.988,64.453,944.544,254.36898312167992
873,1685766391.65,97.168,-363.77,159.18,47.363,944.547,263.27133914743615
874,1685766391.66,20.508,-450.195,7.324,36.133,944.551,259.68930031344973
875,1685766391.66,-11.23,-875.977,-120.605,50.781,944.555,265.71710513771126
876,1685766391.66,52.734,-940.918,-8.301,49.805,944.559,255.04510446720136
877,1685766391.67,96.191,-711.426,108.887,32.227,944.564,264.5442646902174
878,1685766391.67,54.688,-638.672,20.02,26.367,944.568,264.05582722068783
879,1685766391.67,-5.859,-947.266,-161.621,53.223,944.572,262.0531751447045
880,1685766391.68,36.133,-783.203,148.926,75.684,944.576,252.57033357012781
881,1685766391.68,102.539,-370.117,179.688,61.035,944.58,268.54740670189557
882,1685766391.69,66.406,-673.34,-125.0,35.156,944.584,267.72147083377143
883,1685766391.69,-5.371,-992.188,-184.57,43.945,944.588,267.5696747966206
884,1685766391.69,11.719,-604.004,148.926,67.871,944.592,260.0935543195026
885,1685766391.7,82.031,-256.836,170.898,56.152,944.596,273.8022219616305
886,1685766391.7,71.289,-518.555,-92.773,41.016,944.6,273.27492253121295
887,1685766391.7,-1.465,-771.484,-44.434,34.668,944.604,276.1488535806175
888,1685766391.71,-7.812,-669.922,98.633,52.734,944.607,271.15740366118126
889,1685766391.72,66.406,-399.902,92.285,64.453,944.621,290.97826264239404
890,1685766391.73,88.379,-511.23,-44.434,45.898,944.625,282.41983433432995
891,1685766391.73,23.438,-852.051,-4.883,25.391,944.629,276.5422087401149
892,1685766391.74,-18.555,-836.914,98.145,43.945,944.633,288.10727568293237
893,1685766391.74,41.992,-496.582,134.277,56.641,944.636,297.39643364739914
894,1685766391.74,91.309,-726.074,-160.156,43.457,944.64,302.64743038238004
895,1685766391.75,42.48,-1000.0,-160.645,28.32,944.644,297.4645747160501
896,1685766391.75,-8.789,-702.148,205.078,45.898,944.648,305.5703515485826
897,1685766391.76,37.109,-468.75,121.582,63.477,944.652,304.1228514866137
898,1685766391.76,95.215,-673.828,-33.203,48.828,944.656,295.84861813141646
899,1685766391.76,64.453,-679.688,1.465,24.414,944.66,311.0588447494841
900,1685766391.77,-12.695,-846.68,-22.461,37.109,944.664,312.1008052730169
901,1685766391.77,-2.441,-773.438,55.664,66.895,944.666,306.15584777803144
902,1685766391.77,72.266,-832.031,-113.77,54.688,944.67,299.767885265574
903,1685766391.78,72.754,-655.273,36.133,25.879,944.674,302.1332222874647
904,1685766391.78,0.488,-446.289,133.789,20.996,944.678,313.1861822715846
905,1685766391.79,-13.672,-679.199,-25.879,54.688,944.682,305.2717581796448
906,1685766391.79,65.918,-846.191,8.301,63.965,944.686,310.6904596531651
907,1685766391.79,83.984,-859.863,54.688,30.762,944.689,312.40064852206496
908,1685766391.8,10.254,-844.727,82.031,13.184,944.693,301.15369000768476
909,1685766391.8,-31.738,-798.828,15.625,38.574,944.697,312.127807782369
910,1685766391.8,33.691,-967.773,-129.883,63.965,944.701,301.18891214341994
911,1685766391.81,91.309,-688.965,168.945,51.758,944.705,313.8079231107688
912,1685766391.81,48.828,-401.855,152.344,30.762,944.709,317.2644258992104
913,1685766391.82,-6.348,-690.43,-48.34,42.48,944.711,308.75424186000816
914,1685766391.82,30.762,-665.039,81.055,55.664,944.715,313.8549076699813
915,1685766391.82,101.074,-382.324,107.422,45.41,944.719,320.0001264486165
916,1685766391.83,83.008,-394.043,40.527,25.391,944.723,306.50099906724324
917,1685766391.83,1.953,-772.461,-98.633,41.016,944.727,314.4920837622848
918,1685766391.84,7.812,-1000.0,-25.391,71.777,944.731,308.8483455683997
919,1685766391.84,79.102,-762.207,132.324,56.152,944.735,322.3469642825774
920,1685766391.84,88.379,-562.988,47.852,32.715,944.738,316.3220976680773
921,1685766391.85,21.484,-935.059,-244.141,29.297,944.742,320.1872908312994
922,1685766391.85,-11.719,-982.91,-75.684,55.176,944.746,320.76659368561945
923,1685766391.85,60.059,-574.219,222.656,59.082,944.75,315.3080996863812
924,1685766391.86,99.121,-682.129,22.949,32.715,944.754,321.1555677342364
925,1685766391.86,44.922,-958.496,-184.082,28.32,944.756,316.01846823565904
926,1685766391.86,-7.812,-745.605,69.336,48.828,944.76,313.7471845587594
927,1685766391.87,42.48,-430.176,155.273,56.152,944.764,316.10309284859625
928,1685766391.87,105.957,-442.383,25.391,44.922,944.768,313.57469030184285
929,1685766391.88,70.801,-757.812,-10.742,26.367,944.772,318.65406526270107
930,1685766391.88,-0.977,-965.82,6.836,39.062,944.776,318.2110780761256
931,1685766391.88,22.461,-852.051,121.094,61.035,944.779,312.4690139609596
932,1685766391.89,91.309,-619.141,42.48,51.27,944.783,311.72756321785965
933,1685766391.89,70.801,-889.16,-167.48,37.109,944.787,314.7062643134998
934,1685766391.9,1.465,-760.254,62.5,37.109,944.791,310.69537547134365
935,1685766391.9,-0.977,-594.238,129.883,60.059,944.795,321.7408096142682
936,1685766391.9,69.824,-819.336,14.16,51.758,944.799,309.02948624568626
937,1685766391.9,83.496,-781.738,51.27,19.043,944.816,323.00513148103573
938,1685766391.91,20.02,-542.48,111.816,18.555,944.819,317.71978778273456
939,1685766391.91,-15.625,-535.156,75.684,51.758,944.823,310.9797997852765
940,1685766391.92,38.574,-699.707,13.184,57.617,944.827,325.1268290804565
941,1685766391.92,80.078,-610.84,62.012,32.227,944.831,310.0629265515435
942,1685766391.92,26.855,-791.992,-57.129,17.09,944.835,321.8851399599083
943,1685766391.93,-35.156,-996.094,-14.16,36.133,944.839,313.29534014634675
944,1685766391.93,10.254,-992.676,-16.113,52.734,944.843,309.0621091283392
945,1685766391.94,78.613,-789.062,60.059,34.668,944.847,306.27231244918926
946,1685766391.94,45.898,-411.621,176.27,9.277,944.851,308.71213165069213
947,1685766391.94,-23.438,-588.379,31.738,21.973,944.855,307.4898188014514
948,1685766391.95,-1.465,-920.41,-137.207,59.57,944.858,303.8567102574789
949,1685766391.98,73.242,-635.254,33.203,48.34,944.876,300.1242606785622
950,1685766391.98,57.129,-562.012,71.777,5.859,944.88,300.9587504830448
951,1685766391.99,-30.762,-733.398,-0.977,-6.836,944.884,295.700479364091
952,1685766391.99,-35.156,-904.785,-123.535,27.344,944.888,296.5191086903045
953,1685766392.0,20.508,-525.391,187.5,48.34,944.892,293.6464381832198
954,1685766392.0,65.918,-621.582,58.594,39.062,944.892,309.50687153025
955,1685766392.0,90.82,-285.645,84.473,34.18,944.896,290.40073397113736
956,1685766392.0,86.426,-653.809,65.43,15.625,944.896,301.43225896545516
957,1685766392.0,63.965,-593.75,-75.684,20.508,944.899,294.8695883096143
958,1685766392.0,14.16,-991.211,-78.613,13.184,944.9,300.09019871895066
959,1685766392.01,-7.812,-917.48,12.695,30.762,944.903,294.9993842989523
960,1685766392.01,-15.137,-811.523,71.777,39.551,944.904,301.8171181706492
961,1685766392.01,51.27,-401.855,156.25,51.27,944.908,293.3516757966872
962,1685766392.01,3.906,-804.199,139.648,50.781,944.907,302.6750527320397
963,1685766392.02,89.844,-221.191,112.793,32.715,944.912,281.42461420309917
964,1685766392.02,77.148,-728.516,39.062,37.109,944.911,284.32908270316153
965,1685766392.02,34.668,-591.797,-125.488,11.719,944.915,291.95949986345045
966,1685766392.02,76.66,-887.695,-60.547,9.766,944.915,290.7117092826017
967,1685766392.02,7.812,-763.672,57.129,10.254,944.919,292.41134775060374
968,1685766392.02,-23.926,-890.625,-55.664,31.738,944.919,298.10012643103113
969,1685766392.03,-5.859,-559.57,161.621,34.18,944.923,276.88014676119195
970,1685766392.03,57.617,-419.922,58.594,37.598,944.927,284.5536192659016
971,1685766392.03,77.148,-787.598,-225.098,15.625,944.931,286.2535167531009
972,1685766392.04,19.043,-1000.0,-25.391,0.0,944.935,284.3555982746361
973,1685766392.04,-25.879,-699.219,175.781,18.555,944.96,282.5137685035184
974,1685766392.04,24.902,-513.672,88.379,33.203,944.964,287.0963768370049
975,1685766392.05,72.754,-903.32,-216.309,17.09,944.968,283.94854789212314
976,1685766392.05,26.855,-962.402,-82.031,-2.93,944.972,285.89069663466114
977,1685766392.06,-34.18,-612.793,219.727,13.184,944.975,285.6390709821726
978,1685766392.06,1.953,-805.176,-16.602,34.18,944.979,284.78372575932553
979,1685766392.06,62.5,-1000.0,-168.945,20.996,944.983,275.0108373108269
980,1685766392.07,35.156,-774.902,94.238,-5.859,944.987,289.595300420108
981,1685766392.07,-31.25,-487.305,166.992,-4.395,944.991,279.6894845144106
982,1685766392.08,-27.344,-633.789,17.09,17.09,944.995,278.85168146319234
983,1685766392.08,44.434,-745.117,44.434,9.766,944.999,289.79998861269877
984,1685766392.08,50.293,-429.199,123.047,-23.438,945.003,277.76251010840815
985,1685766392.08,-19.531,-438.477,48.34,-26.367,944.995,286.8379465064981
986,1685766392.09,-53.223,-719.727,-52.246,0.488,944.999,303.36112291979225
987,1685766392.09,13.672,-609.863,54.199,2.93,945.003,280.93808212974625
988,1685766392.1,53.223,-369.629,101.074,-18.555,945.007,279.7456533863993
989,1685766392.1,-2.93,-459.961,21.973,-33.203,945.011,277.5329260799913
990,1685766392.1,-49.316,-883.789,-103.516,-10.254,945.015,281.266913460024
991,1685766392.11,4.883,-892.578,43.457,14.16,945.019,293.6157496362472
992,1685766392.11,62.012,-399.414,164.551,-5.859,945.023,288.0852530816881
993,1685766392.12,29.297,-502.441,-19.043,-31.738,945.027,295.57660833913053
994,1685766392.12,-37.109,-955.566,-238.77,-9.766,945.031,286.9227159428885
995,1685766392.12,-18.066,-936.035,-0.977,9.277,945.035,293.2984142042861
996,1685766392.13,52.246,-755.859,207.52,-2.93,945.038,281.71073249238134
997,1685766392.14,36.621,-800.781,46.875,-24.414,945.041,304.8722131168642
998,1685766392.15,-41.016,-953.613,-168.457,-15.137,945.045,290.5874959160625
999,1685766392.15,-40.039,-716.797,56.641,9.277,945.049,306.57031636387455
1000,1685766392.16,40.039,-332.52,196.777,4.883,945.052,315.6260092718622
1001,1685766392.16,51.758,-394.531,-33.203,-15.625,945.056,294.17312328973225
1002,1685766392.16,-20.996,-911.133,-79.59,-21.484,945.06,303.03197370118085
1003,1685766392.17,-58.594,-905.273,113.77,5.859,945.064,301.1342116537434
1004,1685766392.17,10.254,-405.273,183.105,9.277,945.068,296.4791314758589
1005,1685766392.18,50.293,-468.75,-52.734,-17.578,945.072,294.33439644998805
1006,1685766392.18,-8.301,-873.535,-80.078,-37.109,945.076,305.1888911465312
1007,1685766392.18,-54.199,-708.496,96.191,-21.484,945.08,298.2813109320441
1008,1685766392.19,-10.254,-667.969,16.602,-0.977,945.084,319.4582883657532
1009,1685766392.19,42.48,-778.809,38.086,-18.066,945.086,301.80835064129525
1010,1685766392.2,17.578,-739.258,56.152,-45.898,945.09,303.220739955938
1011,1685766392.2,-53.711,-610.84,101.562,-31.25,945.094,301.27584137394683
1012,1685766392.2,-37.598,-514.16,98.633,-2.93,945.098,304.06483773386356
1013,1685766392.21,36.133,-680.176,-32.715,-5.859,945.102,310.8385647299593
1014,1685766392.21,33.203,-967.285,-44.434,-20.02,945.105,310.2488349584355
1015,1685766392.22,-31.738,-869.629,116.211,-13.672,945.109,326.02880946863974
1016,1685766392.22,-37.109,-577.637,133.301,16.602,945.113,317.9099069915293
1017,1685766392.22,31.738,-850.098,-113.77,16.113,945.117,301.2949233521446
1018,1685766392.23,45.41,-830.566,7.324,-7.812,945.121,306.5197038557814
1019,1685766392.23,-16.602,-602.051,130.371,-14.648,945.125,313.4790122965428
1020,1685766392.23,-56.641,-915.039,14.16,9.766,945.129,308.1520563272174
1021,1685766392.24,1.953,-957.031,-89.844,15.137,945.135,318.04806465868904
1022,1685766392.24,57.129,-629.883,52.246,2.93,945.139,309.66395012193476
1023,1685766392.24,16.113,-637.207,138.672,-3.418,945.143,307.82866599506633
1024,1685766392.25,-39.062,-724.121,38.574,13.184,945.147,297.3944795474981
1025,1685766392.25,0.977,-844.238,-8.789,35.645,945.151,314.23937555048167
1026,1685766392.26,69.336,-867.188,77.637,26.367,945.154,306.4086931874868
1027,1685766392.26,47.852,-729.98,119.629,12.207,945.158,312.3775704732417
1028,1685766392.26,-32.227,-735.84,11.719,15.137,945.162,316.29516173667474
1029,1685766392.27,-24.414,-956.543,-113.77,43.457,945.166,300.8304694586357
1030,1685766392.27,63.965,-547.363,155.762,42.969,945.17,311.29777830995266
1031,1685766392.28,71.289,-278.809,143.066,20.996,945.174,309.1006925792149
1032,1685766392.28,0.0,-702.148,-35.156,32.715,945.178,310.547460323703
1033,1685766392.28,-13.184,-711.914,123.047,58.594,945.176,319.2293391707696
1034,1685766392.28,60.547,-341.797,166.504,57.617,945.18,313.7082398791855
1035,1685766392.29,89.844,-300.293,68.848,30.273,945.184,309.77475803471435
1036,1685766392.29,15.137,-674.805,-52.734,11.719,945.188,316.5105675056888
1037,1685766392.3,-36.621,-896.484,31.738,40.527,945.192,309.6372441091552
1038,1685766392.3,36.621,-865.723,112.793,63.477,945.196,310.0496532538782
1039,1685766392.3,101.562,-803.711,118.164,42.969,945.199,309.64495863022665
1040,1685766392.31,51.758,-907.715,-47.852,16.602,945.203,323.90794650730567
1041,1685766392.31,-16.602,-1000.0,-126.953,33.203,945.207,319.6753161429688
1042,1685766392.32,16.602,-584.961,229.98,46.387,945.211,316.95428382987114
1043,1685766392.32,84.473,-293.945,161.133,38.574,945.215,328.16960883494505
1044,1685766392.32,69.824,-801.27,-162.598,27.832,945.219,320.5350333551111
1045,1685766392.32,0.977,-755.859,62.012,33.691,945.221,316.634946460784
1046,1685766392.33,19.043,-411.621,182.129,71.777,945.225,322.9991729938368
1047,1685766392.33,93.75,-451.66,71.777,62.5,945.229,320.8768075467324
1048,1685766392.34,75.684,-712.891,48.34,11.719,945.233,324.1060388342221
1049,1685766392.34,0.977,-629.395,80.566,1.465,945.237,311.4907731178169
1050,1685766392.34,-11.719,-753.906,99.121,36.133,945.24,314.697683152031
1051,1685766392.35,56.641,-936.523,50.781,40.039,945.244,324.1038108367138
1052,1685766392.35,76.172,-982.91,-94.727,5.371,945.248,314.4111801974548
1053,1685766392.36,11.719,-793.945,167.969,-10.742,945.252,322.7217021498069
1054,1685766392.36,-33.203,-446.289,206.055,20.508,945.256,321.13440211116455
1055,1685766392.36,20.02,-512.695,54.199,42.969,945.26,319.52875773912933
1056,1685766392.37,75.195,-550.293,131.348,27.344,945.264,317.25507565735194
1057,1685766392.37,49.316,-396.484,128.418,16.113,945.266,323.62964316164937
1058,1685766392.37,-10.742,-448.73,72.266,31.25,945.27,317.85518350776545
1059,1685766392.38,16.602,-666.504,48.34,58.105,945.274,326.2940292405099
1060,1685766392.38,91.309,-524.902,141.602,47.363,945.278,321.55380122198954
1061,1685766392.39,70.312,-389.648,73.73,13.184,945.282,323.3419742090641
1062,1685766392.39,-8.789,-787.598,-23.926,20.508,945.285,328.9673137713796
1063,1685766392.39,-9.277,-1000.0,2.441,54.688,945.289,333.67846795091407
1064,1685766392.4,70.801,-765.625,110.352,55.176,945.293,315.6826739611578
1065,1685766392.4,95.703,-333.984,210.449,36.621,945.297,321.904679947425
1066,1685766392.4,28.809,-532.227,83.008,36.621,945.301,327.26754790173356
1067,1685766392.41,-11.23,-974.609,-82.52,69.824,945.305,316.8098642262655
1068,1685766392.41,56.641,-863.281,73.73,78.613,945.309,324.34328961009186
1069,1685766392.42,101.562,-377.441,207.031,43.457,945.325,325.6602850460633
1070,1685766392.42,48.828,-403.809,53.223,19.043,945.329,322.96979306166065
1071,1685766392.42,-13.672,-916.504,-145.996,47.363,945.333,323.22570659448684
1072,1685766392.43,31.25,-630.859,114.746,75.195,945.337,319.6278406248768
1073,1685766392.43,102.051,-237.793,213.379,69.824,945.34,328.87265824019056
1074,1685766392.44,78.613,-657.715,-79.59,59.082,945.344,328.27378454611033
1075,1685766392.44,6.836,-1000.0,-190.918,65.43,945.348,330.08610192893474
1076,1685766392.44,20.996,-637.207,145.508,83.984,945.352,324.7620799350256
1077,1685766392.45,100.098,-230.469,213.379,83.008,945.356,325.5750824063764
1078,1685766392.45,92.285,-417.969,23.438,62.012,945.36,334.4187256837133
1079,1685766392.45,20.508,-677.734,64.453,56.152,945.364,336.3193699870052
1080,1685766392.46,19.043,-545.898,121.582,84.961,945.368,323.4656871349031
1081,1685766392.46,87.402,-552.734,88.867,85.938,945.37,331.1173822330679
1082,1685766392.46,102.539,-718.262,43.945,54.688,945.374,331.25873327375757
1083,1685766392.47,41.504,-798.828,61.035,42.48,945.377,332.7780008097416
1084,1685766392.47,-0.488,-578.613,155.273,63.965,945.381,337.64914364643136
1085,1685766392.48,56.641,-415.039,117.188,74.707,945.385,330.76754355359316
1086,1685766392.48,101.562,-724.609,-6.348,55.664,945.389,335.9687609316363
1087,1685766392.48,48.828,-915.527,57.129,37.109,945.393,340.5467691399977
1088,1685766392.49,-14.16,-582.52,177.246,55.664,945.397,335.92688405447416
1089,1685766392.49,26.367,-447.754,125.488,71.777,945.401,343.0300731461693
1090,1685766392.5,92.285,-752.93,-56.641,59.57,945.405,337.4257428667914
1091,1685766392.5,66.895,-736.816,33.203,39.551,945.409,343.7608537096553
1092,1685766392.5,-4.883,-779.785,115.723,44.922,945.413,341.61026647792517
1093,1685766392.52,9.277,-731.445,97.656,75.684,945.416,343.58181019878356
1094,1685766392.52,83.008,-812.012,-85.449,69.824,945.42,337.92960330173594
1095,1685766392.53,80.078,-716.797,39.551,40.039,945.424,349.52044343926894
1096,1685766392.53,6.836,-691.406,160.156,35.156,945.428,341.217325055731
1097,1685766392.54,-8.301,-713.867,85.449,62.988,945.432,349.8577820113779
1098,1685766392.54,63.477,-900.879,-83.496,74.219,945.436,350.9899848368374
1099,1685766392.54,87.402,-748.047,110.352,44.434,945.44,348.69703161799276
1100,1685766392.55,26.855,-389.648,173.34,33.691,945.444,346.0542312900852
1101,1685766392.55,-16.113,-619.629,31.738,64.453,945.448,359.68559938653
1102,1685766392.56,40.039,-707.52,103.027,73.73,945.451,344.40161312694596
1103,1685766392.56,92.285,-333.496,153.32,49.805,945.455,357.58907155084603
1104,1685766392.56,52.246,-474.609,47.363,18.555,945.459,350.6636966653892
1105,1685766392.56,-8.789,-785.156,41.504,36.621,945.461,353.37204018169956
1106,1685766392.57,18.555,-661.133,150.879,66.895,945.465,356.62725516354254
1107,1685766392.57,83.984,-331.543,169.922,49.316,945.469,352.0540436964843
1108,1685766392.58,65.918,-300.293,79.59,31.738,945.473,360.75420876629505
1109,1685766392.58,-0.488,-756.348,-9.277,54.199,945.477,355.92870562768405
1110,1685766392.58,7.812,-969.727,89.355,68.359,945.481,349.49286097015204
1111,1685766392.59,80.078,-794.922,122.559,52.246,945.485,349.6680006121161
1112,1685766392.59,87.891,-745.605,104.492,29.785,945.489,360.7768367619063
1113,1685766392.6,13.672,-946.777,-75.195,25.879,945.493,354.88993879391904
1114,1685766392.6,-19.531,-977.539,-28.32,59.082,945.497,353.2705554427263
1115,1685766392.6,49.316,-583.496,239.258,62.988,945.5,358.2620494990205
1116,1685766392.61,93.75,-625.488,90.82,38.086,945.504,351.32353788004883
1117,1685766392.61,42.48,-927.246,-109.863,31.25,945.506,346.82069290184467
1118,1685766392.61,-9.277,-723.633,102.539,53.711,945.51,341.4928053135507
1119,1685766392.62,41.504,-343.75,199.219,66.895,945.514,335.19158944351346
1120,1685766392.62,93.75,-332.52,77.148,44.922,945.518,338.68174547801317
1121,1685766392.63,52.246,-695.801,22.949,12.695,945.522,355.76117402782313
1122,1685766392.63,-18.555,-961.426,39.062,27.344,945.525,359.3014793984727
1123,1685766392.63,-0.977,-727.539,175.781,46.875,945.529,346.18308200701625
1124,1685766392.64,72.266,-474.609,81.543,29.785,945.533,348.2778145449948
1125,1685766392.64,64.453,-914.062,-152.344,16.602,945.537,340.31762755252214
1126,1685766392.64,-14.16,-833.008,167.48,15.625,945.541,352.80969878114126
1127,1685766392.65,-18.555,-358.887,227.539,48.34,945.545,340.98982729332994
1128,1685766392.65,56.152,-416.992,42.969,55.664,945.549,339.4582490936119
1129,1685766392.66,57.617,-547.852,95.215,20.996,945.551,343.36502752876044
1130,1685766392.66,-13.672,-426.758,124.023,1.465,945.555,350.28534947571194
1131,1685766392.66,-36.621,-405.762,121.094,23.438,945.559,347.2085708453633
1132,1685766392.67,24.902,-525.391,44.434,32.715,945.563,343.03789291564755
1133,1685766392.67,59.57,-455.566,62.5,9.766,945.567,340.60680782722096
1134,1685766392.68,9.277,-700.195,-26.855,-2.441,945.571,333.0569274319653
1135,1685766392.68,-44.922,-946.777,30.762,18.555,945.575,340.32491253585835
1136,1685766392.68,-1.953,-951.66,32.227,33.691,945.579,333.3654371295177
1137,1685766392.69,66.895,-751.953,96.191,18.555,945.582,339.36865585749854
1138,1685766392.69,35.645,-375.977,184.57,-3.906,945.586,333.71440006380686
1139,1685766392.69,-41.504,-583.984,56.152,7.324,945.59,336.723589757301
1140,1685766392.7,-20.02,-971.191,-74.707,41.504,945.594,334.69710879024
1141,1685766392.7,50.293,-740.723,109.863,26.855,945.596,344.4395827355279
1142,1685766392.7,45.898,-309.57,209.961,-11.23,945.6,329.385446575426
1143,1685766392.71,-23.438,-525.879,40.039,-3.418,945.604,331.9627554094009
1144,1685766392.71,-35.645,-907.715,-41.992,34.18,945.608,335.0416697629825
1145,1685766392.72,38.574,-534.18,134.277,26.855,945.612,336.79312228767714
1146,1685766392.72,64.941,-499.512,138.184,7.324,945.616,332.34121240942216
1147,1685766392.72,-1.465,-850.098,20.996,2.441,945.619,337.56406864640945
1148,1685766392.73,-45.41,-958.496,-82.52,32.227,945.623,330.04183964775086
1149,1685766392.73,16.113,-541.992,170.898,41.992,945.627,324.99012842750415
1150,1685766392.74,65.43,-123.535,193.359,10.742,945.631,330.1673755245216
1151,1685766392.74,16.602,-439.941,-17.09,-2.93,945.635,331.5626451377124
1152,1685766392.74,-39.062,-658.691,100.586,14.648,945.639,330.58673853146263
1153,1685766392.75,8.301,-450.195,124.023,32.715,945.645,320.8403250766124
1154,1685766392.75,73.242,-510.254,85.938,20.508,945.649,333.71305382565504
1155,1685766392.75,45.41,-762.695,40.039,0.488,945.653,337.0769458371556
1156,1685766392.76,-34.18,-784.18,96.68,12.695,945.657,330.0903111381054
1157,1685766392.76,-23.926,-488.77,167.969,35.645,945.661,320.27793070079855
1158,1685766392.77,48.828,-592.285,92.773,16.113,945.664,324.54054496921293
1159,1685766392.77,39.551,-881.836,-42.969,-9.766,945.668,319.0785112424782
1160,1685766392.77,-40.527,-833.008,55.176,-17.09,945.672,327.6699475330648
1161,1685766392.78,-63.477,-451.172,210.449,5.859,945.676,328.9544484939107
1162,1685766392.78,12.695,-259.766,110.352,15.137,945.68,325.5693451320957
1163,1685766392.78,57.617,-689.453,-72.754,8.789,945.684,326.9043157556345
1164,1685766392.79,-4.395,-937.988,1.953,1.465,945.688,321.87747090305743
1165,1685766392.79,-68.359,-537.598,198.73,0.0,945.702,334.7709182632404
1166,1685766392.79,-14.16,-358.398,104.004,11.23,945.706,331.49529573597556
1167,1685766392.8,52.734,-790.527,-139.16,18.066,945.71,314.170075825133
1168,1685766392.8,24.902,-766.113,32.227,6.348,945.714,329.5948917629066
1169,1685766392.81,-43.457,-683.594,175.781,12.695,945.718,328.29870656309697
1170,1685766392.81,-15.625,-789.551,54.688,36.621,945.722,320.5390939587877
1171,1685766392.81,52.734,-965.332,-74.707,28.32,945.726,322.8462863628859
1172,1685766392.82,27.832,-802.246,187.5,3.418,945.73,332.7886644181737
1173,1685766392.82,-43.945,-443.848,223.145,6.836,945.734,322.2214559164997
1174,1685766392.82,-33.203,-501.465,94.727,31.25,945.738,317.11432700154825
1175,1685766392.83,34.668,-475.098,168.945,22.461,945.742,325.9943577242409
1176,1685766392.83,32.715,-244.141,131.348,-2.93,945.745,324.6866584447051
1177,1685766392.84,-31.25,-340.332,79.102,-11.719,945.746,327.975416559184
1178,1685766392.84,-58.594,-652.344,72.266,10.742,945.75,315.39789611814876
1179,1685766392.84,3.906,-544.922,150.391,22.949,945.754,317.4081602939843
1180,1685766392.85,40.527,-206.543,144.531,5.859,945.757,319.6133372259053
1181,1685766392.85,-14.16,-336.426,77.637,-17.578,945.761,318.6304684041838
1182,1685766392.86,-61.523,-811.035,-5.859,7.812,945.765,316.0988791084689
1183,1685766392.86,-7.812,-899.902,94.727,28.809,945.769,323.22416125454964
1184,1685766392.86,52.734,-562.988,196.289,0.977,945.773,314.1475543661686
1185,1685766392.87,21.973,-379.883,115.723,-19.531,945.777,317.54926023201216
1186,1685766392.87,-42.48,-822.754,-77.148,0.0,945.781,301.53995057049076
1187,1685766392.87,-11.719,-868.164,95.215,27.344,945.785,311.488115606182
1188,1685766392.88,51.758,-517.09,217.285,23.926,945.789,313.81814272482137
1189,1685766392.93,30.273,-443.848,107.422,-4.883,945.822,289.4065350271273
1190,1685766392.93,-44.434,-816.406,-91.309,-5.371,945.826,290.20200887719034
1191,1685766392.93,39.062,-399.414,55.664,-18.555,945.835,277.5313993547197
1192,1685766392.93,-53.223,-671.387,110.84,16.113,945.829,277.20447088491983
1193,1685766392.94,-0.488,-531.738,118.652,-44.922,945.838,271.2770559895957
1194,1685766392.94,27.344,-214.844,210.449,4.883,945.833,274.91756626858046
1195,1685766392.94,-62.5,-441.895,149.902,-21.973,945.842,281.8454623228128
1196,1685766392.94,49.805,-294.434,57.617,-16.602,945.837,279.4439814490461
1197,1685766392.94,-38.086,-371.582,128.418,6.348,945.846,284.3590611531012
1198,1685766392.95,-21.973,-850.586,22.949,-22.461,945.841,272.22475476060765
1199,1685766392.95,30.273,-488.77,61.035,-5.859,945.85,266.48699860373875
1200,1685766392.95,-55.176,-813.965,146.484,0.0,945.845,266.3535802643799
1201,1685766392.95,25.391,-801.27,60.059,-22.461,945.854,259.27341429107116
1202,1685766392.95,14.16,-249.023,198.242,6.348,945.849,264.1825377704633
1203,1685766392.96,-41.992,-780.273,152.832,-23.438,945.858,267.624341463632
1204,1685766392.96,56.641,-367.188,6.836,-20.02,945.853,274.97012753640433
1205,1685766392.96,-54.688,-478.027,159.18,-3.418,945.862,264.22771372224986
1206,1685766392.96,-4.883,-916.016,-137.207,-27.832,945.857,271.56871353551975
1207,1685766392.96,15.137,-639.648,22.461,-7.324,945.866,264.54580609495537
1208,1685766392.96,-66.406,-680.664,189.941,-9.766,945.861,247.48006313050587
1209,1685766392.97,38.086,-462.402,103.516,-34.668,945.87,246.6871822616398
1210,1685766392.97,-17.09,-266.602,229.98,-0.488,945.865,266.52950812900536
1211,1685766392.97,-28.809,-382.812,146.973,-34.668,945.874,267.3777342527145
1212,1685766392.97,-65.918,-837.402,51.758,-4.395,945.877,257.8641948178661
1213,1685766392.98,-0.977,-958.496,84.473,5.371,945.881,244.32061043329267
1214,1685766392.99,45.41,-591.797,198.242,-21.973,945.885,251.7900875288381
1215,1685766392.99,-6.348,-319.824,156.25,-38.574,945.889,239.8965551496379
1216,1685766393.0,-72.266,-527.344,101.562,-15.625,945.893,249.51838661581814
1217,1685766393.0,-35.156,-906.25,-71.777,4.395,945.897,244.56636946636652
1218,1685766393.0,26.367,-1000.0,-12.695,-3.418,945.901,240.3168174112823
1219,1685766393.01,1.465,-741.699,246.094,-31.738,945.905,247.11621158036976
1220,1685766393.01,-68.359,-515.137,184.082,-34.668,945.908,246.61222458338554
1221,1685766393.02,-60.059,-639.16,133.789,-9.766,945.912,246.97966146903667
1222,1685766393.02,19.531,-218.262,217.773,-10.254,945.916,241.0945447471744
1223,1685766393.02,27.344,-3.906,141.113,-35.156,945.92,250.43726785025973
1224,1685766393.03,-48.828,-413.574,51.27,-41.016,945.924,248.29663409291817
1225,1685766393.03,-66.895,-522.461,171.387,-10.742,945.93,254.14217325881634
1226,1685766393.04,9.766,-224.121,184.57,-9.766,945.933,245.40854422775834
1227,1685766393.04,35.645,-373.047,71.777,-36.133,945.937,243.1622115569721
1228,1685766393.04,-22.949,-704.102,104.004,-43.457,945.941,248.37565412404686
1229,1685766393.05,-62.988,-683.594,235.84,-20.996,945.945,247.52808325007084
1230,1685766393.05,-14.648,-611.816,165.527,-9.277,945.949,253.5090144579174
1231,1685766393.06,37.109,-580.566,122.559,-24.902,945.953,242.34666394532414
1232,1685766393.06,-1.465,-724.609,46.387,-37.598,945.957,250.76380859606607
1233,1685766393.06,-67.383,-797.363,107.422,-15.137,945.961,250.5718257169257
1234,1685766393.07,-41.016,-229.98,268.066,2.441,945.965,245.51534087485064
1235,1685766393.07,22.461,-104.98,146.973,-15.137,945.969,255.2630392316399
1236,1685766393.07,2.441,-758.789,-97.656,-33.691,945.973,249.6724266413799
1237,1685766393.08,-68.848,-661.621,94.727,-32.715,945.985,251.10758524061814
1238,1685766393.08,-64.453,-166.992,248.535,-16.602,945.989,245.3715738780737
1239,1685766393.08,7.812,-200.195,118.164,-18.555,945.993,256.03649140198036
1240,1685766393.09,17.578,-543.457,74.707,-48.828,945.997,266.025974041869
1241,1685766393.09,-50.781,-587.402,116.211,-53.223,946.0,249.53689596509105
1242,1685766393.1,-75.684,-646.973,157.227,-17.578,946.004,252.91770560127165
1243,1685766393.1,-9.766,-692.383,136.23,-11.719,946.008,261.136962870541
1244,1685766393.1,17.09,-923.34,-0.977,-32.227,946.012,264.4338255452195
1245,1685766393.11,-41.016,-752.441,225.098,-46.875,946.016,262.3199219644544
1246,1685766393.11,-88.379,-302.734,243.164,-28.32,946.02,251.28685121019058
1247,1685766393.11,-29.297,-328.125,117.676,-11.23,946.024,274.3460665624174
1248,1685766393.12,26.367,-308.594,191.895,-36.133,946.028,250.33540303319862
1249,1685766393.12,-26.855,-166.992,150.879,-64.941,946.016,256.6926286768603
1250,1685766393.12,-100.586,-296.387,125.0,-53.711,946.02,259.319633167285
1251,1685766393.13,-79.102,-516.113,112.793,-32.715,946.024,260.24013017223155
1252,1685766393.13,-4.883,-361.328,168.457,-37.598,946.028,269.475749072457
1253,1685766393.14,-12.207,-156.25,164.062,-55.176,946.032,263.7165758284183
1254,1685766393.14,-84.961,-544.922,62.5,-51.27,946.036,263.2513433629193
1255,1685766393.14,-83.008,-909.668,90.82,-20.02,946.04,263.22848772980956
1256,1685766393.15,0.0,-838.379,210.938,-26.855,946.044,282.42009663387745
1257,1685766393.15,14.16,-332.52,231.934,-57.129,946.047,269.4436656144812
1258,1685766393.16,-61.523,-185.547,158.691,-58.105,946.051,272.7265781183412
1259,1685766393.16,-95.215,-785.156,-20.508,-24.414,946.055,275.3625978318674
1260,1685766393.16,-25.391,-914.551,101.562,-27.832,946.059,267.7786692587071
1261,1685766393.16,23.438,-178.711,288.574,-57.129,946.075,275.3142832177765
1262,1685766393.17,-27.344,-129.395,122.07,-62.012,946.079,286.0224421844055
1263,1685766393.17,-86.914,-825.195,-71.777,-33.691,946.083,276.396522962629
1264,1685766393.18,-41.992,-479.492,151.367,-21.484,946.087,282.8649257957528
1265,1685766393.18,18.555,20.02,226.562,-39.551,946.091,266.12104128522924
1266,1685766393.18,-24.414,-460.938,49.805,-58.105,946.095,283.4935821552175
1267,1685766393.19,-97.656,-935.059,-48.34,-48.828,946.099,276.4745949114462
1268,1685766393.19,-71.777,-474.121,207.031,-27.832,946.103,284.25927727062265
1269,1685766393.2,-1.465,38.086,248.047,-35.645,946.107,274.1915419346973
1270,1685766393.2,-4.395,-286.621,41.992,-62.012,946.111,286.3194295649263
1271,1685766393.2,-70.312,-657.715,114.258,-57.617,946.114,276.87941384772995
1272,1685766393.21,-81.543,-325.684,238.281,-34.18,946.118,276.5472143386183
1273,1685766393.21,-11.23,-34.18,180.176,-38.086,946.12,294.10357183173414
1274,1685766393.21,11.719,-272.949,61.035,-61.523,946.124,281.96901047584277
1275,1685766393.22,-51.758,-535.645,158.691,-71.289,946.128,286.0097221441092
1276,1685766393.22,-91.309,-311.035,222.656,-38.086,946.132,287.0201338112328
1277,1685766393.23,-22.949,-106.934,164.062,-17.09,946.136,278.9216707594776
1278,1685766393.23,32.227,-451.172,68.848,-38.086,946.14,279.6054051855289
1279,1685766393.23,-19.531,-808.105,129.395,-60.059,946.144,288.2071835130636
1280,1685766393.24,-80.566,-479.004,254.395,-46.387,946.148,284.62894016589587
1281,1685766393.24,-36.621,-190.43,202.637,-23.438,946.152,288.48553786197573
1282,1685766393.24,26.855,-544.434,55.176,-35.156,946.156,289.9588486975932
1283,1685766393.25,-3.418,-714.844,136.23,-57.617,946.16,285.61524730026133
1284,1685766393.25,-80.078,-671.387,208.496,-43.457,946.163,291.5297124744415
1285,1685766393.27,-61.035,-631.836,136.719,-12.207,946.167,293.6563546976286
1286,1685766393.27,18.555,-872.559,32.227,-11.719,946.17,294.0466031236841
1287,1685766393.28,18.066,-762.207,243.652,-36.621,946.174,296.3807020159196
1288,1685766393.28,-57.129,-180.176,269.043,-48.828,946.178,282.35005866833086
1289,1685766393.29,-75.195,-281.25,128.906,-31.25,946.182,289.0937009753861
1290,1685766393.29,-6.348,-700.195,125.0,-26.855,946.186,289.42104136486944
1291,1685766393.29,22.949,-506.836,169.922,-44.922,946.19,283.5508928406956
1292,1685766393.3,-41.504,-108.398,208.496,-60.547,946.194,291.93615118871867
1293,1685766393.3,-89.844,-350.586,103.516,-38.574,946.198,290.83711061997315
1294,1685766393.3,-35.645,-775.879,71.289,-20.996,946.202,291.9710054570411
1295,1685766393.31,21.484,-215.82,229.004,-40.039,946.206,283.60410664917435
1296,1685766393.31,-16.602,53.223,178.711,-57.129,946.209,313.9200519020856
