,timestamps,TP9,AF7,AF8,TP10,Secondary Timestamp,emg_signal
0,1686274974.23,10.254,156.738,73.242,-16.113,1680.129,332.7698988344159
1,1686274974.23,-0.977,125.977,52.246,8.301,1680.133,350.5523994679615
2,1686274974.24,58.105,-140.137,-20.02,79.102,1680.136,325.36985286290894
3,1686274974.24,89.844,176.758,107.422,59.57,1680.14,318.1648546194208
4,1686274974.24,33.691,406.25,113.77,-8.789,1680.144,322.13163261282324
5,1686274974.25,-15.625,-106.934,-94.238,-1.953,1680.148,338.22405771307274
6,1686274974.25,22.461,-621.094,-184.57,72.266,1680.152,324.29199694925825
7,1686274974.26,69.824,0.0,100.098,71.289,1680.156,329.9438432055789
8,1686274974.26,35.156,397.461,117.188,-3.906,1680.16,335.68524572345035
9,1686274974.26,-9.277,-8.789,-22.949,-18.555,1680.164,333.294444795493
10,1686274974.27,20.02,0.0,37.598,40.527,1680.168,338.51309876192914
11,1686274974.27,77.637,370.605,151.367,68.359,1680.172,310.9048366077262
12,1686274974.28,68.359,378.906,113.281,34.668,1680.179,323.01530093514157
13,1686274974.28,-2.93,30.762,-15.625,-13.672,1680.183,322.0691302982594
14,1686274974.29,-21.484,-183.105,-41.504,12.695,1680.187,342.2809458163438
15,1686274974.29,45.41,-112.793,9.277,73.242,1680.191,330.4001233454495
16,1686274974.3,63.477,173.34,78.613,38.574,1680.194,338.7612715124193
17,1686274974.3,-1.953,-300.293,-161.133,-10.742,1680.198,335.2171623808917
18,1686274974.3,-35.645,-1000.0,-432.129,17.578,1680.202,331.4259449645352
19,1686274974.31,33.691,-273.438,-16.113,55.664,1680.206,338.3842270781301
20,1686274974.31,69.824,292.969,131.836,39.551,1680.21,329.52433053503853
21,1686274974.32,19.043,43.457,18.066,-22.949,1680.214,338.6706606597297
22,1686274974.32,-13.184,230.469,96.191,-31.738,1680.218,335.4018054400278
23,1686274974.32,26.855,451.66,159.668,41.992,1680.222,330.71715333125644
24,1686274974.33,79.59,310.547,89.844,74.707,1680.223,333.29068948251296
25,1686274974.33,48.34,62.012,28.32,16.113,1680.226,339.8043602433906
26,1686274974.33,-17.578,203.613,101.074,-14.16,1680.23,322.6391221126562
27,1686274974.34,-1.953,351.562,133.789,39.062,1680.234,306.0690085008415
28,1686274974.34,66.895,89.355,-4.395,78.613,1680.238,343.1351894023694
29,1686274974.35,58.594,-311.523,-143.555,44.922,1680.242,327.66394774873936
30,1686274974.35,0.488,-279.297,-36.133,-9.277,1680.246,322.6946825046447
31,1686274974.35,0.0,187.988,154.785,11.719,1680.25,327.20779033585853
32,1686274974.36,54.688,24.414,-41.504,74.219,1680.254,321.3684684808516
33,1686274974.36,66.406,-725.586,-301.758,71.777,1680.258,323.1327042632614
34,1686274974.36,27.344,-112.793,23.926,-0.977,1680.262,317.4982328271134
35,1686274974.37,-0.977,369.629,114.258,2.93,1680.266,315.7879826828865
36,1686274974.37,44.434,55.664,-2.441,76.172,1680.267,325.53913234665464
37,1686274974.38,91.309,86.914,14.16,78.613,1680.271,327.9967414277538
38,1686274974.38,47.852,53.711,12.695,21.484,1680.275,334.64497124128735
39,1686274974.38,-6.348,-60.059,-2.441,-7.812,1680.279,333.5140026177101
40,1686274974.39,16.113,-405.762,-131.836,53.711,1680.283,327.520458157497
41,1686274974.39,73.242,-541.504,-125.977,93.262,1680.287,321.8030641484172
42,1686274974.4,57.617,13.672,46.387,20.996,1680.291,318.77843796813846
43,1686274974.4,7.324,176.27,60.547,-22.461,1680.294,330.74980539799867
44,1686274974.4,11.719,-551.758,-226.074,46.875,1680.298,330.34365245642886
45,1686274974.41,68.848,-658.203,-202.148,98.145,1680.302,319.00700366159083
46,1686274974.41,83.008,323.242,173.828,39.551,1680.306,329.7319982111095
47,1686274974.41,22.461,249.512,28.32,-9.277,1680.31,319.92984548649554
48,1686274974.42,0.488,25.879,-19.531,10.742,1680.312,323.3750990858122
49,1686274974.42,70.312,353.516,141.602,68.359,1680.316,322.9013624360986
50,1686274974.42,97.168,519.043,165.527,58.594,1680.32,333.4201555642599
51,1686274974.43,31.738,213.867,-0.488,-6.836,1680.324,317.4090967716034
52,1686274974.43,1.465,-53.711,-54.688,6.348,1680.328,326.3227486643728
53,1686274974.44,54.199,3.906,35.156,79.102,1680.332,327.4558370840263
54,1686274974.44,100.586,40.039,44.922,80.566,1680.336,333.8693829517503
55,1686274974.44,62.988,-258.301,-157.715,19.531,1680.34,319.84549364614924
56,1686274974.45,-0.977,-629.395,-291.016,-1.465,1680.343,324.0253949467144
57,1686274974.45,23.438,-96.191,-10.254,43.457,1680.347,321.39532069703756
58,1686274974.46,79.102,165.527,73.242,83.984,1680.351,341.67656078512243
59,1686274974.46,52.246,-298.34,-112.793,43.945,1680.355,328.05416357017236
60,1686274974.46,-14.16,-245.605,-59.082,6.836,1680.357,333.59644504497834
61,1686274974.46,-17.578,308.105,112.305,25.879,1680.361,333.8540925770342
62,1686274974.47,55.664,192.871,34.18,75.195,1680.365,315.4091985775391
63,1686274974.47,82.52,-411.133,-141.113,69.824,1680.369,325.3872859909222
64,1686274974.48,20.02,-463.379,-182.129,1.465,1680.373,315.41562859986016
65,1686274974.48,-13.184,-63.477,-14.16,2.441,1680.377,337.8814006176482
66,1686274974.48,42.969,34.18,25.879,69.824,1680.381,328.1993039488961
67,1686274974.49,76.66,-435.059,-173.828,74.219,1680.385,319.1491161663036
68,1686274974.49,26.855,-482.91,-134.766,4.395,1680.389,333.1508545483088
69,1686274974.5,-12.695,339.355,143.555,-12.207,1680.392,323.30570092325917
70,1686274974.5,33.203,304.199,64.941,56.641,1680.396,310.5767634765047
71,1686274974.5,84.473,135.742,36.133,68.359,1680.4,327.128077347007
72,1686274974.51,49.805,54.199,21.973,16.602,1680.408,306.1415713772908
73,1686274974.51,-1.953,110.352,51.758,-6.348,1680.412,320.1881082299454
74,1686274974.52,21.484,93.262,26.855,39.062,1680.416,318.9242186746426
75,1686274974.52,79.59,-147.949,-8.789,83.008,1680.42,349.78347904368593
76,1686274974.52,73.242,145.508,83.984,45.898,1680.424,333.32223045914947
77,1686274974.53,-9.277,120.605,26.367,-7.324,1680.428,329.7002983586525
78,1686274974.53,-19.043,-272.461,-119.629,33.691,1680.432,311.6766212255636
79,1686274974.54,56.152,-511.719,-96.191,103.516,1680.436,333.3533937261199
80,1686274974.54,82.031,98.145,140.625,64.453,1680.44,331.004803806399
81,1686274974.54,29.785,418.945,109.375,4.395,1680.444,320.59130147472246
82,1686274974.55,-10.254,59.082,13.672,22.949,1680.447,322.95550506544726
83,1686274974.55,80.078,461.426,159.18,59.082,1680.462,320.563277693968
84,1686274974.55,38.086,143.066,80.566,70.312,1680.451,319.03931774750635
85,1686274974.56,37.598,407.227,95.703,4.395,1680.466,331.96880480376905
86,1686274974.56,-12.207,-58.105,-39.551,2.93,1680.469,335.5959328582516
87,1686274974.56,23.438,-245.605,-22.949,67.871,1680.473,326.5503891240464
88,1686274974.57,88.379,51.27,65.43,95.215,1680.477,323.8906559423614
89,1686274974.57,57.617,77.148,43.457,34.18,1680.481,321.16055188173874
90,1686274974.58,-10.254,-523.926,-206.055,3.418,1680.485,340.122930203899
91,1686274974.58,3.906,-971.191,-312.988,65.43,1680.489,327.2298022229774
92,1686274974.58,81.543,-78.613,80.566,90.82,1680.493,322.80116856956454
93,1686274974.59,82.031,364.746,78.613,42.969,1680.497,318.7131013988241
94,1686274974.59,10.742,92.773,-8.301,-4.395,1680.501,324.9300871391274
95,1686274974.59,3.418,256.348,109.863,24.414,1680.505,341.33097929138285
96,1686274974.6,70.312,470.703,159.18,83.496,1680.495,341.48784421870033
97,1686274974.6,92.285,328.125,57.617,62.5,1680.498,318.5023509009683
98,1686274974.61,30.762,89.355,-22.949,-0.977,1680.502,319.5641846415903
99,1686274974.61,-16.602,291.016,111.328,-1.953,1680.506,343.2238846853521
100,1686274974.61,40.527,446.289,128.906,69.824,1680.51,330.72688896865384
101,1686274974.62,94.727,-9.766,-66.406,82.52,1680.514,334.47717132621995
102,1686274974.62,36.621,-524.414,-199.219,12.695,1680.518,342.456293895962
103,1686274974.62,-8.301,-182.617,-3.906,-21.973,1680.522,325.10677175140245
104,1686274974.63,32.715,411.133,175.293,31.25,1680.526,329.6112701706955
105,1686274974.63,89.844,-48.828,-104.492,82.52,1680.53,340.75240139396436
106,1686274974.64,59.082,-638.184,-232.422,35.645,1680.534,325.01549084807317
107,1686274974.64,-0.488,46.387,96.68,-18.555,1680.538,331.70857409218087
108,1686274974.66,14.648,365.234,100.098,33.203,1680.552,336.56815365547067
109,1686274974.66,67.383,186.523,105.957,79.59,1680.556,329.2260918430815
110,1686274974.66,62.5,-47.852,35.156,46.875,1680.56,334.4024096157637
111,1686274974.67,3.906,-61.035,11.719,1.953,1680.564,329.8533246844568
112,1686274974.67,-4.883,308.594,115.723,12.207,1680.568,329.02443209937053
113,1686274974.68,57.617,-321.289,-181.152,94.238,1680.572,313.85766714146376
114,1686274974.68,80.078,-897.461,-311.035,106.934,1680.576,338.10354214516724
115,1686274974.68,30.273,-36.133,31.738,15.137,1680.58,326.3572434647986
116,1686274974.69,3.906,145.02,32.715,8.789,1680.584,326.07717537410895
117,1686274974.69,49.805,-173.828,-66.406,84.473,1680.588,325.8936862004432
118,1686274974.7,98.633,140.625,49.316,86.914,1680.591,322.12826107773685
119,1686274974.7,66.406,498.047,160.645,10.254,1680.595,336.0306251747427
120,1686274974.7,5.371,219.238,17.09,-7.324,1680.597,328.7590434880787
121,1686274974.7,26.367,27.344,-36.133,57.129,1680.601,327.65824992880437
122,1686274974.71,86.426,339.355,128.418,72.754,1680.605,327.6858722183482
123,1686274974.71,70.312,498.535,156.25,18.066,1680.609,337.77086231514795
124,1686274974.72,-1.953,181.641,-15.625,-18.066,1680.613,337.90021564442736
125,1686274974.72,-7.324,-268.555,-134.766,28.809,1680.617,343.3574336905675
126,1686274974.72,62.988,-62.5,32.227,78.125,1680.621,345.44501080921646
127,1686274974.73,79.102,411.621,167.48,38.574,1680.625,329.2386224080093
128,1686274974.73,8.789,-39.551,-108.887,-14.16,1680.629,338.6278448201462
129,1686274974.74,-14.16,-570.801,-227.051,16.602,1680.633,331.6415378943544
130,1686274974.74,54.199,16.113,57.617,70.801,1680.636,346.6883822009707
131,1686274974.74,100.098,161.621,30.762,79.102,1680.64,322.1783195464833
132,1686274974.75,47.363,-334.961,-146.484,21.484,1680.643,331.3461616071103
133,1686274974.75,-42.48,-238.281,-73.73,-29.297,1680.646,330.7724911660662
134,1686274974.75,-8.789,111.816,54.688,25.879,1680.65,321.62041953691073
135,1686274974.76,58.105,10.254,-0.488,53.711,1680.654,339.47677958598496
136,1686274974.76,17.09,-358.887,-129.883,6.348,1680.658,344.9485451434829
137,1686274974.77,-38.086,-661.133,-211.914,-6.836,1680.662,337.3238639585534
138,1686274974.77,-4.883,-35.156,51.758,35.645,1680.666,328.9485919006196
139,1686274974.77,76.66,394.531,104.492,86.426,1680.67,343.17589094074674
140,1686274974.78,60.059,-340.332,-176.758,65.43,1680.674,334.23945308166526
141,1686274974.78,-11.719,-459.961,-107.91,28.32,1680.678,320.9742187691911
142,1686274974.78,4.883,379.883,138.672,64.453,1680.682,336.20961778665867
143,1686274974.79,76.66,323.73,45.898,131.348,1680.685,333.03677973936874
144,1686274974.79,88.379,108.398,16.602,119.629,1680.691,341.86772133607275
145,1686274974.8,30.762,-5.859,-6.348,61.035,1680.695,349.3701078977013
146,1686274974.8,13.184,127.441,36.621,77.637,1680.699,354.66979815935923
147,1686274974.8,72.754,159.18,30.762,147.949,1680.703,334.927410374701
148,1686274974.81,117.676,-217.285,-94.238,148.926,1680.707,350.50008031183154
149,1686274974.81,64.453,-262.695,-59.082,76.172,1680.711,340.4805183388913
150,1686274974.82,15.137,26.855,72.266,51.758,1680.714,330.7364006443279
151,1686274974.82,54.688,-30.273,-54.199,117.676,1680.718,333.2003534104441
152,1686274974.82,112.305,-483.887,-158.691,151.367,1680.722,333.2977143887589
153,1686274974.83,103.027,91.797,129.883,90.332,1680.726,341.0525799287433
154,1686274974.83,41.504,393.066,100.098,48.828,1680.73,336.21901743136186
155,1686274974.84,44.922,62.988,28.809,89.844,1680.734,333.5195630989399
156,1686274974.84,103.027,151.855,64.941,133.789,1680.732,334.0368087304797
157,1686274974.84,105.469,384.766,93.262,90.332,1680.736,325.86656365076584
158,1686274974.84,33.203,178.711,21.484,34.18,1680.74,348.3991138463365
159,1686274974.85,3.418,-517.578,-191.895,66.406,1680.744,318.40672350605223
160,1686274974.85,66.406,-574.219,-161.133,120.605,1680.748,331.47857101727726
161,1686274974.86,105.469,-49.805,22.949,101.074,1680.752,361.33390452499845
162,1686274974.86,50.781,65.43,23.926,47.363,1680.756,326.8762647023583
163,1686274974.86,0.488,-491.699,-215.82,59.57,1680.76,341.5572150056734
164,1686274974.87,51.27,-687.5,-204.59,120.605,1680.764,333.4921674889492
165,1686274974.87,118.164,289.551,159.668,107.422,1680.768,334.9497472703271
166,1686274974.88,82.031,364.258,49.316,45.898,1680.772,326.04480139667817
167,1686274974.88,23.438,88.867,8.789,28.809,1680.775,334.2287397767651
168,1686274974.88,49.805,243.652,88.867,74.219,1680.779,347.7349680125404
169,1686274974.89,111.328,420.41,124.023,108.398,1680.783,333.05304606840747
170,1686274974.89,93.262,218.262,34.18,63.965,1680.787,332.04724829104407
171,1686274974.89,30.762,20.508,0.488,26.367,1680.79,328.8081684190633
172,1686274974.9,36.133,229.004,87.402,76.172,1680.794,331.0930248048209
173,1686274974.9,102.539,112.793,52.734,132.812,1680.798,336.52756601128516
174,1686274974.91,109.375,-235.352,-123.535,104.98,1680.802,329.3322110807966
175,1686274974.91,38.086,-810.547,-354.492,49.316,1680.806,343.1057823578894
176,1686274974.91,12.207,-336.914,-32.227,37.598,1680.81,332.75363287471805
177,1686274974.92,85.449,458.496,179.688,91.309,1680.814,339.9759312476715
178,1686274974.92,118.652,168.457,32.227,97.656,1680.818,340.9573533683672
179,1686274974.92,73.73,41.016,9.766,24.902,1680.822,334.67257333621177
180,1686274974.93,29.297,327.148,109.375,16.113,1680.852,328.6697091620949
181,1686274974.93,76.66,433.105,138.672,91.309,1680.856,343.4121502144251
182,1686274974.93,137.207,33.691,-20.02,121.582,1680.86,341.8995084954493
183,1686274974.94,83.984,-242.188,-46.875,59.57,1680.864,349.1593775068018
184,1686274974.94,12.695,100.586,62.5,20.02,1680.868,342.97462848406
185,1686274974.95,41.992,166.016,45.41,80.566,1680.871,338.79733988829753
186,1686274974.95,96.191,-518.555,-215.332,134.766,1680.875,334.7284033442218
187,1686274974.95,79.59,-713.867,-202.148,76.66,1680.879,343.78852689865255
188,1686274974.96,35.645,106.445,111.816,12.695,1680.883,344.4504100155915
189,1686274974.96,29.297,106.934,-5.859,55.664,1680.887,353.8110125540694
190,1686274974.96,88.867,-156.25,-8.301,109.863,1680.891,335.2981753494294
191,1686274974.97,101.562,131.836,88.867,74.707,1680.895,337.2086649966056
192,1686274974.97,40.527,421.875,110.352,6.348,1680.881,366.9316843049997
193,1686274974.98,2.441,183.594,24.414,20.02,1680.885,338.8958726484226
194,1686274974.98,51.758,8.789,-6.836,83.008,1680.889,332.46768181915246
195,1686274974.98,97.168,268.555,104.98,75.195,1680.893,325.3463663741494
196,1686274974.99,42.48,351.562,92.773,8.301,1680.897,355.9178070705897
197,1686274974.99,-11.719,-178.223,-134.277,5.859,1680.901,348.63462924508957
198,1686274975.0,21.973,-480.469,-158.203,65.918,1680.904,350.6975181739786
199,1686274975.0,81.055,158.691,114.746,74.707,1680.908,344.6921013724716
200,1686274975.0,45.898,466.797,142.578,7.324,1680.912,347.5012819495905
201,1686274975.01,-19.531,-92.285,-72.754,-11.23,1680.916,343.037223220331
202,1686274975.01,0.488,-217.285,-87.891,49.805,1680.92,343.24229679635283
203,1686274975.02,64.453,108.887,29.297,78.125,1680.924,349.17156523101494
204,1686274975.02,68.848,154.785,61.035,38.574,1680.927,363.4937060738806
205,1686274975.02,-2.441,-241.211,-123.535,-4.883,1680.931,351.6083803779094
206,1686274975.02,-23.926,-903.809,-360.84,14.16,1680.934,354.90597446732056
207,1686274975.03,62.012,-230.957,-23.926,51.758,1680.938,364.931453349338
208,1686274975.03,93.262,441.895,123.047,29.297,1680.942,352.61492491911724
209,1686274975.04,15.137,-348.633,-214.844,-17.578,1680.946,335.15390410539663
210,1686274975.04,-21.973,-723.145,-235.352,-4.395,1680.95,367.2062926981393
211,1686274975.04,46.875,282.227,170.898,50.781,1680.954,356.24582609206914
212,1686274975.05,88.867,353.516,47.363,53.223,1680.958,367.11767880195595
213,1686274975.05,36.133,-51.758,-34.668,-12.207,1680.962,368.14251179066537
214,1686274975.06,-21.484,120.117,88.379,-25.879,1680.966,363.62449485434297
215,1686274975.06,22.461,441.895,141.113,39.062,1680.97,376.29933089636984
216,1686274975.08,96.191,308.105,51.27,76.66,1680.974,363.8676005562802
217,1686274975.08,65.43,52.246,-36.133,15.625,1680.978,387.7237164606399
218,1686274975.08,-15.625,-62.988,-29.785,-33.203,1680.981,388.95512254102954
219,1686274975.09,-11.23,146.484,60.059,14.16,1680.985,388.7344451304661
220,1686274975.09,62.012,187.988,14.648,65.43,1680.989,383.52966923777325
221,1686274975.1,49.805,-524.414,-250.488,30.273,1680.993,393.54808720413115
222,1686274975.1,-16.602,-337.891,-73.73,-43.457,1680.997,400.7323809987676
223,1686274975.1,-17.578,358.887,175.781,-29.785,1681.001,389.64755283093706
224,1686274975.11,40.039,22.461,-78.125,38.086,1681.005,404.0498566603955
225,1686274975.11,46.387,-433.105,-183.594,28.32,1681.009,397.3149945898937
226,1686274975.12,-15.137,127.441,91.797,-46.387,1681.013,387.3481786082729
227,1686274975.12,-48.34,288.574,62.988,-51.27,1681.017,393.2336227532297
228,1686274975.12,-1.953,43.945,-4.395,10.742,1681.018,387.98042548879937
229,1686274975.12,46.875,145.02,40.039,20.508,1681.022,386.3717865960479
230,1686274975.13,6.836,57.617,14.16,-43.945,1681.025,406.67072674162097
231,1686274975.13,-49.805,-117.676,-27.344,-71.777,1681.029,410.15736808098535
232,1686274975.14,-20.02,-517.578,-206.055,0.977,1681.033,403.70777761713214
233,1686274975.14,38.574,-750.488,-246.582,41.016,1681.037,410.4993123300566
234,1686274975.14,23.438,-247.559,-15.137,-21.973,1681.041,412.70336041676796
235,1686274975.15,-39.551,100.586,16.602,-78.125,1681.045,404.2086633613351
236,1686274975.15,-47.363,-453.125,-241.211,-32.227,1681.049,406.9064214904238
237,1686274975.16,14.16,-642.09,-220.215,29.785,1681.053,405.4969937993698
238,1686274975.16,30.273,327.637,141.602,-14.16,1681.057,403.00335116577537
239,1686274975.16,-33.203,267.09,14.16,-69.824,1681.061,423.30167503575206
240,1686274975.17,-62.012,32.715,-13.672,-62.988,1681.062,426.7474595440137
241,1686274975.17,-2.441,280.762,89.355,-6.348,1681.066,418.2078515435174
242,1686274975.17,27.832,434.57,117.676,-7.324,1681.07,389.9203095551936
243,1686274975.18,-24.902,185.059,0.977,-74.219,1681.074,410.6345425145386
244,1686274975.18,-75.195,-45.898,-83.008,-80.566,1681.078,417.4806694757692
245,1686274975.19,-33.203,-29.297,-2.441,-3.418,1681.082,408.8980487509321
246,1686274975.19,35.156,108.887,71.777,12.207,1681.086,404.08873848728854
247,1686274975.19,17.578,-61.523,-97.168,-47.363,1681.09,416.1561131199096
248,1686274975.2,-45.898,-813.965,-338.867,-57.129,1681.093,410.6689738899498
249,1686274975.2,-31.25,-262.695,19.043,-11.719,1681.097,396.81373589084205
250,1686274975.2,41.992,499.023,178.711,21.973,1681.101,425.5683528996069
251,1686274975.21,40.527,127.441,3.418,-15.137,1681.105,406.02753654971934
252,1686274975.21,-27.344,45.41,-1.953,-66.406,1681.122,406.2393941985804
253,1686274975.22,-42.48,350.098,102.051,-33.203,1681.126,425.43801232710524
254,1686274975.22,27.344,240.723,66.895,31.25,1681.13,423.4350138846668
255,1686274975.22,52.734,-393.066,-168.457,22.949,1681.134,431.8104800120672
256,1686274975.23,1.465,-441.895,-151.855,-30.273,1681.138,417.692302769649
257,1686274975.23,-38.086,-9.277,36.133,-24.414,1681.142,430.94214640370365
258,1686274975.24,12.207,39.551,23.926,39.551,1681.146,425.4633338507577
259,1686274975.24,57.129,-434.57,-162.109,58.105,1681.15,421.6041265865886
260,1686274975.24,9.766,-459.473,-128.418,-6.836,1681.153,423.5842141190244
261,1686274975.25,-31.25,288.574,78.613,-36.133,1681.157,424.19892971677103
262,1686274975.25,5.859,105.469,-4.395,41.016,1681.161,429.93163661075556
263,1686274975.25,68.359,-136.23,39.551,71.777,1681.165,429.5699463823704
264,1686274975.26,38.574,125.977,85.938,0.488,1681.159,438.10035130313315
265,1686274975.26,-27.832,417.969,101.562,-42.969,1681.163,421.4394054528795
266,1686274975.27,-15.137,169.922,4.883,13.184,1681.166,412.81192603169046
267,1686274975.27,55.176,31.738,-10.254,66.895,1681.17,430.22379539239284
268,1686274975.28,68.848,304.688,82.031,28.32,1681.174,414.9749930676485
269,1686274975.28,9.766,149.902,11.23,-13.184,1681.178,414.2522907374596
270,1686274975.28,-8.301,-306.641,-170.41,23.438,1681.182,409.33157720567215
271,1686274975.29,55.176,-377.93,-142.578,79.102,1681.186,424.73230735935397
272,1686274975.29,79.102,178.711,89.355,45.41,1681.19,429.7057099426295
273,1686274975.29,10.742,454.59,119.141,-35.645,1681.194,429.86033637693953
274,1686274975.3,-33.203,-143.066,-121.582,-24.414,1681.198,423.34273310136166
275,1686274975.3,15.137,-460.449,-180.664,43.945,1681.202,435.55744027436975
276,1686274975.3,58.105,91.797,61.523,38.574,1681.202,408.9766274852983
277,1686274975.31,18.555,189.453,23.926,-25.391,1681.206,418.31784943518846
278,1686274975.31,-36.621,-190.918,-59.57,-33.691,1681.21,415.5414098195046
279,1686274975.32,-5.371,-198.73,-28.32,24.414,1681.214,416.00297433433843
280,1686274975.32,76.172,223.633,40.527,53.223,1681.218,428.78676462855844
281,1686274975.32,53.711,54.199,-5.371,5.859,1681.221,420.72545094376585
282,1686274975.33,-19.043,-492.188,-199.707,-30.273,1681.225,426.7299644930892
283,1686274975.33,-13.672,-1000.0,-407.715,22.461,1681.229,415.815662257679
284,1686274975.33,53.223,-240.234,-17.578,55.664,1681.233,426.4759436875318
285,1686274975.34,65.43,351.562,77.148,16.602,1681.237,434.20065668780114
286,1686274975.34,-0.488,67.871,-40.527,-27.344,1681.241,415.8596043381813
287,1686274975.35,-22.461,290.527,96.68,-7.812,1681.245,416.8305312031164
288,1686274975.35,48.828,540.527,137.207,50.293,1681.256,412.53587459810785
289,1686274975.35,76.66,354.98,20.02,42.969,1681.26,413.9664499669164
290,1686274975.36,11.23,-27.344,-81.055,-16.602,1681.264,411.979615583463
291,1686274975.36,-37.109,-71.777,-0.977,-30.273,1681.268,415.3663270027997
292,1686274975.36,8.789,240.234,93.75,30.273,1681.271,418.9746661222204
293,1686274975.37,65.918,113.281,-45.41,52.734,1681.275,433.5113625224835
294,1686274975.37,21.973,-762.207,-360.84,7.812,1681.279,420.17713494310584
295,1686274975.38,-23.926,-425.781,-89.844,-31.25,1681.283,415.0352892131349
296,1686274975.38,13.184,420.41,162.598,9.766,1681.287,405.77531719340953
297,1686274975.38,75.684,207.031,11.719,67.871,1681.291,412.7229344224622
298,1686274975.39,64.941,108.398,5.371,25.391,1681.295,418.2510788316087
299,1686274975.39,4.395,357.91,93.262,-18.066,1681.299,399.9439215444354
300,1686274975.41,-0.977,356.445,105.957,21.484,1681.303,405.50852895479284
301,1686274975.41,56.641,194.336,41.016,60.547,1681.307,402.41966154798337
302,1686274975.42,73.73,-25.391,-49.805,26.855,1681.311,408.8801992039436
303,1686274975.42,17.09,-11.23,-19.531,-30.762,1681.315,392.2793891955554
304,1686274975.42,-16.602,223.633,67.871,-15.137,1681.319,406.36852357581785
305,1686274975.43,22.949,-420.41,-206.055,74.707,1681.323,395.7647565707447
306,1686274975.43,57.617,-860.84,-328.613,77.148,1681.327,376.0080825851611
307,1686274975.43,16.113,-83.984,13.184,-24.414,1681.33,388.67844787129593
308,1686274975.44,-29.297,318.359,39.551,-40.039,1681.334,391.8773171964979
309,1686274975.44,4.883,-249.023,-139.16,32.715,1681.338,376.5566666007932
310,1686274975.45,51.758,-147.461,-2.93,44.434,1681.342,383.77746347953325
311,1686274975.45,35.156,468.75,135.254,-15.625,1681.346,358.7196683320679
312,1686274975.45,-18.066,223.633,8.789,-35.156,1681.347,352.0515413299883
313,1686274975.46,-2.93,79.102,3.906,25.879,1681.351,355.36532703903777
314,1686274975.46,66.895,295.898,83.984,73.242,1681.355,365.0180778520342
315,1686274975.46,60.059,399.902,91.309,27.344,1681.359,365.317879826863
316,1686274975.47,-5.371,162.598,-12.695,-27.832,1681.363,343.2850847672436
317,1686274975.47,-9.766,-249.512,-158.691,17.578,1681.367,358.20673926109043
318,1686274975.48,61.523,-44.922,-7.812,75.195,1681.371,352.48670056036775
319,1686274975.48,78.613,338.379,116.211,34.18,1681.375,343.952115409181
320,1686274975.48,9.766,-78.125,-130.371,-20.996,1681.378,315.0892535825755
321,1686274975.49,-25.391,-917.969,-421.387,12.207,1681.382,335.6949741782983
322,1686274975.49,33.203,-324.707,-62.5,57.617,1681.386,338.9384438850562
323,1686274975.49,72.754,483.398,163.574,33.691,1681.39,330.00493743167004
324,1686274975.51,16.113,74.707,-34.18,-27.344,1681.407,306.99841272269845
325,1686274975.52,-37.598,64.941,12.695,-35.156,1681.411,288.8198632904781
326,1686274975.52,1.465,183.594,56.641,31.25,1681.415,307.07177118257283
327,1686274975.52,62.5,90.332,3.906,57.617,1681.419,298.0681786869997
328,1686274975.53,35.645,-319.824,-165.039,8.301,1681.423,286.4063639819572
329,1686274975.53,-33.203,-629.395,-212.891,-31.25,1681.427,290.7462446317847
330,1686274975.54,-19.043,26.855,73.73,5.371,1681.431,293.0273338207935
331,1686274975.54,54.688,487.793,106.934,60.547,1681.435,290.9086701458369
332,1686274975.54,63.477,-107.422,-14.16,47.852,1681.438,294.5406248771993
333,1686274975.54,49.805,-268.555,-204.59,33.691,1681.439,286.25127556173464
334,1686274975.54,3.418,128.906,58.594,-20.508,1681.442,301.9590887298302
335,1686274975.55,-18.555,-481.445,-167.969,-34.18,1681.442,290.8342841075412
336,1686274975.55,-22.461,416.504,94.238,-23.438,1681.446,292.0614012652584
337,1686274975.55,-14.16,273.926,58.105,-26.367,1681.446,290.4627937966071
338,1686274975.55,28.32,227.051,6.836,53.223,1681.449,285.51254422714237
339,1686274975.55,52.246,111.816,-42.48,48.828,1681.45,283.30080641655314
340,1686274975.56,66.406,90.332,-34.18,62.5,1681.453,270.78313259242555
341,1686274975.56,27.832,-11.719,-54.199,-7.324,1681.457,281.87754072703154
342,1686274975.56,-19.531,40.527,15.625,-31.738,1681.461,284.66074251722733
343,1686274975.57,6.836,-2.441,-57.617,26.367,1681.465,268.9246398031214
344,1686274975.57,60.547,-242.188,-160.645,63.965,1681.469,281.1772484100127
345,1686274975.58,48.828,167.969,54.688,9.766,1681.473,290.30142396142327
346,1686274975.58,-14.16,435.059,106.934,-36.621,1681.477,286.92391894525144
347,1686274975.58,-27.832,-150.391,-136.23,15.625,1681.481,282.61639613312303
348,1686274975.59,33.691,-566.406,-221.191,76.66,1681.486,279.2755283627811
349,1686274975.59,39.062,-24.414,31.25,25.391,1681.49,276.7132333978813
350,1686274975.6,-23.438,65.918,-7.812,-39.062,1681.494,286.49824577014954
351,1686274975.6,-43.457,-495.117,-226.562,-8.301,1681.498,287.16790475946266
352,1686274975.6,9.766,-672.852,-224.609,55.664,1681.502,284.62421688483005
353,1686274975.61,47.852,-94.238,26.855,30.762,1681.506,296.11022828200385
354,1686274975.61,12.207,102.539,11.719,-37.598,1681.509,300.05952161968196
355,1686274975.61,-37.598,-456.543,-218.75,-18.066,1681.513,297.5763843679541
356,1686274975.62,-4.883,-469.238,-145.508,44.922,1681.517,300.9771066606519
357,1686274975.62,68.848,453.125,157.715,47.363,1681.521,314.0812839274202
358,1686274975.63,52.246,316.406,4.395,4.883,1681.525,304.5147661478957
359,1686274975.63,-9.277,35.156,-52.734,-20.996,1681.529,320.0803194089197
360,1686274975.63,2.93,279.785,76.66,22.949,1681.529,325.85823171462977
361,1686274975.64,76.172,493.652,128.906,69.824,1681.533,310.6536171039689
362,1686274975.64,69.336,255.859,-10.742,33.203,1681.537,317.17655374242844
363,1686274975.64,-3.418,-63.477,-109.863,-21.484,1681.541,320.51530138336875
364,1686274975.65,-10.254,-58.105,-6.836,21.484,1681.545,320.66393239969943
365,1686274975.65,58.105,-26.367,10.254,76.66,1681.549,311.1884393561356
366,1686274975.66,84.473,-139.16,-134.766,49.805,1681.553,312.2998874047322
367,1686274975.66,6.348,-777.832,-364.746,1.953,1681.557,335.9855679603492
368,1686274975.66,-30.762,-411.621,-85.449,2.93,1681.56,328.5193510919813
369,1686274975.67,33.203,426.27,140.137,54.688,1681.564,337.3664511309973
370,1686274975.67,66.895,208.496,-1.465,50.293,1681.568,320.8377149554003
371,1686274975.68,17.578,83.496,-18.555,-15.137,1681.572,323.1087110565565
372,1686274975.68,-34.668,288.574,63.477,-28.809,1681.572,322.00938778348404
373,1686274975.68,2.93,334.961,76.172,31.738,1681.576,329.484465771247
374,1686274975.68,59.57,-42.969,-50.781,67.383,1681.58,326.3372185788784
375,1686274975.69,19.531,-158.203,-68.848,7.812,1681.584,328.29486220105355
376,1686274975.69,-37.598,186.035,20.02,-39.551,1681.588,318.60739392581564
377,1686274975.7,-9.766,97.656,-1.953,17.09,1681.592,332.5918195457383
378,1686274975.7,51.27,-506.836,-234.375,78.613,1681.596,344.7060942758094
379,1686274975.7,39.551,-967.285,-366.699,43.945,1681.599,324.44169207848546
380,1686274975.71,-22.949,-159.18,3.418,-31.738,1681.603,355.9268215671507
381,1686274975.71,-38.086,298.34,37.598,-20.02,1681.607,314.9289913313161
382,1686274975.72,29.297,97.168,-29.785,44.922,1681.611,318.5554471693478
383,1686274975.72,52.734,267.09,58.105,27.832,1681.615,339.42977703437737
384,1686274975.72,-9.277,444.336,90.82,-40.039,1681.62,317.31099083623275
385,1686274975.73,-47.363,182.129,-32.715,-27.344,1681.623,324.03179499245294
386,1686274975.73,-3.418,-2.441,-63.965,44.434,1681.627,332.3977562695852
387,1686274975.74,48.34,256.836,55.664,40.039,1681.631,331.18256141975564
388,1686274975.74,14.16,313.477,33.203,-33.691,1681.635,323.97563588181623
389,1686274975.74,-37.598,-156.25,-150.391,-27.832,1681.639,305.1510591791373
390,1686274975.75,-9.766,-645.996,-284.18,44.434,1681.643,317.7785121439759
391,1686274975.75,64.941,-58.594,3.906,59.57,1681.647,311.7745512894645
392,1686274975.75,54.199,425.293,117.676,8.301,1681.651,326.4701274865901
393,1686274975.76,-21.973,-192.871,-173.34,-38.086,1681.655,311.6203158552545
394,1686274975.76,-14.16,-395.02,-200.195,0.488,1681.659,309.7321807152056
395,1686274975.77,64.941,285.645,108.398,58.105,1681.663,325.0195828846341
396,1686274975.78,75.195,413.086,79.102,32.227,1681.677,315.43027880389707
397,1686274975.78,13.672,36.133,-66.895,-19.043,1681.681,303.145024468358
398,1686274975.79,-8.301,-217.285,-84.473,9.766,1681.685,325.0313514577959
399,1686274975.79,58.105,-70.801,29.785,73.73,1681.689,318.6322158924719
400,1686274975.8,82.52,241.211,74.219,51.758,1681.693,325.39982696483554
401,1686274975.8,9.277,-375.0,-271.973,-4.395,1681.697,330.43953804786275
402,1686274975.8,-41.992,-943.848,-394.043,-1.465,1681.701,314.67983077689416
403,1686274975.81,21.484,-31.738,45.41,43.945,1681.705,321.9957849500475
404,1686274975.81,77.148,352.051,40.039,56.152,1681.709,333.67624171092376
405,1686274975.81,76.66,-28.32,-83.496,62.988,1681.722,319.4703257569761
406,1686274975.82,26.367,36.621,-62.5,8.301,1681.712,329.09092570159015
407,1686274975.82,61.035,-209.473,-84.961,15.625,1681.725,353.15886937357936
408,1686274975.82,-22.949,167.48,35.156,-14.16,1681.716,340.1918737889012
409,1686274975.82,-1.953,35.156,13.672,-25.879,1681.729,348.4458395856214
410,1686274975.82,12.695,205.078,-9.766,37.109,1681.72,352.453057151678
411,1686274975.83,3.418,373.047,83.008,5.371,1681.733,338.85890248807715
412,1686274975.83,65.43,203.613,-27.832,62.988,1681.737,336.87197848754624
413,1686274975.83,62.012,-162.598,-138.672,28.809,1681.741,340.66229629873396
414,1686274975.84,-9.277,-66.406,-38.086,-34.18,1681.745,363.7179213733215
415,1686274975.84,-27.832,358.398,110.84,-14.648,1681.749,364.23002350572114
416,1686274975.84,38.574,32.715,-107.422,55.176,1681.753,361.1277568080644
417,1686274975.85,68.359,-579.102,-317.871,48.34,1681.757,361.53008966802037
418,1686274975.85,22.949,-11.23,2.93,-30.762,1681.761,394.1144883121791
419,1686274975.86,-17.09,348.145,67.383,-32.715,1681.764,383.4650406617391
420,1686274975.87,18.555,73.73,-35.645,44.434,1681.771,410.55067404541626
421,1686274975.88,73.73,92.285,-5.371,71.289,1681.775,418.39639934084016
422,1686274975.88,45.898,55.664,-39.062,9.277,1681.778,429.57474612809494
423,1686274975.88,-17.09,-70.801,-59.57,-25.879,1681.782,435.90701397311085
424,1686274975.89,0.0,-481.445,-212.402,40.039,1681.786,429.41636205804997
425,1686274975.89,53.223,-866.699,-332.52,92.773,1681.79,430.031343898164
426,1686274975.9,41.016,-176.27,-15.137,20.508,1681.794,456.83539797472656
427,1686274975.9,-15.137,285.156,24.902,-41.016,1681.798,438.20684256753185
428,1686274975.9,-20.508,-285.645,-152.344,17.09,1681.802,444.78719904157293
429,1686274975.91,44.434,-208.984,-4.883,66.406,1681.806,447.4724155618714
430,1686274975.91,65.918,479.492,120.117,27.832,1681.81,462.5761861299674
431,1686274975.92,6.348,255.371,-22.461,-34.668,1681.814,462.1945354591817
432,1686274975.92,-15.137,21.484,-43.945,-9.277,1681.813,465.9601145732561
433,1686274975.92,46.387,304.199,79.59,63.965,1681.816,469.8911409740102
434,1686274975.92,78.125,504.395,118.652,54.199,1681.82,490.8673650748572
435,1686274975.93,25.391,231.445,-28.32,-13.672,1681.824,488.50730138644377
436,1686274975.93,-24.414,-75.684,-143.066,-20.02,1681.828,488.265759591563
437,1686274975.94,17.578,-56.152,-49.316,48.34,1681.832,494.0349214384181
438,1686274975.94,67.871,-30.762,-13.672,59.57,1681.836,477.89811450628133
439,1686274975.94,31.25,-168.457,-157.227,-2.93,1681.84,485.56884646924925
440,1686274975.95,-33.203,-774.902,-354.492,-26.367,1681.844,500.0075598406661
441,1686274975.95,-6.836,-334.473,-48.828,15.137,1681.848,505.44474592096356
442,1686274975.96,65.918,488.281,142.578,46.387,1681.852,515.920700941344
443,1686274975.96,55.664,211.426,-7.812,9.277,1681.855,501.52921521090525
444,1686274975.96,-11.23,98.145,-18.066,-46.875,1681.857,502.5799217820423
445,1686274975.96,-24.902,293.945,44.922,-23.438,1681.861,519.7761179578124
446,1686274975.97,36.133,162.109,4.395,44.434,1681.865,503.19789860474174
447,1686274975.97,60.059,-432.129,-194.336,40.527,1681.869,514.1693835861996
448,1686274975.98,-1.465,-449.219,-176.758,-21.484,1681.873,504.93045848059006
449,1686274975.98,-38.086,-12.695,-18.555,-25.879,1681.877,516.6130496725223
450,1686274975.98,22.949,46.387,14.16,35.156,1681.881,500.5486109810863
451,1686274975.99,67.383,-450.195,-207.031,61.035,1681.885,526.2875848333352
452,1686274975.99,13.672,-754.883,-246.094,12.695,1681.889,526.5692407573318
453,1686274976.0,-35.156,192.871,117.188,-32.227,1681.892,518.7818377576677
454,1686274976.0,-0.488,384.277,42.969,18.555,1681.896,516.7043013800843
455,1686274976.0,57.129,120.117,-26.367,49.316,1681.9,503.1517392087913
456,1686274976.01,25.391,296.387,71.289,-9.277,1681.904,516.9679647066534
457,1686274976.01,-40.527,462.891,96.191,-41.504,1681.908,523.3423172262334
458,1686274976.02,-23.926,209.961,-27.344,11.23,1681.912,505.3064867225541
459,1686274976.02,43.945,93.75,-31.25,62.012,1681.916,512.4208233067321
460,1686274976.02,56.152,272.461,44.434,25.391,1681.92,515.1544859117479
461,1686274976.03,-10.254,102.051,-24.902,-35.645,1681.924,503.3939775952868
462,1686274976.03,-30.273,-226.562,-138.184,1.465,1681.928,511.68894098351717
463,1686274976.03,43.457,-540.527,-222.168,81.055,1681.932,524.9164259846816
464,1686274976.04,60.547,12.207,12.207,41.016,1681.936,500.3127111959302
465,1686274976.04,-17.09,444.824,83.984,-49.316,1681.94,511.68014587474636
466,1686274976.05,-64.941,-214.355,-169.922,-42.48,1681.943,492.33548590520434
467,1686274976.05,-7.812,-314.453,-155.762,37.109,1681.947,497.29622908993264
468,1686274976.05,38.574,368.164,107.91,33.691,1681.961,507.22232564682923
469,1686274976.06,-16.602,431.152,73.73,-39.551,1681.965,505.13987617681516
470,1686274976.06,-81.055,-156.25,-114.258,-53.711,1681.969,493.7585891937841
471,1686274976.06,-40.039,-172.852,-38.086,-7.324,1681.973,475.2389988799215
472,1686274976.07,30.762,310.059,80.566,22.949,1681.977,501.9354626403227
473,1686274976.07,8.789,124.023,-43.457,-15.137,1681.981,493.7822192893825
474,1686274976.08,-59.082,-577.637,-333.496,-51.758,1681.985,481.10745919260364
475,1686274976.08,-54.688,-731.445,-273.926,-12.695,1681.989,476.65842108196296
476,1686274976.08,21.973,206.055,119.141,19.531,1681.992,478.7940733164218
477,1686274976.09,35.645,365.234,2.93,-4.395,1681.996,471.98886099543864
478,1686274976.09,-20.02,47.363,-49.805,-43.945,1682.0,477.1118970783581
479,1686274976.09,-47.852,224.121,58.594,-31.738,1682.004,466.3984135146566
480,1686274976.1,14.16,298.34,23.438,40.039,1681.999,447.2914675486128
481,1686274976.1,54.688,38.086,-68.359,46.387,1682.003,449.2082543912013
482,1686274976.11,7.324,-203.613,-84.961,-19.043,1682.007,440.0984235658859
483,1686274976.11,-32.715,28.32,21.973,-21.484,1682.01,474.2940288907228
484,1686274976.12,4.395,373.047,81.543,37.598,1682.014,424.04158720505245
485,1686274976.12,54.199,-26.367,-102.539,56.152,1682.018,439.9231637406208
486,1686274976.12,23.438,-446.777,-229.004,1.465,1682.022,421.6278558208238
487,1686274976.13,-35.156,3.418,-19.531,-31.738,1682.026,404.4539034717332
488,1686274976.13,-14.648,446.289,130.859,21.973,1682.03,422.91250930589376
489,1686274976.13,47.363,-21.973,-105.469,67.383,1682.034,412.8581321579532
490,1686274976.14,34.18,-351.074,-227.051,24.902,1682.038,420.4677862051041
491,1686274976.14,-23.926,231.445,62.5,-37.109,1682.042,390.7112586559749
492,1686274976.16,-18.066,373.047,88.379,3.906,1682.052,359.37132762520577
493,1686274976.16,42.969,157.227,0.977,75.195,1682.056,361.74558658000694
494,1686274976.16,45.41,-61.035,-64.453,45.898,1682.06,365.1634870297423
495,1686274976.17,-11.23,-167.48,-85.938,-21.973,1682.064,343.90617215302046
496,1686274976.17,-26.855,-73.73,-43.945,-11.719,1682.068,356.3553728257497
497,1686274976.18,33.203,-428.223,-218.75,64.941,1682.072,344.028446095372
498,1686274976.18,71.777,-1000.0,-477.539,84.961,1682.076,312.54066567914816
499,1686274976.18,36.621,-388.672,-144.531,14.16,1682.08,324.2548729334153
500,1686274976.19,-0.977,292.969,42.48,1.953,1682.084,314.396305579653
501,1686274976.19,30.273,144.531,-30.273,64.941,1682.087,308.02286009098793
502,1686274976.2,83.496,291.504,46.875,64.941,1682.091,304.4300555697554
503,1686274976.2,58.594,437.012,75.195,5.859,1682.095,287.39072973054994
504,1686274976.2,-3.418,191.406,-9.277,-23.926,1682.097,283.65964954983224
505,1686274976.2,7.812,69.824,-29.785,14.648,1682.101,288.7131047103164
506,1686274976.21,78.613,227.539,74.707,62.012,1682.105,266.8550415330824
507,1686274976.21,74.707,352.539,90.82,32.715,1682.109,254.55060064351008
508,1686274976.22,4.883,175.781,-28.32,-6.836,1682.113,273.48589967110144
509,1686274976.22,-11.719,-256.836,-173.34,13.672,1682.117,265.87489548986673
510,1686274976.22,44.434,-207.52,-86.426,57.617,1682.121,252.90145258549015
511,1686274976.23,69.336,129.395,86.914,44.922,1682.125,263.286824605132
512,1686274976.23,9.766,-19.531,-116.699,-15.137,1682.129,266.34309848257686
513,1686274976.24,-40.527,-807.617,-405.273,2.93,1682.132,257.533636019261
514,1686274976.24,10.742,-269.531,-18.555,52.246,1682.136,250.36979413605044
515,1686274976.24,66.895,452.148,111.816,41.504,1682.14,236.82286854672142
516,1686274976.25,24.902,104.98,-61.523,-26.367,1682.143,244.76612421803185
517,1686274976.25,-32.715,113.281,-8.301,-48.828,1682.147,238.1063119038708
518,1686274976.25,-10.742,114.746,3.418,23.926,1682.151,229.20659795317326
519,1686274976.26,49.316,-4.883,-25.391,61.035,1682.155,224.20991705595395
520,1686274976.26,24.902,-372.559,-196.289,10.254,1682.158,231.1174683305402
521,1686274976.27,-40.527,-677.734,-297.363,-27.344,1682.162,235.35676053093252
522,1686274976.27,-22.461,-5.371,-0.977,8.789,1682.166,224.10767979774542
523,1686274976.27,45.41,425.293,98.145,51.758,1682.17,222.0476489920657
524,1686274976.28,46.387,-376.953,-266.602,39.062,1682.174,222.5086172178014
525,1686274976.28,-26.855,-753.418,-276.855,-17.09,1682.178,224.65639860154494
526,1686274976.28,-33.691,202.637,107.422,-21.484,1682.182,222.0252229703274
527,1686274976.29,37.598,341.309,40.039,45.898,1682.186,233.31538211427295
528,1686274976.29,63.477,83.984,-43.945,41.992,1682.187,217.7709787631178
529,1686274976.3,11.23,199.219,14.648,-30.273,1682.191,227.9021441765637
530,1686274976.3,-23.926,370.605,96.68,-40.527,1682.195,209.2407688642404
531,1686274976.3,24.902,236.328,0.977,39.062,1682.199,220.0472067012302
532,1686274976.31,64.453,88.867,-69.824,52.734,1682.203,220.8247361362827
533,1686274976.31,23.438,-62.012,-105.469,-23.926,1682.207,229.34291800754244
534,1686274976.32,-18.555,20.508,-20.02,-47.852,1682.211,232.18811518154862
535,1686274976.32,1.953,-20.02,-77.637,13.184,1682.215,223.19765163621003
536,1686274976.32,43.457,-532.227,-287.598,47.363,1682.218,219.7286647822386
537,1686274976.33,31.738,-44.434,-22.461,-11.23,1682.222,242.7766955697265
538,1686274976.33,-26.367,306.152,11.23,-49.805,1682.226,244.54410166079845
539,1686274976.33,-29.785,-282.715,-200.684,2.441,1682.23,244.74083811639431
540,1686274976.34,37.109,-297.852,-147.949,54.199,1682.234,237.74470370253545
541,1686274976.34,56.152,349.609,76.172,15.137,1682.238,236.2161262089965
542,1686274976.34,-4.883,208.008,-24.414,-42.969,1682.242,243.0444167763641
543,1686274976.35,-30.762,-510.742,-260.742,-15.137,1682.246,228.84168111471448
544,1686274976.35,33.203,-426.27,-173.34,56.152,1682.25,235.49929601795534
545,1686274976.36,72.266,40.527,-11.23,49.316,1682.254,238.8982722443238
546,1686274976.36,9.766,16.113,-78.125,-23.926,1682.258,246.84251249412557
547,1686274976.36,-46.387,-496.582,-282.715,-25.879,1682.262,244.0530883872062
548,1686274976.37,1.953,-526.367,-206.543,46.875,1682.266,246.5207910399969
549,1686274976.37,83.496,400.391,134.277,59.082,1682.269,245.16904130262893
550,1686274976.38,52.734,353.516,-0.488,-1.953,1682.273,242.43005018843462
551,1686274976.38,-20.996,46.875,-44.922,-24.902,1682.277,259.1522143160622
552,1686274976.38,4.395,232.91,56.152,36.133,1682.296,256.3861001595529
553,1686274976.39,77.637,282.227,31.738,73.242,1682.3,261.2503746392723
554,1686274976.39,65.918,-65.43,-96.191,21.484,1682.303,267.6039322513654
555,1686274976.4,-8.301,-310.547,-134.277,-29.785,1682.307,263.9947433201803
556,1686274976.4,-15.625,-4.395,-11.23,1.953,1682.311,257.98269886090117
557,1686274976.4,53.711,68.359,-9.277,65.918,1682.315,273.1720667006136
558,1686274976.41,59.082,-251.953,-158.203,48.34,1682.319,266.8256511098078
559,1686274976.41,-6.348,-592.285,-296.387,-18.066,1682.323,259.0293104913798
560,1686274976.42,-34.18,-185.547,-20.02,-25.391,1682.327,252.01020197624464
561,1686274976.42,22.461,396.973,122.559,37.109,1682.331,265.9188067483393
562,1686274976.42,58.105,153.809,-17.578,49.805,1682.335,270.1427727556635
563,1686274976.43,-45.898,304.688,52.246,-35.645,1682.322,279.9998882736063
564,1686274976.43,3.906,27.344,-31.25,-21.973,1682.339,269.92871038174053
565,1686274976.43,-3.906,386.23,62.012,38.574,1682.326,284.4102213036209
566,1686274976.43,52.246,-18.555,-65.918,68.359,1682.33,274.47892763601857
567,1686274976.44,18.066,-219.238,-94.238,9.766,1682.334,289.98917651211696
568,1686274976.44,-43.457,-78.613,-93.75,-31.25,1682.338,280.0063959138232
569,1686274976.45,-23.438,-77.637,-90.332,8.789,1682.342,294.07270997992015
570,1686274976.45,48.34,-448.73,-228.516,59.57,1682.346,291.7987625677897
571,1686274976.45,31.25,-980.469,-393.066,30.273,1682.349,280.15974475430403
572,1686274976.46,-35.156,-201.172,-8.301,-37.598,1682.353,289.006057635154
573,1686274976.46,-42.969,306.641,31.738,-19.043,1682.357,276.73497240519686
574,1686274976.46,27.344,151.367,-18.066,54.688,1682.361,289.31965618768874
575,1686274976.47,67.383,318.848,68.359,45.41,1682.365,296.7902804572276
576,1686274976.47,0.977,415.039,42.969,-34.668,1682.38,286.005385548234
577,1686274976.48,-44.922,171.387,-35.156,-33.691,1682.384,298.75272929146786
578,1686274976.48,10.742,43.457,-37.109,50.781,1682.388,308.75255898001336
579,1686274976.48,62.988,332.52,98.145,66.406,1682.392,294.39656392839845
580,1686274976.49,36.133,357.91,53.223,3.906,1682.396,304.4165448772555
581,1686274976.49,-25.391,-113.77,-170.41,-12.207,1682.4,297.85954366566153
582,1686274976.5,-8.789,-733.887,-323.242,68.359,1682.404,287.56591192974474
583,1686274976.5,68.359,-305.664,-45.898,98.633,1682.408,308.9805656618813
584,1686274976.5,54.688,402.832,125.977,20.02,1682.412,298.8797959455821
585,1686274976.51,-23.438,-56.641,-158.691,-18.066,1682.415,297.89905420166525
586,1686274976.51,-20.996,-355.469,-224.121,34.18,1682.419,308.98756099778035
587,1686274976.52,58.594,238.281,82.52,79.102,1682.423,328.4731536910918
588,1686274976.53,68.359,405.762,79.102,41.016,1682.426,319.42619512744517
589,1686274976.53,-7.812,65.43,-62.988,-9.277,1682.43,312.47787072870057
590,1686274976.54,-36.133,-205.566,-92.773,12.695,1682.434,317.4793289313749
591,1686274976.54,27.344,-31.738,-25.391,64.453,1682.438,320.1046347250976
592,1686274976.55,70.801,344.727,60.059,45.41,1682.442,323.87340367236123
593,1686274976.55,15.137,-329.102,-228.516,-3.906,1682.446,327.5060150066991
594,1686274976.55,-38.086,-832.52,-370.605,-0.977,1682.45,328.1317553348029
595,1686274976.56,16.113,88.867,39.062,37.598,1682.454,320.28733239547137
596,1686274976.56,72.754,340.332,30.273,60.547,1682.458,323.57479152950486
597,1686274976.56,24.902,-163.086,-164.551,10.742,1682.462,337.00822041952705
598,1686274976.57,-36.621,-75.684,-58.105,-25.391,1682.465,312.2130193336119
599,1686274976.57,-10.254,358.887,73.242,21.973,1682.469,328.84134397506
600,1686274976.58,59.57,262.207,15.625,67.871,1682.471,330.3204050276179
601,1686274976.58,45.41,-171.875,-112.793,24.902,1682.475,328.03169221502077
602,1686274976.58,-27.832,-60.059,-47.363,-26.367,1682.479,332.0387800060566
603,1686274976.59,-25.391,292.969,71.289,10.254,1682.483,321.44482155789456
604,1686274976.59,42.969,158.203,-7.324,68.848,1682.487,325.6177498402545
605,1686274976.6,45.898,-216.797,-168.945,45.898,1682.49,332.12441485857744
606,1686274976.6,-19.531,-163.574,-96.68,-21.973,1682.494,347.2141083405045
607,1686274976.6,-50.293,266.113,90.82,-24.414,1682.498,331.3875576855594
608,1686274976.61,6.348,16.113,-109.863,47.852,1682.502,330.9580683157256
609,1686274976.61,45.41,-585.449,-317.383,50.293,1682.506,345.4013544030116
610,1686274976.61,-5.859,-68.359,-28.809,-28.32,1682.51,335.98227886030656
611,1686274976.62,-49.805,218.75,-8.789,-33.691,1682.514,351.1931360576081
612,1686274976.64,-8.789,-364.258,-228.516,34.18,1682.532,348.87276478105963
613,1686274976.64,54.199,-302.734,-158.691,57.617,1682.536,351.31314692469607
614,1686274976.64,37.109,56.152,-8.301,1.953,1682.54,354.1553378187046
615,1686274976.65,-25.391,-79.102,-55.664,-26.855,1682.544,344.284725669121
616,1686274976.65,-15.625,-481.934,-216.309,22.461,1682.548,334.6577665232654
617,1686274976.66,51.758,-646.973,-250.977,62.988,1682.552,348.26380215862287
618,1686274976.66,47.363,-21.973,-12.695,1.953,1682.555,351.8136143789219
619,1686274976.66,-16.602,336.426,31.738,-45.898,1682.559,344.90541387864727
620,1686274976.66,-39.062,35.645,-51.758,-26.367,1682.56,350.6128898644257
621,1686274976.67,-42.969,-382.324,-253.418,-1.953,1682.563,355.9035697548111
622,1686274976.67,15.625,279.785,71.777,29.297,1682.564,349.9898030093185
623,1686274976.67,16.113,-505.859,-190.918,45.41,1682.567,347.02324376351766
624,1686274976.67,55.664,223.145,9.766,33.203,1682.568,336.92008590788276
625,1686274976.68,49.316,416.992,126.465,16.113,1682.571,331.5921677816899
626,1686274976.68,11.23,-115.723,-128.906,-16.113,1682.572,344.81441427572946
627,1686274976.68,-10.254,290.039,-33.691,-38.086,1682.575,349.81613965446104
628,1686274976.68,-29.785,-145.02,-156.25,-35.156,1682.576,342.65339135869317
629,1686274976.68,3.418,-105.469,-67.383,17.09,1682.58,350.6885541129677
630,1686274976.69,55.176,55.664,6.836,40.527,1682.584,345.8688653038617
631,1686274976.69,26.855,-47.363,-109.863,-10.254,1682.588,348.4929070224838
632,1686274976.7,-44.434,-215.82,-168.457,-45.41,1682.592,344.58605358609003
633,1686274976.7,-27.832,190.43,40.527,0.0,1682.596,350.33728760974816
634,1686274976.7,46.387,455.566,85.449,53.711,1682.6,352.15670668583675
635,1686274976.71,44.922,-95.703,-149.414,24.902,1682.603,343.08979667193256
636,1686274976.71,-27.344,-914.062,-363.281,-20.996,1682.605,361.77441676732974
637,1686274976.71,-36.133,-253.418,-34.668,-18.555,1682.609,354.8863499248768
638,1686274976.72,37.109,177.734,15.625,36.133,1682.613,350.033972505414
639,1686274976.72,55.176,-479.004,-254.883,41.016,1682.617,353.135583781544
640,1686274976.73,-13.672,-508.301,-218.75,-35.645,1682.621,347.0067221835074
641,1686274976.73,-55.664,-46.387,-37.598,-55.664,1682.625,357.8446223412265
642,1686274976.73,-3.906,2.93,-38.574,17.09,1682.629,356.9250991338813
643,1686274976.74,49.316,-481.934,-241.699,51.758,1682.633,357.8965841755537
644,1686274976.74,3.418,-729.492,-275.879,-20.996,1682.637,365.0312654466775
645,1686274976.74,-49.805,143.555,60.547,-64.453,1682.641,348.30887639914647
646,1686274976.75,-16.113,325.684,17.09,2.441,1682.645,368.1238637121384
647,1686274976.75,57.129,156.25,-17.578,49.805,1682.648,356.69606811884034
648,1686274976.76,49.805,351.074,65.918,0.977,1682.652,364.3297264996589
649,1686274976.76,-22.461,433.594,55.176,-48.828,1682.656,340.34156395944916
650,1686274976.76,-16.602,157.715,-46.387,-1.953,1682.66,348.1584689175373
651,1686274976.77,58.594,75.195,-44.922,54.688,1682.664,363.72488551123865
652,1686274976.77,65.918,253.418,10.742,21.973,1682.668,348.47773434662884
653,1686274976.78,-1.953,29.297,-102.539,-31.738,1682.672,354.83653165285904
654,1686274976.78,-36.621,-273.438,-267.09,-9.277,1682.676,365.47426424758726
655,1686274976.78,20.02,-668.457,-359.863,57.617,1682.679,351.69901296627893
656,1686274976.79,66.895,-247.07,-81.055,37.598,1682.683,351.51390142101326
657,1686274976.79,9.766,421.387,104.004,-46.875,1682.687,342.74397204839954
658,1686274976.8,-36.133,-50.781,-142.578,-38.574,1682.691,341.90477133166775
659,1686274976.8,13.184,-328.125,-235.352,38.574,1682.695,345.9074117053322
660,1686274976.8,69.336,277.344,54.199,51.27,1682.71,352.9067038221005
661,1686274976.8,34.668,436.035,72.266,-9.766,1682.714,357.397693955492
662,1686274976.81,-39.551,-118.652,-148.926,-36.133,1682.718,362.627058722294
663,1686274976.81,-23.438,-139.648,-84.473,12.207,1682.722,366.31138031153404
664,1686274976.82,47.852,318.359,58.105,42.969,1682.726,357.5348160320044
665,1686274976.82,29.785,126.465,-49.316,-4.883,1682.73,353.41453417494773
666,1686274976.82,-43.945,-552.734,-312.012,-31.25,1682.734,355.6420632139128
667,1686274976.83,-44.922,-738.281,-275.879,11.23,1682.738,365.9622036176087
668,1686274976.83,46.387,94.238,112.305,44.434,1682.742,375.93821830928295
669,1686274976.84,75.195,272.949,17.578,24.414,1682.746,369.49445982845737
670,1686274976.84,-2.441,-78.613,-135.742,-41.016,1682.749,370.12563259421984
671,1686274976.84,-30.273,60.059,-20.996,-37.109,1682.753,360.00850104550943
672,1686274976.85,32.227,467.285,114.258,36.621,1682.744,373.32409043534597
673,1686274976.85,62.5,354.492,20.508,44.922,1682.748,353.8795186017226
674,1686274976.86,6.348,-153.32,-157.715,-15.625,1682.752,370.06370179111275
675,1686274976.86,-40.527,15.625,-31.738,-33.691,1682.755,371.05232301583953
676,1686274976.86,5.859,343.262,57.129,26.367,1682.759,361.0203137867386
677,1686274976.87,59.082,-63.965,-142.09,61.523,1682.763,353.1272131381153
678,1686274976.87,18.066,-429.688,-196.289,-3.418,1682.767,371.03275986850514
679,1686274976.88,-41.992,-41.016,-23.926,-51.758,1682.771,375.1972281897134
680,1686274976.88,-24.414,423.34,90.332,4.395,1682.775,374.9443623740926
681,1686274976.88,41.016,53.711,-128.906,52.246,1682.779,388.95145896827876
682,1686274976.89,32.715,-438.965,-261.23,-4.883,1682.783,371.058217930429
683,1686274976.89,-36.133,105.469,22.461,-74.219,1682.787,371.96734244052067
684,1686274976.89,-37.109,233.398,-32.715,-31.738,1682.815,386.11757893120273
685,1686274976.9,24.902,-170.41,-122.07,36.621,1682.819,392.86511874013047
686,1686274976.9,35.645,-274.414,-127.441,17.578,1682.823,398.09423519427287
687,1686274976.9,-19.531,-37.109,-51.758,-52.734,1682.827,396.73995811663553
688,1686274976.91,-42.48,226.074,32.227,-50.293,1682.831,393.4584807907463
689,1686274976.91,8.301,-388.184,-270.508,32.715,1682.835,427.4997512631107
690,1686274976.92,45.898,-1000.0,-400.879,52.734,1682.839,422.1296353690142
691,1686274976.92,9.277,-182.617,-20.996,-25.391,1682.843,419.84718463984734
692,1686274976.92,-38.574,336.914,23.926,-54.688,1682.847,417.43045134501114
693,1686274976.93,-5.371,83.984,-64.453,9.766,1682.851,434.8060074036134
694,1686274976.93,59.57,233.398,37.109,43.945,1682.855,429.588266462095
695,1686274976.94,42.48,475.586,85.938,-8.301,1682.858,439.3368757273608
696,1686274976.97,-25.391,269.043,-21.973,-47.363,1682.862,483.0591910445373
697,1686274976.97,-21.973,84.961,-55.176,5.371,1682.866,490.64570426352213
698,1686274976.97,45.41,294.922,36.133,55.176,1682.87,494.5865059011935
699,1686274976.98,52.734,199.219,-20.02,20.02,1682.874,502.2557269089869
700,1686274976.98,-17.09,-142.09,-196.289,-33.691,1682.878,510.4771926878046
701,1686274976.99,-45.41,-565.918,-319.336,-6.348,1682.882,504.32062322649074
702,1686274976.99,29.785,-229.492,-65.43,49.316,1682.885,510.4536221592664
703,1686274976.99,72.266,431.152,115.234,31.25,1682.889,507.86469295614825
704,1686274977.0,16.113,-191.895,-184.57,-5.859,1682.891,524.0310886686768
705,1686274977.0,5.859,16.602,-156.738,-27.832,1682.893,501.869937121839
706,1686274977.0,-43.457,-554.199,-260.742,-30.762,1682.895,512.3810798376304
707,1686274977.0,-46.875,-270.02,-222.168,-29.785,1682.897,513.3003930842096
708,1686274977.0,-15.625,21.484,1.953,15.137,1682.899,506.8001455592878
709,1686274977.0,0.0,226.562,34.18,31.25,1682.901,513.1917449717295
710,1686274977.01,46.875,83.984,-28.32,45.898,1682.903,522.7411620789475
711,1686274977.01,55.664,483.398,91.309,46.875,1682.905,529.4357421342713
712,1686274977.01,33.691,-366.699,-177.734,-3.906,1682.907,512.8421408807122
713,1686274977.02,-38.574,-589.844,-238.77,-47.363,1682.91,528.781683832431
714,1686274977.02,-35.645,-96.68,-55.176,-21.484,1682.914,505.34043408536746
715,1686274977.02,42.48,35.645,-41.992,41.016,1682.918,525.6909077075735
716,1686274977.03,62.988,-54.199,-91.309,25.879,1682.922,516.7115602669124
717,1686274977.03,-6.836,80.566,-35.156,-45.898,1682.926,526.2772225662088
718,1686274977.03,-30.762,324.707,58.594,-33.691,1682.93,521.3195781931786
719,1686274977.04,37.109,418.457,74.219,32.227,1682.934,532.7299547922372
720,1686274977.04,61.035,-408.691,-266.602,50.293,1682.936,525.1017197439558
721,1686274977.04,3.418,-743.164,-294.922,3.418,1682.94,535.660502180811
722,1686274977.05,-29.785,96.68,48.828,-26.855,1682.944,530.3878042536243
723,1686274977.05,10.254,131.348,-49.805,28.32,1682.948,529.5590907916198
724,1686274977.06,58.594,97.656,-68.848,44.434,1682.952,519.7560167551344
725,1686274977.06,32.715,31.25,-87.891,-14.16,1682.956,529.0872495423384
726,1686274977.06,-23.438,21.484,-72.266,-41.992,1682.96,529.0357495901181
727,1686274977.07,-7.324,8.301,-80.078,11.719,1682.964,520.3571880385838
728,1686274977.07,58.594,-605.957,-305.664,70.312,1682.968,534.3238908771744
729,1686274977.08,54.688,-217.773,-91.797,26.367,1682.972,533.0701593145114
730,1686274977.08,-19.043,464.355,91.797,-35.156,1682.976,522.1057687719182
731,1686274977.08,-42.969,-11.719,-125.977,0.977,1682.979,518.7318746806922
732,1686274977.08,24.902,-224.121,-185.059,63.477,1682.982,525.9001513308958
733,1686274977.09,47.363,352.051,72.754,28.32,1682.986,518.0914646553784
734,1686274977.09,-21.484,278.809,1.465,-38.574,1682.99,496.8319125178758
735,1686274977.1,-51.27,-440.918,-277.344,-21.484,1682.994,519.7590064363844
736,1686274977.1,5.371,-442.871,-225.098,41.016,1682.998,494.30902601454625
737,1686274977.1,52.734,25.391,-11.23,43.457,1683.001,493.3849751945325
738,1686274977.11,11.719,86.914,-41.016,-19.531,1683.005,495.6331831179238
739,1686274977.11,-42.48,-442.383,-284.668,-24.902,1683.009,481.6483165808477
740,1686274977.12,-2.93,-476.562,-209.961,40.527,1683.013,496.1792114587407
741,1686274977.12,66.895,463.379,116.699,49.805,1683.017,494.03785786044574
742,1686274977.12,40.039,373.047,8.301,-4.395,1683.021,488.5286070329405
743,1686274977.13,-33.203,-43.457,-90.82,-31.738,1683.025,478.4998496545978
744,1686274977.13,-28.809,182.617,25.391,14.16,1683.029,458.19518976758434
745,1686274977.14,41.504,532.227,113.77,49.316,1683.033,448.906956852285
746,1686274977.14,48.34,277.832,-43.945,11.23,1683.037,463.8305646525223
747,1686274977.14,-21.973,-60.059,-110.352,-39.062,1683.04,459.41377255455905
748,1686274977.15,-25.879,165.527,30.273,-16.602,1683.044,438.47983901050793
749,1686274977.15,39.551,146.484,-0.488,42.48,1683.048,432.1077355337075
750,1686274977.16,59.57,-167.969,-145.508,42.48,1683.052,441.60034653052594
751,1686274977.16,2.441,-561.523,-288.086,-0.488,1683.056,428.10046822655414
752,1686274977.16,-42.48,-145.508,-44.922,-24.414,1683.06,427.1793899827885
753,1686274977.17,5.859,453.125,117.188,22.949,1683.064,426.3185943764094
754,1686274977.17,46.875,195.801,-29.785,36.133,1683.068,386.0860456028138
755,1686274977.18,12.207,61.523,-55.664,-26.855,1683.072,401.61439349060237
756,1686274977.18,-37.109,262.207,15.137,-54.199,1683.075,390.2556936955485
757,1686274977.18,-14.648,256.836,-5.859,0.488,1683.079,416.8075553322356
758,1686274977.18,45.898,-375.488,-238.77,56.152,1683.083,391.0056246663861
759,1686274977.19,14.648,-620.117,-295.898,-2.93,1683.087,388.27923978544715
760,1686274977.19,-46.387,47.363,-49.316,-66.406,1683.091,360.72553104637177
761,1686274977.2,-37.109,64.941,-101.562,-15.625,1683.095,362.4151108376998
762,1686274977.2,18.066,-561.035,-323.73,43.457,1683.099,343.98518493270615
763,1686274977.2,30.273,-754.883,-345.215,14.16,1683.103,334.1223173093868
764,1686274977.21,-16.113,86.426,-12.695,-46.875,1683.106,353.9764721615199
765,1686274977.21,-32.227,307.129,0.977,-18.066,1683.11,343.3259179293371
766,1686274977.22,17.578,92.285,-52.734,43.457,1683.114,312.6226161363404
767,1686274977.22,59.57,211.914,25.879,43.457,1683.118,325.0911442921511
768,1686274977.22,19.531,396.484,61.035,-19.531,1683.13,310.49022522046437
769,1686274977.23,-37.598,240.234,-20.508,-23.926,1683.134,316.39513860729454
770,1686274977.23,6.836,82.52,-53.223,47.363,1683.138,301.45703385289795
771,1686274977.24,83.008,285.645,51.758,71.777,1683.142,289.41999954026744
772,1686274977.24,43.457,142.09,-19.043,12.207,1683.146,296.41772944308843
773,1686274977.24,-26.855,-203.613,-206.543,-16.113,1683.15,271.14505504885676
774,1686274977.25,-7.812,-814.453,-402.832,52.246,1683.153,273.6843703399098
775,1686274977.25,63.965,-396.973,-113.281,75.195,1683.157,275.7656525622717
776,1686274977.25,51.27,265.625,52.246,12.207,1683.161,266.95402040867134
777,1686274977.26,-19.043,-148.926,-180.176,-23.926,1683.165,233.63740490011435
778,1686274977.26,-14.648,-11.719,-66.406,18.066,1683.169,256.21578209014376
779,1686274977.27,57.617,373.535,70.312,64.941,1683.173,247.65133953024466
780,1686274977.27,76.172,387.207,23.926,38.086,1683.176,254.45802730460753
781,1686274977.27,8.301,48.34,-71.289,-17.09,1683.18,245.30268261958497
782,1686274977.27,-27.344,-224.121,-110.352,-9.766,1683.184,256.89214637843014
783,1686274977.28,41.504,35.156,-10.742,60.547,1683.188,246.09858732886104
784,1686274977.28,80.078,403.809,99.609,52.734,1683.192,248.3550594408058
785,1686274977.29,13.184,-280.762,-230.469,-11.23,1683.196,246.258446954994
786,1686274977.29,-42.969,-896.973,-447.754,-8.301,1683.2,221.50317555197176
787,1686274977.29,0.0,-171.387,-51.27,28.32,1683.203,243.7542070156305
788,1686274977.3,69.824,354.98,46.387,45.898,1683.207,232.7017277953157
789,1686274977.3,41.504,-216.309,-164.062,11.719,1683.211,238.4129204605148
790,1686274977.3,-23.438,-269.531,-79.102,-18.066,1683.215,217.5290866875215
791,1686274977.31,7.812,369.141,55.176,34.18,1683.219,222.1529435741553
792,1686274977.33,70.312,335.938,14.16,69.336,1683.222,247.74889569515932
793,1686274977.33,40.039,113.281,-55.664,0.977,1683.226,227.80743774059943
794,1686274977.33,-24.902,171.387,-17.578,-51.758,1683.23,247.435888753223
795,1686274977.34,-26.855,298.34,29.785,-9.766,1683.234,249.1121916647035
796,1686274977.34,41.992,121.094,-61.035,55.664,1683.237,247.84253657741002
797,1686274977.35,52.246,-291.504,-226.562,32.227,1683.241,255.8106653425674
798,1686274977.35,-9.766,-199.707,-138.672,-30.762,1683.245,262.26470698690986
799,1686274977.35,-33.691,270.508,77.637,-25.391,1683.249,242.23790596711504
800,1686274977.36,15.625,1.465,-106.445,45.41,1683.253,251.17198592363047
801,1686274977.36,51.27,-623.047,-332.031,64.941,1683.257,246.98012863449287
802,1686274977.36,9.766,-125.488,-61.523,-12.695,1683.261,249.6139660125037
803,1686274977.37,-37.598,381.348,87.891,-33.203,1683.265,254.39796488904244
804,1686274977.37,-7.812,-104.004,-122.07,34.668,1683.267,265.32754855828597
805,1686274977.38,49.805,-292.969,-188.965,61.035,1683.271,265.97783305853676
806,1686274977.38,26.367,28.809,-44.434,-2.441,1683.275,280.1654021269585
807,1686274977.38,-33.203,-37.598,-143.555,-39.551,1683.279,265.74066372922715
808,1686274977.39,-32.227,-402.344,-247.559,6.836,1683.282,267.71565820060056
809,1686274977.39,31.738,-596.68,-251.465,54.199,1683.286,284.3933052702406
810,1686274977.4,39.062,-43.457,-25.879,9.277,1683.29,270.9606283492983
811,1686274977.4,-22.949,325.195,32.715,-62.988,1683.294,281.30538381855575
812,1686274977.4,-41.992,-351.074,-224.609,-20.508,1683.298,272.9840872005991
813,1686274977.41,16.602,-451.172,-152.344,48.34,1683.302,271.0247251529917
814,1686274977.41,51.758,455.566,115.723,13.184,1683.306,279.3508136198414
815,1686274977.41,-0.977,232.91,-51.758,-41.992,1683.31,297.7024615097247
816,1686274977.42,-47.852,-150.879,-92.285,-26.855,1683.318,279.5548336259056
817,1686274977.42,0.488,162.598,47.363,27.832,1683.322,301.0442005535395
818,1686274977.42,57.129,492.188,82.031,39.062,1683.326,285.1935210331485
819,1686274977.43,13.672,211.914,-44.922,-3.418,1683.329,282.2699648216208
820,1686274977.43,-29.785,-155.273,-150.879,-23.926,1683.333,301.5427549511236
821,1686274977.44,-4.883,-139.648,-87.891,19.043,1683.337,307.6821269437863
822,1686274977.44,55.176,107.91,19.531,49.316,1683.341,296.3511638435332
823,1686274977.44,45.898,49.316,-106.445,8.301,1683.345,299.27962804761904
824,1686274977.45,-32.715,-586.426,-354.004,-26.367,1683.349,292.9510625183344
825,1686274977.45,-26.367,-141.113,-55.664,0.977,1683.353,292.60845110011724
826,1686274977.46,49.805,455.566,91.309,52.246,1683.357,312.03962771739117
827,1686274977.46,56.152,109.863,-63.965,31.25,1683.361,291.77583851344264
828,1686274977.46,-9.277,-8.789,-61.035,-24.414,1683.357,290.1033800114725
829,1686274977.46,-28.809,210.938,-8.789,-3.906,1683.361,320.3231374304806
830,1686274977.47,30.762,116.699,-33.691,51.758,1683.365,301.75111679380825
831,1686274977.47,53.711,-493.652,-267.09,51.27,1683.369,293.8737822108146
832,1686274977.48,-7.812,-681.641,-327.148,-11.23,1683.373,296.02476569975164
833,1686274977.48,-51.27,-190.918,-149.902,-35.156,1683.377,288.49983901072335
834,1686274977.48,-5.371,-49.316,-111.816,20.02,1683.381,316.0205816377272
835,1686274977.49,47.852,-508.789,-284.18,49.316,1683.385,316.0533092874839
836,1686274977.49,11.23,-686.035,-300.781,-5.371,1683.389,307.3708238746409
837,1686274977.5,-41.016,194.336,35.645,-49.316,1683.393,304.7704135175098
838,1686274977.5,-17.09,324.707,-28.32,8.789,1683.396,299.4694164585833
839,1686274977.5,49.316,95.215,-52.734,50.781,1683.4,312.8262401554861
840,1686274977.51,43.945,235.352,20.508,-3.906,1683.404,299.3109294355025
841,1686274977.51,-27.832,397.461,49.805,-60.059,1683.407,295.12004692019855
842,1686274977.52,-21.973,183.594,-51.758,-6.348,1683.411,309.61661969468025
843,1686274977.52,60.059,52.246,-73.242,52.734,1683.415,305.9607766670363
844,1686274977.52,72.754,191.406,-11.23,25.879,1683.419,300.49041445174794
845,1686274977.53,2.441,0.0,-169.434,-24.414,1683.423,290.72451962120283
846,1686274977.53,-29.785,-279.297,-271.973,-7.324,1683.427,309.4973111023309
847,1686274977.53,23.926,-825.195,-422.363,74.707,1683.431,299.422072158776
848,1686274977.54,65.918,-386.719,-156.738,60.547,1683.435,315.97124851571726
849,1686274977.54,8.301,358.398,73.242,-34.18,1683.439,296.8823328517963
850,1686274977.55,-40.527,18.555,-92.285,-43.945,1683.443,310.7902208825955
851,1686274977.55,12.695,26.367,-39.062,24.414,1683.447,301.6284311300072
852,1686274977.55,74.707,400.391,78.125,51.27,1683.46,299.0221581444757
853,1686274977.56,48.34,398.438,23.926,-7.812,1683.464,307.47666945135654
854,1686274977.56,-20.996,-157.715,-146.484,-34.668,1683.468,317.21724037624466
855,1686274977.56,-6.836,-211.426,-79.59,23.438,1683.472,291.191503705059
856,1686274977.57,66.895,273.926,45.898,60.547,1683.476,291.2388470414582
857,1686274977.57,61.523,108.398,-85.449,18.555,1683.48,308.6900704946135
858,1686274977.58,-10.254,-532.227,-349.121,-15.625,1683.484,298.67631626073165
859,1686274977.58,-21.973,-872.07,-415.527,24.902,1683.488,312.1341476007108
860,1686274977.58,54.199,-92.285,-26.367,65.918,1683.492,307.4029290514339
861,1686274977.59,76.172,349.609,22.949,39.062,1683.495,298.95149884511954
862,1686274977.59,8.789,-117.676,-156.25,-22.949,1683.499,299.97135106511513
863,1686274977.59,-24.414,-66.895,-63.965,-23.438,1683.503,293.9327671174776
864,1686274977.6,31.738,351.562,47.363,32.227,1683.494,290.0694799466774
865,1686274977.6,80.566,245.117,-17.578,44.922,1683.498,316.5868402536113
866,1686274977.6,40.039,26.855,-90.82,-25.879,1683.502,298.8468832357067
867,1686274977.61,-7.812,197.266,15.625,-43.945,1683.506,300.08626875820636
868,1686274977.61,31.25,289.062,20.02,29.785,1683.51,332.56109860148774
869,1686274977.62,86.426,-125.977,-215.332,66.406,1683.514,323.7709683064902
870,1686274977.62,55.664,-466.309,-279.785,20.996,1683.518,307.3518073402693
871,1686274977.62,-9.766,-23.926,-40.039,-28.809,1683.522,313.5768020152182
872,1686274977.63,-0.977,404.785,81.055,13.184,1683.525,320.705306472273
873,1686274977.63,63.965,86.914,-91.309,70.312,1683.529,319.74763075194033
874,1686274977.64,58.594,-293.457,-253.906,35.156,1683.533,318.29421034846337
875,1686274977.64,-18.555,19.531,-55.176,-34.668,1683.537,319.1930117041244
876,1686274977.66,-30.762,356.445,61.523,-21.484,1683.552,367.35957040993304
877,1686274977.66,35.645,-102.051,-122.559,56.641,1683.556,359.2663124798937
878,1686274977.66,58.594,-557.129,-297.363,62.012,1683.56,361.25059742551133
879,1686274977.67,1.465,-112.793,-121.094,-20.508,1683.564,397.5945657873188
880,1686274977.67,-34.668,262.207,41.016,-31.738,1683.568,392.71587844611844
881,1686274977.68,20.508,-389.648,-242.188,56.152,1683.572,399.8935503422805
882,1686274977.68,59.57,-963.379,-385.254,81.055,1683.576,405.4513560424041
883,1686274977.68,25.879,-135.254,-12.695,-6.836,1683.58,422.85872173249913
884,1686274977.69,-22.461,163.086,-25.879,-36.621,1683.584,408.6590971427642
885,1686274977.69,-20.508,168.457,-71.289,-33.203,1683.599,420.01387115347706
886,1686274977.69,-9.766,-6.836,-70.312,20.02,1683.587,421.7057861980457
887,1686274977.69,-15.625,-119.629,-78.125,16.602,1683.603,426.3036633456554
888,1686274977.7,52.246,252.441,56.152,51.758,1683.591,436.0964667786936
889,1686274977.7,62.5,194.336,57.617,78.125,1683.607,434.3688052756221
890,1686274977.7,39.551,418.457,56.152,9.277,1683.595,430.34175160597374
891,1686274977.7,76.172,447.754,61.035,39.062,1683.611,431.02775455627267
892,1686274977.7,-2.441,139.16,-69.824,-12.207,1683.615,436.05380653470473
893,1686274977.71,-31.25,-323.242,-262.207,25.879,1683.619,431.3053574665758
894,1686274977.71,25.879,-186.523,-121.582,77.637,1683.623,462.6029521646437
895,1686274977.72,63.965,286.133,98.145,63.477,1683.627,470.1031793286162
896,1686274977.72,9.277,29.785,-132.812,6.348,1683.63,461.65624667812324
897,1686274977.72,-41.504,-637.207,-365.723,3.906,1683.634,473.41729145451177
898,1686274977.73,9.277,-90.332,-19.043,47.852,1683.638,478.3435187782976
899,1686274977.73,61.035,395.02,82.031,51.27,1683.642,467.12720171970045
900,1686274977.74,24.902,31.738,-76.66,2.93,1683.642,462.3205172801339
901,1686274977.75,-32.227,3.906,-23.438,-24.414,1683.646,470.65912426004394
902,1686274977.75,-10.254,32.715,-51.758,32.227,1683.65,474.31074674538513
903,1686274977.76,58.594,-82.031,-93.75,70.801,1683.654,488.7574006670967
904,1686274977.76,52.734,-428.711,-249.512,33.691,1683.658,470.5297690864373
905,1686274977.76,-18.555,-997.559,-443.359,8.301,1683.662,467.45091248190437
906,1686274977.77,-25.391,-303.711,-67.383,25.879,1683.665,485.1082076217207
907,1686274977.77,49.805,341.797,40.527,66.406,1683.669,479.18940842943516
908,1686274977.78,67.383,-98.633,-141.113,59.082,1683.673,471.2673133146421
909,1686274977.78,11.23,-56.152,-57.129,0.488,1683.677,473.3714817899143
910,1686274977.78,-20.508,405.273,65.43,-11.719,1683.681,457.5025934688892
911,1686274977.79,15.625,325.684,3.418,36.621,1683.685,465.0371819482853
912,1686274977.81,68.848,74.707,-47.852,42.48,1683.702,451.93429798156114
913,1686274977.81,30.762,182.129,-5.859,-27.832,1683.706,451.9273343367618
914,1686274977.81,-16.602,371.582,41.016,-47.363,1683.71,454.4099434527835
915,1686274977.82,21.973,156.738,-49.316,22.949,1683.714,451.4188335639668
916,1686274977.82,65.918,5.859,-116.211,45.41,1683.718,452.8037285373406
917,1686274977.83,35.156,-7.324,-89.355,-6.836,1683.722,443.65052421140155
918,1686274977.83,-20.996,-130.371,-150.391,-31.738,1683.726,449.6140087626319
919,1686274977.83,-6.836,-208.008,-259.277,17.578,1683.73,450.39366447082494
920,1686274977.84,72.754,97.656,-30.273,64.941,1683.731,448.9958276137495
921,1686274977.84,57.617,-748.047,-404.785,79.102,1683.734,432.4939859321925
922,1686274977.84,91.797,430.664,69.824,44.922,1683.735,433.150441929371
923,1686274977.84,63.477,-369.629,-125.977,31.738,1683.738,421.7623541132551
924,1686274977.84,32.715,247.559,-12.207,-19.531,1683.738,428.3583642969873
925,1686274977.84,12.695,352.539,50.293,-39.551,1683.741,434.614136061686
926,1686274977.85,-7.324,-517.09,-299.805,-9.766,1683.742,427.69456194300767
927,1686274977.85,7.324,74.707,-60.059,0.977,1683.745,419.5384248629298
928,1686274977.85,43.457,-501.465,-216.309,55.664,1683.746,428.59452873939966
929,1686274977.86,92.773,84.473,7.324,57.129,1683.75,420.38997229501445
930,1686274977.86,54.199,-13.184,-95.215,-1.953,1683.754,398.441293677008
931,1686274977.86,-14.648,-186.035,-159.18,-19.531,1683.758,409.68031148197747
932,1686274977.87,12.207,-139.648,-81.543,44.922,1683.762,408.87888857235413
933,1686274977.87,88.867,122.559,20.02,74.707,1683.766,414.3164389157584
934,1686274977.87,65.918,352.051,17.578,18.066,1683.77,402.36767801060836
935,1686274977.88,-1.953,-436.523,-316.406,-8.789,1683.774,407.4547536275258
936,1686274977.88,5.371,-738.281,-291.992,37.109,1683.777,400.02869451101515
937,1686274977.88,77.637,284.668,105.469,73.73,1683.781,406.63418477081507
938,1686274977.89,82.031,272.949,-25.879,46.387,1683.784,390.09840588200296
939,1686274977.89,9.766,-6.836,-97.168,-12.207,1683.788,392.778848204474
940,1686274977.9,-3.418,274.902,38.574,8.301,1683.792,391.37791529406707
941,1686274977.9,70.312,159.668,-22.949,73.73,1683.796,403.47032129195645
942,1686274977.9,95.215,-157.227,-166.504,69.336,1683.8,382.80870638416627
943,1686274977.91,28.32,-531.738,-274.902,20.996,1683.804,376.85007348270574
944,1686274977.91,-5.371,-138.184,-41.016,7.324,1683.808,373.4453714664931
945,1686274977.92,49.805,490.234,126.953,66.895,1683.812,372.66975811827797
946,1686274977.92,102.539,195.801,-47.852,89.355,1683.816,372.8185514430214
947,1686274977.92,58.105,-158.691,-154.297,29.785,1683.82,367.91820844582503
948,1686274977.93,3.906,159.668,-2.441,12.695,1683.822,377.09798958854094
949,1686274977.93,48.828,553.223,135.742,71.289,1683.826,370.163373768398
950,1686274977.93,106.445,-77.637,-137.695,114.258,1683.83,366.118453560453
951,1686274977.94,78.125,-574.707,-254.883,67.383,1683.834,362.8486746591074
952,1686274977.94,14.16,73.73,6.348,0.0,1683.837,359.2966986404642
953,1686274977.95,21.484,179.199,3.418,36.621,1683.841,352.400369184072
954,1686274977.95,79.59,-477.051,-230.469,112.793,1683.845,343.9139547045531
955,1686274977.95,80.078,-650.391,-259.766,77.637,1683.849,369.5724723571954
956,1686274977.96,30.273,206.055,63.965,4.395,1683.853,364.23547554554466
957,1686274977.96,16.113,322.754,8.301,33.691,1683.857,344.1153950762941
958,1686274977.96,78.125,138.184,-16.602,95.703,1683.861,355.53023279374383
959,1686274977.97,112.305,310.059,55.176,88.379,1683.865,348.498503778715
960,1686274977.97,51.27,428.711,41.992,20.02,1683.894,354.80350339358586
961,1686274977.98,0.0,172.363,-61.523,7.324,1683.898,346.72229434954085
962,1686274977.98,40.527,-82.52,-74.219,76.66,1683.902,332.7003594643995
963,1686274977.99,94.727,214.844,63.477,91.309,1683.906,339.7554621210592
964,1686274977.99,59.082,405.273,62.5,25.879,1683.91,335.42932866845945
965,1686274977.99,-6.836,-29.785,-159.668,0.488,1683.914,327.2515174080716
966,1686274978.0,5.859,-720.215,-320.312,64.453,1683.918,330.97014246493814
967,1686274978.0,74.707,-213.867,-32.715,95.215,1683.921,325.73755411696106
968,1686274978.0,74.707,432.129,83.984,42.48,1683.925,332.58745498445745
969,1686274978.01,0.977,49.316,-107.91,-12.695,1683.929,334.8446908287432
970,1686274978.01,-11.23,-81.055,-130.371,12.207,1683.933,310.46093392569065
971,1686274978.02,83.008,411.621,76.172,50.293,1683.925,311.8753257572854
972,1686274978.02,65.918,296.387,75.684,68.359,1683.937,340.8308637661317
973,1686274978.02,6.348,76.66,-69.336,-6.836,1683.929,321.1315485893491
974,1686274978.02,-20.02,-197.266,-103.027,-2.441,1683.932,312.04264661319695
975,1686274978.03,49.805,-0.977,-16.602,64.453,1683.936,309.1072035831473
976,1686274978.03,90.82,204.59,26.855,67.383,1683.94,325.9416481333368
977,1686274978.04,31.738,-437.5,-276.367,17.09,1683.944,319.23465038227033
978,1686274978.04,-22.461,-894.043,-379.883,19.043,1683.948,327.3178183497691
979,1686274978.04,32.715,0.488,24.902,60.547,1683.952,315.8467744470013
980,1686274978.05,104.98,395.02,38.086,77.148,1683.956,340.4496453618935
981,1686274978.05,75.195,-28.32,-129.395,27.832,1683.96,316.02049359385506
982,1686274978.05,8.789,33.691,-27.832,-5.859,1683.964,326.05569622207685
983,1686274978.06,29.785,382.324,89.355,41.992,1683.968,316.149399651984
984,1686274978.08,109.863,335.449,10.254,99.609,1683.971,327.3758544773463
985,1686274978.08,99.121,-95.215,-114.746,67.871,1683.975,326.762397189323
986,1686274978.08,28.809,4.395,-44.434,5.371,1683.979,322.6720124429805
987,1686274978.09,32.227,368.164,65.43,30.762,1683.983,317.8210897010796
988,1686274978.09,85.449,180.664,-33.691,101.562,1683.986,317.0169017206442
989,1686274978.1,99.121,-233.398,-186.035,100.098,1683.99,296.73833729998745
990,1686274978.1,57.617,-163.086,-108.398,38.086,1683.994,308.84396046973154
991,1686274978.1,20.508,-0.977,-56.152,36.133,1683.998,319.1614801259548
992,1686274978.11,66.895,-182.617,-189.453,106.445,1684.002,313.6550327333408
993,1686274978.11,113.281,-680.664,-301.758,137.695,1684.006,319.53503606094984
994,1686274978.11,75.684,-217.773,-41.992,64.453,1684.01,299.6028685061992
995,1686274978.12,40.039,369.141,57.129,39.551,1684.014,310.151414923481
996,1686274978.12,83.984,92.773,-33.203,112.305,1684.016,308.713633070316
997,1686274978.12,149.902,166.992,22.461,142.09,1684.02,316.0932173812152
998,1686274978.13,124.023,140.137,-47.363,88.867,1684.024,317.1207649222836
999,1686274978.13,52.734,-85.938,-169.434,46.875,1684.028,310.563914097275
1000,1686274978.14,69.824,-443.359,-235.352,103.516,1684.032,306.89585168461286
1001,1686274978.14,148.926,-619.629,-237.793,167.969,1684.036,328.0150897450454
1002,1686274978.14,151.367,12.695,-7.812,123.535,1684.04,325.6238653325048
1003,1686274978.15,84.961,397.461,62.988,62.5,1684.044,299.1987056988228
1004,1686274978.15,52.734,-285.645,-208.008,96.68,1684.048,313.062017073507
1005,1686274978.16,104.98,-675.293,-266.113,159.18,1684.052,318.8889071074332
1006,1686274978.16,157.227,135.742,53.711,136.719,1684.055,317.14762109757834
1007,1686274978.16,113.281,304.688,3.906,77.148,1684.059,326.1039974985568
1008,1686274978.16,69.824,-96.191,-128.906,81.055,1684.061,315.43098915292114
1009,1686274978.17,114.746,76.172,-9.766,147.461,1684.065,295.5729101910931
1010,1686274978.17,173.828,478.516,96.68,164.551,1684.069,319.4480614109727
1011,1686274978.18,138.184,286.621,-14.16,113.281,1684.073,324.2247119200544
1012,1686274978.18,76.172,26.367,-123.047,94.727,1684.077,323.6421326506424
1013,1686274978.18,100.586,-40.039,-58.594,156.738,1684.081,305.4682732991983
1014,1686274978.19,165.527,121.582,59.082,190.918,1684.085,310.08884664016136
1015,1686274978.19,162.109,76.172,-83.984,140.137,1684.088,328.0518455768648
1016,1686274978.2,90.332,-557.129,-312.988,98.633,1684.092,316.5281279952964
1017,1686274978.2,86.914,-141.113,-26.367,120.117,1684.096,312.7994623608039
1018,1686274978.2,163.086,483.887,119.629,172.852,1684.1,319.84052699847336
1019,1686274978.21,174.316,80.566,-63.477,152.344,1684.104,316.67340486675135
1020,1686274978.21,107.91,-270.996,-198.73,91.309,1684.108,321.0368413541274
1021,1686274978.22,79.59,100.098,-45.898,104.004,1684.112,299.686256796971
1022,1686274978.22,142.09,198.242,26.855,176.758,1684.115,309.4469176965255
1023,1686274978.22,176.27,-423.34,-220.703,191.406,1684.119,335.4629568422384
1024,1686274978.23,118.164,-734.375,-355.469,126.465,1684.123,319.4414267301545
1025,1686274978.23,81.055,-260.254,-197.754,93.262,1684.127,310.34245066507236
1026,1686274978.24,129.395,62.012,-62.012,157.227,1684.131,327.49950712266593
1027,1686274978.24,189.453,-382.812,-206.055,203.613,1684.135,334.1725880024676
1028,1686274978.24,165.039,-547.852,-254.883,147.949,1684.139,337.3032619943589
1029,1686274978.25,119.141,258.789,51.758,96.68,1684.143,317.3857422637751
1030,1686274978.25,138.184,338.867,3.906,153.809,1684.147,323.7696626028099
1031,1686274978.26,196.777,170.41,-33.203,202.637,1684.151,321.96380688150026
1032,1686274978.26,198.73,291.504,47.363,157.227,1684.153,320.4171467853391
1033,1686274978.26,147.461,423.34,42.48,113.77,1684.157,313.549418217203
1034,1686274978.26,145.02,179.199,-49.805,160.645,1684.161,313.96197804352545
1035,1686274978.27,213.867,-33.691,-58.105,231.445,1684.165,324.8171545241591
1036,1686274978.27,220.703,203.613,24.902,205.566,1684.169,310.9585399135291
1037,1686274978.28,146.973,48.34,-79.102,133.789,1684.172,332.6632688077888
1038,1686274978.28,125.488,-206.543,-222.656,140.625,1684.176,321.26991899479157
1039,1686274978.28,187.012,-762.207,-357.91,234.863,1684.18,320.17475123173193
1040,1686274978.29,232.91,-413.086,-110.84,245.605,1684.184,325.7916692265204
1041,1686274978.29,202.148,429.688,90.82,164.551,1684.188,322.00079789130757
1042,1686274978.3,152.832,146.484,-62.5,162.109,1684.192,326.77658037554465
1043,1686274978.3,182.129,63.477,-56.641,229.492,1684.196,306.1567737216114
1044,1686274978.3,251.953,387.207,67.383,264.16,1684.196,294.58158887776705
1045,1686274978.3,231.934,435.059,64.453,209.961,1684.2,329.29698381274295
1046,1686274978.31,152.832,-97.656,-122.559,165.527,1684.204,313.8513769782854
1047,1686274978.31,160.156,-263.672,-92.285,214.355,1684.208,323.05403666568805
1048,1686274978.32,228.027,216.797,51.758,262.207,1684.212,314.4335206532444
1049,1686274978.32,218.75,175.781,-5.859,221.191,1684.216,330.84808780694885
1050,1686274978.32,140.625,-460.449,-261.719,165.527,1684.219,317.0787937989712
1051,1686274978.33,123.047,-995.117,-394.531,200.684,1684.223,311.7712004455535
1052,1686274978.33,197.754,-100.098,47.363,240.723,1684.227,299.43346049986206
1053,1686274978.34,227.051,442.871,67.871,211.914,1684.231,304.65762612896464
1054,1686274978.34,160.156,121.582,-57.617,146.973,1684.235,312.60641101078164
1055,1686274978.34,110.84,269.043,58.105,141.113,1684.239,300.3357880957189
1056,1686274978.35,157.715,529.785,119.141,206.543,1684.254,321.2060767213646
1057,1686274978.35,208.496,407.715,28.809,213.379,1684.258,303.7096820608707
1058,1686274978.36,166.504,69.336,-66.406,145.02,1684.262,293.24063246986424
1059,1686274978.36,104.492,218.75,37.598,123.047,1684.266,303.8598664701348
1060,1686274978.36,125.488,404.785,73.73,172.363,1684.27,288.67921434488227
1061,1686274978.37,182.617,19.043,-92.285,210.938,1684.274,286.0382067428989
1062,1686274978.37,147.461,-582.52,-252.441,162.598,1684.278,291.17793477503733
1063,1686274978.37,78.613,-314.941,-129.883,102.539,1684.281,298.31498823896817
1064,1686274978.38,94.727,45.898,-20.508,138.184,1684.285,276.4979783860129
1065,1686274978.38,145.996,-214.844,-165.039,183.105,1684.289,280.59347131481627
1066,1686274978.39,139.648,-250.0,-193.848,151.855,1684.293,291.530039007596
1067,1686274978.39,75.195,226.562,43.457,74.219,1684.297,296.45795445875655
1068,1686274978.39,57.129,350.586,23.438,77.148,1684.301,280.22836116785095
1069,1686274978.39,122.559,104.98,-36.133,147.461,1684.305,283.70243294221393
1070,1686274978.4,150.391,-168.457,-100.586,145.02,1684.308,282.7844683541041
1071,1686274978.4,83.496,-2.93,-50.293,60.059,1684.312,283.07995891193116
1072,1686274978.41,33.691,327.148,43.457,41.992,1684.316,280.55981474582546
1073,1686274978.41,70.801,-371.582,-244.141,116.211,1684.32,269.7307310126409
1074,1686274978.41,114.258,-830.566,-345.215,129.395,1684.324,276.8649087359126
1075,1686274978.42,87.891,46.875,23.926,45.898,1684.328,281.5862354211403
1076,1686274978.42,27.832,303.711,29.785,18.066,1684.332,274.6889961945578
1077,1686274978.42,34.18,32.227,-94.238,73.242,1684.336,270.7857898439715
1078,1686274978.43,101.074,-12.207,-63.965,105.957,1684.34,275.5391363823511
1079,1686274978.43,88.379,235.352,32.715,47.852,1684.344,266.1493600264165
1080,1686274978.44,10.742,258.789,0.977,-12.207,1684.36,275.4087822513637
1081,1686274978.44,9.277,-142.578,-117.676,23.926,1684.364,269.28986175347853
1082,1686274978.45,78.613,33.691,-28.32,78.125,1684.368,268.29553161280194
1083,1686274978.45,83.984,422.363,86.426,50.781,1684.372,273.1673362985041
1084,1686274978.46,12.695,210.449,-48.828,-4.883,1684.375,288.5362648155706
1085,1686274978.46,-13.672,-293.457,-187.988,5.859,1684.379,282.2275925977027
1086,1686274978.46,41.016,-67.871,-18.555,52.734,1684.383,274.32755874875437
1087,1686274978.47,77.637,392.578,112.305,48.34,1684.387,279.9803843642949
1088,1686274978.47,24.902,-3.418,-132.324,-3.906,1684.391,293.41878900700516
1089,1686274978.48,-39.062,-514.648,-251.465,-20.996,1684.395,267.1772684090525
1090,1686274978.48,-5.371,15.625,41.992,31.25,1684.399,274.22155150210097
1091,1686274978.48,54.688,405.273,91.797,49.316,1684.403,268.3436824651837
1092,1686274978.5,18.555,-11.719,-82.52,-15.137,1684.392,290.4406217250925
1093,1686274978.5,-57.617,-269.043,-187.5,-54.199,1684.396,294.1549901793187
1094,1686274978.5,-42.969,-101.562,-89.355,-10.742,1684.4,285.9952989052294
1095,1686274978.51,23.926,17.09,0.977,25.391,1684.404,284.6742349888263
1096,1686274978.51,16.113,-343.262,-209.961,-9.277,1684.407,281.25201730968195
1097,1686274978.52,-63.477,-967.285,-430.176,-48.828,1684.411,294.60265805322746
1098,1686274978.52,-73.73,-277.344,-2.441,-41.992,1684.415,292.3109513536996
1099,1686274978.52,2.93,409.668,109.863,0.488,1684.419,289.8192226238354
1100,1686274978.53,18.066,81.055,-82.52,-10.254,1684.423,304.1478391090927
1101,1686274978.53,-57.617,47.852,-42.48,-80.078,1684.427,286.42876257648896
1102,1686274978.54,-85.938,368.652,65.43,-81.055,1684.431,309.66662226336865
1103,1686274978.54,-33.691,341.309,42.969,-15.137,1684.435,292.82139444334996
1104,1686274978.54,-3.906,-14.16,-85.449,-12.695,1684.438,301.59916785486087
1105,1686274978.55,-51.27,74.219,3.906,-81.055,1684.442,301.1526466724123
1106,1686274978.55,-94.727,394.531,98.145,-97.168,1684.446,307.02535666378816
1107,1686274978.55,-64.941,137.207,-23.438,-35.645,1684.45,304.7416876562037
1108,1686274978.56,-11.23,-55.176,-55.176,-10.254,1684.454,295.80964810830545
1109,1686274978.56,-29.785,-61.523,-60.547,-66.895,1684.457,309.9916613508828
1110,1686274978.57,-98.145,-29.785,-16.602,-110.352,1684.461,312.5300262379404
1111,1686274978.57,-96.191,-3.906,-66.895,-65.43,1684.465,302.1758251959015
1112,1686274978.57,-32.227,-644.043,-277.344,-10.742,1684.469,302.51845396039516
1113,1686274978.58,-26.855,-231.934,-20.02,-65.43,1684.473,313.6884790236577
1114,1686274978.58,-91.309,427.246,109.375,-131.836,1684.477,328.95615569232393
1115,1686274978.58,-118.164,83.008,-28.32,-109.863,1684.481,304.7438354781325
1116,1686274978.58,-56.641,29.785,-41.016,-48.34,1684.481,313.4772686215174
1117,1686274978.59,-26.367,362.793,90.332,-54.199,1684.485,317.5837923781759
1118,1686274978.59,-90.82,110.84,-31.738,-116.211,1684.489,328.29751875635634
1119,1686274978.6,-128.906,-224.121,-153.32,-111.328,1684.492,324.27364020283784
1120,1686274978.6,-76.66,71.289,-14.648,-47.852,1684.496,314.7282591002841
1121,1686274978.6,-24.902,41.992,-16.113,-36.133,1684.5,334.9514371652245
1122,1686274978.61,-58.594,-111.816,-68.848,-96.68,1684.504,317.39409287818427
1123,1686274978.61,-123.535,-497.07,-280.762,-119.141,1684.508,328.8788264744306
1124,1686274978.62,-116.699,-1000.0,-434.57,-50.293,1684.512,332.6341058695825
1125,1686274978.62,-50.781,-310.059,-45.898,-34.18,1684.516,336.4271371119235
1126,1686274978.62,-63.477,321.289,59.082,-97.656,1684.52,343.246114492113
1127,1686274978.63,-134.277,48.34,-57.129,-145.02,1684.524,339.9649955966179
1128,1686274978.63,-133.301,209.473,58.105,-116.699,1684.528,340.5734713771943
1129,1686274978.64,-56.641,447.754,133.301,-60.547,1684.532,348.78231518118014
1130,1686274978.64,-37.598,260.742,21.484,-89.355,1684.536,338.6585534964371
1131,1686274978.64,-101.562,1.465,-58.105,-151.367,1684.54,354.76792510575865
1132,1686274978.65,-126.953,195.312,47.363,-139.648,1684.544,359.0477084724844
1133,1686274978.65,-74.219,149.902,29.297,-74.219,1684.548,355.3514032940906
1134,1686274978.66,-40.039,-125.0,-87.891,-73.242,1684.552,347.7043306582335
1135,1686274978.66,-93.75,-537.598,-219.238,-125.0,1684.555,353.5018904411286
1136,1686274978.66,-144.043,-348.633,-103.516,-143.555,1684.559,363.4531294306178
1137,1686274978.67,-104.492,198.242,92.285,-93.262,1684.563,361.77407781305607
1138,1686274978.67,-40.527,6.348,-89.844,-62.012,1684.567,350.75579144354253
1139,1686274978.68,-66.406,-252.441,-213.867,-125.0,1684.571,358.2365810542762
1140,1686274978.68,-123.535,189.941,48.34,-168.457,1684.572,349.5193571778778
1141,1686274978.68,-111.816,402.832,74.219,-113.77,1684.576,356.4523288295264
1142,1686274978.68,-48.828,35.645,-20.508,-65.918,1684.58,349.86116871670555
1143,1686274978.69,-50.293,-137.207,-44.434,-106.934,1684.584,350.7319584297216
1144,1686274978.69,-119.141,197.754,30.273,-156.25,1684.588,354.75700901669865
1145,1686274978.7,-128.418,65.43,-14.16,-116.211,1684.591,359.1803580053272
1146,1686274978.7,-63.965,-568.359,-241.699,-46.875,1684.595,353.7554334354946
1147,1686274978.7,-44.434,-786.621,-299.805,-62.5,1684.599,361.16454370062405
1148,1686274978.71,-100.586,49.805,29.785,-133.301,1684.603,368.9264128246817
1149,1686274978.71,-134.277,292.48,25.391,-124.512,1684.607,377.31942396640994
1150,1686274978.72,-71.777,92.285,-1.953,-56.641,1684.611,358.89351898912713
1151,1686274978.72,-22.461,44.434,4.395,-56.152,1684.615,351.27485773635635
1152,1686274978.72,-77.148,201.172,36.133,-130.371,1684.623,371.28142631223
1153,1686274978.73,-132.324,246.094,28.809,-151.367,1684.627,367.29173140511824
1154,1686274978.73,-94.727,-134.277,-85.449,-84.961,1684.631,369.93539962226214
1155,1686274978.74,-37.598,73.73,35.645,-65.918,1684.635,366.9627459687681
1156,1686274978.74,-57.617,382.812,85.938,-135.742,1684.639,365.25313727215524
1157,1686274978.74,-113.77,-21.973,-90.82,-153.809,1684.643,379.0410730499754
1158,1686274978.75,-103.027,-653.809,-218.75,-81.543,1684.647,368.6986740352848
1159,1686274978.75,-34.18,-145.996,23.438,-41.016,1684.651,365.6269997409661
1160,1686274978.76,-35.156,440.43,152.832,-87.402,1684.654,358.78811136519334
1161,1686274978.76,-110.352,44.434,-54.199,-138.672,1684.658,380.64444958999866
1162,1686274978.76,-121.582,-35.156,-54.688,-99.609,1684.662,378.5521874136514
1163,1686274978.77,-47.852,334.473,125.488,-37.109,1684.666,388.1969647988082
1164,1686274978.78,-23.926,408.691,108.398,-70.312,1684.691,386.7539149770962
1165,1686274978.78,-84.961,-5.371,-60.059,-143.555,1684.695,370.99086676941243
1166,1686274978.79,-126.953,-348.633,-152.832,-139.16,1684.699,382.88403993892234
1167,1686274978.79,-78.613,-166.992,-26.367,-70.801,1684.703,379.8272658033356
1168,1686274978.8,-20.996,148.438,60.547,-54.199,1684.707,372.5472266489851
1169,1686274978.8,-65.918,-306.641,-178.711,-104.004,1684.711,378.1148536892356
1170,1686274978.8,-133.301,-1000.0,-475.098,-97.656,1684.715,368.33257657331075
1171,1686274978.81,-64.453,-469.238,-143.066,-14.16,1684.718,369.0805520878653
1172,1686274978.81,59.57,326.172,102.539,40.039,1684.722,375.5901557233092
1173,1686274978.82,90.82,177.246,48.34,30.273,1684.726,364.5308505698469
1174,1686274978.82,71.777,208.008,74.707,37.598,1684.73,373.3793506080541
1175,1686274978.82,99.121,401.367,89.355,99.609,1684.734,367.78814325298066
1176,1686274978.83,168.945,306.152,39.062,153.32,1684.723,390.42372109189876
1177,1686274978.83,172.363,95.703,2.441,134.277,1684.727,381.101015924287
1178,1686274978.84,102.539,226.074,92.773,77.637,1684.731,373.17405367657204
1179,1686274978.84,76.172,357.91,83.008,95.703,1684.735,374.98772142483006
1180,1686274978.84,138.184,135.254,-6.348,153.809,1684.739,383.23210450012795
1181,1686274978.85,177.734,-228.516,-80.078,160.156,1684.743,385.2311145566588
1182,1686274978.85,141.602,-229.492,-37.598,111.328,1684.747,378.4084595263432
1183,1686274978.85,115.234,187.5,112.793,107.422,1684.751,387.9645034269472
1184,1686274978.86,165.039,54.688,-30.273,189.453,1684.755,373.5637614610602
1185,1686274978.86,211.914,-480.469,-151.855,211.914,1684.759,364.03657863892766
1186,1686274978.87,176.758,15.137,100.586,141.602,1684.763,388.80225882176416
1187,1686274978.87,123.047,463.867,157.227,110.84,1684.766,374.7264844423814
1188,1686274978.87,147.949,-47.852,-87.891,184.082,1684.767,367.45567312944405
1189,1686274978.87,213.379,-381.836,-157.227,220.703,1684.771,387.50778215771714
1190,1686274978.88,199.219,-1.953,62.988,146.484,1684.774,390.56468659800373
1191,1686274978.88,122.07,-32.227,-21.484,94.238,1684.778,392.0872611070825
1192,1686274978.89,113.281,-266.602,-80.078,143.066,1684.782,379.12508131602993
1193,1686274978.89,171.875,-286.133,-37.109,202.637,1684.786,370.2483743973068
1194,1686274978.89,172.852,48.828,43.457,150.879,1684.79,378.91774085774773
1195,1686274978.9,108.887,142.09,65.43,77.148,1684.794,382.8300266609717
1196,1686274978.9,77.637,-373.535,-125.0,98.145,1684.798,372.39493904473943
1197,1686274978.9,116.211,-1000.0,-354.98,168.457,1684.802,383.5207204448118
1198,1686274978.91,152.344,-271.973,-8.789,151.855,1684.806,368.0179813691647
1199,1686274978.91,103.516,334.473,89.844,70.312,1684.81,373.5452575055045
1200,1686274978.92,47.363,57.617,11.719,54.688,1684.812,372.0446321934863
1201,1686274978.92,77.148,247.559,136.23,106.934,1684.816,382.9766738160595
1202,1686274978.92,125.977,519.043,170.41,117.676,1684.82,384.5779442320897
1203,1686274978.93,100.098,295.41,79.102,49.316,1684.823,369.8864713274245
1204,1686274978.93,32.715,-14.648,-9.766,13.672,1684.827,394.57963044670544
1205,1686274978.94,36.133,-44.922,19.531,69.336,1684.831,387.497227766484
1206,1686274978.94,102.539,216.309,139.16,118.652,1684.835,389.3122299340256
1207,1686274978.94,92.285,196.289,36.621,75.684,1684.839,377.9627993689864
1208,1686274978.95,13.184,-498.535,-221.191,33.203,1684.843,386.8056980913235
1209,1686274978.95,6.836,-269.043,-40.039,55.176,1684.847,382.8876703343363
1210,1686274978.95,77.637,342.773,168.457,97.168,1684.851,383.7863071970407
1211,1686274978.96,87.402,46.387,-42.48,73.73,1684.855,381.5727972231055
1212,1686274978.96,28.809,-218.75,-143.066,13.184,1684.856,375.02520708691
1213,1686274978.96,11.719,265.137,112.305,8.789,1684.86,377.56731701626563
1214,1686274978.97,67.871,269.531,98.633,72.266,1684.864,397.2408115661285
1215,1686274978.97,105.957,-336.914,-132.324,104.492,1684.868,385.2893791964458
1216,1686274978.98,53.711,-449.219,-159.18,60.059,1684.872,379.38901134422383
1217,1686274978.98,20.508,-13.672,72.266,48.34,1684.876,381.74329877998105
1218,1686274978.98,71.289,27.832,84.961,116.699,1684.88,373.7911403290097
1219,1686274978.99,136.719,-449.219,-138.184,156.738,1684.884,386.80586952753026
1220,1686274978.99,122.07,-512.695,-155.273,106.934,1684.888,376.89579713898195
1221,1686274979.0,69.824,355.957,185.059,55.664,1684.891,386.16467209928607
1222,1686274979.0,89.844,431.152,121.094,109.863,1684.895,376.49277747057135
1223,1686274979.0,164.062,209.961,59.082,170.898,1684.899,380.1653451592143
1224,1686274979.01,166.992,76.66,68.848,138.672,1684.907,375.659854798319
1225,1686274979.01,104.492,243.652,117.188,82.031,1684.911,384.75113234071625
1226,1686274979.02,81.543,296.875,87.402,92.285,1684.915,372.70970146049325
1227,1686274979.02,125.977,-19.043,67.871,140.625,1684.918,380.81625515897287
1228,1686274979.02,152.832,186.035,145.02,122.07,1684.922,375.939410140893
1229,1686274979.03,99.121,185.547,69.824,68.359,1684.926,379.0809017846989
1230,1686274979.03,71.289,-156.738,-12.695,78.125,1684.93,394.3529097314129
1231,1686274979.04,145.02,-483.398,-89.844,171.875,1684.934,394.89406044435657
1232,1686274979.04,206.055,-13.184,72.754,191.406,1684.938,389.51565394769773
1233,1686274979.04,175.781,484.375,183.594,130.371,1684.942,376.8900956491818
1234,1686274979.05,124.512,137.695,25.391,126.465,1684.946,379.19691006844164
1235,1686274979.05,241.699,445.312,188.477,241.699,1684.947,383.8567005012071
1236,1686274979.05,162.109,88.867,33.691,191.406,1684.95,371.81657656759626
1237,1686274979.05,240.234,500.488,163.574,200.684,1684.95,372.57177897337414
1238,1686274979.06,181.641,-41.504,-1.953,161.133,1684.954,390.3433692521934
1239,1686274979.06,170.41,-335.938,-20.996,208.496,1684.958,396.7410643719596
1240,1686274979.07,240.234,50.293,95.215,252.441,1684.962,390.22814773700435
1241,1686274979.07,254.883,163.574,112.793,211.426,1684.966,384.96588879127063
1242,1686274979.07,189.941,-445.312,-155.273,170.41,1684.97,374.48850344675816
1243,1686274979.08,162.598,-997.07,-317.383,203.125,1684.974,382.5034964058403
1244,1686274979.08,218.75,-123.535,104.492,239.746,1684.978,381.41057700733626
1245,1686274979.08,244.141,468.75,171.387,213.867,1684.982,383.97314493558116
1246,1686274979.09,177.246,197.266,72.266,143.066,1684.986,393.30558010927814
1247,1686274979.09,116.699,250.488,128.418,120.605,1684.99,395.70006615273024
1248,1686274979.1,139.16,430.176,173.828,163.574,1684.994,389.07498249158124
1249,1686274979.1,179.688,339.844,124.023,163.574,1684.998,382.7653260457225
1250,1686274979.1,132.324,98.633,57.617,95.215,1685.001,392.6954073969265
1251,1686274979.11,62.988,257.812,157.227,59.57,1685.005,401.5959846654854
1252,1686274979.11,78.125,382.812,150.879,109.863,1685.009,392.2053866924542
1253,1686274979.12,139.648,83.984,46.875,166.016,1685.013,380.666783441787
1254,1686274979.12,126.953,-602.539,-123.047,132.324,1685.017,388.8498808004248
1255,1686274979.12,69.336,-402.344,-18.066,71.777,1685.021,393.68036367323873
1256,1686274979.13,82.031,415.527,219.238,95.215,1685.025,385.3476748643654
1257,1686274979.13,147.461,112.305,24.414,160.645,1685.029,381.7174707545178
1258,1686274979.14,147.949,-243.652,-50.781,144.043,1685.033,379.71508638083077
1259,1686274979.14,90.332,244.629,181.641,64.453,1685.037,368.8379613082026
1260,1686274979.14,66.895,391.602,165.039,89.844,1685.051,381.4514582418617
1261,1686274979.14,121.582,98.633,66.406,162.109,1685.055,383.7638717501413
1262,1686274979.15,159.18,-192.871,32.715,155.273,1685.059,386.8109035078919
1263,1686274979.15,111.328,-138.184,80.078,92.285,1685.063,395.62279831407807
1264,1686274979.16,83.008,209.473,166.504,87.402,1685.067,396.18536995889195
1265,1686274979.16,125.0,-283.691,-32.715,172.852,1685.071,389.7298657444725
1266,1686274979.16,164.062,-948.73,-213.867,200.684,1685.075,401.9998249447239
1267,1686274979.17,149.902,-173.828,68.848,124.023,1685.078,388.6386788639544
1268,1686274979.17,104.492,113.77,85.938,91.797,1685.082,398.7011259852279
1269,1686274979.18,116.211,-243.164,5.859,155.762,1685.086,380.21250276459995
1270,1686274979.18,184.082,74.219,144.043,199.219,1685.09,395.01542068455615
1271,1686274979.18,187.012,501.465,217.773,163.086,1685.094,394.7837261429462
1272,1686274979.2,119.141,262.695,88.867,105.957,1685.096,376.8085869790621
1273,1686274979.2,106.934,86.914,102.539,140.137,1685.1,382.3539674452098
1274,1686274979.21,178.711,303.711,188.965,214.355,1685.104,399.2214343789359
1275,1686274979.21,205.078,452.637,198.73,187.988,1685.108,399.3107539900417
1276,1686274979.22,146.484,196.289,93.75,121.094,1685.112,404.62807698523716
1277,1686274979.22,109.375,-264.16,-7.324,138.184,1685.116,391.6460742092129
1278,1686274979.22,154.297,-52.246,128.418,203.125,1685.12,384.5504371050228
1279,1686274979.23,204.102,438.965,245.117,202.148,1685.124,369.7409579367239
1280,1686274979.23,163.574,103.027,42.48,141.113,1685.128,373.3674667340732
1281,1686274979.24,102.051,-438.965,-59.57,131.348,1685.131,398.95389462125695
1282,1686274979.24,140.137,-126.465,129.883,192.871,1685.135,388.5115438170879
1283,1686274979.24,196.289,251.465,201.172,199.707,1685.139,398.24762484683265
1284,1686274979.24,151.855,-78.125,-3.906,126.465,1685.141,384.44374075207173
1285,1686274979.25,81.055,-319.336,-47.363,82.52,1685.145,403.3934311860399
1286,1686274979.25,100.586,-48.34,126.953,129.883,1685.149,370.7142184140081
1287,1686274979.26,167.48,135.254,169.434,170.898,1685.153,385.8740266377888
1288,1686274979.26,156.25,-163.574,13.184,131.348,1685.157,405.02996479881756
1289,1686274979.26,80.566,-668.457,-148.438,85.938,1685.161,382.077753374346
1290,1686274979.27,66.406,-74.219,140.625,85.938,1685.165,382.7185731816072
1291,1686274979.27,132.812,400.391,237.305,123.535,1685.168,387.96338985346506
1292,1686274979.28,146.484,-325.195,-64.453,126.465,1685.172,386.8205464033536
1293,1686274979.28,81.055,-592.773,-79.59,60.059,1685.176,384.6140035126535
1294,1686274979.28,35.156,285.645,232.422,38.086,1685.18,374.6859963077113
1295,1686274979.29,83.496,348.145,156.738,99.121,1685.184,393.54877453232217
