,timestamps,TP9,AF7,AF8,TP10,Secondary Timestamp,emg_signal
0,1686880132.2,-9.277,368.164,-18.066,43.945,1360.098,377.0573570628331
1,1686880132.2,-14.16,-25.391,-90.82,6.836,1360.102,373.7686541113792
2,1686880132.21,-33.203,-783.203,-83.984,-64.453,1360.106,370.98477474985964
3,1686880132.21,-38.574,-308.594,2.441,-56.641,1360.11,369.541552356614
4,1686880132.22,-7.812,565.43,-10.742,14.16,1360.114,371.6038564720872
5,1686880132.22,1.465,88.867,-81.055,18.555,1360.118,379.8168486574981
6,1686880132.22,-27.344,-720.703,-61.035,-62.012,1360.122,379.5719425208726
7,1686880132.23,-39.551,-28.32,-6.348,-83.008,1360.126,377.7035540439283
8,1686880132.23,-15.625,583.008,-42.969,-9.277,1360.13,378.9652821434192
9,1686880132.23,3.906,274.902,-76.66,24.902,1360.133,375.31357411646604
10,1686880132.24,-11.719,114.258,-57.617,-41.504,1360.137,383.4288909283168
11,1686880132.24,-34.668,251.465,-50.293,-82.52,1360.141,364.47410110388785
12,1686880132.25,-20.996,275.391,-55.664,-19.531,1360.153,372.830238194005
13,1686880132.25,-0.488,17.578,-68.359,29.297,1360.157,373.4755864333798
14,1686880132.26,-11.719,41.504,-54.688,-29.297,1360.161,374.224539996718
15,1686880132.26,-28.809,12.207,-63.477,-75.684,1360.165,382.7279701633307
16,1686880132.26,-27.344,-174.316,-76.66,-32.715,1360.169,373.043837353698
17,1686880132.27,-3.418,-510.254,-99.609,36.133,1360.173,378.8203675343461
18,1686880132.27,-3.906,-793.945,-37.109,9.766,1360.177,373.5951856235836
19,1686880132.28,-40.039,87.891,1.465,-79.102,1360.181,373.350640488105
20,1686880132.28,-41.016,352.051,-56.152,-58.105,1360.185,383.42807371198984
21,1686880132.28,-10.254,33.691,-51.27,22.461,1360.189,378.484490194354
22,1686880132.29,-7.812,242.188,-38.086,16.113,1360.192,381.5676075847161
23,1686880132.29,-27.832,336.914,-57.617,-50.781,1360.196,380.2863587805788
24,1686880132.3,-32.227,-41.504,-84.961,-57.129,1360.2,370.4207350589182
25,1686880132.31,-16.113,-418.945,-33.691,12.207,1360.204,366.8680931237001
26,1686880132.31,-4.883,7.324,-5.371,34.18,1360.208,375.4730593771641
27,1686880132.32,-28.32,343.75,-41.992,-38.086,1360.212,379.84622768105874
28,1686880132.32,-45.41,-6.348,-74.707,-73.242,1360.216,385.3205817581157
29,1686880132.32,-23.926,-759.766,-61.523,-0.977,1360.219,373.7634845812268
30,1686880132.33,1.465,-402.344,-1.953,49.805,1360.223,371.49250910754984
31,1686880132.33,-11.719,291.016,-15.137,1.465,1360.227,369.67119202372425
32,1686880132.33,-33.691,16.602,-73.73,-56.641,1360.231,368.937613633988
33,1686880132.34,-29.297,-632.324,-41.016,-24.902,1360.235,381.7755662893201
34,1686880132.34,0.0,95.703,7.812,39.551,1360.239,370.08823593805425
35,1686880132.35,4.883,581.543,-36.621,13.672,1360.243,366.78920285008337
36,1686880132.35,-32.715,103.027,-68.359,-60.547,1360.245,380.31980481913007
37,1686880132.35,-34.668,48.34,-30.273,-49.316,1360.249,374.24023368677933
38,1686880132.36,0.488,321.777,-20.508,31.25,1360.253,368.1073995071383
39,1686880132.36,7.324,297.363,-50.293,38.574,1360.257,365.211506678313
40,1686880132.36,-23.438,-121.094,-73.242,-27.832,1360.261,362.15981708053687
41,1686880132.37,-37.109,-387.207,-50.781,-42.48,1360.265,366.1151092722139
42,1686880132.37,-10.742,-187.5,-22.461,20.996,1360.268,375.89485225355475
43,1686880132.38,6.836,210.938,-43.457,39.551,1360.272,375.01927506729976
44,1686880132.38,-15.625,-428.711,-113.281,-20.508,1360.276,365.884022739528
45,1686880132.38,-43.457,-656.25,-5.371,-65.43,1360.28,376.5431134194398
46,1686880132.39,-29.785,323.73,22.461,-23.926,1360.284,367.771962107664
47,1686880132.39,0.488,466.309,-52.734,37.109,1360.288,369.52290088572005
48,1686880132.39,-2.93,-103.516,-42.48,1.465,1360.29,374.9073829846038
49,1686880132.4,-32.715,-225.098,-33.691,-65.43,1360.294,371.6898029979227
50,1686880132.4,-31.738,250.977,-14.16,-38.574,1360.297,375.55934636863384
51,1686880132.4,1.953,255.371,-41.016,36.621,1360.301,375.1552770196575
52,1686880132.41,0.488,-427.246,-57.129,23.438,1360.305,375.2752043838139
53,1686880132.41,-30.762,-346.191,-20.996,-56.641,1360.309,372.06603344744065
54,1686880132.42,-36.621,53.223,-11.719,-51.758,1360.313,366.4766962236562
55,1686880132.42,-6.348,96.191,-44.922,29.297,1360.317,371.0061860731952
56,1686880132.42,7.812,-474.609,-53.223,43.457,1360.321,370.159512544054
57,1686880132.43,-10.254,51.27,0.0,-32.715,1360.325,367.19158378956047
58,1686880132.43,-20.02,445.312,-38.086,-62.012,1360.329,376.19449337196903
59,1686880132.44,-3.906,10.742,-60.547,7.324,1360.333,373.03635762978536
60,1686880132.44,11.719,104.004,-21.484,49.316,1360.334,360.27806896588726
61,1686880132.44,-4.395,375.977,-32.715,-5.859,1360.338,365.9729417892209
62,1686880132.45,-38.086,193.848,-68.848,-60.547,1360.342,369.4818706849991
63,1686880132.45,-30.273,-206.055,-71.777,-17.578,1360.346,373.94686900393964
64,1686880132.45,-4.395,-37.109,-41.016,33.691,1360.35,355.47810824719886
65,1686880132.46,-10.742,-15.137,-47.852,-11.23,1360.354,375.65196764628894
66,1686880132.46,-46.387,-209.961,-61.523,-87.402,1360.358,372.79399901029063
67,1686880132.46,-49.316,-506.348,-83.984,-76.172,1360.362,368.2651554955863
68,1686880132.47,-12.207,-364.258,-16.113,5.371,1360.366,365.5518152300883
69,1686880132.47,-11.719,398.926,-18.066,0.977,1360.369,368.7778913461274
70,1686880132.48,-34.668,265.137,-78.613,-65.43,1360.373,371.6898580616616
71,1686880132.48,-39.551,-125.0,-37.598,-62.5,1360.377,366.96774364653334
72,1686880132.48,-20.02,-8.301,-32.715,6.836,1360.383,368.5195252371328
73,1686880132.49,2.441,6.836,-48.34,29.785,1360.387,374.7671909439227
74,1686880132.49,-12.207,-215.332,-75.684,-35.645,1360.391,369.62911691788304
75,1686880132.5,-45.41,-773.926,-90.82,-70.312,1360.395,364.40425857890443
76,1686880132.5,-31.738,-280.273,-5.859,-20.508,1360.399,375.3864907908914
77,1686880132.5,-5.859,292.48,-16.113,20.02,1360.403,371.6958661755103
78,1686880132.51,-15.625,-119.141,-57.617,-25.879,1360.407,372.973229789231
79,1686880132.51,-38.574,-669.922,-40.527,-83.496,1360.411,374.9059902988596
80,1686880132.52,-22.461,19.043,6.348,-37.109,1360.415,364.52708752007754
81,1686880132.52,7.812,615.234,-26.855,35.156,1360.419,364.53843570113
82,1686880132.52,3.906,228.027,-69.336,7.324,1360.423,365.4800467895116
83,1686880132.53,-21.484,59.57,-28.809,-61.035,1360.426,370.21724355051555
84,1686880132.53,-25.879,207.031,-27.832,-52.246,1360.425,373.2469492976624
85,1686880132.53,-7.812,226.074,-49.316,11.23,1360.429,368.5372055398029
86,1686880132.54,1.953,-24.902,-68.359,16.602,1360.433,371.2028101367119
87,1686880132.54,-13.184,-38.574,-60.547,-53.223,1360.437,368.81876648246805
88,1686880132.54,-24.902,-94.727,-49.316,-72.754,1360.441,369.1280066478899
89,1686880132.55,-1.953,-229.004,-38.574,4.395,1360.445,370.2112739311453
90,1686880132.55,16.113,-562.012,-78.613,41.504,1360.448,370.8043519825371
91,1686880132.56,-5.859,-825.684,-29.297,-19.043,1360.452,366.6636724944963
92,1686880132.56,-26.855,4.883,17.578,-65.918,1360.456,372.0572389513504
93,1686880132.56,-12.695,287.598,-38.574,-4.883,1360.46,363.2131000162825
94,1686880132.57,8.301,-41.016,-23.438,64.453,1360.464,361.741542915407
95,1686880132.57,-2.441,76.66,-16.602,19.043,1360.468,368.72107709359875
96,1686880132.57,-37.109,86.426,-58.105,-59.57,1360.483,372.3522267058628
97,1686880132.58,-34.668,-322.266,-73.73,-25.391,1360.487,376.9484592895366
98,1686880132.58,-6.348,-689.941,-52.246,48.828,1360.491,368.28424061711144
99,1686880132.59,-13.672,-44.434,-1.465,17.578,1360.495,366.2443168644636
100,1686880132.59,-35.156,378.906,-31.25,-58.594,1360.499,360.63324193682604
101,1686880132.59,-37.598,-156.738,-58.105,-41.016,1360.503,367.3402514319778
102,1686880132.6,-12.207,-782.715,-49.805,44.434,1360.507,370.4881402235768
103,1686880132.6,-5.859,-300.293,-5.371,41.992,1360.511,370.3882797408799
104,1686880132.6,-33.203,351.074,-31.738,-43.945,1360.515,355.0666467782222
105,1686880132.61,-49.805,30.273,-56.641,-65.43,1360.519,363.24771366442116
106,1686880132.61,-28.32,-180.176,-4.395,4.395,1360.522,370.5350713334462
107,1686880132.62,-3.906,283.691,-15.137,45.41,1360.526,372.04264563685626
108,1686880132.62,-21.484,335.938,-68.359,-7.324,1360.529,360.0081288714143
109,1686880132.62,-48.34,-90.82,-76.66,-58.105,1360.533,373.19394445598726
110,1686880132.63,-33.203,-42.48,-33.203,-12.695,1360.537,354.484364617965
111,1686880132.63,-2.441,267.09,-33.203,51.27,1360.541,371.3945835894829
112,1686880132.63,-8.301,165.039,-71.289,11.23,1360.545,369.8044815018841
113,1686880132.64,-36.621,-483.887,-107.91,-63.477,1360.548,370.73998707257306
114,1686880132.64,-32.227,-497.07,-20.996,-46.875,1360.552,371.77340390496056
115,1686880132.64,3.906,220.703,3.906,23.438,1360.556,360.6350658744503
116,1686880132.65,9.766,266.113,-68.359,9.277,1360.56,358.7969833107941
117,1686880132.65,-20.996,-529.785,-102.051,-61.035,1360.564,374.6021054636392
118,1686880132.66,-29.785,-443.848,-27.344,-58.594,1360.568,381.1485037770123
119,1686880132.66,-9.766,329.59,-3.418,21.484,1360.572,369.6551547702089
120,1686880132.68,-6.348,145.02,-80.566,48.34,1360.575,368.07655152110306
121,1686880132.68,-25.879,-775.391,-86.426,-12.695,1360.578,364.53664883820807
122,1686880132.69,-31.25,-508.301,14.648,-44.434,1360.582,362.9172495963901
123,1686880132.69,-6.348,336.426,-4.883,14.16,1360.586,372.1023819897871
124,1686880132.69,14.16,216.797,-61.523,57.129,1360.59,364.40266418675964
125,1686880132.7,-0.977,-315.918,-56.641,-0.977,1360.594,374.84420579675776
126,1686880132.7,-21.973,-246.582,-36.133,-61.035,1360.598,373.529571955175
127,1686880132.7,-11.23,249.512,-18.066,-18.555,1360.602,371.60992097064747
128,1686880132.71,21.484,86.426,-56.641,57.129,1360.606,359.1598376769745
129,1686880132.71,13.672,-449.707,-34.18,31.738,1360.61,373.77150441652464
130,1686880132.72,-23.926,6.836,-15.137,-45.898,1360.614,374.7638362893908
131,1686880132.72,-20.508,210.449,-56.152,-18.555,1360.617,368.96357155176497
132,1686880132.74,13.184,-121.582,-63.477,61.035,1360.635,359.23590034560743
133,1686880132.74,8.789,-54.199,-26.855,50.293,1360.638,371.9646103419295
134,1686880132.75,-19.531,173.828,-28.809,-20.508,1360.642,362.3667183185054
135,1686880132.75,-19.531,65.918,-52.734,-30.273,1360.646,365.9091860465406
136,1686880132.76,2.441,-261.23,-68.359,46.875,1360.65,367.24161431499334
137,1686880132.76,15.625,-337.402,-52.246,76.172,1360.654,368.88138668213327
138,1686880132.76,0.0,-174.805,-39.062,-0.977,1360.658,362.85611023659646
139,1686880132.77,-20.508,20.508,-49.805,-48.828,1360.662,359.94804549629794
140,1686880132.77,-0.977,-253.418,-38.574,8.301,1360.665,365.9784244423031
141,1686880132.77,-11.719,-473.145,-83.496,16.602,1360.666,371.0735461718755
142,1686880132.77,23.438,-187.5,-24.902,74.219,1360.669,366.3199317509064
143,1686880132.77,7.812,-428.223,-8.301,62.988,1360.67,375.08706535632143
144,1686880132.78,22.949,104.492,-37.109,47.363,1360.673,364.4077769803001
145,1686880132.78,5.859,297.852,-4.883,15.625,1360.674,371.84541607380265
146,1686880132.78,11.23,-157.715,-71.289,-7.812,1360.676,369.09157005958593
147,1686880132.78,-6.836,151.367,-64.453,-32.715,1360.678,358.74656890361524
148,1686880132.78,7.812,-835.938,-84.961,5.371,1360.68,372.3700830421348
149,1686880132.79,12.695,-467.773,-9.277,50.293,1360.684,372.132586073567
150,1686880132.79,17.09,108.887,-36.133,35.645,1360.688,371.92699551743107
151,1686880132.8,0.977,-61.523,-72.754,-32.227,1360.692,375.2670201057656
152,1686880132.8,-10.742,-79.102,-23.926,-44.434,1360.696,368.8787196195159
153,1686880132.8,18.555,322.754,-18.066,32.715,1360.7,362.75454074923306
154,1686880132.81,35.645,562.012,-40.527,54.688,1360.704,366.57897543947104
155,1686880132.81,15.137,-4.883,-94.727,-13.672,1360.708,360.92380934880947
156,1686880132.81,1.465,-645.02,-35.156,-33.691,1360.709,374.48121785025904
157,1686880132.82,19.043,105.957,12.695,29.785,1360.713,364.8081085275625
158,1686880132.82,49.316,469.727,-49.316,80.566,1360.717,368.1286935468228
159,1686880132.82,38.574,28.32,-76.66,32.715,1360.721,374.8807015432908
160,1686880132.83,9.277,-21.973,-54.199,-33.691,1360.725,370.9199477488678
161,1686880132.83,9.766,-102.539,-31.25,4.395,1360.729,371.97101679889784
162,1686880132.84,33.203,-119.141,-38.574,71.289,1360.733,359.8800976704863
163,1686880132.84,40.527,-481.445,-94.727,50.781,1360.737,365.2942322929938
164,1686880132.84,21.484,-769.043,-29.785,-9.277,1360.741,363.5864377913255
165,1686880132.85,17.578,138.184,9.277,-9.277,1360.745,360.3770348861212
166,1686880132.85,43.457,397.461,-41.016,62.988,1360.749,364.251175492201
167,1686880132.86,53.223,128.418,-20.508,66.406,1360.752,369.3121050092794
168,1686880132.86,29.785,129.883,-52.246,-9.277,1360.755,379.0693640963143
169,1686880132.86,11.23,-20.508,-65.43,-25.879,1360.758,366.98321156218447
170,1686880132.87,28.809,-55.664,-59.57,42.969,1360.762,371.016760441836
171,1686880132.87,48.828,-442.871,-59.082,85.449,1360.766,362.65530536047004
172,1686880132.87,24.414,-64.941,-30.273,17.09,1360.77,366.96969632081544
173,1686880132.88,0.0,93.262,-71.777,-35.645,1360.774,366.2290448281346
174,1686880132.88,16.602,-245.117,-70.312,25.391,1360.778,374.2291891355737
175,1686880132.88,44.922,-660.645,-47.363,94.238,1360.782,363.80042071837596
176,1686880132.89,34.668,-232.422,-14.16,56.152,1360.786,367.8664911795269
177,1686880132.89,1.953,383.789,-49.805,-20.996,1360.79,358.77516389373
178,1686880132.9,3.906,61.035,-84.473,-3.906,1360.794,365.17287822661865
179,1686880132.9,38.574,-80.078,-17.578,69.824,1360.798,376.45229483348606
180,1686880132.9,42.48,338.379,-23.926,58.105,1360.808,377.0866661831254
181,1686880132.91,24.414,349.609,-65.918,-14.648,1360.812,362.54533174962415
182,1686880132.91,28.32,-28.809,-71.777,-3.906,1360.816,367.8683166383185
183,1686880132.92,49.805,94.238,-41.504,64.941,1360.819,365.88285814210974
184,1686880132.92,65.918,305.664,-40.039,77.637,1360.823,379.99020913919367
185,1686880132.92,39.062,-91.797,-83.984,12.695,1360.827,363.9169510662361
186,1686880132.93,15.137,-631.348,-104.98,-16.113,1360.831,366.8341176942292
187,1686880132.93,41.992,-483.398,-12.695,50.781,1360.835,372.67506842966446
188,1686880132.94,65.43,343.75,-6.348,93.75,1360.839,369.9364631163589
189,1686880132.94,44.434,341.309,-74.707,37.598,1360.843,361.78420478408606
190,1686880132.94,15.625,-324.707,-78.125,-33.203,1360.847,367.75165805411547
191,1686880132.95,46.875,271.973,-50.781,83.008,1360.858,365.6287116503312
192,1686880132.95,22.949,-136.23,-27.832,5.859,1360.851,363.70301730027927
193,1686880132.95,44.434,-105.957,-89.355,50.781,1360.862,367.880635632447
194,1686880132.96,15.137,-470.215,-43.945,-28.32,1360.866,364.81599509978474
195,1686880132.96,13.672,-44.434,-14.16,-4.395,1360.87,377.71896221929245
196,1686880132.96,45.898,333.008,-40.039,81.543,1360.874,361.46052399841017
197,1686880132.97,46.875,-5.859,-82.031,73.242,1360.878,360.7433346711616
198,1686880132.97,11.23,-883.301,-98.145,-1.465,1360.882,377.88405431314277
199,1686880132.98,2.93,-680.176,-3.418,-12.207,1360.886,371.90364347974975
200,1686880132.98,37.109,384.766,-0.977,58.105,1360.89,367.3348046551933
201,1686880132.98,49.805,439.941,-69.824,75.684,1360.893,372.7005772235611
202,1686880132.99,21.973,185.547,-55.664,4.883,1360.897,365.02605825829926
203,1686880132.99,0.488,172.852,-41.992,-34.668,1360.901,364.1392263239203
204,1686880133.0,24.414,252.441,-51.27,32.227,1360.903,364.5649065821848
205,1686880133.0,47.363,40.527,-64.941,90.82,1360.907,355.66174404130425
206,1686880133.0,32.715,-14.648,-38.086,38.086,1360.911,366.67790105651636
207,1686880133.01,9.277,200.195,-47.363,-23.438,1360.915,369.21199245413374
208,1686880133.01,21.484,229.004,-60.547,16.113,1360.919,373.8637039270631
209,1686880133.02,54.199,-389.16,-99.121,103.027,1360.923,358.1459743468462
210,1686880133.02,65.43,-616.699,-18.066,93.262,1360.927,357.42338993301155
211,1686880133.02,31.738,188.965,-7.812,3.906,1360.93,374.0940330005313
212,1686880133.03,5.859,258.789,-59.082,0.977,1360.934,362.4799487483056
213,1686880133.03,34.18,-136.719,-51.27,83.984,1360.938,376.1441144692924
214,1686880133.03,51.758,78.613,-37.598,93.75,1360.942,368.37974232241316
215,1686880133.04,25.879,337.402,-42.969,27.344,1360.946,364.8443075284554
216,1686880133.05,5.371,-60.547,-87.891,20.508,1360.95,368.0799176763195
217,1686880133.06,17.09,-630.371,-51.758,97.656,1360.954,365.0456867430087
218,1686880133.06,36.621,-40.039,-7.324,125.977,1360.958,363.5168107144768
219,1686880133.06,27.344,247.07,-62.988,74.707,1360.961,359.02665236563735
220,1686880133.07,18.555,-285.645,-94.727,39.551,1360.965,362.27279024516184
221,1686880133.07,38.086,-849.609,-92.773,98.633,1360.969,374.6436950495522
222,1686880133.08,62.5,-311.035,-12.695,154.785,1360.973,363.1026324828878
223,1686880133.08,58.594,457.52,-43.457,106.445,1360.977,369.969154782608
224,1686880133.08,41.016,23.926,-90.332,61.035,1360.981,363.3591617268376
225,1686880133.09,51.27,-260.742,-24.902,106.934,1360.985,361.5382624027161
226,1686880133.09,77.637,272.949,-29.785,169.434,1360.989,362.95904715568
227,1686880133.1,83.008,405.273,-76.66,151.367,1360.993,371.7416968599676
228,1686880133.1,56.152,-51.27,-88.867,74.707,1360.995,358.25758083602346
229,1686880133.1,50.293,-140.137,-35.156,76.172,1360.998,358.81024136820395
230,1686880133.11,84.961,180.664,-24.414,159.668,1361.002,364.018135963545
231,1686880133.11,100.098,228.516,-69.336,163.574,1361.006,372.0121641080707
232,1686880133.11,67.871,-203.613,-108.398,77.148,1361.01,370.1291854213195
233,1686880133.12,48.34,-512.207,-86.914,56.641,1361.014,369.92897368374025
234,1686880133.12,67.871,-311.035,-48.34,120.605,1361.018,364.4292183755672
235,1686880133.12,74.219,-24.902,-66.406,144.043,1361.022,357.8577122892467
236,1686880133.13,54.199,-487.305,-133.789,78.613,1361.026,376.3164883644387
237,1686880133.13,39.551,-763.184,-41.016,28.32,1361.03,363.48074412347705
238,1686880133.14,56.641,167.48,8.789,73.73,1361.034,356.3892839259914
239,1686880133.14,82.031,457.52,-57.617,131.348,1361.038,366.6893530655749
240,1686880133.14,61.523,-67.871,-62.988,89.355,1361.04,365.15360679726075
241,1686880133.15,27.344,-192.871,-46.387,17.09,1361.043,369.5053862344665
242,1686880133.15,41.016,251.953,-29.785,44.434,1361.047,364.289918903755
243,1686880133.16,67.383,171.387,-75.195,119.141,1361.051,357.615335331219
244,1686880133.16,59.57,-541.992,-95.703,105.957,1361.055,371.807044163197
245,1686880133.16,31.738,-467.773,-61.035,26.855,1361.059,364.86298949203774
246,1686880133.17,21.973,-3.418,-50.781,14.648,1361.063,367.2774230807161
247,1686880133.17,46.387,56.152,-79.102,86.426,1361.067,358.4310795263836
248,1686880133.18,50.781,-684.082,-83.984,99.609,1361.071,369.57150454221755
249,1686880133.18,26.367,-350.586,-28.809,19.531,1361.075,373.29359185949386
250,1686880133.18,12.207,328.125,-66.406,-17.578,1361.079,365.6130665714911
251,1686880133.19,32.227,36.133,-94.727,57.129,1361.082,367.00922707801226
252,1686880133.19,51.758,-94.238,-33.691,108.398,1361.084,364.13533858713515
253,1686880133.19,33.203,229.98,-41.504,44.922,1361.088,365.38659077171866
254,1686880133.2,9.277,183.594,-94.727,-23.926,1361.092,365.49076032694336
255,1686880133.2,21.484,-125.977,-95.215,16.602,1361.096,370.64771263987024
256,1686880133.2,48.828,9.277,-69.336,92.773,1361.1,374.5609418991318
257,1686880133.21,36.133,-103.027,-90.82,52.246,1361.104,369.418611730899
258,1686880133.21,6.348,-359.863,-97.656,-26.367,1361.108,366.10526360530986
259,1686880133.22,4.395,-614.258,-104.98,-0.488,1361.112,369.1767979850774
260,1686880133.22,28.32,-423.34,-20.02,70.801,1361.116,362.92800654913896
261,1686880133.22,39.551,351.562,-25.879,66.406,1361.12,370.36144982612825
262,1686880133.23,14.16,226.562,-86.914,-10.742,1361.124,374.97819017417487
263,1686880133.23,-2.93,-314.453,-63.965,-26.855,1361.127,374.8639332051564
264,1686880133.23,20.508,-229.492,-59.57,46.875,1361.13,374.6590877206182
265,1686880133.24,31.738,55.664,-47.852,63.477,1361.134,371.8791890229045
266,1686880133.24,10.742,45.898,-83.008,-0.488,1361.137,362.8091696601471
267,1686880133.24,-10.742,-723.633,-102.051,-39.551,1361.141,373.159651116305
268,1686880133.25,1.465,-383.789,-0.977,11.23,1361.145,369.435230717882
269,1686880133.25,28.32,221.191,-41.504,65.43,1361.149,371.8396339754589
270,1686880133.26,20.996,-120.605,-107.91,14.16,1361.153,371.2739048078236
271,1686880133.26,-6.836,-707.031,-78.613,-37.598,1361.157,370.67970444915517
272,1686880133.26,-2.93,-74.707,-19.531,2.441,1361.161,374.0532922592782
273,1686880133.27,28.809,589.844,-53.223,60.059,1361.165,359.48300118897833
274,1686880133.27,26.367,250.0,-96.68,31.738,1361.169,369.9268279199823
275,1686880133.28,-15.625,63.477,-67.871,-50.293,1361.173,368.43198456306874
276,1686880133.28,-25.879,174.316,-61.523,-39.551,1361.178,362.3641498502898
277,1686880133.28,8.301,222.168,-84.473,41.504,1361.182,368.0942646317729
278,1686880133.29,20.996,-171.875,-81.055,42.48,1361.186,372.9486067585856
279,1686880133.29,-1.953,-242.188,-39.062,-39.062,1361.19,371.1774822713405
280,1686880133.3,-6.348,97.656,-52.734,-55.176,1361.194,374.8853747153757
281,1686880133.3,15.625,-67.383,-93.75,32.227,1361.198,368.4445827861634
282,1686880133.3,25.391,-587.891,-102.051,73.73,1361.202,369.1614935273824
283,1686880133.31,5.371,-541.504,-25.391,3.906,1361.206,361.10439582385465
284,1686880133.31,-12.207,149.414,-26.855,-49.316,1361.21,376.31594692421726
285,1686880133.31,-0.977,205.078,-74.707,1.953,1361.213,377.0158841880396
286,1686880133.32,23.926,-98.145,-64.941,70.801,1361.217,366.1531956533921
287,1686880133.32,20.996,61.523,-47.852,27.344,1361.221,370.39032250008603
288,1686880133.32,-15.137,126.953,-73.73,-48.34,1361.234,352.97931198255077
289,1686880133.33,-16.602,-339.355,-100.586,-12.207,1361.238,371.670897572476
290,1686880133.33,21.484,-758.301,-72.266,75.684,1361.242,371.1648833631412
291,1686880133.34,20.996,-114.258,-25.879,49.316,1361.246,369.0417195407385
292,1686880133.34,-12.695,193.359,-69.336,-43.457,1361.25,359.11961824354734
293,1686880133.34,-12.207,-310.059,-102.539,-31.738,1361.254,368.49547020870085
294,1686880133.35,24.414,-853.027,-70.801,59.57,1361.258,355.6342269893859
295,1686880133.35,37.598,-260.254,7.324,68.848,1361.261,365.73009325331935
296,1686880133.35,16.113,421.387,-49.316,-12.207,1361.265,357.54380868976364
297,1686880133.36,-6.348,69.336,-95.703,-42.969,1361.269,371.26684589295616
298,1686880133.36,4.395,69.824,-42.48,25.391,1361.273,359.5414684677356
299,1686880133.37,39.551,357.422,-41.016,71.777,1361.277,366.55640049157637
300,1686880133.37,16.602,262.695,-76.172,3.906,1361.278,355.4521258065466
301,1686880133.37,-16.602,-168.945,-86.914,-56.152,1361.282,361.0069537690546
302,1686880133.38,7.812,-147.461,-36.133,-3.418,1361.286,365.2387131601265
303,1686880133.38,33.203,220.215,-28.809,61.035,1361.29,372.23315397864184
304,1686880133.38,19.043,186.035,-79.102,27.344,1361.294,353.537841300028
305,1686880133.39,-15.137,-427.246,-123.535,-44.434,1361.298,358.5936934445248
306,1686880133.39,-13.672,-590.332,-82.52,-19.531,1361.302,360.9989465049748
307,1686880133.4,13.184,-185.547,-45.898,64.453,1361.306,348.40790267346915
308,1686880133.4,9.766,51.27,-60.059,52.734,1361.31,356.45606075874554
309,1686880133.4,-24.414,-542.969,-112.793,-22.461,1361.313,358.65230017033747
310,1686880133.41,-41.504,-707.031,-23.926,-24.902,1361.317,357.77881152966165
311,1686880133.41,-11.719,59.082,-1.953,41.504,1361.321,361.86155410631505
312,1686880133.43,14.16,162.109,-68.848,59.082,1361.325,355.81113098131163
313,1686880133.43,-3.906,-331.055,-45.898,-7.812,1361.328,348.70813966207237
314,1686880133.44,-22.461,-119.629,-32.227,-36.133,1361.332,365.8373414849283
315,1686880133.44,-3.418,303.223,-47.363,33.203,1361.336,360.6692523019945
316,1686880133.44,12.207,83.984,-83.984,73.73,1361.34,361.063098149834
317,1686880133.45,-5.371,-759.766,-97.168,14.16,1361.344,359.0965838768777
318,1686880133.45,-23.438,-446.777,-19.531,-51.758,1361.348,369.0938537092381
319,1686880133.46,-12.207,323.73,-32.715,-10.742,1361.352,358.88207188747833
320,1686880133.46,5.859,135.742,-76.66,62.5,1361.356,359.4561984415777
321,1686880133.46,-6.348,-272.461,-52.734,20.508,1361.36,364.5505862460391
322,1686880133.47,-28.32,-185.547,-41.504,-62.5,1361.364,359.52198085081665
323,1686880133.47,-19.531,156.738,-53.711,-34.668,1361.368,360.48396604499914
324,1686880133.47,11.23,41.992,-69.824,51.758,1361.37,359.8533252601303
325,1686880133.48,11.719,-126.465,-41.016,38.574,1361.373,360.21286201104607
326,1686880133.48,-11.719,135.254,-41.504,-36.133,1361.377,365.48871414888487
327,1686880133.48,-23.926,166.016,-67.383,-32.227,1361.381,362.29305429420384
328,1686880133.49,-14.648,-99.121,-87.891,36.621,1361.385,360.3693462186431
329,1686880133.49,-1.953,-291.016,-82.031,57.129,1361.389,364.4573636750228
330,1686880133.5,-17.09,-180.664,-60.059,-10.742,1361.393,373.33322927601296
331,1686880133.5,-37.109,43.457,-63.965,-66.406,1361.397,365.4756711003132
332,1686880133.5,-16.113,-464.355,-105.957,-16.602,1361.401,359.09193390216916
333,1686880133.51,15.625,-440.918,-21.484,52.734,1361.405,373.4710195610824
334,1686880133.51,1.953,285.645,-18.066,1.953,1361.409,372.2314576813625
335,1686880133.52,-29.785,115.234,-81.543,-74.219,1361.413,368.1191305762878
336,1686880133.52,-22.949,-358.398,-47.363,-29.297,1361.415,369.2319122643197
337,1686880133.52,11.719,-302.246,-30.273,52.734,1361.419,378.05454386494034
338,1686880133.53,11.719,82.52,-29.297,26.367,1361.423,377.6894686513207
339,1686880133.53,-21.484,70.801,-66.895,-52.734,1361.426,376.8769058014752
340,1686880133.54,-25.391,-744.141,-101.562,-42.969,1361.43,374.4038009956825
341,1686880133.54,-4.395,-510.254,-16.113,29.297,1361.434,372.8321739046376
342,1686880133.54,-0.977,178.711,-20.02,24.902,1361.438,377.3056582304501
343,1686880133.55,-24.414,-38.086,-85.449,-44.434,1361.442,369.76872082431964
344,1686880133.55,-23.926,-678.223,-59.082,-50.781,1361.446,368.3836577695441
345,1686880133.55,-2.441,-3.906,2.441,13.184,1361.45,386.40133064887056
346,1686880133.56,4.883,608.398,-35.156,38.574,1361.454,374.3330830388608
347,1686880133.56,-15.625,174.805,-75.684,-26.367,1361.458,378.37316417400245
348,1686880133.56,-39.062,75.195,-35.645,-71.289,1361.476,384.1659018903259
349,1686880133.57,-21.484,287.598,-23.926,-9.766,1361.48,365.457980194104
350,1686880133.57,5.859,264.648,-53.711,47.852,1361.484,378.70693610625517
351,1686880133.58,-6.836,-208.496,-75.195,-12.207,1361.488,386.984492473954
352,1686880133.58,-36.621,-317.383,-37.109,-86.914,1361.492,378.64380848688046
353,1686880133.58,-35.645,-152.832,-24.414,-50.781,1361.495,383.35653871846114
354,1686880133.59,-1.465,-49.805,-39.551,23.438,1361.499,380.1837832458471
355,1686880133.59,1.953,-370.605,-76.172,10.254,1361.503,386.6198572389027
356,1686880133.59,-40.039,-429.688,-17.578,-70.801,1361.507,384.73582463884946
357,1686880133.6,-40.527,286.133,-5.859,-67.871,1361.511,388.0116690323787
358,1686880133.6,-4.395,333.496,-41.992,23.926,1361.515,388.6772883141769
359,1686880133.61,-0.488,59.57,-11.719,36.621,1361.519,386.4170047109619
360,1686880133.61,-36.621,-16.113,-44.434,-43.457,1361.505,390.9380990068964
361,1686880133.61,-57.617,-69.336,-47.363,-74.707,1361.508,384.0449966507586
362,1686880133.62,-37.109,-6.348,-43.457,-4.883,1361.512,376.7261204293952
363,1686880133.62,-11.719,-471.191,-58.594,38.574,1361.516,383.4136112444398
364,1686880133.62,-24.414,-158.691,-21.973,-31.25,1361.52,374.46743956015234
365,1686880133.63,-55.176,63.965,-49.805,-88.867,1361.524,379.0556568530316
366,1686880133.63,-45.898,-305.664,-63.477,-38.086,1361.528,384.0707642495624
367,1686880133.64,-16.113,-624.023,-42.48,33.203,1361.532,379.49264622315195
368,1686880133.64,-20.996,34.668,-11.23,-6.836,1361.536,373.7935148529704
369,1686880133.64,-44.922,489.746,-51.27,-79.59,1361.54,389.6778617166505
370,1686880133.65,-43.945,-51.27,-77.148,-58.594,1361.544,390.9880232403125
371,1686880133.65,-18.066,-347.168,8.301,20.02,1361.548,388.0201491104147
372,1686880133.65,-11.719,275.391,0.977,7.812,1361.55,382.5011149001187
373,1686880133.66,-26.367,391.602,-52.246,-70.312,1361.554,380.83800236954
374,1686880133.66,-39.551,-74.219,-66.895,-73.73,1361.557,385.85927997087487
375,1686880133.66,-20.996,54.199,-36.621,3.906,1361.561,379.8319216000965
376,1686880133.67,-6.836,326.66,-29.785,21.973,1361.565,383.14104460480826
377,1686880133.67,-33.203,-31.25,-81.543,-54.688,1361.569,386.3854511199281
378,1686880133.68,-54.199,-600.586,-87.891,-91.309,1361.573,389.8949991956862
379,1686880133.68,-40.527,-560.547,-5.859,-29.785,1361.577,382.3511636466837
380,1686880133.68,-20.02,95.215,-7.812,11.719,1361.581,393.7608264496405
381,1686880133.69,-30.273,295.41,-59.082,-41.016,1361.585,393.56227233769687
382,1686880133.69,-43.457,-190.918,-83.496,-84.473,1361.589,386.0695407899123
383,1686880133.7,-38.086,26.855,-39.551,-35.645,1361.593,393.7804816557826
384,1686880133.7,-15.625,289.062,-44.434,37.109,1361.608,388.28284121075575
385,1686880133.7,-12.695,-28.32,-78.125,5.371,1361.612,391.4115497478187
386,1686880133.71,-41.016,-669.922,-72.266,-62.012,1361.616,378.95634373800783
387,1686880133.71,-41.016,-353.027,8.301,-48.34,1361.62,381.5627886165859
388,1686880133.71,-9.277,500.0,-8.789,20.996,1361.624,382.85473642525733
389,1686880133.72,-5.371,62.012,-78.613,22.461,1361.628,384.963991736483
390,1686880133.72,-31.738,-732.422,-54.199,-55.664,1361.632,378.0485160870324
391,1686880133.72,-41.504,-92.285,0.488,-74.707,1361.635,381.3235758878353
392,1686880133.73,-18.066,499.023,-38.574,-4.883,1361.639,384.9526077988295
393,1686880133.73,-3.418,291.016,-72.754,22.461,1361.643,376.12380155635014
394,1686880133.74,-29.785,41.016,-63.965,-45.898,1361.647,387.48567030902774
395,1686880133.74,-52.246,-17.09,-44.434,-90.332,1361.651,386.2374303183257
396,1686880133.76,-29.297,273.438,-45.898,-35.645,1361.66,384.3903585238196
397,1686880133.76,0.977,80.566,-68.848,18.066,1361.664,389.12167123196235
398,1686880133.77,-8.789,-155.762,-25.879,-31.738,1361.668,383.7855878299959
399,1686880133.77,-36.133,130.859,-22.461,-104.98,1361.672,380.63754765461357
400,1686880133.78,-39.551,222.656,-62.5,-76.66,1361.676,381.5162304800676
401,1686880133.78,-16.602,-276.855,-87.891,9.766,1361.679,392.2842647953047
402,1686880133.78,-29.297,-325.684,-40.527,-9.277,1361.683,381.5893046270016
403,1686880133.79,-56.641,180.176,-40.039,-92.773,1361.687,378.3826197251821
404,1686880133.79,-46.875,125.0,-70.312,-76.172,1361.691,386.0225841381887
405,1686880133.8,-18.066,-388.672,-90.82,5.859,1361.695,379.00852544189706
406,1686880133.8,-15.137,-110.352,-41.016,2.93,1361.699,379.9804659543077
407,1686880133.8,-45.41,340.82,-39.551,-74.219,1361.703,383.2853265063765
408,1686880133.8,-57.129,-172.363,-99.609,-80.078,1361.699,392.42983877390435
409,1686880133.81,-37.598,-723.145,-69.824,-6.348,1361.703,379.32483730701443
410,1686880133.81,-20.996,-261.719,-6.348,16.113,1361.707,372.84071044933506
411,1686880133.82,-36.621,311.523,-35.645,-59.082,1361.711,381.11198430739546
412,1686880133.82,-55.176,37.109,-75.684,-98.633,1361.715,380.5682865495725
413,1686880133.82,-41.992,-506.348,-38.086,-34.668,1361.719,394.7519458481174
414,1686880133.83,-19.531,-179.199,-9.766,20.508,1361.723,379.9895091695335
415,1686880133.83,-26.367,346.68,-28.809,-34.18,1361.727,378.97010582702563
416,1686880133.83,-48.828,45.41,-90.332,-104.98,1361.731,383.2188187987336
417,1686880133.84,-51.27,-848.145,-87.891,-69.824,1361.735,377.18121496114
418,1686880133.84,-23.438,-429.688,13.672,1.465,1361.739,386.1074764311947
419,1686880133.85,-9.277,359.375,-26.367,-15.625,1361.742,393.78778737697803
420,1686880133.85,-39.062,166.992,-85.449,-85.938,1361.745,383.32274765439104
421,1686880133.85,-60.547,93.75,-35.156,-90.332,1361.749,383.5605775859343
422,1686880133.86,-37.109,336.914,-20.02,-16.602,1361.753,377.8405415459894
423,1686880133.86,-13.184,298.828,-53.223,9.766,1361.757,389.8252580152225
424,1686880133.86,-30.762,-249.023,-84.961,-54.199,1361.76,387.1803341595565
425,1686880133.87,-54.688,-518.555,-47.363,-89.355,1361.764,379.17742842565355
426,1686880133.87,-39.062,-80.078,0.0,-22.461,1361.768,375.768371585127
427,1686880133.88,-17.09,365.234,-30.762,27.832,1361.772,383.1062116204797
428,1686880133.88,-28.809,-286.133,-97.656,-28.809,1361.776,390.44502703307495
429,1686880133.88,-50.781,-464.844,-12.695,-80.566,1361.78,386.1288138861668
430,1686880133.89,-40.527,305.664,9.766,-37.109,1361.784,377.69819851942833
431,1686880133.89,-14.648,364.746,-39.062,25.879,1361.788,380.67314544544666
432,1686880133.89,-13.184,-55.664,-40.039,-4.395,1361.79,382.0745026582922
433,1686880133.9,-47.363,-254.883,-29.297,-74.219,1361.794,386.6381172833845
434,1686880133.9,-58.105,127.441,-10.254,-57.617,1361.798,382.84775194025815
435,1686880133.9,-33.691,207.031,-49.805,18.066,1361.802,375.7578180696778
436,1686880133.91,-28.32,-483.887,-69.336,4.883,1361.806,380.27897127400536
437,1686880133.91,-50.781,-452.148,-37.598,-77.637,1361.809,389.1313976132152
438,1686880133.92,-49.805,-83.984,-19.043,-81.055,1361.813,382.9711114139736
439,1686880133.92,-20.02,-103.027,-37.598,-9.766,1361.817,384.9493813655355
440,1686880133.92,-10.254,-712.891,-75.684,16.602,1361.821,373.61771486912835
441,1686880133.93,-39.062,-238.281,-10.742,-57.617,1361.825,378.08057192712954
442,1686880133.93,-62.5,449.707,-32.715,-105.469,1361.829,362.08054285813625
443,1686880133.94,-44.434,186.523,-68.359,-37.109,1361.833,373.67600094147076
444,1686880133.94,-21.484,227.051,-25.879,19.043,1361.835,378.6662163324232
445,1686880133.94,-30.762,404.785,-28.32,-26.855,1361.839,364.2133190175963
446,1686880133.95,-56.641,236.328,-59.082,-89.844,1361.843,367.24553123075424
447,1686880133.95,-52.734,-163.086,-77.148,-53.223,1361.847,380.97743774955853
448,1686880133.95,-24.902,-8.301,-32.715,12.207,1361.851,368.9482863955642
449,1686880133.96,-35.645,18.066,-36.133,-20.508,1361.854,372.2786603008786
450,1686880133.96,-65.43,-225.098,-73.73,-93.262,1361.858,368.95422527619786
451,1686880133.96,-59.57,-550.293,-86.426,-76.172,1361.862,365.7964570148435
452,1686880133.97,-27.832,-491.699,-11.23,-0.977,1361.866,362.4627485299661
453,1686880133.97,-18.555,98.633,-2.441,2.441,1361.87,362.6765174287624
454,1686880133.98,-42.969,159.668,-61.035,-63.477,1361.874,352.085471739796
455,1686880133.98,-55.664,-329.102,-72.754,-72.266,1361.878,359.7966377896697
456,1686880133.98,-35.156,-148.926,-36.133,-11.23,1361.88,368.7563599560466
457,1686880133.99,-28.32,122.07,-31.25,5.859,1361.884,353.72535944711905
458,1686880133.99,-49.805,29.297,-62.012,-62.012,1361.888,349.1496592090396
459,1686880134.0,-70.312,-566.406,-73.242,-104.492,1361.892,352.7639875440802
460,1686880134.0,-57.129,-195.801,-14.16,-49.316,1361.896,369.6567867997803
461,1686880134.0,-31.25,196.777,-48.34,3.906,1361.899,348.0287112814951
462,1686880134.01,-43.457,-211.426,-84.961,-39.062,1361.903,340.05540543787714
463,1686880134.01,-74.219,-720.703,-66.406,-95.215,1361.907,350.25738487727335
464,1686880134.01,-65.918,-92.773,-10.742,-64.941,1361.911,343.48495788084455
465,1686880134.02,-31.738,530.273,-33.691,11.23,1361.915,339.3541884692416
466,1686880134.02,-31.25,204.59,-70.801,-11.23,1361.919,343.56054780366503
467,1686880134.03,-60.059,-141.602,-71.289,-97.168,1361.923,353.7099435627106
468,1686880134.03,-63.965,-68.848,-37.598,-90.332,1361.924,337.8401977468049
469,1686880134.03,-35.156,272.949,-44.922,-13.672,1361.928,346.85519311941425
470,1686880134.04,-29.297,-35.156,-83.496,-0.488,1361.932,342.08452425639865
471,1686880134.04,-50.781,-264.648,-40.039,-70.801,1361.936,335.93614889239484
472,1686880134.04,-50.293,13.672,-38.086,-97.656,1361.94,333.2261137935288
473,1686880134.05,-34.668,-77.148,-77.148,-25.879,1361.944,335.0280944018206
474,1686880134.05,-26.367,-527.832,-88.867,13.672,1361.948,327.04735669046886
475,1686880134.06,-41.016,-525.391,-9.277,-50.293,1361.952,328.47494784661836
476,1686880134.06,-53.711,127.93,-23.438,-92.773,1361.956,333.00705576189284
477,1686880134.06,-32.227,188.477,-60.059,-33.691,1361.96,340.0747023083904
478,1686880134.07,-24.414,-67.383,-33.203,22.949,1361.963,335.3046308273287
479,1686880134.07,-36.133,131.348,-35.156,-25.391,1361.967,319.1609167164412
480,1686880134.07,-44.434,95.215,-56.152,-91.797,1361.984,341.69550378835567
481,1686880134.08,-49.316,-373.047,-68.848,-53.711,1361.988,329.30385088785846
482,1686880134.08,-21.973,-854.492,-66.895,29.785,1361.992,334.55678198266025
483,1686880134.09,-6.836,-365.723,9.766,20.996,1361.996,341.21818097543974
484,1686880134.09,-32.715,307.617,-1.953,-62.988,1362.0,330.0905803677171
485,1686880134.09,-46.387,-169.434,-66.406,-69.336,1362.003,334.6019092560357
486,1686880134.1,-25.879,-796.875,-42.48,15.137,1362.007,333.9425683761701
487,1686880134.1,-15.137,-51.27,6.348,22.461,1362.011,333.3850773479636
488,1686880134.1,-42.969,442.383,-55.176,-54.688,1362.015,340.11309041330384
489,1686880134.11,-64.453,41.504,-69.336,-77.148,1362.019,332.5335201758535
490,1686880134.11,-39.062,31.25,-27.344,-9.766,1362.023,346.81327642849425
491,1686880134.12,-17.578,248.535,-35.645,34.668,1362.027,348.67575562327926
492,1686880134.13,-37.598,233.398,-61.523,-24.902,1362.03,347.1877418395639
493,1686880134.14,-67.871,-111.816,-79.59,-87.402,1362.034,362.69110028125795
494,1686880134.14,-49.316,-121.094,-38.086,-41.504,1362.038,362.57261353026564
495,1686880134.14,-22.461,198.73,-26.367,26.855,1362.042,365.6941057145267
496,1686880134.15,-42.969,87.402,-77.148,-23.926,1362.046,367.84747283517146
497,1686880134.15,-68.359,-555.664,-100.098,-92.773,1362.049,373.1525930957619
498,1686880134.16,-59.082,-683.594,-21.973,-62.5,1362.053,378.3685118674208
499,1686880134.16,-25.391,88.867,12.695,6.836,1362.057,368.6334070193035
500,1686880134.16,-21.484,293.945,-41.016,-1.465,1362.061,371.3790155763471
501,1686880134.17,-53.223,-501.465,-99.121,-70.801,1362.065,381.39694983404496
502,1686880134.17,-63.965,-416.016,-20.996,-74.707,1362.069,372.24623094604436
503,1686880134.18,-36.133,310.547,6.348,-6.836,1362.073,389.4301056749308
504,1686880134.18,-21.973,143.066,-78.613,12.695,1362.075,380.65882286876416
505,1686880134.18,-50.293,-631.836,-68.359,-59.082,1362.078,389.54574392369716
506,1686880134.19,-65.918,-312.012,-5.859,-105.469,1362.082,379.2658791959235
507,1686880134.19,-45.898,276.855,-23.438,-43.457,1362.086,386.5475835805238
508,1686880134.19,-24.902,121.582,-59.082,15.137,1362.09,386.4846341628222
509,1686880134.2,-41.016,-350.586,-63.965,-32.715,1362.094,388.7825638071928
510,1686880134.2,-79.59,-328.613,-52.734,-101.074,1362.098,391.7510740761518
511,1686880134.2,-70.312,-78.613,-53.711,-62.5,1362.102,383.94259315625015
512,1686880134.21,-32.227,-146.973,-56.641,12.695,1362.106,388.81818621202484
513,1686880134.21,-30.762,-782.227,-84.961,-7.324,1362.11,379.9724102115964
514,1686880134.22,-64.941,-336.914,-21.973,-89.355,1362.114,387.3455680462214
515,1686880134.22,-69.824,308.105,-34.18,-82.52,1362.117,389.3233925610784
516,1686880134.22,-30.273,81.543,-72.754,-6.348,1362.12,381.59904059155974
517,1686880134.23,-23.926,148.438,-45.898,-8.301,1362.124,394.42705442265736
518,1686880134.23,-46.387,281.25,-48.828,-78.613,1362.128,386.0240672204385
519,1686880134.24,-54.688,143.555,-58.594,-94.727,1362.132,379.26740400110157
520,1686880134.24,-41.992,-163.086,-61.523,-17.578,1362.136,395.32811163651206
521,1686880134.24,-27.344,-301.27,-57.129,12.207,1362.139,380.2682516232796
522,1686880134.25,-50.293,-192.383,-38.086,-56.152,1362.143,388.126937379737
523,1686880134.25,-71.289,4.883,-57.129,-92.773,1362.147,371.07520438113676
524,1686880134.25,-55.176,-504.395,-101.562,-32.227,1362.151,375.69711681270957
525,1686880134.26,-33.691,-542.969,-14.16,21.973,1362.155,379.99306876423407
526,1686880134.26,-47.363,-42.969,-28.32,-35.645,1362.159,380.72265701030716
527,1686880134.27,-74.219,-177.734,-81.543,-105.957,1362.163,378.6376731230357
528,1686880134.27,-63.965,-572.754,-63.477,-63.477,1362.165,371.03655848149646
529,1686880134.27,-23.438,-313.477,-12.207,18.066,1362.168,371.5858564651301
530,1686880134.28,-20.996,312.5,-20.02,-5.371,1362.172,356.2581268554937
531,1686880134.28,-62.988,113.77,-86.426,-99.609,1362.176,361.7962176876274
532,1686880134.28,-67.871,-681.152,-66.895,-89.844,1362.18,368.95241572336226
533,1686880134.29,-43.945,-442.871,-13.672,-13.672,1362.184,371.59803279129426
534,1686880134.29,-37.109,151.855,-28.809,-11.719,1362.188,344.51411330190626
535,1686880134.3,-46.387,0.977,-71.777,-74.219,1362.192,362.0790401967747
536,1686880134.3,-64.453,-729.492,-67.871,-99.609,1362.196,348.50239711132383
537,1686880134.3,-48.34,-142.578,6.348,-38.574,1362.2,354.44948181179745
538,1686880134.31,-20.508,484.863,-36.621,9.277,1362.204,348.16837283173584
539,1686880134.31,-36.133,43.457,-89.355,-47.363,1362.208,358.8424841098212
540,1686880134.31,-63.477,-281.25,-58.594,-108.887,1362.21,345.79372708499216
541,1686880134.32,-48.828,-86.914,-19.043,-56.152,1362.213,351.0097301763767
542,1686880134.32,-16.113,238.77,-36.621,13.184,1362.217,354.0986108434076
543,1686880134.32,-33.691,-145.02,-92.285,-32.227,1362.221,344.69949418886927
544,1686880134.33,-68.848,-404.785,-51.758,-99.121,1362.225,346.1323529263795
545,1686880134.33,-51.27,-235.84,-28.32,-64.453,1362.229,344.789552401165
546,1686880134.34,-22.461,-135.254,-48.34,12.207,1362.233,350.5830098091214
547,1686880134.34,-25.391,-420.41,-81.543,-6.348,1362.237,342.118769800459
548,1686880134.34,-41.992,-524.414,-20.996,-85.938,1362.241,336.4501966899435
549,1686880134.35,-44.922,105.469,-15.625,-85.938,1362.245,347.5320653911302
550,1686880134.35,-30.273,174.316,-51.27,-9.277,1362.249,343.95319431459075
551,1686880134.36,-26.855,-80.566,-29.785,1.953,1362.252,345.06394427924744
552,1686880134.36,-47.363,-166.992,-45.898,-64.453,1362.255,350.0653663854166
553,1686880134.36,-68.848,-236.328,-35.645,-102.051,1362.259,341.37013300277664
554,1686880134.37,-47.363,-134.277,-47.363,-40.039,1362.263,352.37938754620234
555,1686880134.37,-23.438,-705.078,-84.473,13.184,1362.266,364.02308302197855
556,1686880134.37,-38.086,-468.75,-15.625,-55.176,1362.27,360.03660699095406
557,1686880134.38,-58.594,-27.832,-36.621,-110.352,1362.274,358.2434622437661
558,1686880134.38,-48.34,-306.152,-59.57,-59.57,1362.278,366.6234055348068
559,1686880134.38,-26.855,-729.004,-38.086,4.883,1362.282,354.40918512495335
560,1686880134.39,-33.691,-76.172,0.0,-38.574,1362.286,383.0322520919416
561,1686880134.39,-60.547,435.547,-40.527,-119.141,1362.29,376.915414884109
562,1686880134.4,-67.871,49.316,-76.66,-98.145,1362.294,371.3362819563152
563,1686880134.4,-45.41,50.293,-44.922,-18.066,1362.298,394.7537951108431
564,1686880134.4,-35.645,267.09,-34.668,-24.414,1362.299,386.449978711341
565,1686880134.41,-51.27,185.547,-62.988,-107.91,1362.303,390.7455846641598
566,1686880134.41,-66.895,-203.125,-82.52,-118.652,1362.307,378.89703145661673
567,1686880134.42,-43.457,-99.121,-27.832,-28.809,1362.311,411.00083632335276
568,1686880134.42,-24.414,155.273,-31.738,-2.93,1362.315,402.25910726524967
569,1686880134.42,-48.828,-143.555,-80.078,-75.684,1362.319,402.42254224159785
570,1686880134.43,-72.754,-677.246,-107.91,-112.793,1362.323,409.5758100396294
571,1686880134.43,-58.594,-858.887,-29.785,-50.293,1362.327,418.19832748064334
572,1686880134.43,-26.855,121.094,19.531,-6.348,1362.331,407.59029322632955
573,1686880134.44,-37.109,384.277,-52.734,-60.547,1362.335,408.01299108442555
574,1686880134.44,-67.383,-179.688,-55.176,-122.07,1362.338,431.0327163499813
575,1686880134.45,-54.688,37.598,-24.902,-82.52,1362.342,442.1383522704217
576,1686880134.45,-25.391,272.949,-28.809,-11.719,1362.359,432.6322241118324
577,1686880134.45,-36.621,-158.691,-79.102,-34.18,1362.363,436.4047919093138
578,1686880134.46,-57.617,-783.203,-77.148,-96.191,1362.367,451.32308047366683
579,1686880134.46,-54.688,-299.316,0.488,-83.496,1362.371,446.56517349683713
580,1686880134.46,-22.949,356.445,-18.555,-5.371,1362.375,448.55639317602845
581,1686880134.47,-10.254,-87.891,-81.055,13.672,1362.378,449.61946783363766
582,1686880134.47,-48.34,-792.48,-74.219,-62.988,1362.382,447.0104671169761
583,1686880134.48,-68.359,-280.273,-17.09,-96.191,1362.386,460.70050593491834
584,1686880134.48,-28.809,138.672,-38.086,-28.32,1362.39,449.1649885947061
585,1686880134.48,-7.324,-116.211,-46.875,4.883,1362.394,467.5548116852544
586,1686880134.49,-35.645,-201.172,-13.184,-55.664,1362.398,456.52518941941554
587,1686880134.49,-60.547,107.422,-22.461,-107.91,1362.402,457.63911119156955
588,1686880134.5,-24.414,205.078,-62.012,-40.039,1362.404,457.6557910299347
589,1686880134.5,-3.906,10.254,-60.547,23.438,1362.408,461.8532722271733
590,1686880134.5,-49.316,11.23,-36.621,-59.082,1362.412,463.5581737614599
591,1686880134.51,-78.613,109.863,-43.457,-136.23,1362.416,468.0425861572036
592,1686880134.51,-65.918,69.824,-46.387,-91.309,1362.42,460.851518213264
593,1686880134.52,-47.852,-316.406,-54.199,-25.879,1362.424,465.25580675947424
594,1686880134.52,-56.641,-383.789,-39.062,-52.246,1362.428,467.2106997971423
595,1686880134.52,-86.914,42.48,-19.531,-133.789,1362.431,469.2231009384995
596,1686880134.53,-98.633,77.637,-35.645,-126.465,1362.435,465.1547673837124
597,1686880134.53,-81.055,-454.59,-80.078,-42.48,1362.439,480.9999603230269
598,1686880134.54,-62.012,-425.293,-39.062,-38.086,1362.443,477.4467496722452
599,1686880134.54,-68.848,-99.609,-21.973,-108.887,1362.447,472.9115459064448
600,1686880134.55,-70.801,-90.332,-64.453,-120.117,1362.449,475.6638041852573
601,1686880134.56,-41.992,-722.168,-83.496,-34.668,1362.453,477.2403534018657
602,1686880134.56,-26.367,-464.355,10.742,3.418,1362.457,479.1362167463759
603,1686880134.57,-54.688,336.914,-16.602,-75.195,1362.461,469.7231054268262
604,1686880134.57,-78.125,78.613,-80.078,-130.859,1362.465,462.23792143058523
605,1686880134.57,-58.594,-408.691,-41.504,-66.406,1362.469,454.60385028975986
606,1686880134.58,-28.32,-126.953,-11.23,-1.465,1362.473,467.7756369667669
607,1686880134.58,-33.203,302.734,-36.621,-39.062,1362.477,460.07086334821673
608,1686880134.58,-70.801,-111.816,-84.473,-111.816,1362.481,462.86275928450897
609,1686880134.59,-83.496,-654.785,-30.273,-88.867,1362.485,455.7766703868751
610,1686880134.59,-42.969,-10.742,5.859,-7.812,1362.489,451.8361219148765
611,1686880134.6,-37.598,354.004,-47.852,-18.066,1362.492,454.59652085024226
612,1686880134.6,-64.453,-131.836,-75.195,-86.914,1362.495,445.42834030621515
613,1686880134.6,-61.523,-394.531,-45.898,-85.449,1362.499,447.65674462946424
614,1686880134.61,-42.48,-10.742,-10.742,-19.531,1362.503,443.8297913373524
615,1686880134.61,-35.645,284.18,-32.715,-7.324,1362.507,430.0241535159163
616,1686880134.61,-42.48,-208.984,-77.148,-75.684,1362.511,436.236953076943
617,1686880134.62,-57.129,-695.801,-51.27,-101.074,1362.514,431.2649466466598
618,1686880134.62,-44.434,-234.375,-0.977,-29.297,1362.518,430.28041284500193
619,1686880134.62,-22.949,280.762,-35.156,14.16,1362.522,424.7568031580631
620,1686880134.63,-35.645,-345.215,-97.168,-42.969,1362.526,429.76734645027045
621,1686880134.63,-54.199,-578.613,-13.672,-101.562,1362.53,426.9889126290158
622,1686880134.64,-36.133,121.582,-1.465,-56.641,1362.534,421.64661155482514
623,1686880134.64,-8.301,243.164,-43.945,20.508,1362.538,415.8571330249193
624,1686880134.64,-1.465,-172.852,-51.27,-11.719,1362.54,405.1285871263771
625,1686880134.65,-31.25,-395.02,-56.152,-83.984,1362.544,416.00505528843104
626,1686880134.65,-50.293,11.23,-23.438,-73.73,1362.548,404.6911436539187
627,1686880134.66,-27.832,88.867,-54.199,-1.465,1362.551,404.47124306391584
628,1686880134.66,-26.855,-729.492,-96.68,-2.441,1362.555,404.96312665287894
629,1686880134.66,-54.199,-739.258,-35.645,-86.426,1362.559,393.54802504208874
630,1686880134.67,-68.359,-63.477,-5.859,-99.121,1362.563,400.8268849666168
631,1686880134.67,-41.504,10.742,-60.547,-16.602,1362.567,392.7858535980311
632,1686880134.67,-19.043,-682.129,-68.848,27.832,1362.571,386.8382088144148
633,1686880134.68,-38.086,-134.277,-2.441,-50.293,1362.575,386.9978165668499
634,1686880134.68,-50.781,334.961,-38.574,-94.238,1362.579,395.62955342457644
635,1686880134.69,-29.297,-131.836,-49.316,-17.09,1362.583,384.6046386614647
636,1686880134.69,-2.93,-87.402,-9.766,36.133,1362.585,394.8388836389313
637,1686880134.69,-17.09,196.777,-20.508,-24.902,1362.588,375.05824169312933
638,1686880134.7,-48.34,114.746,-54.688,-87.402,1362.592,375.8505050430536
639,1686880134.7,-36.133,-159.18,-65.918,-46.875,1362.596,390.08652786362745
640,1686880134.7,-7.812,-28.32,-32.227,24.902,1362.6,367.74328287070955
641,1686880134.71,-12.695,-133.789,-51.758,6.348,1362.604,377.69700104291513
642,1686880134.71,-38.574,-339.355,-57.129,-71.289,1362.608,372.75725898956983
643,1686880134.72,-45.41,-648.926,-76.172,-51.27,1362.612,367.49709155557787
644,1686880134.72,-21.973,-839.844,-12.695,38.086,1362.616,360.6772710779181
645,1686880134.72,-3.418,100.586,22.461,40.039,1362.62,362.5351802154361
646,1686880134.73,-35.645,237.793,-62.988,-42.48,1362.624,364.3371061300617
647,1686880134.73,-59.57,-196.289,-47.852,-66.406,1362.628,345.1346161414376
648,1686880134.73,-30.762,-49.316,-41.992,12.207,1362.63,333.70533026528125
649,1686880134.74,-14.16,29.785,-39.551,47.363,1362.634,345.7840737809872
650,1686880134.74,-26.855,13.672,-47.852,-12.207,1362.638,348.330321099717
651,1686880134.74,-38.086,-645.02,-67.383,-53.223,1362.642,327.5505960673607
652,1686880134.75,-25.391,-305.176,-2.93,3.906,1362.646,336.60511536116053
653,1686880134.75,-5.371,110.352,-26.855,60.547,1362.649,335.6871539559585
654,1686880134.76,-17.09,-290.527,-61.523,8.789,1362.653,324.53544211701205
655,1686880134.76,-36.133,-766.113,-50.781,-57.129,1362.657,321.83562420981485
656,1686880134.76,-27.832,-286.621,-7.324,-29.297,1362.661,321.15958496154747
657,1686880134.77,2.93,160.645,-39.062,40.527,1362.665,309.0205703979588
658,1686880134.77,3.418,-95.215,-65.43,28.32,1362.669,309.5401593951171
659,1686880134.78,-29.297,-236.816,-26.367,-53.711,1362.673,317.3435209428295
660,1686880134.78,-37.109,91.309,-16.602,-58.594,1362.675,312.796794536607
661,1686880134.78,-6.836,263.184,-35.645,23.926,1362.678,314.46682981081346
662,1686880134.79,4.883,20.02,-52.246,46.387,1362.682,302.43983874931575
663,1686880134.79,-13.184,0.977,-30.762,-27.832,1362.686,308.6823817141987
664,1686880134.79,-20.996,83.008,-20.508,-45.898,1362.69,297.7698633202774
665,1686880134.8,-3.418,-127.93,-35.156,28.32,1362.694,299.50062662572896
666,1686880134.8,8.789,-535.156,-53.223,69.336,1362.698,296.7146746276815
667,1686880134.8,-5.371,-541.992,-2.441,12.695,1362.702,281.1114865884107
668,1686880134.81,-20.996,111.328,-0.977,-54.688,1362.706,283.3605309384654
669,1686880134.81,-10.742,174.316,-50.293,-14.16,1362.71,283.65582386620696
670,1686880134.82,9.277,-88.379,-42.48,46.875,1362.714,284.1887865878189
671,1686880134.82,3.906,-7.812,-47.363,7.324,1362.718,279.07232485352364
672,1686880134.82,-20.02,-179.199,-65.918,-58.105,1362.723,289.46125077374046
673,1686880134.83,-24.902,-360.84,-62.012,-29.297,1362.727,285.8646684731713
674,1686880134.83,-3.906,-745.605,-62.012,54.199,1362.731,279.58999558528086
675,1686880134.84,6.836,-392.09,5.371,40.039,1362.734,283.44567358782365
676,1686880134.84,-18.555,297.852,-17.09,-47.852,1362.738,290.1668955262047
677,1686880134.84,-33.203,-125.488,-80.566,-53.711,1362.742,278.62590174147294
678,1686880134.85,-6.836,-791.016,-50.781,27.832,1362.746,274.5864629232645
679,1686880134.85,9.766,-88.867,10.254,44.434,1362.75,276.43827337550397
680,1686880134.86,-11.719,425.781,-38.574,-35.156,1362.754,273.87169554116724
681,1686880134.86,-29.297,23.438,-65.43,-69.336,1362.758,283.0484699728741
682,1686880134.86,-8.301,39.551,-22.949,-1.953,1362.762,280.71076335010423
683,1686880134.87,16.113,319.824,-17.09,45.898,1362.766,281.14164374917874
684,1686880134.88,-4.395,278.809,-50.293,-10.742,1362.781,277.92148008222983
685,1686880134.89,-36.133,-175.781,-76.66,-69.336,1362.785,285.5020789701089
686,1686880134.89,-23.438,-397.461,-38.086,-27.344,1362.789,287.77528464321796
687,1686880134.9,15.137,30.762,-6.836,45.41,1362.793,303.29132970267966
688,1686880134.9,18.555,293.457,-33.691,24.902,1362.797,286.02990705143
689,1686880134.9,-9.766,-399.414,-111.816,-39.551,1362.801,288.21544435584707
690,1686880134.91,-13.672,-952.148,-56.641,-17.09,1362.805,287.8632419045719
691,1686880134.91,9.277,-17.09,33.691,51.27,1362.808,282.1924272549915
692,1686880134.91,16.602,405.762,-42.48,41.016,1362.812,293.14940284634764
693,1686880134.92,-7.324,-109.375,-73.242,-38.086,1362.816,289.182123479812
694,1686880134.92,-14.648,-37.598,-38.574,-51.758,1362.82,293.8229843925111
695,1686880134.93,14.648,248.047,-36.133,22.461,1362.824,296.15630848596084
696,1686880134.93,26.855,47.363,-74.707,54.199,1362.824,289.9793794127143
697,1686880134.93,-2.441,-689.453,-82.52,-15.625,1362.828,300.47618302926395
698,1686880134.94,-20.02,-357.91,-17.578,-61.035,1362.832,306.02397146144284
699,1686880134.94,2.93,263.672,-31.738,-1.465,1362.836,298.6299561378587
700,1686880134.94,18.555,71.289,-67.383,60.059,1362.84,301.9663003437972
701,1686880134.95,12.695,-359.863,-57.617,17.09,1362.844,305.063083020374
702,1686880134.95,-10.742,-437.5,-38.574,-46.387,1362.848,306.48612221573006
703,1686880134.96,-7.812,-55.176,-15.625,-10.742,1362.852,298.98888243366173
704,1686880134.96,26.367,-13.184,-59.57,59.57,1362.856,304.98767773153315
705,1686880134.96,16.602,-761.719,-73.242,43.945,1362.859,305.6654431848583
706,1686880134.97,-12.695,-246.582,0.0,-29.785,1362.863,302.0129565365539
707,1686880134.97,-14.16,313.477,-25.879,-24.902,1362.867,304.20672240945953
708,1686880134.97,9.277,14.16,-52.734,46.387,1362.87,297.39865650151745
709,1686880134.98,15.625,64.941,-29.785,46.387,1362.874,305.7446209635109
710,1686880134.98,-10.742,208.984,-40.039,-29.785,1362.878,311.8171908546732
711,1686880134.98,-17.09,92.285,-49.316,-50.781,1362.882,301.9283841839412
712,1686880134.99,8.789,-168.457,-54.688,25.879,1362.886,306.14994939417164
713,1686880134.99,28.32,-274.414,-56.152,74.219,1362.89,307.50407649628426
714,1686880135.0,17.09,-198.73,-50.293,16.113,1362.893,323.42123258857185
715,1686880135.0,-1.465,-96.68,-50.781,-33.203,1362.897,310.3480302659702
716,1686880135.0,12.695,-584.961,-101.562,23.438,1362.901,314.21293863589324
717,1686880135.01,33.203,-795.898,-36.133,80.078,1362.905,339.21804128804496
718,1686880135.01,24.414,141.113,6.836,26.855,1362.909,314.62927729047925
719,1686880135.02,-4.395,285.156,-55.176,-42.48,1362.913,324.45917030479484
720,1686880135.02,-0.977,-183.594,-39.551,-13.184,1362.915,326.86696165855494
721,1686880135.02,24.902,-145.996,-27.832,56.152,1362.918,317.21065481334404
722,1686880135.03,43.457,255.371,-26.367,52.734,1362.922,334.234082459788
723,1686880135.03,38.574,150.391,-71.289,-9.766,1362.926,318.9671697932696
724,1686880135.03,3.418,-589.355,-63.965,-25.391,1362.93,329.91660730999166
725,1686880135.04,9.766,-439.941,-7.812,35.156,1362.934,338.87812286052866
726,1686880135.04,43.457,120.117,-12.695,62.5,1362.938,330.8983474190659
727,1686880135.04,34.668,35.156,-71.289,-0.488,1362.942,329.2325563353419
728,1686880135.05,18.555,-701.172,-76.66,-22.461,1362.946,336.67991468538065
729,1686880135.05,41.016,-185.059,-3.906,51.27,1362.95,333.0181802382349
730,1686880135.06,53.711,252.93,-42.48,88.867,1362.954,326.5885305128781
731,1686880135.06,37.598,-109.863,-62.012,26.367,1362.958,334.7301437985246
732,1686880135.06,9.766,-158.203,-14.648,-26.855,1362.959,338.58493261513854
733,1686880135.07,22.461,262.695,-11.23,26.367,1362.963,334.2517426450579
734,1686880135.07,41.992,371.094,-47.852,95.215,1362.967,336.0843583091404
735,1686880135.08,27.832,58.105,-78.125,66.406,1362.971,331.3986753809633
736,1686880135.08,6.836,10.254,-64.941,-6.836,1362.975,331.7868755018681
737,1686880135.08,9.766,-77.148,-44.434,9.766,1362.979,339.8060712021762
738,1686880135.09,35.156,-92.773,-46.875,75.684,1362.983,344.6874552262373
739,1686880135.09,36.133,-380.371,-73.242,62.5,1362.987,347.44455355367205
740,1686880135.09,7.812,-494.629,-3.418,-13.184,1362.991,340.4329626215933
741,1686880135.1,2.441,230.957,7.812,-19.043,1362.995,348.19111055113643
742,1686880135.1,25.879,356.934,-43.457,56.152,1362.999,343.73388167167235
743,1686880135.11,39.062,54.688,-44.922,72.266,1363.002,350.1476528929639
744,1686880135.11,18.555,13.184,-57.129,-8.301,1363.008,351.751532175092
745,1686880135.11,-2.93,-142.578,-61.523,-44.434,1363.012,345.50313290558165
746,1686880135.12,5.371,-231.445,-56.152,20.996,1363.016,345.5488101723797
747,1686880135.12,28.809,-624.023,-65.918,74.707,1363.019,352.6461624121813
748,1686880135.12,29.297,-358.398,-3.906,33.691,1363.023,352.0157003767175
749,1686880135.13,9.766,137.695,-23.926,-28.809,1363.027,361.06886981762244
750,1686880135.13,11.23,-72.266,-61.035,5.859,1363.031,353.66696445078605
751,1686880135.14,29.297,-514.648,-51.758,80.566,1363.035,349.573272533487
752,1686880135.14,28.809,103.516,-2.93,54.199,1363.039,355.01178794844986
753,1686880135.14,8.789,524.902,-48.34,-25.391,1363.043,361.31895455160577
754,1686880135.15,5.371,149.414,-81.055,-10.254,1363.047,361.37585805978546
755,1686880135.15,35.156,201.66,-18.066,66.406,1363.051,363.7766640126301
756,1686880135.16,38.574,398.926,-21.973,67.871,1363.052,357.28455504862376
757,1686880135.16,10.742,324.707,-64.941,-3.906,1363.056,365.31639856557666
758,1686880135.16,1.465,-105.469,-74.707,-19.531,1363.06,366.5915646613841
759,1686880135.17,23.926,-241.211,-37.109,57.617,1363.064,363.6156083754612
760,1686880135.17,34.18,109.863,-27.344,80.078,1363.068,368.6808549950021
761,1686880135.18,8.301,-2.93,-60.547,4.395,1363.072,376.16113013589705
762,1686880135.18,-2.93,-579.59,-104.004,-25.391,1363.075,371.6364356963634
763,1686880135.18,11.23,-856.445,-45.898,35.156,1363.079,378.9360485813739
764,1686880135.19,24.902,127.441,9.766,74.707,1363.083,377.8306896053561
765,1686880135.19,18.555,420.41,-57.617,23.926,1363.087,374.2692936031403
766,1686880135.19,-5.371,-177.734,-69.824,-43.457,1363.091,369.2741279520125
767,1686880135.2,31.25,282.227,-55.664,66.406,1363.108,374.92333783089344
768,1686880135.2,-0.488,54.199,-26.855,-11.23,1363.095,385.8910034875036
769,1686880135.2,25.879,-132.324,-87.891,38.086,1363.112,380.9636582929519
770,1686880135.21,-3.418,-504.395,-20.02,-35.156,1363.116,383.4520013156354
771,1686880135.21,0.488,-54.199,0.977,-24.902,1363.12,383.5791851218931
772,1686880135.21,20.508,279.785,-35.645,46.387,1363.124,388.7367284680438
773,1686880135.22,19.043,-78.613,-58.105,54.199,1363.128,375.6300358714113
774,1686880135.22,0.977,-869.629,-102.539,-3.906,1363.132,377.27077084806655
775,1686880135.22,-14.648,-951.66,-40.039,-23.438,1363.136,383.02135464360697
776,1686880135.23,12.207,117.188,13.184,30.273,1363.14,383.36829744714663
777,1686880135.23,33.691,367.188,-50.781,64.453,1363.144,381.9371807352574
778,1686880135.24,20.02,90.332,-39.551,0.0,1363.147,388.1986303447576
779,1686880135.24,-4.395,245.605,-29.297,-50.781,1363.151,386.6049701781498
780,1686880135.26,-0.977,259.766,-44.434,6.836,1363.155,387.5264979100662
781,1686880135.26,25.391,20.996,-65.918,69.824,1363.159,400.62966973191624
782,1686880135.27,17.578,-72.266,-51.27,27.344,1363.162,395.59004480921305
783,1686880135.27,-7.324,25.879,-39.062,-45.898,1363.166,390.4842076742283
784,1686880135.27,-5.859,90.332,-55.664,-23.926,1363.17,384.1987095476969
785,1686880135.28,6.836,-369.629,-93.262,46.875,1363.174,389.8588444470144
786,1686880135.28,6.348,-450.195,-34.668,36.133,1363.178,402.33550808222594
787,1686880135.28,-7.812,25.391,-26.367,-38.574,1363.182,395.3215750618894
788,1686880135.29,-11.719,-146.973,-92.773,-40.527,1363.186,392.02198228638827
789,1686880135.29,11.719,-672.852,-89.355,45.898,1363.19,384.85017468804205
790,1686880135.3,21.484,-508.301,-2.93,56.641,1363.194,400.9064012803382
791,1686880135.3,-2.93,160.156,-16.113,-33.691,1363.198,397.31941774498307
792,1686880135.3,-19.043,-76.66,-88.867,-49.805,1363.2,389.8320113405774
793,1686880135.31,1.465,-710.449,-71.289,32.715,1363.204,391.38804288427775
794,1686880135.31,25.391,-195.312,-17.578,60.059,1363.208,398.41800728659405
795,1686880135.32,11.23,267.09,-43.457,-5.859,1363.212,402.505363369595
796,1686880135.32,-13.184,-120.605,-79.59,-62.012,1363.215,396.99859517273853
797,1686880135.32,-5.371,-631.836,-58.105,-11.719,1363.219,411.45652321726897
798,1686880135.33,16.602,-445.801,-29.785,58.594,1363.223,404.33771907179766
799,1686880135.33,8.789,77.148,-27.344,24.902,1363.227,397.12670292299816
800,1686880135.33,-14.648,-150.879,-83.008,-43.457,1363.231,397.17188871621283
801,1686880135.34,-16.602,-803.711,-71.777,-11.719,1363.235,412.81338203294024
802,1686880135.34,9.766,-267.578,-2.93,74.219,1363.239,402.3931114282512
803,1686880135.35,18.555,4.883,-50.781,76.66,1363.243,400.02411709611005
804,1686880135.35,-7.812,-342.285,-66.895,-7.812,1363.245,404.83339470587913
805,1686880135.35,-27.832,-298.828,-20.02,-32.715,1363.248,405.7272495212795
806,1686880135.36,-10.742,77.148,-14.16,32.715,1363.252,403.00273404236833
807,1686880135.36,1.465,197.266,-48.34,37.598,1363.256,401.0840404803946
808,1686880135.36,-21.973,-262.207,-92.773,-30.762,1363.26,398.8279405026509
809,1686880135.37,-48.34,-728.027,-62.012,-63.965,1363.264,409.9822256081715
810,1686880135.37,-28.32,-311.035,-10.742,-9.766,1363.268,395.3946725819547
811,1686880135.38,13.672,161.621,-44.434,47.852,1363.272,403.92694138404727
812,1686880135.38,4.395,-481.445,-106.934,3.418,1363.276,400.6817612975038
813,1686880135.38,-28.809,-683.594,-24.902,-51.27,1363.28,395.9066571770614
814,1686880135.39,-14.16,42.48,3.906,-7.324,1363.284,399.2106981254474
815,1686880135.39,10.254,159.18,-44.434,67.871,1363.288,395.5108506695
816,1686880135.39,-0.488,-282.227,-54.688,41.992,1363.294,400.0670853993685
817,1686880135.4,-22.461,-573.73,-54.199,-32.715,1363.298,397.5648867921321
818,1686880135.4,-30.762,-355.957,-20.508,-28.32,1363.301,403.1111539739513
819,1686880135.41,-2.93,-104.004,-41.504,44.922,1363.305,394.5754271699372
820,1686880135.41,11.23,-725.586,-90.82,62.012,1363.309,391.3061234625535
821,1686880135.41,-15.137,-845.215,-30.273,-18.066,1363.313,390.3194776610577
822,1686880135.42,-20.508,-186.035,-2.441,-45.898,1363.317,396.48418280999755
823,1686880135.42,3.906,-37.109,-56.152,31.25,1363.321,386.05187175101025
824,1686880135.42,11.719,-702.637,-74.219,61.035,1363.325,394.43072373717104
825,1686880135.43,-13.672,-228.516,-22.949,-20.02,1363.329,392.09492346774687
826,1686880135.43,-39.062,208.496,-59.082,-66.406,1363.333,367.24575021660803
827,1686880135.44,-24.414,-108.887,-78.125,-4.883,1363.337,383.8170397875712
828,1686880135.44,2.93,-0.488,-44.922,42.969,1363.335,377.4705521333421
829,1686880135.44,-8.301,186.523,-38.574,-0.488,1363.339,371.40626619053705
830,1686880135.45,-34.18,67.871,-53.223,-62.988,1363.343,376.1010742937471
831,1686880135.45,-28.809,-306.152,-72.754,-29.785,1363.346,370.57038933726943
832,1686880135.45,2.441,-425.293,-52.734,46.387,1363.35,367.8118798814125
833,1686880135.46,-0.977,-377.93,-44.434,30.273,1363.354,360.69692432347784
834,1686880135.46,-32.227,-367.188,-49.805,-47.852,1363.358,373.7585894771838
835,1686880135.46,-33.203,-650.879,-81.543,-43.457,1363.362,356.20438649860625
836,1686880135.47,-6.348,-862.305,-22.949,33.691,1363.366,359.45787131411936
837,1686880135.47,0.0,44.434,19.043,34.668,1363.37,350.14717482767014
838,1686880135.48,-30.762,224.609,-56.641,-39.062,1363.374,359.80703457318606
839,1686880135.48,-42.48,-225.098,-49.316,-63.965,1363.378,354.656302954203
840,1686880135.48,-19.043,-171.875,-43.457,-2.441,1363.38,358.4570905727067
841,1686880135.49,-5.371,-106.934,-41.016,35.645,1363.384,343.00117910169047
842,1686880135.49,-17.09,-64.453,-61.523,-28.32,1363.388,345.7646604393729
843,1686880135.5,-38.086,-666.016,-75.684,-82.52,1363.391,350.3204850977922
844,1686880135.5,-28.32,-349.121,-8.301,-28.809,1363.395,355.37898625199034
845,1686880135.5,-2.441,10.254,-29.297,38.086,1363.399,338.59595177494185
846,1686880135.51,-12.695,-329.59,-58.105,-1.953,1363.403,335.38863324624117
847,1686880135.51,-36.133,-846.191,-53.223,-64.941,1363.407,342.93248110545613
848,1686880135.51,-34.668,-427.734,31.738,-40.527,1363.411,356.5349024213177
849,1686880135.52,-14.648,390.137,0.0,27.832,1363.415,345.6002526762869
850,1686880135.52,-8.789,156.738,-74.219,15.137,1363.419,345.127685567191
851,1686880135.53,-34.18,-143.555,-36.621,-65.43,1363.423,340.1023275817351
852,1686880135.54,-47.363,99.609,-19.531,-77.148,1363.44,351.63108569881365
853,1686880135.55,-23.438,217.285,-40.527,-5.371,1363.443,343.4875280610708
854,1686880135.55,-9.766,-48.828,-61.035,12.695,1363.447,344.65252993235003
855,1686880135.56,-34.18,-115.723,-41.992,-64.453,1363.451,354.28525850925706
856,1686880135.56,-54.688,-30.273,-30.762,-99.121,1363.455,346.3378070041561
857,1686880135.56,-30.762,-197.266,-53.711,-25.391,1363.459,352.91342175486756
858,1686880135.57,-6.348,-571.777,-75.195,24.902,1363.463,344.30686514080315
859,1686880135.57,-17.09,-592.285,-15.137,-32.715,1363.467,369.77630522135905
860,1686880135.58,-39.062,-35.645,-20.996,-90.82,1363.471,368.88305026427435
861,1686880135.58,-30.273,-99.121,-70.801,-35.156,1363.475,363.1821057409211
862,1686880135.58,-3.906,-527.832,-76.172,36.133,1363.479,378.9999667223472
863,1686880135.59,-10.742,-166.504,-23.438,-11.719,1363.483,377.35646322273
864,1686880135.59,-36.133,115.234,-34.668,-89.355,1363.484,387.9047409635434
865,1686880135.59,-36.133,-372.07,-80.078,-63.965,1363.488,379.2656857907692
866,1686880135.6,-9.277,-754.883,-62.012,20.508,1363.492,379.58680869057287
867,1686880135.6,3.906,-156.25,-11.23,5.859,1363.496,376.14848161443047
868,1686880135.6,-30.273,277.344,-36.133,-81.055,1363.5,376.0114092634371
869,1686880135.61,-56.152,-306.641,-74.219,-92.285,1363.504,385.47918442884924
870,1686880135.61,-29.785,-500.977,-9.766,-13.184,1363.508,397.04935853872695
871,1686880135.62,-10.742,96.191,-1.953,16.113,1363.512,407.0351569656015
872,1686880135.62,-28.809,332.031,-43.457,-57.129,1363.516,398.1839054943609
873,1686880135.62,-29.785,71.777,-49.316,-21.484,1363.529,408.8547608593039
874,1686880135.62,-50.781,-128.906,-82.031,-90.332,1363.52,387.2134428199532
875,1686880135.62,-52.246,-248.535,-68.848,-85.938,1363.533,406.46156748383015
876,1686880135.63,-39.062,-731.934,-52.734,-23.438,1363.524,405.6415874852579
877,1686880135.63,-48.828,-292.969,-10.254,-49.805,1363.537,409.630262631132
878,1686880135.63,-17.09,-223.633,-2.441,23.926,1363.527,417.86253241021046
879,1686880135.63,-23.438,204.59,-3.906,20.996,1363.54,399.2048609792344
880,1686880135.64,-21.484,303.223,-63.965,-6.348,1363.544,403.08166468131304
881,1686880135.64,-48.828,-332.52,-96.191,-77.148,1363.548,413.27431369286205
882,1686880135.64,-55.176,-462.402,-25.879,-61.523,1363.552,410.39829640705085
883,1686880135.65,-26.367,170.898,0.0,15.137,1363.556,418.5908448853435
884,1686880135.65,-16.113,305.664,-58.594,17.578,1363.56,420.45358448953033
885,1686880135.66,-39.062,-460.449,-102.051,-53.223,1363.564,418.9523651248236
886,1686880135.66,-40.039,-585.938,-11.23,-75.684,1363.568,425.0104170273132
887,1686880135.66,-25.879,215.332,6.836,-14.16,1363.572,426.6063051396772
888,1686880135.68,-25.879,220.703,-73.73,14.648,1363.578,417.9970078387932
889,1686880135.68,-57.617,-530.273,-98.145,-66.895,1363.582,429.90224028461967
890,1686880135.69,-80.078,-556.152,-48.828,-117.676,1363.586,432.86405992714026
891,1686880135.69,-66.406,31.738,-6.348,-60.059,1363.59,429.1169346528976
892,1686880135.7,-62.5,137.207,-54.199,-12.695,1363.594,441.1513035594635
893,1686880135.7,-68.359,-774.902,-92.773,-40.039,1363.598,429.18666630115746
894,1686880135.7,-83.984,-664.062,8.789,-112.305,1363.601,433.67501670954795
895,1686880135.71,-83.496,263.184,0.977,-94.238,1363.605,442.5145837270862
896,1686880135.71,-59.57,236.816,-58.105,-6.348,1363.609,427.24859598222696
897,1686880135.71,-62.012,33.691,-27.832,-23.438,1363.613,430.82819143176175
898,1686880135.72,-81.055,195.312,-27.344,-94.727,1363.617,435.32471579871117
899,1686880135.72,-76.66,177.734,-52.246,-81.543,1363.621,438.9305615221643
900,1686880135.72,-46.387,-5.859,-54.688,-12.207,1363.62,431.44522884522024
901,1686880135.73,-37.598,16.113,-31.25,-13.672,1363.624,432.56361407662166
902,1686880135.73,-61.523,129.883,-36.621,-82.031,1363.628,435.6460436212874
903,1686880135.74,-69.824,19.043,-62.5,-96.191,1363.632,435.2856809453993
904,1686880135.74,-40.039,-270.996,-76.66,-21.484,1363.635,423.3926056990182
905,1686880135.74,-16.602,-325.195,-48.34,14.648,1363.639,437.4451664929754
906,1686880135.75,-42.969,-292.969,-46.387,-56.152,1363.643,432.53542952134865
907,1686880135.75,-69.824,-283.203,-61.035,-109.375,1363.647,430.37080936329073
908,1686880135.75,-53.223,-586.914,-90.332,-48.828,1363.651,413.9993400798382
909,1686880135.76,-29.297,-791.504,-22.461,16.602,1363.655,429.25676209039864
910,1686880135.76,-23.926,115.723,20.996,-26.367,1363.659,423.52824091850385
911,1686880135.77,-46.387,310.059,-48.34,-92.773,1363.663,415.8035735215459
912,1686880135.77,-51.758,-224.121,-49.805,-64.453,1363.665,415.5054531646354
913,1686880135.77,-29.785,-194.824,-18.066,12.695,1363.668,424.30876325664207
914,1686880135.78,-26.367,252.93,-7.812,0.977,1363.672,420.5154985364615
915,1686880135.78,-57.129,172.852,-60.059,-78.125,1363.676,408.4769120160552
916,1686880135.78,-72.266,-639.648,-80.566,-83.008,1363.68,410.1457438103936
917,1686880135.79,-45.898,-473.633,-24.414,-8.301,1363.684,421.4488895842597
918,1686880135.79,-31.738,44.434,-27.832,11.719,1363.688,406.14496754399755
919,1686880135.8,-52.734,-45.41,-61.523,-56.641,1363.692,402.4461287739718
920,1686880135.8,-74.707,-793.945,-66.895,-87.891,1363.696,410.4999566803911
921,1686880135.8,-54.688,-305.176,29.785,-18.555,1363.7,420.21519928132284
922,1686880135.81,-24.414,545.898,0.488,25.879,1363.704,405.4583153673988
923,1686880135.81,-37.109,211.914,-75.195,-33.691,1363.708,400.98832753951814
924,1686880135.81,-58.105,-15.137,-35.156,-98.633,1363.71,407.18207206761684
925,1686880135.82,-50.781,245.117,-8.301,-59.082,1363.714,393.96474258188397
926,1686880135.82,-24.902,344.727,-41.016,16.113,1363.718,393.02933416178956
927,1686880135.82,-21.484,36.621,-70.801,-5.859,1363.721,399.7941214559417
928,1686880135.83,-45.898,-114.258,-54.199,-82.031,1363.725,398.64315707808623
929,1686880135.83,-41.504,-233.398,-41.016,-69.824,1363.729,379.18160756775853
930,1686880135.84,-7.812,-228.027,-40.527,18.066,1363.733,378.8217306907209
931,1686880135.84,-8.301,-427.734,-61.523,18.066,1363.737,385.4905854257421
932,1686880135.84,-40.039,-555.176,1.465,-56.152,1363.741,381.42196975443517
933,1686880135.85,-49.805,21.484,-0.977,-56.152,1363.745,359.525779709026
934,1686880135.85,-23.926,-30.273,-48.34,22.949,1363.749,368.2595292711352
935,1686880135.86,-20.508,-383.301,-54.688,41.504,1363.753,349.30767390422665
936,1686880135.86,-53.711,-211.914,-40.039,-42.48,1363.754,352.1681361628768
937,1686880135.86,-69.336,-54.199,-25.391,-85.449,1363.758,354.9722937708663
938,1686880135.87,-48.828,-11.23,-38.086,-16.113,1363.762,351.3424108380151
939,1686880135.87,-28.809,-429.688,-46.875,39.062,1363.766,355.0085319300704
940,1686880135.87,-39.551,-142.578,-12.695,-19.531,1363.77,335.15356519681785
941,1686880135.88,-62.012,87.402,-48.828,-85.938,1363.774,338.5551749674973
942,1686880135.88,-45.41,-288.574,-60.059,-42.969,1363.778,346.0579984522512
943,1686880135.88,-11.719,-727.539,-44.922,41.504,1363.782,337.41217116895325
944,1686880135.89,-20.508,-74.219,7.324,9.277,1363.786,332.25133233444507
945,1686880135.89,-47.852,453.613,-25.879,-81.543,1363.79,329.67480987952786
946,1686880135.9,-45.898,62.988,-74.707,-69.336,1363.794,327.4341027432313
947,1686880135.9,-20.508,119.141,-26.855,10.742,1363.797,327.00482793234016
948,1686880135.9,-20.02,211.426,-38.574,5.371,1363.803,331.5289188208353
949,1686880135.91,-42.969,46.875,-73.73,-74.219,1363.807,326.29559416153705
950,1686880135.91,-53.711,-228.516,-63.965,-89.844,1363.811,325.44339792888377
951,1686880135.92,-31.738,-329.59,-0.977,-9.277,1363.815,317.08954834734993
952,1686880135.92,-17.09,146.973,-2.93,27.832,1363.819,316.0183564381717
953,1686880135.92,-40.527,21.973,-63.477,-25.879,1363.823,314.478285706278
954,1686880135.93,-58.105,-552.246,-84.473,-71.777,1363.826,307.9067439520002
955,1686880135.93,-38.574,-531.738,9.277,-27.832,1363.83,310.33417608176376
956,1686880135.94,-6.348,303.223,20.508,32.715,1363.834,307.32432822916536
957,1686880135.94,-20.508,375.0,-63.965,-17.578,1363.838,314.1721335193726
958,1686880135.94,-51.27,-211.914,-75.195,-91.797,1363.842,317.93768157753766
959,1686880135.95,-47.852,-121.582,-38.574,-64.453,1363.846,304.6056681131056
960,1686880135.95,-19.531,151.855,-45.41,15.625,1363.859,303.15827764200685
961,1686880135.95,-16.113,-119.629,-67.871,9.766,1363.863,305.35886017477713
962,1686880135.96,-54.199,-708.984,-85.938,-65.918,1363.867,312.26636158876465
963,1686880135.96,-56.641,-519.043,-27.344,-60.059,1363.871,304.9186217708671
964,1686880135.96,-21.973,206.543,-1.465,16.113,1363.875,312.3577715329141
965,1686880135.97,-14.16,31.25,-62.012,29.297,1363.879,312.78111577890246
966,1686880135.97,-37.598,-828.613,-71.777,-42.48,1363.883,306.27474433820316
967,1686880135.98,-59.082,-470.703,27.344,-71.289,1363.887,320.0183156286283
968,1686880135.98,-40.527,441.895,13.184,-9.277,1363.89,304.7124197078903
969,1686880135.98,-19.043,368.652,-52.246,21.973,1363.894,306.01439396626995
970,1686880135.99,-38.086,211.914,-25.879,-43.457,1363.898,310.39716044864156
971,1686880135.99,-66.406,291.992,-28.809,-93.262,1363.902,307.4171398215908
972,1686880135.99,-51.758,242.676,-39.062,-31.25,1363.904,318.20591577291435
973,1686880136.0,-25.879,92.285,-47.363,34.668,1363.908,316.5046463706338
974,1686880136.0,-41.992,58.594,-36.621,-12.695,1363.912,329.0900428385341
975,1686880136.0,-68.359,151.855,-30.762,-81.543,1363.916,309.2366194420077
976,1686880136.01,-59.082,115.723,-41.504,-60.059,1363.92,328.42374835709705
977,1686880136.01,-31.25,-255.371,-56.152,30.762,1363.924,322.67562934238987
978,1686880136.02,-35.156,-425.293,-39.551,17.578,1363.928,316.0734401888945
979,1686880136.02,-64.453,-250.0,-25.879,-83.496,1363.932,319.8644022052827
980,1686880136.02,-68.359,54.199,-24.902,-89.355,1363.936,339.41091653507556
981,1686880136.03,-45.41,-409.668,-72.266,4.883,1363.939,330.2182621148571
982,1686880136.03,-39.062,-616.699,0.488,17.578,1363.943,331.8684437394024
983,1686880136.04,-58.105,260.742,23.438,-72.754,1363.947,346.84645987092716
984,1686880136.05,-65.43,126.953,-74.707,-88.379,1363.949,342.94478381807704
985,1686880136.06,-47.852,-630.859,-77.148,-13.672,1363.953,347.36764829462203
986,1686880136.06,-40.039,-130.371,11.23,17.09,1363.957,344.4858413226985
987,1686880136.07,-56.641,484.375,-1.465,-53.223,1363.961,348.6637944292073
988,1686880136.07,-73.73,187.988,-67.871,-95.703,1363.965,341.546426314454
989,1686880136.07,-49.316,-314.453,-53.711,-36.133,1363.969,334.6683533344834
990,1686880136.08,-22.949,-70.801,-3.906,24.414,1363.973,356.31425212330373
991,1686880136.08,-23.926,422.363,-22.461,-8.789,1363.977,350.27632947661755
992,1686880136.08,-38.574,11.23,-82.031,-73.242,1363.981,350.32937475408477
993,1686880136.09,-45.41,-812.5,-75.684,-48.828,1363.985,351.24286730142984
994,1686880136.09,-20.508,-106.445,19.531,19.531,1363.989,354.9288643742708
995,1686880136.1,-21.484,546.387,-16.113,2.93,1363.992,354.08052563005606
996,1686880136.1,-58.105,94.238,-71.289,-81.543,1363.994,355.30177315825
997,1686880136.1,-73.73,6.836,-21.484,-91.309,1363.998,362.52584226103005
998,1686880136.11,-47.852,299.316,-7.324,-4.395,1364.002,365.55591121417774
999,1686880136.11,-23.438,355.957,-27.832,16.113,1364.006,352.21257568866764
1000,1686880136.11,-39.062,13.672,-70.801,-53.223,1364.01,359.91789720675905
1001,1686880136.12,-59.082,-365.723,-69.336,-78.125,1364.014,367.3911250870715
1002,1686880136.12,-42.969,-234.863,-18.066,-19.043,1364.018,357.59392870956975
1003,1686880136.12,-21.484,261.23,-21.484,23.926,1364.022,369.8862171426594
1004,1686880136.13,-36.621,-229.98,-87.402,-36.621,1364.026,357.72421992928486
1005,1686880136.13,-65.43,-520.996,-16.602,-100.586,1364.03,364.56233394363136
1006,1686880136.14,-50.781,166.016,2.441,-56.641,1364.033,354.40055479982794
1007,1686880136.14,-23.438,136.23,-52.734,13.672,1364.037,351.9531708072493
1008,1686880136.14,-32.715,-380.371,-83.984,-9.766,1364.04,354.90594720600575
1009,1686880136.15,-59.57,-352.051,-43.457,-86.914,1364.044,359.1831148788607
1010,1686880136.15,-60.547,246.582,6.348,-86.426,1364.047,361.50973940817005
1011,1686880136.16,-33.691,287.598,-46.387,-2.441,1364.051,358.24735260995226
1012,1686880136.16,-25.879,-433.105,-83.984,6.836,1364.055,357.9949110523693
1013,1686880136.16,-40.527,-375.488,-28.32,-68.359,1364.059,352.1458008308144
1014,1686880136.17,-51.27,40.039,-12.207,-95.215,1364.063,354.225836355834
1015,1686880136.17,-40.527,-51.758,-41.504,-24.414,1364.067,355.25793762538615
1016,1686880136.17,-32.227,-595.703,-43.945,18.066,1364.071,354.85076506919876
1017,1686880136.18,-41.504,-19.043,0.488,-59.57,1364.075,355.6712539441361
1018,1686880136.18,-63.477,515.137,-31.738,-111.328,1364.079,349.9382332392587
1019,1686880136.19,-47.363,188.477,-53.223,-48.828,1364.083,351.2974144052821
1020,1686880136.19,-16.602,259.766,-15.137,18.066,1364.087,343.5348626202313
1021,1686880136.19,-33.203,262.207,-38.086,-31.738,1364.091,349.6485390708314
1022,1686880136.2,-63.477,74.219,-46.875,-110.352,1364.095,347.49108504404705
1023,1686880136.2,-56.152,-75.195,-42.969,-76.172,1364.099,351.3076040885515
1024,1686880136.2,-24.414,-94.238,-8.301,8.789,1364.103,350.5393738396082
1025,1686880136.21,-27.344,-7.324,-25.879,-9.766,1364.107,342.9966851070608
1026,1686880136.21,-58.594,-114.258,-62.988,-94.727,1364.111,345.426851901354
1027,1686880136.22,-59.082,-437.988,-74.707,-86.914,1364.114,343.8271057176102
1028,1686880136.22,-26.855,-428.223,13.672,-7.324,1364.118,340.7669317281113
1029,1686880136.22,-12.207,367.188,20.508,-8.789,1364.122,339.20244967243286
1030,1686880136.23,-35.156,306.152,-60.059,-92.285,1364.126,352.2712212178297
1031,1686880136.23,-54.688,-102.539,-40.527,-116.699,1364.13,339.40089967392254
1032,1686880136.23,-42.48,27.344,-31.25,-45.898,1364.129,338.1048905218879
1033,1686880136.24,-28.809,58.594,-35.645,-8.789,1364.133,347.8146979596718
1034,1686880136.24,-40.527,81.543,-47.363,-66.895,1364.137,341.2415556610922
1035,1686880136.24,-61.523,-594.238,-79.102,-117.188,1364.141,338.0933301896995
1036,1686880136.25,-62.5,-493.652,-14.648,-70.801,1364.145,326.4411529519184
1037,1686880136.25,-37.598,95.215,-17.578,-7.812,1364.149,335.68691239864427
1038,1686880136.26,-35.156,-17.09,-65.918,-42.48,1364.153,351.0311676634959
1039,1686880136.26,-59.082,-736.816,-72.266,-95.703,1364.156,347.80423896902175
1040,1686880136.26,-55.664,-431.641,24.902,-73.73,1364.16,338.62338952197365
1041,1686880136.27,-35.156,512.695,7.812,-10.254,1364.164,326.26511472846795
1042,1686880136.27,-35.645,385.254,-64.453,-20.996,1364.168,332.0089275245792
1043,1686880136.28,-57.617,183.105,-40.039,-93.262,1364.172,352.8158655866557
1044,1686880136.28,-59.57,333.984,-18.555,-90.332,1364.174,341.4418236872626
1045,1686880136.28,-39.062,371.094,-22.461,-16.602,1364.178,345.1756627516379
1046,1686880136.29,-32.715,146.973,-42.48,-2.441,1364.182,344.9096859710751
1047,1686880136.29,-46.875,83.008,-30.762,-67.383,1364.186,344.03831875640736
1048,1686880136.29,-62.5,120.605,-35.645,-95.703,1364.19,342.01136725374727
1049,1686880136.3,-45.41,-23.438,-43.945,-37.598,1364.194,351.18634098286435
1050,1686880136.3,-22.949,-439.453,-74.707,12.695,1364.198,343.8212006663657
1051,1686880136.3,-35.645,-856.934,-41.992,-31.25,1364.202,351.74382974134966
1052,1686880136.31,-53.711,-38.086,20.996,-101.562,1364.206,356.067268524723
1053,1686880136.31,-40.039,401.855,-19.531,-60.059,1364.21,365.2204886176087
1054,1686880136.32,-21.484,-21.484,-31.25,17.09,1364.213,367.52317022754755
1055,1686880136.32,-31.25,145.508,-10.254,-22.461,1364.217,360.39976800065114
1056,1686880136.32,-57.617,219.238,-31.25,-98.633,1364.234,355.003171713519
1057,1686880136.33,-41.992,-191.895,-51.758,-63.477,1364.237,367.05077947650005
1058,1686880136.33,-21.484,-586.426,-45.41,7.324,1364.241,367.1196121612519
1059,1686880136.34,-52.734,-110.84,0.977,-38.086,1364.245,359.5567681874242
1060,1686880136.34,-72.754,384.277,-18.555,-117.188,1364.249,361.5379722602445
1061,1686880136.34,-91.309,-100.586,-70.801,-126.953,1364.253,373.274088520095
1062,1686880136.35,-81.055,-764.16,-54.688,-55.176,1364.257,375.8283895611876
1063,1686880136.35,-42.969,-92.285,13.184,-25.391,1364.261,374.8698962884792
1064,1686880136.35,-71.777,428.711,-31.738,-114.746,1364.265,381.9556068993542
1065,1686880136.36,-101.074,-111.816,-68.848,-158.691,1364.269,391.2481418947451
1066,1686880136.36,-70.801,-344.238,-10.254,-85.449,1364.273,378.2252359236075
1067,1686880136.37,-37.598,177.246,8.789,-19.531,1364.276,384.7058764370641
1068,1686880136.37,-45.898,405.273,-38.086,-60.547,1364.279,387.7583261523151
1069,1686880136.37,-77.148,-23.438,-60.059,-126.465,1364.283,382.4172601252386
1070,1686880136.38,-76.66,-73.242,-9.766,-93.75,1364.287,381.50432611636904
1071,1686880136.38,-45.41,284.668,-7.812,-14.16,1364.291,380.7407599112709
1072,1686880136.38,-36.621,302.246,-40.527,-35.156,1364.295,390.2129457475525
1073,1686880136.39,-77.148,-328.125,-71.289,-112.305,1364.298,388.7356498077005
1074,1686880136.39,-98.145,-564.941,-20.508,-101.074,1364.302,399.0172686269499
1075,1686880136.4,-58.105,151.855,13.184,-18.066,1364.306,382.081051090722
1076,1686880136.4,-33.691,322.266,-42.48,-9.766,1364.31,393.0298986838264
1077,1686880136.4,-63.477,-371.582,-105.957,-89.355,1364.314,383.3461149004986
1078,1686880136.41,-79.59,-354.004,-41.016,-113.281,1364.318,382.7209032564306
1079,1686880136.41,-47.852,99.609,-5.859,-36.133,1364.322,400.44563941565906
1080,1686880136.43,-29.785,-90.332,-55.176,9.766,1364.325,407.6292925605499
1081,1686880136.43,-48.828,-746.094,-80.078,-50.781,1364.329,401.4859544917933
1082,1686880136.44,-68.359,-585.938,8.301,-111.816,1364.332,392.1242274984867
1083,1686880136.44,-48.828,254.395,12.695,-50.781,1364.336,395.8206477295276
1084,1686880136.44,-21.484,217.285,-55.176,21.973,1364.34,402.1147058427517
1085,1686880136.45,-36.621,-300.781,-48.34,-33.203,1364.344,397.98171770900564
1086,1686880136.45,-62.988,-225.098,-14.16,-113.77,1364.348,397.8965506731839
1087,1686880136.46,-55.176,256.348,-13.184,-87.402,1364.352,395.11103811186916
1088,1686880136.46,-24.902,68.848,-57.129,-1.953,1364.356,403.44563360333865
1089,1686880136.46,-23.926,-591.309,-38.086,-11.23,1364.36,392.709388974535
1090,1686880136.47,-52.734,-107.422,-1.953,-96.191,1364.364,386.3588316126876
1091,1686880136.47,-55.664,242.188,-34.18,-97.168,1364.368,410.8917362522325
1092,1686880136.47,-28.32,8.301,-47.363,-14.16,1364.37,397.79241145782726
1093,1686880136.48,-18.066,84.961,-25.391,-2.93,1364.374,412.26818830161346
1094,1686880136.48,-50.293,8.301,-42.969,-79.102,1364.377,396.0582168673915
1095,1686880136.48,-67.383,-99.609,-37.109,-110.352,1364.381,394.2323285406018
1096,1686880136.49,-41.504,-167.969,-44.922,-34.18,1364.385,388.104001947331
1097,1686880136.49,-28.809,-427.734,-30.762,6.836,1364.389,390.3029823519066
1098,1686880136.5,-52.246,-135.742,-2.93,-58.594,1364.393,405.1522303411723
1099,1686880136.5,-72.754,188.477,-37.109,-109.863,1364.397,405.1985363247296
1100,1686880136.5,-53.223,-356.445,-75.195,-52.734,1364.401,397.20381209800996
1101,1686880136.51,-25.879,-472.168,8.301,20.02,1364.405,397.84652902974915
1102,1686880136.51,-31.25,307.129,4.395,-18.555,1364.409,398.4804792145145
1103,1686880136.52,-52.246,252.441,-61.035,-89.355,1364.413,391.14424928116284
1104,1686880136.52,-53.223,-307.129,-49.316,-60.547,1364.415,398.88805203510213
1105,1686880136.52,-30.273,-216.309,-9.277,4.883,1364.419,390.0356536467367
1106,1686880136.53,-18.555,304.688,-1.953,-7.812,1364.423,387.1373883602155
1107,1686880136.53,-39.062,122.07,-62.5,-76.172,1364.427,393.45918898400856
1108,1686880136.53,-50.781,-729.004,-71.289,-83.984,1364.431,399.09194931483756
1109,1686880136.54,-29.297,-517.09,1.953,-9.766,1364.434,396.44487075127677
1110,1686880136.54,-10.254,5.859,-13.184,17.09,1364.438,392.9507269480225
1111,1686880136.54,-25.879,-133.301,-54.199,-55.176,1364.442,390.16836668157583
1112,1686880136.55,-49.805,-805.664,-51.758,-82.031,1364.446,390.97182162741757
1113,1686880136.55,-34.18,-375.977,20.02,-25.391,1364.45,398.0567199050016
1114,1686880136.56,-10.254,523.926,-2.441,8.789,1364.454,396.3994164829744
1115,1686880136.56,-30.273,269.043,-67.383,-45.41,1364.458,388.77050154285774
1116,1686880136.56,-57.617,54.199,-41.504,-106.445,1364.46,390.86549708314243
1117,1686880136.57,-46.387,272.949,-17.09,-54.199,1364.464,385.4686416519925
1118,1686880136.57,-25.879,344.727,-33.203,10.254,1364.468,391.67265347258297
1119,1686880136.58,-41.504,72.266,-53.711,-30.273,1364.471,388.38020054896214
1120,1686880136.58,-68.359,-31.25,-38.086,-108.887,1364.475,372.7759310563845
1121,1686880136.58,-69.824,-167.969,-41.504,-93.262,1364.479,391.1821568501609
1122,1686880136.59,-33.203,-146.484,-35.156,-3.906,1364.483,391.99423322190086
1123,1686880136.59,-25.391,-405.762,-80.078,-5.859,1364.487,392.93741885729395
1124,1686880136.59,-59.082,-861.328,-39.062,-83.496,1364.491,383.82774511350834
1125,1686880136.6,-63.965,-23.926,22.461,-98.145,1364.495,385.90240986694886
1126,1686880136.6,-30.273,391.113,-35.156,-17.09,1364.499,388.35240166745353
1127,1686880136.61,-13.672,63.965,-41.504,13.184,1364.503,389.4363466912262
1128,1686880136.61,-41.504,-37.598,-48.34,-59.082,1364.504,389.8172498037076
1129,1686880136.61,-62.5,-91.797,-37.109,-96.68,1364.508,383.85045791577556
1130,1686880136.62,-45.898,24.414,-29.297,-35.156,1364.512,375.70945678535884
1131,1686880136.62,-27.832,-434.082,-68.848,15.625,1364.516,382.67251988313063
1132,1686880136.62,-39.551,-211.914,-27.344,-42.969,1364.52,382.60251248724563
1133,1686880136.63,-60.059,44.922,-39.551,-107.91,1364.524,390.0062653546
1134,1686880136.63,-60.547,-252.441,-55.176,-76.172,1364.528,370.88037265875585
1135,1686880136.64,-37.598,-668.457,-46.875,-8.301,1364.532,383.8284551725359
1136,1686880136.64,-37.598,-103.516,-1.465,-38.086,1364.536,372.27586445416404
1137,1686880136.64,-65.918,402.832,-39.551,-107.91,1364.54,386.5107121311853
1138,1686880136.65,-73.242,-104.98,-67.871,-81.543,1364.543,384.8283381714827
1139,1686880136.65,-41.016,-219.727,3.418,-0.977,1364.547,368.6881203931698
1140,1686880136.65,-24.902,327.637,-0.977,-1.953,1364.55,379.809703642273
1141,1686880136.66,-59.082,376.465,-52.246,-80.078,1364.553,380.5744119895191
1142,1686880136.66,-73.73,-94.238,-62.988,-94.238,1364.557,381.1799394782032
1143,1686880136.66,-41.992,-30.762,-11.23,-22.949,1364.561,378.6223461160066
1144,1686880136.67,-29.785,275.879,-12.695,12.207,1364.565,385.93021464717066
1145,1686880136.67,-55.664,-7.324,-61.035,-56.152,1364.569,385.2132671910962
1146,1686880136.68,-77.148,-595.215,-82.52,-108.887,1364.573,380.66643978726563
1147,1686880136.68,-63.965,-598.633,1.953,-45.41,1364.577,394.882154773645
1148,1686880136.68,-38.574,233.398,21.973,8.301,1364.581,390.4816310555731
1149,1686880136.69,-46.387,337.891,-51.758,-36.621,1364.585,379.9691277905402
1150,1686880136.69,-71.777,-182.129,-60.547,-101.074,1364.589,387.15967261996246
1151,1686880136.7,-67.383,-12.207,-20.02,-70.801,1364.592,384.5353278599445
1152,1686880136.7,-43.457,204.102,-26.367,-2.441,1364.598,390.0590869374372
1153,1686880136.7,-42.48,-132.324,-69.824,-20.996,1364.602,384.33271566421803
1154,1686880136.71,-67.383,-802.734,-85.938,-86.914,1364.606,388.1670594810253
1155,1686880136.71,-72.266,-514.648,4.395,-83.496,1364.61,385.59863475987095
1156,1686880136.72,-36.133,332.031,5.371,-9.277,1364.614,375.58643967741676
1157,1686880136.72,-25.879,40.527,-65.43,12.207,1364.617,383.45221879680275
1158,1686880136.72,-49.316,-714.844,-59.57,-52.246,1364.621,388.2902236489599
1159,1686880136.73,-60.547,-166.016,12.695,-85.449,1364.625,385.3961017934462
1160,1686880136.73,-36.133,537.109,-6.836,-19.531,1364.629,386.86646606507844
1161,1686880136.73,-16.602,342.285,-46.875,19.531,1364.633,391.07560659624335
1162,1686880136.74,-34.18,153.809,-19.043,-42.969,1364.637,403.9058203131162
1163,1686880136.74,-61.035,291.992,-16.602,-99.609,1364.641,398.63222441512335
1164,1686880136.74,-56.641,352.051,-29.785,-55.176,1364.654,392.0897422436356
1165,1686880136.75,-30.273,167.969,-30.273,13.184,1364.658,382.5699042060743
1166,1686880136.75,-28.809,115.723,-29.785,-18.555,1364.662,391.4899761657452
1167,1686880136.76,-52.734,-32.715,-42.969,-94.238,1364.666,395.1896708008488
1168,1686880136.76,-52.734,65.43,-17.578,-77.637,1364.67,382.20958990259516
1169,1686880136.76,-28.809,-220.215,-65.918,4.395,1364.674,394.7390795598294
1170,1686880136.77,-30.762,-880.859,-50.293,14.16,1364.678,382.73895643750944
1171,1686880136.77,-54.199,-79.102,13.184,-72.754,1364.682,378.5566717385867
1172,1686880136.78,-62.5,362.793,-33.691,-89.355,1364.686,371.41474054683493
1173,1686880136.78,-39.551,76.66,-33.203,-10.742,1364.69,383.422248848684
1174,1686880136.78,-20.508,299.805,-8.301,14.648,1364.693,386.37311926529776
1175,1686880136.79,-44.434,382.812,-21.973,-51.758,1364.697,376.92355910830327
1176,1686880136.8,-60.059,108.398,-58.594,-82.031,1364.7,383.1493684249976
1177,1686880136.81,-41.016,-335.938,-49.316,-16.602,1364.704,386.8299457784175
1178,1686880136.81,-19.043,103.516,-6.836,31.25,1364.708,376.53624608968903
1179,1686880136.82,-32.227,558.594,-22.949,-19.531,1364.712,391.61814457205065
1180,1686880136.82,-60.059,198.73,-77.148,-88.379,1364.716,384.76867559298705
1181,1686880136.82,-53.711,-601.074,-74.219,-40.039,1364.719,385.434565827994
1182,1686880136.83,-37.598,-380.859,-7.324,15.137,1364.723,375.4768474747931
1183,1686880136.83,-37.598,299.316,-10.254,-24.414,1364.727,381.5811043585703
1184,1686880136.83,-58.594,181.641,-71.289,-93.262,1364.731,374.9759729010356
1185,1686880136.84,-59.082,-684.082,-85.938,-67.383,1364.735,374.6912978810821
1186,1686880136.84,-23.926,-94.727,13.672,18.066,1364.739,378.6137569241457
1187,1686880136.85,-22.461,681.641,-19.043,9.277,1364.743,380.8074758253285
1188,1686880136.86,-55.664,288.086,-82.031,-72.266,1364.76,375.2066605404583
1189,1686880136.87,-61.523,159.18,-28.32,-91.309,1364.764,375.13382888076166
1190,1686880136.87,-30.762,434.57,-13.672,-18.066,1364.768,363.6571483220589
1191,1686880136.88,-15.137,488.77,-40.527,16.602,1364.772,382.8332241146495
1192,1686880136.88,-39.062,136.719,-76.172,-63.965,1364.776,371.452408150847
1193,1686880136.88,-63.965,-247.07,-65.43,-116.211,1364.78,373.91512598376613
1194,1686880136.89,-42.969,-45.898,-3.418,-54.688,1364.783,372.98690286128857
1195,1686880136.89,-17.09,468.75,-15.625,4.883,1364.787,381.1993083972426
1196,1686880136.89,-37.109,-157.227,-102.051,-40.527,1364.791,379.0194922655384
1197,1686880136.9,-70.801,-845.215,-30.762,-104.004,1364.795,370.2065725644914
1198,1686880136.9,-57.617,121.094,27.344,-71.289,1364.799,367.89978602004726
1199,1686880136.91,-24.902,581.055,-28.809,14.648,1364.803,367.5136950630575
1200,1686880136.91,-22.461,61.035,-55.664,0.0,1364.805,368.7566868065406
1201,1686880136.91,-53.223,-92.285,-47.852,-90.82,1364.809,387.02950976495947
1202,1686880136.92,-43.457,329.59,-7.324,-78.613,1364.813,370.9470621950626
1203,1686880136.92,-12.695,409.668,-39.551,10.742,1364.817,364.4255405089834
1204,1686880136.92,-28.32,-309.082,-79.102,7.324,1364.82,379.10654300103016
1205,1686880136.93,-60.059,-329.59,-36.133,-75.684,1364.824,368.1259588538872
1206,1686880136.93,-65.43,63.965,-28.809,-90.332,1364.828,369.002714988785
1207,1686880136.94,-32.227,164.551,-43.945,-9.766,1364.832,360.496939216853
1208,1686880136.94,-18.555,-774.902,-63.965,26.367,1364.835,361.45890749322336
1209,1686880136.94,-9.277,98.145,-10.254,36.133,1364.836,374.69618018640824
1210,1686880136.94,-27.344,-91.309,6.348,-24.414,1364.838,365.25316144220267
1211,1686880136.94,-32.715,319.336,-18.555,-31.738,1364.84,364.8193893620235
1212,1686880136.95,-45.41,539.551,-31.738,-84.961,1364.842,370.42605296870323
1213,1686880136.95,-55.664,417.48,-46.387,-83.984,1364.844,362.62387916036687
1214,1686880136.95,-35.645,137.207,-63.965,-50.781,1364.846,368.5197894693107
1215,1686880136.95,-40.527,-13.672,-62.988,-30.762,1364.848,365.1585010825948
1216,1686880136.95,-10.254,281.738,-16.602,21.484,1364.85,361.57952978557125
1217,1686880136.96,-15.625,263.184,-37.109,5.371,1364.854,362.6061753982511
1218,1686880136.96,-45.898,23.438,-54.199,-78.125,1364.858,356.6351809384748
1219,1686880136.96,-49.316,-141.602,-60.547,-81.543,1364.862,359.1957013069879
1220,1686880136.97,-20.508,104.004,-26.855,-5.371,1364.866,348.00397622356024
1221,1686880136.97,-12.207,553.223,-12.207,10.254,1364.87,360.5156791577522
1222,1686880136.98,-36.621,467.773,-55.176,-63.477,1364.874,358.81176734685226
1223,1686880136.98,-54.199,-297.363,-91.797,-86.914,1364.877,357.97564917316464
1224,1686880136.98,-36.133,-431.152,-14.648,-11.23,1364.883,356.285231024472
1225,1686880136.99,-19.531,115.723,1.465,26.367,1364.886,354.78404642533906
1226,1686880136.99,-38.086,135.254,-57.617,-36.133,1364.89,346.50670996408365
1227,1686880137.0,-61.035,-473.633,-74.219,-84.961,1364.894,357.3030619863322
1228,1686880137.0,-41.016,-269.531,6.836,-41.504,1364.898,340.50975785407434
1229,1686880137.0,-13.184,362.305,-8.301,19.531,1364.902,348.4089005557356
1230,1686880137.01,-28.32,111.328,-62.988,-22.949,1364.906,342.7791822181708
1231,1686880137.01,-58.105,-511.23,-60.059,-89.844,1364.91,340.75770590484075
1232,1686880137.02,-43.457,29.785,5.859,-70.312,1364.914,344.85590525123774
1233,1686880137.02,-18.066,748.047,-14.648,-0.977,1364.918,343.2248777156169
1234,1686880137.02,-22.949,437.988,-64.941,-7.324,1364.922,337.24987259740743
1235,1686880137.03,-52.246,228.027,-32.227,-87.402,1364.926,337.682874463727
1236,1686880137.03,-64.941,367.676,-23.926,-95.703,1364.924,339.5139342511001
1237,1686880137.03,-24.414,442.871,-31.738,-4.395,1364.928,330.27849042735943
1238,1686880137.04,-5.371,233.887,-43.945,20.996,1364.932,348.9026213480373
1239,1686880137.04,-33.203,90.332,-45.898,-60.059,1364.936,338.84704945273825
1240,1686880137.04,-47.363,-55.664,-51.27,-83.984,1364.94,346.8840638440917
1241,1686880137.05,-31.25,-76.66,-28.32,-17.578,1364.944,346.08231161150127
1242,1686880137.05,-18.066,-287.109,-63.477,31.738,1364.948,341.5264837522518
1243,1686880137.06,-37.109,-822.754,-59.57,-18.555,1364.952,341.4650829304986
1244,1686880137.06,-54.688,-33.203,4.395,-84.961,1364.956,343.7356584242983
1245,1686880137.06,-41.504,466.309,-28.809,-44.434,1364.96,338.73703249721865
1246,1686880137.07,-12.207,135.742,-47.363,30.762,1364.963,348.7016840808517
1247,1686880137.07,-17.578,328.125,-30.762,1.465,1364.967,348.25283731862925
1248,1686880137.07,-40.039,290.527,-46.387,-74.707,1364.983,342.90143402560574
1249,1686880137.08,-34.18,-161.621,-58.105,-52.246,1364.987,336.7681973633725
1250,1686880137.08,-7.812,-519.043,-59.082,30.273,1364.991,344.67077124307946
1251,1686880137.08,5.371,-12.207,-14.648,29.785,1364.995,353.2761735210654
1252,1686880137.09,-11.23,450.195,-28.809,-42.969,1364.999,358.1010456314682
1253,1686880137.09,-35.156,-80.566,-72.754,-56.641,1365.003,350.4621844484598
1254,1686880137.1,-21.973,-805.176,-58.594,17.578,1365.006,358.5260195629342
1255,1686880137.1,-6.836,-277.344,8.789,37.598,1365.01,349.6176608653016
1256,1686880137.1,-20.996,506.836,-19.531,-35.156,1365.014,351.4403910664236
1257,1686880137.11,-28.32,132.812,-69.336,-72.754,1365.018,346.4539802963814
1258,1686880137.11,-13.184,-235.84,-15.137,-22.949,1365.022,345.5624690806635
1259,1686880137.12,3.418,275.391,5.859,29.297,1365.026,355.45281344038955
1260,1686880137.12,-13.184,446.289,-43.945,-20.996,1365.029,350.55747870477165
1261,1686880137.12,-45.41,7.812,-65.43,-82.52,1365.033,348.33457877895233
1262,1686880137.13,-29.297,-42.969,-20.02,-39.062,1365.037,353.51777154388355
1263,1686880137.13,2.93,260.742,-7.812,33.203,1365.041,356.8201827646809
1264,1686880137.13,0.488,286.133,-45.41,10.742,1365.045,357.7369877253074
1265,1686880137.14,-21.973,-309.57,-84.961,-67.383,1365.049,349.4019839829423
1266,1686880137.14,-22.949,-563.477,-15.137,-51.758,1365.052,353.4149425201316
1267,1686880137.14,6.836,90.332,6.836,28.32,1365.056,359.35666503616375
1268,1686880137.15,22.461,238.281,-53.711,37.109,1365.06,363.22909067204995
1269,1686880137.15,-6.348,-470.703,-95.215,-26.367,1365.064,365.2489809232188
1270,1686880137.16,-26.855,-500.0,-23.926,-49.805,1365.068,364.6037677828532
1271,1686880137.16,3.906,169.434,12.207,22.461,1365.072,379.70139796853874
1272,1686880137.18,34.18,171.875,-56.152,68.359,1365.075,354.38083337237754
1273,1686880137.18,13.184,-644.531,-86.426,5.371,1365.078,350.19274120539893
1274,1686880137.19,-10.742,-496.582,9.277,-47.852,1365.082,358.2501916090006
1275,1686880137.19,5.371,238.77,4.883,6.348,1365.086,348.33105016838914
1276,1686880137.19,32.715,179.688,-47.852,73.73,1365.09,371.92928866754727
1277,1686880137.2,17.09,-380.371,-45.41,29.785,1365.094,359.60159355389766
1278,1686880137.2,-4.883,-354.98,-24.414,-39.551,1365.098,360.7619674825449
1279,1686880137.2,5.371,174.316,-20.508,-16.602,1365.102,345.39885996808846
1280,1686880137.21,31.738,44.434,-51.758,51.758,1365.106,365.934926580086
1281,1686880137.21,28.809,-579.59,-41.992,43.945,1365.11,364.3630728377946
1282,1686880137.22,-0.488,-165.527,-5.859,-28.32,1365.114,358.4010136488783
1283,1686880137.22,-3.418,74.219,-23.438,-23.926,1365.117,359.49262244011135
1284,1686880137.22,24.902,-209.961,-29.297,52.246,1365.12,365.02935006737647
1285,1686880137.23,40.527,-216.797,2.93,63.477,1365.124,356.3750117540556
1286,1686880137.23,18.066,149.902,-5.859,-13.672,1365.127,368.89792035272546
1287,1686880137.24,1.953,179.688,-40.527,-38.574,1365.131,363.2220747756941
1288,1686880137.24,25.391,-144.531,-62.012,39.551,1365.135,363.735213263639
1289,1686880137.24,49.316,-312.988,-53.223,82.031,1365.139,352.5048878295308
1290,1686880137.25,35.156,-137.695,-16.602,24.902,1365.143,351.26313181041496
1291,1686880137.25,14.648,124.023,-41.504,-22.461,1365.147,364.43533679074267
1292,1686880137.25,32.715,-391.602,-91.309,31.738,1365.151,350.5933633012508
1293,1686880137.26,57.617,-565.918,0.977,96.191,1365.155,351.0172696648695
1294,1686880137.26,49.805,187.988,6.836,66.895,1365.159,363.4251591478289
1295,1686880137.27,20.508,172.363,-58.594,2.441,1365.163,351.45501002076145
