,timestamps,TP9,AF7,AF8,TP10,Secondary Timestamp,emg_signal
0,1686715072.124,-64.453,-773.438,-47.363,-96.191,1152.019,376
1,1686715072.128,-20.996,-678.711,159.668,8.789,1152.023,376
2,1686715072.132,-0.977,-427.246,136.23,23.438,1152.027,376
3,1686715072.136,-43.457,-531.738,-51.27,-71.777,1152.031,376
4,1686715072.14,-69.824,-899.414,-35.645,-97.168,1152.035,376
5,1686715072.144,-41.504,-977.539,135.254,-20.02,1152.039,376
6,1686715072.148,-7.812,-898.438,108.887,20.996,1152.043,376
7,1686715072.151,-23.438,-958.984,-16.113,-43.945,1152.047,376
8,1686715072.155,-67.383,-997.07,-107.91,-106.934,1152.05,376
9,1686715072.159,-57.129,-1000.0,20.508,-41.504,1152.054,376
10,1686715072.163,-8.301,-790.527,225.586,41.504,1152.058,376
11,1686715072.167,-26.367,-562.5,106.934,-18.066,1152.062,376
12,1686715072.169,-70.801,-855.469,-119.141,-104.492,1152.079,376
13,1686715072.173,-69.824,-770.02,87.891,-82.031,1152.083,375
14,1686715072.177,-26.367,-418.457,197.754,13.184,1152.086,375
15,1686715072.181,-7.812,-466.309,13.672,18.066,1152.09,375
16,1686715072.185,-48.34,-884.766,-115.723,-74.219,1152.094,375
17,1686715072.189,-72.754,-1000.0,83.984,-89.355,1152.098,375
18,1686715072.193,-37.598,-837.402,217.773,-5.859,1152.102,375
19,1686715072.196,-5.371,-662.109,45.41,23.926,1152.106,374
20,1686715072.2,-53.223,-945.312,-84.961,-67.383,1152.11,374
21,1686715072.204,-94.727,-882.324,212.402,-127.441,1152.114,374
22,1686715072.208,-73.242,-438.965,233.398,-53.711,1152.118,374
23,1686715072.212,-29.297,-490.234,26.855,22.461,1152.122,374
24,1686715072.214,-37.109,-692.383,12.695,-33.203,1152.109,374
25,1686715072.218,-80.566,-558.594,21.973,-114.746,1152.113,374
26,1686715072.222,-65.918,-477.051,-29.785,-59.082,1152.117,374
27,1686715072.226,-17.09,-608.398,-17.578,43.945,1152.121,375
28,1686715072.23,-10.742,-658.203,83.984,-2.441,1152.125,375
29,1686715072.234,-63.477,-805.664,-1.953,-102.051,1152.129,375
30,1686715072.238,-77.637,-954.59,-29.297,-85.449,1152.133,375
31,1686715072.241,-29.297,-964.355,-5.859,19.531,1152.136,375
32,1686715072.245,-22.461,-816.406,109.863,27.832,1152.14,375
33,1686715072.249,-67.871,-708.008,89.844,-88.379,1152.144,375
34,1686715072.253,-83.984,-914.062,-11.719,-112.305,1152.148,375
35,1686715072.257,-30.273,-1000.0,-129.395,5.859,1152.152,375
36,1686715072.274,7.812,-983.887,8.789,59.57,1152.17,374
37,1686715072.278,-36.621,-571.289,198.242,-59.082,1152.174,374
38,1686715072.282,-85.938,-558.594,1.953,-131.348,1152.178,374
39,1686715072.286,-67.871,-780.762,73.242,-51.27,1152.182,374
40,1686715072.29,-15.625,-438.965,155.273,33.203,1152.186,374
41,1686715072.294,-19.043,-597.168,4.883,-11.23,1152.19,374
42,1686715072.298,-77.148,-964.844,-81.543,-103.516,1152.194,374
43,1686715072.301,-82.031,-976.562,-67.383,-52.734,1152.198,374
44,1686715072.304,0.0,-487.305,132.324,64.941,1152.204,374
45,1686715072.305,-15.137,-574.219,169.434,56.152,1152.201,374
46,1686715072.308,20.508,-628.418,-32.227,81.055,1152.208,374
47,1686715072.309,-1.465,-300.781,111.328,27.832,1152.205,374
48,1686715072.312,-13.672,-896.484,-73.242,-22.949,1152.212,374
49,1686715072.313,-43.457,-617.188,-99.121,-60.547,1152.209,374
50,1686715072.316,-39.551,-798.828,101.074,-49.316,1152.216,374
51,1686715072.317,-45.41,-729.98,58.594,-43.945,1152.213,374
52,1686715072.32,-8.789,-480.469,174.805,37.598,1152.22,374
53,1686715072.324,27.344,-716.797,-20.02,80.078,1152.224,374
54,1686715072.328,-3.418,-977.539,-67.383,2.441,1152.228,374
55,1686715072.331,-48.34,-770.508,123.047,-70.312,1152.232,374
56,1686715072.335,-34.668,-472.168,207.031,-2.93,1152.235,374
57,1686715072.339,6.348,-448.242,83.984,80.566,1152.239,374
58,1686715072.343,-10.254,-891.602,-157.227,20.508,1152.243,374
59,1686715072.347,-74.219,-1000.0,-42.969,-90.332,1152.247,373
60,1686715072.353,-70.801,-608.398,222.168,-72.754,1152.259,373
61,1686715072.357,-5.371,-362.793,160.156,37.598,1152.263,373
62,1686715072.361,3.906,-635.742,34.18,26.367,1152.267,373
63,1686715072.365,-43.945,-794.922,-49.805,-75.195,1152.271,373
64,1686715072.369,-58.105,-773.926,48.34,-77.148,1152.275,373
65,1686715072.373,-12.695,-749.023,10.254,27.344,1152.279,373
66,1686715072.377,17.578,-967.285,-119.629,59.57,1152.282,373
67,1686715072.38,-22.949,-890.137,124.512,-42.48,1152.286,373
68,1686715072.384,-54.199,-548.34,206.543,-89.844,1152.29,373
69,1686715072.388,-18.555,-536.621,54.199,8.301,1152.294,373
70,1686715072.392,25.391,-572.266,52.246,74.707,1152.298,373
71,1686715072.396,-2.441,-431.152,45.898,-18.555,1152.302,373
72,1686715072.409,-54.199,-528.809,-54.199,-100.586,1152.305,373
73,1686715072.413,-40.039,-703.125,4.395,-39.551,1152.308,373
74,1686715072.417,12.207,-599.121,149.414,55.664,1152.312,373
75,1686715072.421,7.812,-400.879,84.473,20.996,1152.316,373
76,1686715072.425,-41.504,-556.152,-60.059,-79.102,1152.32,373
77,1686715072.429,-48.828,-896.484,-30.273,-49.316,1152.324,372
78,1686715072.433,-10.742,-939.941,125.0,46.387,1152.328,372
79,1686715072.436,0.0,-721.68,188.965,29.297,1152.332,372
80,1686715072.44,-40.527,-538.086,70.312,-71.777,1152.336,372
81,1686715072.444,-58.594,-881.348,-154.297,-72.266,1152.34,372
82,1686715072.448,-17.578,-997.559,30.273,24.902,1152.344,372
83,1686715072.452,19.043,-472.656,246.094,40.039,1152.347,372
84,1686715072.454,-12.695,-444.824,8.301,-54.688,1152.363,372
85,1686715072.458,-63.477,-853.516,-76.172,-119.629,1152.367,373
86,1686715072.462,-40.039,-632.324,148.438,-44.434,1152.371,373
87,1686715072.466,4.883,-350.586,130.371,32.227,1152.374,373
88,1686715072.47,-20.996,-492.188,-60.547,-36.621,1152.378,373
89,1686715072.474,-65.918,-926.27,29.297,-107.422,1152.382,373
90,1686715072.478,-48.828,-879.395,209.473,-50.781,1152.386,373
91,1686715072.481,1.953,-438.965,173.34,39.551,1152.39,373
92,1686715072.485,4.395,-569.336,-59.082,12.207,1152.394,373
93,1686715072.489,-57.617,-989.258,-96.68,-86.426,1152.398,373
94,1686715072.493,-78.613,-851.562,221.191,-90.332,1152.402,373
95,1686715072.497,-33.203,-442.383,212.891,11.23,1152.406,373
96,1686715072.499,-18.555,-565.918,-5.859,12.695,1152.394,373
97,1686715072.503,-64.453,-805.176,-1.953,-90.332,1152.398,373
98,1686715072.507,-79.59,-630.859,108.398,-102.051,1152.402,373
99,1686715072.511,-30.273,-444.824,125.0,-4.883,1152.406,373
100,1686715072.515,-1.953,-614.258,-5.859,38.574,1152.41,373
101,1686715072.519,-41.016,-974.121,-77.637,-55.664,1152.414,373
102,1686715072.523,-80.078,-965.332,24.902,-115.723,1152.418,373
103,1686715072.526,-55.176,-654.785,113.77,-39.062,1152.421,373
104,1686715072.53,-5.371,-764.16,-35.645,37.109,1152.425,373
105,1686715072.534,-21.973,-963.867,25.391,-21.973,1152.429,373
106,1686715072.538,-69.824,-963.867,25.879,-110.84,1152.433,373
107,1686715072.542,-57.617,-926.758,-24.414,-69.824,1152.437,373
108,1686715072.544,-14.648,-965.82,-137.695,31.25,1152.439,373
109,1686715072.548,-22.461,-922.852,52.734,0.488,1152.443,373
110,1686715072.552,-69.336,-628.418,162.598,-118.652,1152.447,373
111,1686715072.556,-82.52,-665.039,-22.461,-106.445,1152.451,373
112,1686715072.56,-35.156,-753.906,90.82,-9.277,1152.455,373
113,1686715072.564,-12.207,-746.094,20.02,-3.906,1152.459,373
114,1686715072.568,-51.758,-827.148,-21.484,-95.703,1152.463,373
115,1686715072.571,-78.613,-779.297,30.273,-120.605,1152.467,373
116,1686715072.575,-41.504,-920.41,-60.059,-14.16,1152.471,373
117,1686715072.579,6.348,-594.238,134.766,44.922,1152.475,373
118,1686715072.583,-13.184,-362.793,59.57,-40.039,1152.479,373
119,1686715072.587,-73.73,-721.191,-99.609,-122.07,1152.482,373
120,1686715072.589,-63.965,-678.223,141.113,-59.57,1152.498,373
121,1686715072.593,-8.789,-472.656,115.234,28.32,1152.502,373
122,1686715072.597,-13.184,-676.27,-63.965,-22.949,1152.506,373
123,1686715072.601,-56.641,-841.797,-66.406,-112.793,1152.51,373
124,1686715072.605,-46.875,-803.711,104.492,-69.824,1152.513,373
125,1686715072.609,-0.488,-746.094,99.121,36.621,1152.517,373
126,1686715072.613,-2.441,-904.297,-37.598,22.949,1152.521,373
127,1686715072.616,-50.293,-1000.0,-93.262,-72.266,1152.525,373
128,1686715072.62,-63.965,-824.707,97.168,-81.543,1152.529,373
129,1686715072.624,-18.066,-561.035,159.668,2.441,1152.533,373
130,1686715072.628,8.789,-761.719,-65.43,29.297,1152.537,373
131,1686715072.632,-33.691,-972.656,-127.93,-62.988,1152.541,373
132,1686715072.634,-70.801,-771.973,131.836,-109.863,1152.529,373
133,1686715072.638,-34.668,-425.781,217.773,-20.02,1152.533,374
134,1686715072.642,-5.859,-423.34,54.688,23.926,1152.537,374
135,1686715072.646,-37.109,-768.555,44.922,-61.523,1152.541,374
136,1686715072.65,-71.777,-882.324,14.16,-119.629,1152.545,373
137,1686715072.654,-48.34,-878.906,65.918,-51.27,1152.549,373
138,1686715072.658,0.977,-862.305,41.992,41.504,1152.553,373
139,1686715072.661,-17.09,-966.309,-93.262,5.371,1152.557,373
140,1686715072.665,-69.824,-867.188,160.645,-103.516,1152.56,373
141,1686715072.669,-66.895,-477.539,211.914,-79.59,1152.564,373
142,1686715072.673,-17.09,-485.352,34.18,30.273,1152.568,373
143,1686715072.677,0.977,-728.516,69.824,13.184,1152.572,373
144,1686715072.678,-33.203,-563.965,141.602,-87.891,1152.588,374
145,1686715072.682,-66.406,-526.855,14.16,-98.633,1152.592,374
146,1686715072.686,-39.062,-681.152,-18.066,4.883,1152.596,374
147,1686715072.69,-5.371,-608.887,119.629,41.992,1152.6,374
148,1686715072.694,-34.668,-507.324,59.57,-52.734,1152.603,374
149,1686715072.698,-80.566,-811.035,-35.645,-104.98,1152.607,374
150,1686715072.702,-54.199,-1000.0,-62.988,-21.484,1152.611,374
151,1686715072.705,-12.695,-914.062,47.852,44.434,1152.615,374
152,1686715072.709,-28.32,-561.035,182.617,-36.133,1152.619,374
153,1686715072.713,-63.965,-661.621,-18.066,-116.699,1152.623,374
154,1686715072.717,-60.547,-1000.0,-129.395,-68.848,1152.627,374
155,1686715072.721,-8.789,-807.617,149.902,22.949,1152.631,374
156,1686715072.739,-4.883,-395.996,175.293,-12.207,1152.634,374
157,1686715072.743,-51.758,-537.598,-67.871,-102.539,1152.638,374
158,1686715072.747,-59.082,-838.379,49.805,-80.078,1152.642,374
159,1686715072.751,-16.602,-528.32,177.734,25.391,1152.646,375
160,1686715072.755,2.93,-403.809,41.504,33.691,1152.65,375
161,1686715072.759,-39.551,-833.496,-87.402,-65.43,1152.654,375
162,1686715072.763,-68.848,-1000.0,-77.637,-87.891,1152.658,375
163,1686715072.766,-33.203,-649.414,179.199,-7.812,1152.662,375
164,1686715072.769,2.441,-377.441,170.41,32.227,1152.678,375
165,1686715072.77,3.418,-329.102,172.363,22.949,1152.666,375
166,1686715072.773,-15.625,-583.496,-62.5,-22.949,1152.682,376
167,1686715072.774,-25.391,-596.68,-99.121,-59.082,1152.67,376
168,1686715072.777,-79.102,-809.082,80.566,-109.375,1152.686,376
169,1686715072.778,-77.637,-999.023,-96.68,-110.352,1152.674,376
170,1686715072.781,-66.895,-522.461,208.008,-70.312,1152.69,376
171,1686715072.782,-58.594,-798.828,231.445,-40.039,1152.677,376
172,1686715072.785,-10.254,-350.586,105.469,31.738,1152.694,376
173,1686715072.789,-15.137,-735.84,-62.5,4.883,1152.698,377
174,1686715072.793,-58.594,-986.328,46.875,-98.145,1152.702,377
175,1686715072.796,-62.5,-665.039,186.523,-92.773,1152.706,377
176,1686715072.8,-14.648,-412.598,147.461,13.184,1152.71,377
177,1686715072.804,11.719,-770.996,-122.07,28.809,1152.713,379
178,1686715072.808,-36.133,-1000.0,-62.5,-77.637,1152.717,379
179,1686715072.812,-61.035,-735.84,215.332,-111.328,1152.721,379
180,1686715072.829,-25.391,-760.254,106.445,-8.789,1152.728,381
181,1686715072.833,-9.277,-936.523,-57.617,39.551,1152.732,383
182,1686715072.837,-36.621,-668.945,87.891,-50.293,1152.736,383
183,1686715072.841,-65.43,-475.098,153.809,-115.723,1152.74,383
184,1686715072.845,-41.016,-622.559,27.832,-41.992,1152.744,384
185,1686715072.849,0.977,-873.047,76.172,37.598,1152.748,384
186,1686715072.853,-10.254,-829.59,164.551,-9.766,1152.752,384
187,1686715072.856,-53.711,-540.527,152.832,-114.258,1152.756,384
188,1686715072.86,-52.246,-630.859,14.648,-81.543,1152.759,386
189,1686715072.864,-2.93,-899.902,9.277,32.715,1152.763,386
190,1686715072.868,5.371,-552.246,182.129,12.695,1152.767,386
191,1686715072.872,-38.086,-421.875,41.992,-89.355,1152.771,388
192,1686715072.874,-58.594,-738.281,-62.988,-89.844,1152.769,388
193,1686715072.878,-25.879,-659.18,138.184,16.602,1152.773,388
194,1686715072.882,-0.488,-548.34,108.887,28.32,1152.777,388
195,1686715072.886,-30.273,-825.684,-41.504,-73.73,1152.781,388
196,1686715072.89,-54.688,-916.504,-40.039,-101.562,1152.785,388
197,1686715072.894,-39.062,-945.312,139.16,-25.391,1152.789,388
198,1686715072.898,-3.906,-750.488,198.242,24.902,1152.793,388
199,1686715072.901,-20.996,-569.824,76.172,-48.828,1152.797,390
200,1686715072.905,-70.801,-862.793,-129.395,-120.117,1152.801,390
201,1686715072.909,-62.012,-1000.0,-28.32,-55.176,1152.804,390
202,1686715072.913,-14.648,-830.078,219.727,24.414,1152.808,391
203,1686715072.917,-9.277,-620.605,101.074,-16.602,1152.812,391
204,1686715072.919,-48.828,-882.324,-125.977,-97.168,1152.814,391
205,1686715072.923,-55.176,-764.648,122.559,-78.125,1152.818,391
206,1686715072.927,-6.836,-378.418,223.145,14.648,1152.822,392
207,1686715072.931,9.277,-434.082,40.039,19.043,1152.826,392
208,1686715072.935,-33.691,-817.383,16.113,-72.754,1152.83,392
209,1686715072.939,-53.223,-927.734,72.754,-93.262,1152.834,392
210,1686715072.943,-17.09,-846.68,129.395,-3.906,1152.838,394
211,1686715072.946,11.719,-844.727,19.043,34.668,1152.841,394
212,1686715072.95,-27.344,-985.352,-91.309,-41.992,1152.845,394
213,1686715072.954,-69.824,-898.438,210.938,-94.727,1152.849,395
214,1686715072.958,-43.457,-490.723,236.816,-35.645,1152.853,395
215,1686715072.962,-5.371,-484.863,7.812,27.344,1152.857,395
216,1686715072.963,-27.832,-679.688,19.531,-40.527,1152.874,395
217,1686715072.967,-75.195,-582.52,67.871,-132.324,1152.878,395
218,1686715072.971,-63.477,-544.434,-8.301,-82.031,1152.882,394
219,1686715072.975,-16.113,-607.422,16.113,12.207,1152.885,394
220,1686715072.979,-21.484,-633.789,91.797,-15.625,1152.889,394
221,1686715072.983,-64.453,-850.586,-30.273,-110.84,1152.893,394
222,1686715072.987,-67.871,-974.121,12.207,-97.168,1152.897,394
223,1686715072.99,-25.879,-984.863,33.691,15.137,1152.901,394
224,1686715072.994,-14.16,-897.461,71.289,17.09,1152.905,394
225,1686715072.998,-55.176,-703.613,123.047,-98.633,1152.909,394
226,1686715073.002,-83.496,-884.766,-23.438,-122.07,1152.913,394
227,1686715073.006,-54.199,-1000.0,-30.762,-14.16,1152.917,394
228,1686715073.009,-18.555,-774.414,190.918,33.203,1152.904,394
229,1686715073.013,-38.574,-414.551,166.992,-56.641,1152.908,395
230,1686715073.017,-77.148,-545.41,-23.438,-109.863,1152.912,395
231,1686715073.021,-40.039,-751.953,76.66,-34.668,1152.916,395
232,1686715073.025,13.184,-460.449,138.672,40.039,1152.92,396
233,1686715073.029,-3.418,-611.328,12.207,-12.207,1152.924,396
234,1686715073.033,-46.387,-977.051,-79.59,-94.238,1152.927,396
235,1686715073.036,-43.945,-960.449,4.883,-55.664,1152.931,396
236,1686715073.04,0.977,-535.645,172.363,25.391,1152.935,396
237,1686715073.044,10.254,-341.797,77.148,-0.977,1152.939,396
238,1686715073.048,-35.156,-728.027,-102.051,-89.355,1152.943,396
239,1686715073.052,-62.012,-991.211,-70.312,-81.543,1152.947,395
240,1686715073.054,-14.648,-589.355,192.383,25.879,1152.949,395
241,1686715073.058,14.648,-298.34,140.137,32.227,1152.953,395
242,1686715073.062,-32.715,-660.645,-47.363,-72.266,1152.957,395
243,1686715073.066,-63.965,-741.699,125.0,-95.215,1152.961,396
244,1686715073.07,-25.879,-442.871,174.805,-2.441,1152.965,396
245,1686715073.074,6.348,-625.0,-22.949,44.922,1152.969,396
246,1686715073.078,-20.996,-942.871,-102.539,-33.203,1152.973,397
247,1686715073.081,-69.336,-927.734,91.797,-103.516,1152.976,397
248,1686715073.085,-46.875,-574.707,236.816,-40.039,1152.98,397
249,1686715073.089,10.254,-476.074,59.57,49.316,1152.984,397
250,1686715073.093,-7.812,-904.297,-121.094,-8.789,1152.988,398
251,1686715073.097,-56.152,-836.426,120.605,-113.281,1152.992,398
252,1686715073.1,-53.223,-561.523,187.988,-80.078,1152.998,398
253,1686715073.104,-11.719,-693.848,1.465,21.484,1153.002,400
254,1686715073.108,-5.371,-920.898,-99.121,9.766,1153.006,400
255,1686715073.112,-41.504,-712.891,69.336,-89.355,1153.01,400
256,1686715073.116,-49.805,-517.578,132.812,-90.332,1153.014,400
257,1686715073.12,-12.207,-804.688,-36.133,22.949,1153.017,400
258,1686715073.124,2.93,-976.562,-90.82,47.852,1153.021,400
259,1686715073.127,-28.32,-703.125,137.695,-65.918,1153.025,400
260,1686715073.131,-56.152,-476.074,181.641,-105.469,1153.029,400
261,1686715073.135,-27.832,-566.406,66.406,1.953,1153.033,401
262,1686715073.139,15.625,-632.812,77.148,62.012,1153.037,401
263,1686715073.143,-7.324,-480.957,78.613,-26.855,1153.041,401
264,1686715073.144,-51.758,-523.438,-31.25,-99.609,1153.054,401
265,1686715073.148,-40.039,-707.52,-16.113,-40.527,1153.057,403
266,1686715073.152,2.441,-631.836,123.047,40.039,1153.061,403
267,1686715073.156,-3.906,-640.625,7.324,-0.488,1153.065,403
268,1686715073.16,-50.293,-868.164,15.625,-94.238,1153.069,403
269,1686715073.164,-50.293,-975.098,2.93,-62.988,1153.073,404
270,1686715073.168,-5.371,-990.723,0.0,45.898,1153.077,404
271,1686715073.171,3.906,-627.93,182.617,23.438,1153.081,404
272,1686715073.175,-41.504,-539.062,38.086,-85.449,1153.085,406
273,1686715073.179,-67.871,-904.297,-90.82,-93.75,1153.089,406
274,1686715073.183,-20.508,-952.637,94.238,11.719,1153.093,406
275,1686715073.187,10.254,-608.887,209.961,42.969,1153.097,407
276,1686715073.204,-33.203,-546.387,12.207,-54.688,1153.099,407
277,1686715073.208,-79.102,-918.457,-160.645,-103.027,1153.103,407
278,1686715073.212,-51.758,-723.633,123.535,-26.367,1153.107,407
279,1686715073.216,0.0,-349.609,189.941,37.109,1153.111,407
280,1686715073.22,-22.461,-532.715,-21.973,-31.25,1153.115,407
281,1686715073.224,-71.777,-925.781,32.227,-105.957,1153.119,407
282,1686715073.228,-58.594,-1000.0,154.785,-51.27,1153.122,406
283,1686715073.231,-8.301,-736.816,183.105,35.156,1153.126,406
284,1686715073.235,-1.953,-577.637,55.176,4.395,1153.13,406
285,1686715073.239,-58.594,-928.711,-105.957,-92.773,1153.134,406
286,1686715073.243,-76.172,-792.969,139.648,-90.82,1153.138,407
287,1686715073.247,-23.438,-379.883,192.871,14.16,1153.142,407
288,1686715073.249,-7.324,-518.066,-0.488,24.902,1153.144,407
289,1686715073.253,-56.152,-734.863,14.16,-75.684,1153.148,407
290,1686715073.257,-74.707,-604.004,102.539,-103.516,1153.152,407
291,1686715073.261,-33.203,-492.188,101.562,-2.441,1153.156,407
292,1686715073.265,-12.695,-637.207,18.066,39.551,1153.16,407
293,1686715073.269,-47.363,-974.121,-57.617,-58.594,1153.164,406
294,1686715073.273,-79.59,-885.254,73.73,-112.305,1153.168,406
295,1686715073.276,-43.945,-553.223,161.133,-25.391,1153.171,406
296,1686715073.28,2.441,-772.461,-67.871,57.617,1153.175,406
297,1686715073.284,-19.531,-1000.0,-3.906,0.0,1153.179,404
298,1686715073.288,-66.895,-939.941,186.035,-99.121,1153.183,404
299,1686715073.292,-54.199,-692.383,129.395,-63.477,1153.187,404
300,1686715073.309,-18.066,-830.566,-68.359,31.25,1153.204,402
301,1686715073.313,-17.09,-736.328,46.387,2.441,1153.208,400
302,1686715073.317,-40.527,-518.555,88.379,-96.68,1153.212,400
303,1686715073.321,-54.199,-644.531,-15.137,-93.262,1153.216,400
304,1686715073.325,-5.371,-893.555,-53.711,17.578,1153.22,400
305,1686715073.329,16.602,-976.562,58.594,27.832,1153.224,398
306,1686715073.333,-34.668,-826.66,148.438,-80.566,1153.228,398
307,1686715073.336,-62.5,-715.332,27.832,-107.91,1153.232,398
308,1686715073.339,-53.223,-807.129,96.191,-36.133,1153.235,396
309,1686715073.34,-39.062,-923.34,-76.172,-10.254,1153.235,396
310,1686715073.343,-1.465,-387.695,181.641,41.016,1153.239,396
311,1686715073.344,-0.977,-580.566,153.32,33.203,1153.239,396
312,1686715073.347,8.301,-363.281,23.438,-4.883,1153.243,396
313,1686715073.348,-25.879,-431.152,48.828,-51.27,1153.243,396
314,1686715073.351,-41.992,-785.156,-91.797,-101.562,1153.247,396
315,1686715073.352,-68.848,-841.797,-109.863,-105.469,1153.247,396
316,1686715073.355,-69.336,-836.426,101.562,-79.102,1153.251,393
317,1686715073.359,-25.391,-669.922,124.023,20.02,1153.255,393
318,1686715073.363,-11.719,-826.172,-56.152,1.953,1153.259,393
319,1686715073.366,-61.035,-978.027,-83.496,-101.562,1153.263,390
320,1686715073.37,-81.055,-777.344,120.117,-110.84,1153.267,390
321,1686715073.374,-38.086,-582.52,136.23,-10.254,1153.271,390
322,1686715073.378,-23.926,-761.23,-17.09,14.16,1153.275,385
323,1686715073.382,-60.547,-978.516,-185.547,-79.59,1153.278,385
324,1686715073.385,-84.961,-999.023,-22.461,-112.793,1153.293,385
325,1686715073.389,-48.828,-663.086,224.121,-27.344,1153.297,385
326,1686715073.393,9.766,-679.688,-17.09,41.504,1153.301,385
327,1686715073.397,-8.789,-931.641,-117.676,-31.25,1153.305,381
328,1686715073.401,-61.035,-723.633,71.777,-111.328,1153.309,381
329,1686715073.405,-40.039,-769.043,60.547,-33.691,1153.313,381
330,1686715073.409,15.137,-900.391,4.883,61.035,1153.316,375
331,1686715073.412,10.742,-947.754,-56.152,20.996,1153.32,375
332,1686715073.416,-25.391,-783.691,136.23,-68.359,1153.324,375
333,1686715073.42,-26.367,-451.66,223.145,-49.316,1153.328,368
334,1686715073.424,4.883,-479.004,50.293,40.527,1153.332,368
335,1686715073.428,21.973,-645.508,30.762,29.785,1153.336,368
336,1686715073.428,-22.949,-533.691,79.59,-69.336,1153.324,368
337,1686715073.432,-52.246,-480.469,-7.812,-85.449,1153.328,368
338,1686715073.436,-13.184,-622.559,-7.812,6.348,1153.332,361
339,1686715073.44,15.625,-598.145,109.863,36.133,1153.336,361
340,1686715073.444,-25.391,-647.461,14.16,-60.547,1153.34,361
341,1686715073.448,-63.965,-920.41,-15.625,-113.77,1153.344,354
342,1686715073.452,-42.969,-1000.0,-44.922,-35.156,1153.348,354
343,1686715073.455,-12.695,-966.309,15.625,34.18,1153.351,354
344,1686715073.459,-24.414,-637.695,197.266,-41.504,1153.355,354
345,1686715073.463,-64.941,-684.082,12.695,-119.629,1153.359,354
346,1686715073.467,-55.664,-1000.0,-128.906,-55.176,1153.363,349
347,1686715073.471,-1.465,-813.965,121.582,36.133,1153.367,349
348,1686715073.474,9.766,-384.277,195.801,-5.371,1153.383,349
349,1686715073.478,-40.527,-517.09,-32.227,-106.934,1153.387,345
350,1686715073.482,-56.152,-838.867,13.184,-88.379,1153.391,345
351,1686715073.486,-5.859,-492.676,174.805,21.484,1153.395,345
352,1686715073.49,14.16,-360.84,86.426,30.762,1153.399,341
353,1686715073.494,-31.25,-829.59,-97.656,-61.523,1153.403,341
354,1686715073.498,-69.336,-1000.0,-123.535,-80.566,1153.406,341
355,1686715073.501,-41.016,-867.676,156.738,2.441,1153.41,341
356,1686715073.505,-4.395,-435.547,205.566,35.645,1153.414,341
357,1686715073.509,-30.273,-509.766,-41.504,-43.945,1153.418,339
358,1686715073.513,-72.754,-801.758,37.598,-102.051,1153.422,339
359,1686715073.517,-50.293,-530.762,196.289,-38.574,1153.426,337
360,1686715073.519,-2.93,-266.113,138.672,28.32,1153.429,337
361,1686715073.523,-18.066,-545.41,-56.152,-31.25,1153.432,337
362,1686715073.527,-64.941,-844.727,25.391,-115.723,1153.436,337
363,1686715073.531,-65.43,-585.449,200.195,-74.219,1153.44,336
364,1686715073.535,-15.137,-421.387,109.863,21.484,1153.444,336
365,1686715073.539,-8.789,-756.836,-33.691,2.441,1153.448,336
366,1686715073.543,-58.594,-970.703,64.453,-104.004,1153.452,336
367,1686715073.546,-68.848,-632.324,196.289,-105.957,1153.456,336
368,1686715073.55,-27.832,-423.34,114.746,-5.371,1153.46,336
369,1686715073.554,-20.508,-779.297,-73.242,6.348,1153.464,336
370,1686715073.558,-63.477,-1000.0,52.734,-82.52,1153.468,336
371,1686715073.562,-76.66,-854.98,203.613,-116.211,1153.472,336
372,1686715073.578,-38.086,-568.848,123.047,-26.855,1153.474,337
373,1686715073.582,-8.301,-838.867,-118.652,27.344,1153.478,337
374,1686715073.586,-37.598,-906.25,91.797,-59.082,1153.482,337
375,1686715073.59,-79.102,-562.012,208.008,-131.836,1153.486,337
376,1686715073.594,-65.918,-541.016,77.637,-70.312,1153.49,337
377,1686715073.598,-20.508,-853.027,78.125,18.555,1153.494,337
378,1686715073.602,-32.227,-870.605,105.957,-32.715,1153.498,338
379,1686715073.605,-80.566,-586.914,121.094,-141.113,1153.502,338
380,1686715073.609,-78.613,-656.738,22.949,-109.375,1153.506,338
381,1686715073.613,-33.203,-891.602,13.672,-2.93,1153.509,339
382,1686715073.617,-19.531,-637.207,141.602,-19.043,1153.513,339
383,1686715073.621,-61.035,-668.945,-0.977,-113.77,1153.517,339
384,1686715073.623,-76.172,-938.965,-80.566,-110.84,1153.519,339
385,1686715073.627,-27.832,-760.742,108.398,-5.859,1153.523,339
386,1686715073.631,6.348,-382.324,149.414,24.902,1153.527,341
387,1686715073.635,-33.691,-459.961,-51.758,-73.242,1153.531,341
388,1686715073.639,-76.66,-805.176,-53.223,-124.512,1153.535,341
389,1686715073.643,-47.363,-956.543,99.121,-40.039,1153.539,343
390,1686715073.647,-7.812,-773.926,148.438,20.508,1153.543,343
391,1686715073.65,-33.691,-552.246,81.543,-48.34,1153.547,343
392,1686715073.654,-81.055,-840.82,-120.117,-126.465,1153.551,343
393,1686715073.658,-65.43,-1000.0,32.227,-63.965,1153.554,346
394,1686715073.662,-11.23,-792.48,231.445,28.32,1153.558,346
395,1686715073.666,-17.09,-552.734,82.031,-16.113,1153.562,346
396,1686715073.669,-63.965,-867.188,-145.996,-108.887,1153.564,351
397,1686715073.673,-64.453,-761.719,119.629,-85.938,1153.568,351
398,1686715073.677,-23.926,-441.406,181.152,20.508,1153.572,351
399,1686715073.681,-12.207,-723.633,-72.266,12.695,1153.576,354
400,1686715073.685,-55.176,-960.449,-84.961,-88.867,1153.58,354
401,1686715073.689,-71.289,-995.605,82.52,-94.727,1153.584,354
402,1686715073.693,-30.762,-757.324,199.219,-0.488,1153.588,354
403,1686715073.696,-6.348,-564.941,55.664,28.809,1153.592,354
404,1686715073.7,-42.969,-902.832,-113.77,-60.547,1153.596,357
405,1686715073.704,-79.59,-738.281,130.371,-113.281,1153.599,357
406,1686715073.708,-48.828,-353.516,196.777,-22.461,1153.603,357
407,1686715073.712,2.441,-477.051,19.043,58.594,1153.607,359
408,1686715073.714,-15.625,-675.293,30.273,-24.902,1153.609,359
409,1686715073.718,-70.801,-568.359,93.262,-116.211,1153.613,359
410,1686715073.722,-64.453,-497.07,81.543,-65.918,1153.617,361
411,1686715073.726,-14.648,-604.004,31.25,30.273,1153.621,361
412,1686715073.73,-7.812,-666.504,44.922,7.812,1153.625,361
413,1686715073.734,-51.758,-848.633,-4.883,-87.891,1153.629,361
414,1686715073.738,-62.5,-981.445,11.23,-83.008,1153.633,361
415,1686715073.741,-28.32,-967.285,7.324,16.113,1153.637,360
416,1686715073.745,-21.973,-967.773,-6.348,18.066,1153.641,360
417,1686715073.749,-56.152,-786.621,92.773,-92.285,1153.644,360
418,1686715073.753,-76.172,-884.766,45.898,-114.746,1153.648,360
419,1686715073.757,-42.969,-990.723,0.977,-3.418,1153.652,360
420,1686715073.758,-7.324,-648.926,132.324,37.109,1153.654,360
421,1686715073.762,-36.133,-433.105,92.773,-62.012,1153.658,360
422,1686715073.766,-73.73,-689.941,-80.078,-114.258,1153.662,359
423,1686715073.77,-49.805,-815.43,59.082,-36.133,1153.666,359
424,1686715073.774,-8.301,-482.422,139.16,23.438,1153.67,359
425,1686715073.778,-19.531,-652.832,0.0,-36.621,1153.674,359
426,1686715073.782,-70.801,-982.91,-75.684,-109.375,1153.678,358
427,1686715073.785,-66.406,-996.094,-83.496,-62.5,1153.682,358
428,1686715073.789,-10.742,-835.938,158.203,32.715,1153.686,358
429,1686715073.793,0.488,-493.164,164.551,10.254,1153.69,359
430,1686715073.797,-45.41,-665.039,-83.984,-94.727,1153.693,359
431,1686715073.801,-58.594,-862.793,63.965,-84.473,1153.697,359
432,1686715073.803,-10.742,-508.301,223.145,23.926,1153.699,359
433,1686715073.807,6.348,-352.051,62.012,19.531,1153.703,359
434,1686715073.811,-40.039,-684.082,-66.895,-90.332,1153.707,359
435,1686715073.815,-73.242,-764.16,102.051,-117.188,1153.711,359
436,1686715073.819,-26.855,-494.629,153.32,-12.695,1153.715,359
437,1686715073.823,26.367,-687.012,-21.484,41.992,1153.719,358
438,1686715073.827,-5.371,-964.355,-104.004,-40.039,1153.723,358
439,1686715073.83,-51.758,-911.133,89.355,-114.258,1153.726,358
440,1686715073.834,-30.273,-541.016,235.352,-58.594,1153.73,361
441,1686715073.838,15.137,-442.871,62.012,29.297,1153.734,361
442,1686715073.842,-4.883,-899.902,-131.348,-28.809,1153.738,361
443,1686715073.846,-60.547,-1000.0,51.27,-122.559,1153.742,361
444,1686715073.849,-52.734,-609.375,217.285,-81.055,1153.758,361
445,1686715073.853,-8.789,-405.762,94.727,16.602,1153.762,363
446,1686715073.857,-17.578,-841.309,-146.973,7.812,1153.765,363
447,1686715073.861,-54.688,-802.734,77.148,-93.262,1153.769,363
448,1686715073.865,-68.359,-523.926,206.543,-101.074,1153.773,366
449,1686715073.869,-36.133,-728.516,-33.203,16.113,1153.777,366
450,1686715073.873,-9.277,-953.613,-109.375,36.133,1153.781,366
451,1686715073.876,-41.016,-774.902,104.004,-76.172,1153.785,371
452,1686715073.88,-67.871,-512.207,190.918,-107.422,1153.789,371
453,1686715073.884,-42.48,-538.574,53.223,-20.02,1153.793,371
454,1686715073.888,-11.23,-646.973,55.176,30.762,1153.797,371
455,1686715073.892,-30.273,-510.254,112.305,-40.527,1153.801,383
456,1686715073.895,-69.336,-586.914,-41.992,-114.258,1153.803,383
457,1686715073.899,-59.57,-886.23,-51.27,-59.082,1153.807,383
458,1686715073.903,-16.113,-789.551,94.238,31.738,1153.811,399
459,1686715073.907,-11.23,-487.793,94.238,-9.277,1153.815,399
460,1686715073.911,-62.5,-588.867,-45.898,-122.07,1153.819,399
461,1686715073.915,-75.195,-964.355,-78.125,-96.68,1153.823,419
462,1686715073.919,-30.273,-870.117,105.957,7.324,1153.827,419
463,1686715073.922,-8.789,-458.496,177.246,-7.812,1153.83,419
464,1686715073.926,-44.434,-505.859,11.23,-107.91,1153.834,419
465,1686715073.93,-69.824,-907.227,-119.141,-113.77,1153.838,419
466,1686715073.934,-27.832,-962.891,83.008,-13.672,1153.842,441
467,1686715073.938,5.859,-528.809,182.617,11.23,1153.846,441
468,1686715073.954,-29.785,-522.461,-40.527,-83.008,1153.849,465
469,1686715073.958,-79.59,-942.383,-195.801,-129.883,1153.853,493
470,1686715073.962,-54.688,-704.102,110.352,-53.223,1153.857,493
471,1686715073.966,-4.395,-470.703,161.621,19.531,1153.861,493
472,1686715073.97,-25.879,-847.656,-73.73,-43.945,1153.865,493
473,1686715073.974,-83.984,-1000.0,-111.816,-124.512,1153.869,517
474,1686715073.978,-75.684,-865.723,164.062,-73.73,1153.873,517
475,1686715073.981,-11.719,-459.473,192.871,20.02,1153.877,517
476,1686715073.985,-12.695,-563.965,-79.59,-18.066,1153.881,541
477,1686715073.989,-67.383,-892.578,17.578,-115.723,1153.885,541
478,1686715073.993,-65.918,-692.871,181.152,-93.262,1153.889,541
479,1686715073.997,-12.695,-427.246,137.695,11.23,1153.892,541
480,1686715073.999,3.418,-585.938,7.812,15.137,1153.894,541
481,1686715074.003,-36.133,-824.707,-10.254,-85.449,1153.898,562
482,1686715074.007,-63.965,-692.383,119.141,-111.816,1153.902,562
483,1686715074.011,-31.738,-499.023,145.508,-14.648,1153.906,562
484,1686715074.015,5.859,-661.621,-4.395,22.461,1153.91,574
485,1686715074.019,-18.555,-982.91,-60.059,-66.895,1153.914,574
486,1686715074.023,-73.73,-1000.0,39.062,-117.188,1153.918,574
487,1686715074.026,-58.594,-815.918,179.688,-34.668,1153.922,584
488,1686715074.03,-2.441,-809.57,14.648,49.805,1153.925,584
489,1686715074.034,-22.461,-1000.0,-73.73,-13.672,1153.929,584
490,1686715074.038,-70.312,-997.07,170.898,-111.816,1153.933,584
491,1686715074.042,-61.035,-925.781,157.227,-72.266,1153.937,584
492,1686715074.043,-17.09,-937.988,-2.441,39.062,1153.939,591
493,1686715074.047,-16.113,-697.266,115.234,7.812,1153.943,591
494,1686715074.051,-61.523,-481.445,112.793,-102.539,1153.947,591
495,1686715074.055,-66.406,-638.672,17.09,-75.684,1153.951,590
496,1686715074.059,-3.418,-757.812,92.285,39.062,1153.955,590
497,1686715074.063,25.391,-844.727,-31.25,52.246,1153.959,590
498,1686715074.067,-48.34,-883.301,21.973,-73.73,1153.963,584
499,1686715074.07,-100.586,-747.07,83.984,-129.883,1153.967,584
500,1686715074.074,-60.547,-953.613,-103.516,-19.531,1153.97,584
501,1686715074.078,-16.602,-834.473,115.234,34.18,1153.974,584
502,1686715074.082,-41.992,-500.977,151.367,-51.758,1153.978,584
503,1686715074.086,-97.656,-731.445,-73.73,-133.301,1153.982,573
504,1686715074.089,-86.914,-825.195,72.754,-68.359,1153.984,573
505,1686715074.093,-36.621,-465.332,213.379,19.043,1153.988,573
506,1686715074.097,-47.363,-403.809,54.688,-40.039,1153.992,558
507,1686715074.101,-80.078,-713.867,-43.457,-121.094,1153.996,558
508,1686715074.105,-71.289,-723.633,100.098,-74.707,1154.0,558
509,1686715074.109,-32.227,-744.629,46.875,24.414,1154.004,537
510,1686715074.113,-23.438,-924.805,-38.574,-4.395,1154.008,537
511,1686715074.116,-55.176,-1000.0,-75.684,-102.051,1154.012,537
512,1686715074.12,-67.383,-836.426,103.027,-98.633,1154.016,537
513,1686715074.124,-33.691,-564.453,168.457,0.0,1154.019,511
514,1686715074.128,-12.207,-759.277,-32.227,24.414,1154.023,511
515,1686715074.132,-49.805,-995.117,-165.039,-61.523,1154.027,511
516,1686715074.133,-89.844,-876.465,88.379,-100.098,1154.03,511
517,1686715074.137,-57.617,-427.734,256.348,-26.367,1154.034,482
518,1686715074.141,-12.695,-334.473,63.477,24.902,1154.037,482
519,1686715074.145,-29.785,-756.348,5.371,-40.527,1154.041,482
520,1686715074.149,-71.777,-739.746,87.891,-113.281,1154.045,482
521,1686715074.153,-61.523,-744.141,25.391,-51.758,1154.049,449
522,1686715074.157,-20.02,-847.656,-6.836,33.691,1154.053,449
523,1686715074.16,-31.738,-921.387,-69.336,-20.02,1154.057,449
524,1686715074.164,-75.195,-771.484,101.074,-112.793,1154.061,449
525,1686715074.168,-62.5,-475.586,197.266,-83.008,1154.065,416
526,1686715074.172,-10.254,-480.957,32.227,29.785,1154.069,416
527,1686715074.176,1.465,-578.125,34.18,26.367,1154.073,416
528,1686715074.18,-34.18,-513.672,88.867,-73.73,1154.077,382
529,1686715074.184,-52.246,-565.918,20.508,-85.938,1154.081,382
530,1686715074.188,-18.066,-815.918,-46.875,13.672,1154.085,382
531,1686715074.192,11.719,-783.691,82.52,48.828,1154.089,382
532,1686715074.196,-27.344,-545.41,108.398,-56.152,1154.093,348
533,1686715074.2,-81.055,-803.711,-20.996,-112.793,1154.097,348
534,1686715074.204,-55.176,-1000.0,-23.438,-24.414,1154.1,348
535,1686715074.207,-14.648,-807.617,127.93,42.969,1154.104,319
536,1686715074.211,-33.691,-474.609,155.762,-30.762,1154.108,319
537,1686715074.215,-69.824,-639.648,-45.898,-103.516,1154.112,319
538,1686715074.219,-75.684,-988.77,-95.703,-51.27,1154.116,295
539,1686715074.223,-28.809,-749.512,170.898,29.785,1154.12,295
540,1686715074.224,-12.695,-390.625,140.137,-17.09,1154.136,295
541,1686715074.228,-56.641,-547.363,-63.477,-104.004,1154.14,295
542,1686715074.232,-69.336,-835.449,15.137,-75.684,1154.144,295
543,1686715074.236,-22.949,-502.441,148.438,18.066,1154.148,277
544,1686715074.24,-2.93,-472.656,29.785,24.902,1154.152,277
545,1686715074.244,-50.293,-894.531,-105.957,-81.543,1154.156,277
546,1686715074.248,-77.637,-1000.0,-112.793,-104.98,1154.16,264
547,1686715074.251,-41.016,-795.41,174.805,-9.766,1154.163,264
548,1686715074.255,0.488,-380.859,199.707,22.949,1154.167,264
549,1686715074.259,-31.25,-547.852,-21.484,-62.988,1154.171,256
550,1686715074.263,-76.66,-814.453,40.527,-119.629,1154.175,256
551,1686715074.267,-53.223,-555.176,156.25,-47.852,1154.179,256
552,1686715074.269,-4.883,-340.332,141.113,29.785,1154.179,256
553,1686715074.273,-16.113,-600.098,-28.809,-22.949,1154.183,256
554,1686715074.277,-70.312,-827.637,2.441,-111.816,1154.187,252
555,1686715074.281,-60.547,-569.824,189.941,-64.941,1154.191,252
556,1686715074.285,-11.719,-416.504,132.324,27.832,1154.194,252
557,1686715074.289,-14.648,-723.633,-43.945,-1.465,1154.198,249
558,1686715074.293,-62.012,-983.887,11.23,-103.516,1154.202,249
559,1686715074.296,-68.359,-939.453,135.254,-95.703,1154.206,249
560,1686715074.3,-32.715,-624.512,141.113,0.977,1154.21,249
561,1686715074.304,-19.531,-753.906,-101.562,14.16,1154.214,251
562,1686715074.308,-57.129,-1000.0,-110.84,-72.754,1154.218,251
563,1686715074.312,-83.984,-752.93,198.73,-111.816,1154.222,251
564,1686715074.329,-48.828,-511.719,139.16,-24.414,1154.224,256
565,1686715074.333,-12.695,-708.008,-50.293,25.391,1154.228,256
566,1686715074.337,-31.738,-645.996,37.598,-60.059,1154.232,256
567,1686715074.341,-62.988,-558.594,43.457,-112.305,1154.236,256
568,1686715074.345,-46.387,-630.859,18.066,-33.203,1154.24,261
569,1686715074.349,-11.719,-850.098,59.57,41.504,1154.244,261
570,1686715074.353,-24.414,-838.867,126.465,-16.602,1154.248,261
571,1686715074.356,-63.477,-584.473,121.582,-110.84,1154.252,261
572,1686715074.36,-60.547,-647.461,-20.508,-86.914,1154.255,266
573,1686715074.364,-23.438,-966.797,-31.738,11.23,1154.259,266
574,1686715074.368,-9.766,-819.336,171.875,-0.488,1154.263,266
575,1686715074.372,-48.34,-524.414,128.418,-98.633,1154.267,271
576,1686715074.374,-64.941,-759.766,-62.988,-91.309,1154.269,271
577,1686715074.378,-26.367,-902.344,39.551,14.16,1154.273,271
578,1686715074.382,4.883,-558.594,201.66,28.32,1154.277,271
579,1686715074.386,-21.484,-457.031,66.406,-60.547,1154.281,276
580,1686715074.39,-64.941,-759.277,-24.902,-101.562,1154.285,276
581,1686715074.394,-41.504,-959.961,86.914,-15.625,1154.289,276
582,1686715074.398,-3.418,-785.156,171.875,47.852,1154.293,281
583,1686715074.401,-23.926,-570.801,112.793,-37.598,1154.297,281
584,1686715074.405,-70.312,-831.055,-102.051,-113.77,1154.3,281
585,1686715074.409,-58.105,-1000.0,31.25,-39.551,1154.304,281
586,1686715074.413,-11.719,-777.832,228.027,36.621,1154.308,287
587,1686715074.417,-15.137,-544.434,68.848,-12.207,1154.312,287
588,1686715074.419,-59.57,-891.602,-182.129,-90.82,1154.314,287
589,1686715074.423,-71.777,-884.766,76.172,-73.73,1154.318,287
590,1686715074.427,-32.715,-375.977,253.906,18.555,1154.322,293
591,1686715074.431,-7.324,-374.023,42.48,12.695,1154.326,293
592,1686715074.435,-43.457,-816.406,17.09,-83.984,1154.33,293
593,1686715074.439,-55.176,-1000.0,85.938,-71.777,1154.334,298
594,1686715074.443,-18.555,-763.672,172.852,21.973,1154.338,298
595,1686715074.446,-14.648,-500.977,53.223,25.879,1154.342,298
596,1686715074.45,-57.129,-880.859,-147.461,-60.059,1154.346,298
597,1686715074.454,-90.82,-801.27,105.957,-110.84,1154.35,303
598,1686715074.458,-51.758,-437.012,177.246,-28.809,1154.353,303
599,1686715074.462,-1.465,-626.953,-3.906,47.363,1154.357,303
600,1686715074.463,-10.742,-731.445,38.574,-19.531,1154.359,303
601,1686715074.467,-43.945,-586.914,126.953,-91.309,1154.363,303
602,1686715074.471,-34.18,-586.914,79.102,-39.062,1154.367,307
603,1686715074.475,8.301,-769.043,31.25,54.199,1154.371,307
604,1686715074.479,10.742,-819.336,65.43,20.02,1154.375,307
605,1686715074.483,-34.18,-864.746,-7.812,-81.543,1154.379,312
606,1686715074.487,-44.434,-972.656,37.109,-68.848,1154.383,312
607,1686715074.49,1.953,-992.188,62.988,32.227,1154.387,312
608,1686715074.494,18.066,-799.805,121.094,41.992,1154.39,312
609,1686715074.498,-27.344,-678.223,93.75,-56.641,1154.394,316
610,1686715074.502,-64.941,-938.477,-32.715,-81.543,1154.398,316
611,1686715074.506,-34.668,-995.605,8.301,1.465,1154.402,316
612,1686715074.509,-1.953,-692.871,145.996,32.715,1154.404,320
613,1686715074.513,-27.344,-395.508,162.598,-60.059,1154.408,320
614,1686715074.517,-51.27,-552.246,14.16,-115.234,1154.412,320
615,1686715074.521,-29.297,-751.953,69.824,-28.32,1154.416,323
616,1686715074.525,5.371,-458.496,123.047,50.781,1154.42,323
617,1686715074.529,-8.301,-624.023,10.742,-11.23,1154.424,323
618,1686715074.533,-58.594,-973.145,-74.219,-100.586,1154.428,323
619,1686715074.536,-54.199,-1000.0,-76.66,-61.523,1154.432,323
620,1686715074.54,-2.441,-757.812,225.098,24.902,1154.436,327
621,1686715074.544,2.93,-373.535,129.883,-2.93,1154.439,327
622,1686715074.548,-46.875,-617.188,-116.211,-92.773,1154.443,327
623,1686715074.552,-53.711,-796.875,55.176,-75.684,1154.447,329
624,1686715074.554,-17.578,-428.711,165.039,16.113,1154.463,329
625,1686715074.558,6.348,-287.109,61.035,27.832,1154.467,329
626,1686715074.562,-25.879,-657.715,-44.434,-67.383,1154.471,332
627,1686715074.566,-65.918,-763.672,102.051,-106.934,1154.474,332
628,1686715074.57,-25.879,-457.52,162.109,-10.254,1154.478,332
629,1686715074.574,19.043,-620.605,-22.949,50.293,1154.482,332
630,1686715074.578,-14.16,-937.012,-113.77,-33.691,1154.486,336
631,1686715074.581,-67.871,-973.633,65.43,-108.398,1154.49,336
632,1686715074.585,-52.246,-844.238,213.867,-47.852,1154.494,336
633,1686715074.589,-5.371,-569.336,132.324,28.809,1154.498,336
634,1686715074.593,-23.438,-847.656,-119.141,-16.602,1154.502,339
635,1686715074.597,-67.871,-965.82,39.551,-104.492,1154.506,339
636,1686715074.598,-58.594,-545.898,229.004,-85.449,1154.508,339
637,1686715074.602,-16.113,-384.766,97.168,12.695,1154.512,339
638,1686715074.606,-9.766,-701.172,-29.297,7.812,1154.516,343
639,1686715074.61,-50.781,-659.18,52.246,-89.844,1154.52,343
640,1686715074.614,-60.059,-531.738,106.445,-99.121,1154.524,343
641,1686715074.618,-24.414,-815.918,-28.32,-0.488,1154.527,343
642,1686715074.622,-2.441,-972.168,-106.445,26.367,1154.531,345
643,1686715074.625,-26.367,-712.891,100.586,-72.266,1154.535,345
644,1686715074.629,-60.547,-520.508,154.785,-114.258,1154.539,345
645,1686715074.633,-39.551,-569.336,62.012,-27.832,1154.543,349
646,1686715074.637,-10.742,-796.875,61.035,28.809,1154.547,349
647,1686715074.641,-35.645,-773.926,117.676,-52.246,1154.551,349
648,1686715074.645,-72.266,-557.129,127.93,-129.883,1154.552,349
649,1686715074.649,-60.547,-679.688,19.531,-62.988,1154.556,352
650,1686715074.653,-17.578,-761.23,64.941,21.973,1154.56,352
651,1686715074.657,-26.855,-520.508,150.391,-33.691,1154.564,352
652,1686715074.661,-84.473,-558.105,27.344,-127.93,1154.568,356
653,1686715074.665,-96.191,-905.762,-75.195,-91.797,1154.572,356
654,1686715074.669,-50.781,-923.34,70.312,11.23,1154.576,356
655,1686715074.672,-25.391,-541.016,165.527,-3.418,1154.58,356
656,1686715074.676,-56.641,-504.883,34.668,-96.68,1154.584,359
657,1686715074.68,-90.332,-875.0,-74.707,-114.258,1154.588,359
658,1686715074.684,-56.152,-909.18,89.355,-23.926,1154.592,359
659,1686715074.688,-26.367,-526.855,190.43,6.348,1154.595,359
660,1686715074.703,-63.965,-541.016,-36.621,-86.914,1154.613,364
661,1686715074.707,-98.145,-958.984,-180.664,-126.465,1154.617,364
662,1686715074.711,-72.266,-853.027,162.109,-52.246,1154.621,364
663,1686715074.715,-16.602,-382.812,227.051,0.488,1154.625,366
664,1686715074.719,-22.461,-432.617,19.531,-58.594,1154.629,366
665,1686715074.723,-80.078,-946.289,-174.805,-124.023,1154.633,366
666,1686715074.727,-83.496,-917.969,83.984,-82.52,1154.637,366
667,1686715074.73,-33.691,-381.836,241.699,-2.93,1154.641,368
668,1686715074.734,-29.785,-450.195,-6.348,-33.691,1154.645,368
669,1686715074.738,-68.359,-811.523,29.297,-125.977,1154.649,368
670,1686715074.742,-80.566,-634.277,165.039,-113.77,1154.652,368
671,1686715074.746,-36.621,-353.516,141.113,-8.301,1154.656,370
672,1686715074.749,-16.113,-517.578,-28.32,-5.859,1154.644,370
673,1686715074.753,-61.523,-743.652,-2.441,-117.676,1154.648,370
674,1686715074.757,-82.031,-592.773,138.672,-139.16,1154.652,370
675,1686715074.761,-51.27,-505.859,93.262,-40.039,1154.656,370
676,1686715074.765,-22.461,-737.793,-31.25,12.695,1154.66,370
677,1686715074.769,-47.852,-992.188,13.184,-56.641,1154.664,370
678,1686715074.773,-82.52,-873.047,162.109,-113.77,1154.668,370
679,1686715074.776,-49.805,-577.148,131.836,-39.062,1154.672,370
680,1686715074.78,-1.465,-681.641,-12.207,36.133,1154.676,370
681,1686715074.784,-17.09,-781.738,21.973,-24.414,1154.679,370
682,1686715074.788,-61.035,-895.996,20.996,-104.004,1154.683,370
683,1686715074.792,-52.734,-698.242,110.84,-58.105,1154.687,370
684,1686715074.794,-9.277,-814.941,-86.426,49.316,1154.689,370
685,1686715074.798,-2.93,-985.84,-30.273,19.531,1154.693,370
686,1686715074.802,-42.48,-630.859,177.734,-104.004,1154.697,370
687,1686715074.806,-60.547,-605.469,90.332,-94.727,1154.701,370
688,1686715074.81,-16.113,-766.602,83.984,17.578,1154.705,370
689,1686715074.814,7.324,-829.59,14.648,20.996,1154.709,372
690,1686715074.818,-22.949,-957.031,-30.273,-61.035,1154.713,372
691,1686715074.821,-55.664,-968.75,-26.367,-88.379,1154.717,372
692,1686715074.825,-35.645,-1000.0,-46.875,-8.789,1154.721,373
693,1686715074.829,9.277,-770.02,205.078,41.016,1154.724,373
694,1686715074.833,-14.16,-401.855,153.32,-47.363,1154.728,373
695,1686715074.837,-62.988,-610.352,-42.48,-110.352,1154.732,373
696,1686715074.853,-54.199,-684.57,67.871,-40.527,1154.75,376
697,1686715074.857,-0.977,-321.777,163.086,39.551,1154.754,376
698,1686715074.861,-5.371,-309.082,29.297,-11.23,1154.757,376
699,1686715074.865,-51.27,-701.172,-65.43,-101.562,1154.761,377
700,1686715074.869,-51.27,-724.609,95.215,-68.359,1154.765,377
701,1686715074.873,-14.648,-657.227,51.758,35.645,1154.769,377
702,1686715074.877,-0.488,-795.898,-46.875,23.438,1154.773,377
703,1686715074.88,-37.109,-918.457,-88.867,-75.684,1154.777,377
704,1686715074.884,-56.641,-910.645,72.754,-64.453,1154.781,378
705,1686715074.888,-16.113,-782.715,199.219,35.156,1154.785,378
706,1686715074.892,7.812,-776.855,89.844,43.457,1154.789,378
707,1686715074.896,-29.785,-937.988,-43.457,-50.293,1154.793,383
708,1686715074.899,-63.965,-848.145,146.973,-94.727,1154.794,383
709,1686715074.903,-42.48,-430.176,222.168,-24.902,1154.798,383
710,1686715074.907,-6.836,-316.406,63.477,35.645,1154.802,385
711,1686715074.911,-30.273,-800.293,-103.516,-39.551,1154.806,385
712,1686715074.915,-84.961,-768.555,26.367,-119.141,1154.81,385
713,1686715074.919,-70.312,-693.848,72.754,-59.57,1154.814,385
714,1686715074.923,-17.578,-878.906,49.316,27.832,1154.817,393
715,1686715074.926,-26.855,-838.379,81.055,-22.461,1154.821,393
716,1686715074.93,-67.383,-634.766,102.539,-118.164,1154.825,393
717,1686715074.934,-69.336,-444.824,150.879,-91.309,1154.829,410
718,1686715074.938,-30.273,-478.516,63.965,16.113,1154.833,410
719,1686715074.942,-22.461,-916.016,-102.539,27.344,1154.837,410
720,1686715074.973,-60.547,-864.258,137.207,-85.449,1154.869,442
721,1686715074.977,-79.102,-476.562,196.289,-110.352,1154.873,461
722,1686715074.977,-29.297,-579.102,185.059,-14.16,1154.875,461
723,1686715074.981,-42.48,-617.188,-7.324,-5.371,1154.877,461
724,1686715074.981,-70.801,-533.203,24.414,-117.676,1154.879,461
725,1686715074.985,-15.625,-758.789,66.895,19.531,1154.881,461
726,1686715074.985,-81.055,-901.855,-130.371,-98.145,1154.883,461
727,1686715074.989,-46.387,-573.242,140.625,-73.242,1154.885,461
728,1686715074.989,-20.996,-498.047,114.258,6.836,1154.887,461
729,1686715074.993,-5.371,-229.98,95.215,11.23,1154.891,476
730,1686715074.993,-82.52,-823.73,-49.805,-118.164,1154.889,476
731,1686715074.997,-56.152,-760.742,-129.395,-82.52,1154.895,476
732,1686715074.997,-59.082,-989.746,5.371,-41.016,1154.893,476
733,1686715075.0,-17.09,-698.242,200.684,22.461,1154.897,476
734,1686715075.001,-82.031,-1000.0,-79.59,-96.68,1154.899,476
735,1686715075.004,-38.086,-559.57,165.039,-5.371,1154.903,476
736,1686715075.004,-26.855,-474.121,105.469,-47.363,1154.9,476
737,1686715075.008,-65.918,-653.809,-51.758,-125.0,1154.904,491
738,1686715075.008,5.371,-267.578,132.812,29.297,1154.907,491
739,1686715075.012,-65.918,-975.098,-137.695,-62.5,1154.908,491
740,1686715075.012,-23.438,-545.41,-92.773,-64.941,1154.911,491
741,1686715075.016,-29.297,-1000.0,-49.805,37.109,1154.912,491
742,1686715075.016,-74.707,-832.52,28.32,-121.582,1154.914,491
743,1686715075.02,-61.035,-617.676,173.828,-52.246,1154.918,502
744,1686715075.02,-9.277,-339.355,133.301,25.879,1154.927,502
745,1686715075.024,-23.438,-573.73,-60.059,-35.156,1154.931,502
746,1686715075.028,-83.496,-981.934,-122.559,-125.0,1154.935,502
747,1686715075.032,-64.453,-677.734,157.227,-71.289,1154.939,502
748,1686715075.036,-7.324,-488.281,122.07,27.344,1154.943,509
749,1686715075.04,-16.602,-831.055,-86.426,-7.812,1154.947,509
750,1686715075.044,-64.941,-1000.0,-135.742,-93.262,1154.951,509
751,1686715075.047,-69.336,-904.785,108.887,-72.266,1154.955,513
752,1686715075.051,-32.715,-414.062,200.684,12.207,1154.958,513
753,1686715075.055,-32.715,-603.516,-85.449,3.418,1154.962,513
754,1686715075.059,-72.266,-952.148,-90.332,-99.121,1154.966,510
755,1686715075.063,-90.332,-582.52,158.691,-130.859,1154.97,510
756,1686715075.078,-66.895,-375.488,116.699,-42.969,1154.974,505
757,1686715075.082,-46.875,-775.391,-129.883,3.906,1154.978,505
758,1686715075.086,-69.824,-729.004,33.203,-76.172,1154.982,495
759,1686715075.09,-107.91,-457.031,131.348,-139.16,1154.986,495
760,1686715075.094,-93.262,-481.934,70.312,-66.895,1154.99,495
761,1686715075.098,-40.039,-876.465,-129.395,24.414,1154.994,495
762,1686715075.102,-46.875,-976.562,-4.395,-43.457,1154.998,482
763,1686715075.105,-77.637,-803.223,106.934,-129.883,1155.002,482
764,1686715075.109,-67.871,-870.117,2.93,-83.008,1155.005,482
765,1686715075.113,-26.367,-921.387,0.488,12.207,1155.009,482
766,1686715075.117,-21.484,-568.848,131.836,-1.465,1155.013,466
767,1686715075.121,-62.012,-440.918,35.645,-104.004,1155.017,466
768,1686715075.124,-71.777,-696.777,-43.457,-106.934,1155.019,466
769,1686715075.128,-22.949,-619.629,119.629,-3.418,1155.023,448
770,1686715075.132,-3.418,-324.707,140.625,25.879,1155.027,448
771,1686715075.136,-39.551,-417.969,-5.371,-63.477,1155.031,448
772,1686715075.14,-70.801,-776.367,-63.965,-102.051,1155.035,428
773,1686715075.144,-35.645,-941.406,70.312,-14.16,1155.039,428
774,1686715075.148,-0.977,-785.156,141.113,32.227,1155.043,428
775,1686715075.151,-25.391,-555.664,56.641,-46.387,1155.047,428
776,1686715075.155,-63.965,-827.637,-125.0,-109.863,1155.051,405
777,1686715075.159,-64.941,-979.004,45.898,-49.316,1155.054,405
778,1686715075.163,-16.113,-774.902,191.895,40.039,1155.058,405
779,1686715075.167,-6.836,-823.242,41.016,7.324,1155.062,405
780,1686715075.168,-53.223,-987.793,-112.793,-80.078,1155.064,382
781,1686715075.172,-67.871,-843.75,83.008,-64.453,1155.068,382
782,1686715075.176,-24.902,-414.062,218.75,26.367,1155.072,382
783,1686715075.18,-2.93,-330.566,68.359,24.414,1155.076,382
784,1686715075.184,-40.527,-753.906,23.438,-75.195,1155.08,382
785,1686715075.188,-63.965,-968.75,42.969,-89.844,1155.084,360
786,1686715075.192,-21.484,-691.406,152.832,7.812,1155.088,360
787,1686715075.195,-0.488,-487.305,83.008,30.273,1155.092,360
788,1686715075.199,-39.062,-893.555,-131.348,-59.57,1155.096,341
789,1686715075.203,-73.73,-798.34,125.0,-114.746,1155.099,341
790,1686715075.207,-41.992,-375.977,199.707,-45.898,1155.103,341
791,1686715075.211,6.348,-435.547,4.395,27.832,1155.107,326
792,1686715075.218,-20.996,-844.727,-69.824,-33.203,1155.123,326
793,1686715075.222,-70.801,-812.012,87.891,-113.77,1155.127,326
794,1686715075.226,-55.664,-461.426,154.785,-65.43,1155.13,315
795,1686715075.23,-9.766,-573.242,5.371,34.668,1155.134,315
796,1686715075.234,-16.602,-833.496,24.414,5.371,1155.138,315
797,1686715075.238,-72.754,-888.184,33.691,-108.398,1155.142,307
798,1686715075.242,-82.031,-925.781,19.531,-96.191,1155.146,307
799,1686715075.245,-32.227,-918.945,62.5,12.695,1155.15,307
800,1686715075.249,-17.578,-772.461,124.023,7.324,1155.154,307
801,1686715075.253,-55.176,-684.57,39.551,-98.633,1155.158,302
802,1686715075.257,-80.078,-895.508,-30.762,-117.188,1155.162,302
803,1686715075.261,-51.27,-956.055,33.203,-22.461,1155.166,302
804,1686715075.273,-16.113,-688.965,144.043,13.672,1155.169,298
805,1686715075.277,-38.086,-402.344,123.535,-77.148,1155.173,298
806,1686715075.281,-80.566,-624.023,-85.938,-131.348,1155.177,297
807,1686715075.285,-61.523,-881.348,-35.156,-45.41,1155.181,297
808,1686715075.289,-12.695,-538.574,129.883,20.996,1155.185,297
809,1686715075.293,-28.32,-681.641,-19.043,-45.898,1155.189,298
810,1686715075.297,-77.637,-1000.0,-92.285,-127.93,1155.192,298
811,1686715075.3,-80.078,-981.934,-77.148,-84.473,1155.196,298
812,1686715075.303,-24.414,-508.301,199.707,15.625,1155.199,298
813,1686715075.304,-36.621,-670.898,161.133,7.324,1155.2,298
814,1686715075.307,0.488,-321.777,80.078,21.484,1155.203,300
815,1686715075.308,-25.879,-356.445,150.391,-16.602,1155.204,300
816,1686715075.311,-42.969,-643.555,-81.055,-85.449,1155.207,300
817,1686715075.312,-61.035,-607.422,-74.707,-99.609,1155.208,300
818,1686715075.315,-82.031,-770.02,37.109,-112.793,1155.211,300
819,1686715075.316,-71.289,-819.336,55.176,-85.449,1155.212,300
820,1686715075.319,-40.039,-509.277,145.02,-10.254,1155.215,300
821,1686715075.323,-5.859,-628.418,15.137,42.48,1155.219,301
822,1686715075.327,-35.156,-943.359,-49.316,-40.039,1155.223,301
823,1686715075.33,-68.848,-879.395,126.465,-104.492,1155.226,301
824,1686715075.334,-53.223,-504.883,175.781,-42.48,1155.23,301
825,1686715075.338,-4.883,-587.891,15.625,36.133,1155.234,304
826,1686715075.342,-13.672,-944.824,-166.992,-2.441,1155.238,304
827,1686715075.346,-66.406,-1000.0,-88.379,-83.496,1155.242,304
828,1686715075.348,-62.012,-774.902,271.973,-54.199,1155.257,308
829,1686715075.352,-8.301,-441.895,169.434,34.18,1155.261,308
830,1686715075.356,2.441,-730.957,-78.613,11.719,1155.265,308
831,1686715075.36,-34.668,-686.035,68.359,-89.355,1155.269,311
832,1686715075.364,-50.293,-476.074,160.156,-89.844,1155.273,311
833,1686715075.368,-14.648,-739.258,-2.93,11.23,1155.277,311
834,1686715075.372,7.812,-957.52,-97.656,30.273,1155.281,311
835,1686715075.375,-29.785,-777.344,85.938,-67.871,1155.285,311
836,1686715075.379,-65.43,-799.805,92.773,-120.117,1155.289,315
837,1686715075.383,-34.18,-886.719,68.848,-21.484,1155.293,315
838,1686715075.387,6.348,-782.715,127.441,44.434,1155.296,315
839,1686715075.391,-7.324,-566.406,114.258,-35.645,1155.3,318
840,1686715075.396,-44.434,-532.715,51.27,-99.609,1155.293,318
841,1686715075.4,-39.551,-709.961,24.902,-34.668,1155.297,318
842,1686715075.404,4.883,-717.285,78.613,62.988,1155.301,320
843,1686715075.408,3.906,-438.965,126.953,15.137,1155.305,320
844,1686715075.412,-46.875,-508.789,5.371,-82.031,1155.309,320
845,1686715075.416,-49.316,-922.363,-36.133,-46.387,1155.312,320
846,1686715075.42,-9.766,-871.582,138.184,41.016,1155.316,321
847,1686715075.423,4.395,-428.223,156.738,23.438,1155.32,321
848,1686715075.427,-28.809,-448.242,20.996,-71.289,1155.324,321
849,1686715075.431,-52.734,-833.008,-97.168,-82.031,1155.328,323
850,1686715075.435,-21.973,-952.148,87.402,9.277,1155.332,323
851,1686715075.439,16.113,-756.348,161.133,51.27,1155.336,323
852,1686715075.44,-15.137,-641.113,53.223,-38.574,1155.348,323
853,1686715075.444,-58.105,-873.535,-110.352,-98.145,1155.352,326
854,1686715075.448,-22.461,-699.707,80.566,-7.812,1155.356,326
855,1686715075.452,19.531,-362.793,190.43,57.129,1155.36,326
856,1686715075.456,-6.348,-502.93,0.0,-12.207,1155.364,326
857,1686715075.46,-58.105,-930.176,-202.637,-85.449,1155.367,327
858,1686715075.464,-52.734,-1000.0,-12.207,-29.785,1155.371,327
859,1686715075.467,0.0,-500.0,247.07,57.129,1155.375,327
860,1686715075.471,2.93,-426.27,69.824,11.719,1155.379,330
861,1686715075.475,-41.016,-785.156,29.297,-89.355,1155.383,330
862,1686715075.479,-47.852,-606.934,145.996,-75.684,1155.387,330
863,1686715075.483,4.883,-305.176,153.32,34.668,1155.391,330
864,1686715075.498,16.113,-475.586,-1.953,31.738,1155.395,334
865,1686715075.502,-39.062,-936.523,-51.758,-75.195,1155.399,336
866,1686715075.506,-61.523,-791.992,125.488,-87.402,1155.403,336
867,1686715075.51,-14.648,-440.43,155.273,16.602,1155.406,336
868,1686715075.514,16.113,-592.285,-34.668,52.246,1155.41,338
869,1686715075.518,-21.484,-968.75,-15.625,-41.016,1155.414,338
870,1686715075.522,-53.223,-987.305,166.016,-84.473,1155.418,338
871,1686715075.525,-36.621,-627.441,174.805,-7.812,1155.422,338
872,1686715075.529,4.883,-631.836,1.953,52.734,1155.426,347
873,1686715075.533,-7.812,-924.805,19.531,-14.16,1155.43,347
874,1686715075.537,-54.199,-939.941,63.477,-94.238,1155.434,347
875,1686715075.541,-50.293,-667.969,90.332,-45.898,1155.438,352
876,1686715075.543,-6.348,-792.48,-18.555,40.527,1155.439,352
877,1686715075.547,-2.93,-763.184,87.402,2.441,1155.443,352
878,1686715075.551,-46.875,-491.211,154.297,-103.027,1155.447,352
879,1686715075.555,-59.57,-660.645,13.184,-76.66,1155.45,364
880,1686715075.559,-18.555,-828.125,68.848,23.438,1155.454,364
881,1686715075.563,-3.906,-855.469,24.414,11.719,1155.458,364
882,1686715075.567,-42.969,-848.145,7.812,-85.449,1155.462,364
883,1686715075.57,-69.824,-729.492,50.293,-99.121,1155.466,377
884,1686715075.574,-47.852,-933.105,-70.801,1.953,1155.47,377
885,1686715075.578,-13.672,-717.773,160.156,36.133,1155.474,377
886,1686715075.582,-32.715,-418.457,149.414,-53.223,1155.478,398
887,1686715075.586,-67.383,-678.711,-53.223,-117.676,1155.482,398
888,1686715075.588,-52.246,-727.051,53.711,-51.758,1155.484,398
889,1686715075.592,-20.02,-398.926,170.898,22.949,1155.488,398
890,1686715075.596,-30.273,-380.859,57.129,-30.273,1155.492,421
891,1686715075.6,-75.195,-710.938,-60.059,-111.328,1155.496,421
892,1686715075.604,-59.082,-725.586,108.398,-61.523,1155.5,421
893,1686715075.608,-18.066,-720.703,41.992,27.832,1155.504,421
894,1686715075.612,-30.273,-907.715,-38.086,-10.742,1155.508,444
895,1686715075.615,-66.895,-990.723,-61.035,-104.98,1155.512,444
896,1686715075.619,-86.426,-971.191,-54.688,-103.027,1155.516,444
897,1686715075.623,-48.34,-651.855,171.875,-13.184,1155.519,464
898,1686715075.627,-26.367,-715.332,58.105,7.324,1155.523,464
899,1686715075.631,-69.824,-987.793,-129.395,-93.75,1155.527,464
900,1686715075.633,-98.145,-859.863,82.52,-138.672,1155.529,464
901,1686715075.637,-69.336,-426.27,222.656,-61.035,1155.533,480
902,1686715075.641,-29.785,-299.316,52.734,-7.812,1155.537,480
903,1686715075.645,-50.781,-779.785,-111.816,-71.289,1155.541,480
904,1686715075.649,-92.773,-809.57,28.32,-135.742,1155.545,480
905,1686715075.653,-75.195,-706.543,99.121,-54.688,1155.549,490
906,1686715075.657,-16.113,-811.523,27.344,43.945,1155.553,490
907,1686715075.66,-18.555,-918.457,-85.938,-9.766,1155.556,490
908,1686715075.664,-60.059,-774.414,80.078,-109.375,1155.56,494
909,1686715075.668,-53.223,-733.398,144.531,-73.242,1155.564,494
910,1686715075.672,-10.742,-802.734,47.852,28.32,1155.568,494
911,1686715075.676,-15.625,-747.559,111.816,4.395,1155.572,494
912,1686715075.679,-56.641,-564.941,137.207,-100.586,1155.576,494
913,1686715075.683,-68.848,-518.555,37.109,-113.77,1155.58,492
914,1686715075.687,-41.016,-625.977,17.09,-17.09,1155.584,492
915,1686715075.691,-6.836,-585.938,105.957,12.695,1155.588,492
916,1686715075.695,-30.762,-501.465,59.082,-75.684,1155.592,486
917,1686715075.699,-73.242,-825.684,-48.828,-113.281,1155.595,486
918,1686715075.703,-46.875,-1000.0,10.254,-24.414,1155.599,486
919,1686715075.706,-10.254,-828.613,100.098,35.156,1155.603,475
920,1686715075.71,-24.414,-454.102,171.387,-39.551,1155.607,475
921,1686715075.714,-60.547,-585.449,-10.254,-116.211,1155.611,475
922,1686715075.718,-57.617,-965.332,-88.867,-59.082,1155.615,475
923,1686715075.722,-4.395,-838.379,170.41,40.039,1155.619,463
924,1686715075.725,2.441,-640.625,183.105,8.301,1155.622,463
925,1686715075.729,-55.664,-591.309,22.461,-100.098,1155.626,463
926,1686715075.733,-60.059,-871.582,-127.441,-85.938,1155.63,463
927,1686715075.737,-2.93,-585.449,103.516,25.879,1155.634,453
928,1686715075.741,9.766,-309.082,145.508,25.879,1155.638,453
929,1686715075.745,-38.574,-739.258,-87.891,-80.078,1155.641,453
930,1686715075.749,-58.105,-1000.0,-145.508,-85.938,1155.645,438
931,1686715075.752,-13.672,-771.484,144.043,13.672,1155.649,438
932,1686715075.756,21.973,-351.562,182.617,41.016,1155.653,438
933,1686715075.76,-9.766,-551.27,-57.129,-48.34,1155.657,438
934,1686715075.764,-48.34,-825.195,27.832,-110.84,1155.661,429
935,1686715075.768,-17.09,-530.273,176.758,-31.738,1155.665,429
936,1686715075.784,29.785,-291.016,118.652,45.41,1155.68,420
937,1686715075.788,5.371,-605.469,-87.891,-19.531,1155.684,409
938,1686715075.792,-53.223,-973.633,-49.805,-104.492,1155.687,409
939,1686715075.796,-50.781,-674.805,159.668,-60.059,1155.691,409
940,1686715075.8,6.348,-361.816,149.902,37.109,1155.695,409
941,1686715075.804,11.23,-706.055,-91.797,9.766,1155.699,398
942,1686715075.808,-35.156,-1000.0,-138.184,-81.055,1155.703,398
943,1686715075.811,-32.715,-655.273,161.621,-72.754,1155.707,398
944,1686715075.815,8.301,-313.965,180.176,24.902,1155.711,398
945,1686715075.819,17.578,-633.301,-66.895,38.574,1155.715,389
946,1686715075.823,-20.508,-1000.0,-102.051,-57.129,1155.719,389
947,1686715075.827,-52.734,-702.148,117.676,-89.844,1155.723,389
948,1686715075.828,-18.066,-408.203,137.207,6.348,1155.724,389
949,1686715075.832,20.02,-776.367,-109.375,63.477,1155.728,380
950,1686715075.836,-11.719,-766.113,58.105,-28.32,1155.732,380
951,1686715075.84,-49.316,-488.281,187.5,-103.516,1155.736,380
952,1686715075.844,-33.203,-603.516,49.805,-33.691,1155.74,372
953,1686715075.848,3.906,-858.398,26.367,46.875,1155.743,372
954,1686715075.852,-8.789,-979.004,36.133,-5.371,1155.747,372
955,1686715075.855,-56.152,-826.66,92.773,-99.121,1155.751,372
956,1686715075.859,-50.781,-676.758,81.055,-58.105,1155.755,366
957,1686715075.863,0.977,-929.688,-105.957,57.617,1155.759,366
958,1686715075.867,9.277,-726.074,132.324,36.621,1155.763,366
959,1686715075.871,-31.738,-475.586,170.41,-72.266,1155.767,366
960,1686715075.873,-43.457,-683.594,-23.438,-62.5,1155.769,358
961,1686715075.877,-1.953,-670.898,71.289,41.992,1155.773,358
962,1686715075.881,19.043,-413.574,156.25,63.477,1155.777,358
963,1686715075.885,-16.113,-451.172,7.324,-39.551,1155.781,352
964,1686715075.889,-46.387,-748.535,-77.637,-83.008,1155.785,352
965,1686715075.893,-20.996,-955.566,61.523,11.23,1155.789,352
966,1686715075.897,19.043,-819.336,146.484,67.871,1155.792,352
967,1686715075.9,-5.859,-788.086,13.672,-11.719,1155.796,344
968,1686715075.904,-52.246,-972.656,-114.258,-82.031,1155.8,344
969,1686715075.908,-44.434,-1000.0,-8.301,-12.695,1155.804,344
970,1686715075.912,6.836,-835.938,209.473,64.941,1155.808,344
971,1686715075.916,11.719,-523.926,87.891,12.207,1155.812,342
972,1686715075.918,-45.41,-858.398,-154.785,-79.102,1155.814,342
973,1686715075.922,-44.922,-796.875,119.141,-48.34,1155.818,342
974,1686715075.926,7.812,-339.844,200.195,51.758,1155.822,338
975,1686715075.93,23.926,-412.598,-8.789,40.039,1155.826,338
976,1686715075.934,-19.043,-841.797,-16.602,-47.852,1155.83,338
977,1686715075.938,-52.246,-1000.0,58.594,-54.199,1155.834,336
978,1686715075.942,-11.719,-867.676,145.02,35.156,1155.838,336
979,1686715075.945,27.832,-645.996,104.492,64.941,1155.841,336
980,1686715075.949,-10.742,-869.141,-110.84,-28.809,1155.845,336
981,1686715075.953,-42.969,-854.492,83.984,-82.031,1155.849,336
982,1686715075.957,-12.695,-682.129,187.012,-3.418,1155.853,336
983,1686715075.961,22.461,-621.582,36.133,67.871,1155.857,336
984,1686715075.963,2.93,-752.93,49.805,4.395,1155.859,336
985,1686715075.967,-42.48,-662.598,129.883,-75.684,1155.863,335
986,1686715075.971,-29.297,-571.777,72.266,-13.672,1155.867,335
987,1686715075.975,23.438,-660.156,17.09,82.031,1155.871,335
988,1686715075.979,32.227,-650.879,71.777,42.48,1155.875,337
989,1686715075.983,-7.324,-822.754,-17.09,-49.805,1155.879,337
990,1686715075.987,-20.996,-957.031,-0.488,-36.621,1155.883,337
991,1686715075.99,25.391,-914.551,95.703,66.406,1155.886,337
992,1686715075.994,43.457,-804.199,114.258,74.707,1155.89,337
993,1686715075.998,-3.906,-729.004,43.945,-29.785,1155.894,339
994,1686715076.002,-21.484,-905.273,-23.926,-50.781,1155.898,339
995,1686715076.006,15.625,-926.27,39.551,45.41,1155.902,339
996,1686715076.024,45.41,-822.754,121.582,83.008,1155.92,346
997,1686715076.028,17.578,-601.074,176.758,-11.719,1155.924,346
998,1686715076.032,-23.926,-543.457,52.734,-61.523,1155.927,346
999,1686715076.036,3.418,-847.168,-113.77,28.809,1155.931,346
1000,1686715076.04,46.387,-607.91,58.594,93.262,1155.935,348
1001,1686715076.044,23.438,-601.562,27.344,20.996,1155.939,348
1002,1686715076.048,-25.391,-946.777,-75.684,-53.223,1155.943,348
1003,1686715076.051,-24.902,-977.539,-56.152,-2.441,1155.947,349
1004,1686715076.053,32.227,-414.551,168.457,63.965,1155.95,349
1005,1686715076.055,32.715,-596.191,145.508,96.68,1155.951,349
1006,1686715076.057,54.688,-267.09,106.445,73.242,1155.953,349
1007,1686715076.059,56.641,-315.43,127.93,70.312,1155.955,349
1008,1686715076.061,20.508,-676.27,-96.191,-15.625,1155.957,349
1009,1686715076.063,6.348,-593.75,-59.082,-36.621,1155.959,349
1010,1686715076.065,-5.859,-941.406,-20.996,-34.18,1155.961,348
1011,1686715076.067,-14.16,-766.602,43.945,-34.18,1155.963,348
1012,1686715076.069,35.156,-553.711,149.414,56.152,1155.965,348
1013,1686715076.073,75.195,-591.309,-13.672,105.469,1155.969,348
1014,1686715076.077,34.668,-939.453,-93.75,20.508,1155.973,348
1015,1686715076.08,-11.23,-918.457,52.246,-44.922,1155.977,346
1016,1686715076.084,22.949,-552.246,176.27,47.363,1155.981,346
1017,1686715076.088,83.496,-407.715,70.801,136.719,1155.985,346
1018,1686715076.092,83.496,-838.867,-187.5,91.309,1155.989,343
1019,1686715076.096,39.551,-1000.0,-150.879,9.277,1155.993,343
1020,1686715076.098,30.762,-721.191,199.707,23.926,1156.007,343
1021,1686715076.102,78.613,-381.836,145.996,115.234,1156.011,343
1022,1686715076.106,76.66,-691.406,-114.746,98.633,1156.015,340
1023,1686715076.11,24.902,-658.691,3.418,-1.953,1156.019,340
1024,1686715076.114,25.391,-485.352,96.68,2.441,1156.023,340
1025,1686715076.118,72.754,-727.051,-30.273,99.121,1156.027,340
1026,1686715076.122,83.984,-965.82,-136.719,119.141,1156.031,336
1027,1686715076.125,43.457,-910.156,71.777,25.879,1156.035,336
1028,1686715076.129,15.625,-562.988,162.109,-10.742,1156.039,336
1029,1686715076.133,49.316,-499.023,41.016,77.148,1156.042,333
1030,1686715076.137,86.426,-809.082,38.574,126.953,1156.046,333
1031,1686715076.141,62.988,-674.316,146.973,42.969,1156.05,333
1032,1686715076.143,22.461,-486.328,96.68,-32.715,1156.053,333
1033,1686715076.147,30.762,-579.102,52.246,22.461,1156.057,331
1034,1686715076.151,82.52,-551.758,128.418,119.629,1156.061,331
1035,1686715076.155,82.52,-391.113,93.262,76.66,1156.065,331
1036,1686715076.159,28.32,-499.512,-13.184,-29.297,1156.069,331
1037,1686715076.163,13.672,-897.949,-63.965,1.465,1156.073,330
1038,1686715076.167,50.293,-796.875,95.703,104.98,1156.077,330
1039,1686715076.17,55.176,-448.73,108.398,82.52,1156.081,330
1040,1686715076.174,4.395,-745.605,-72.266,-27.832,1156.085,330
1041,1686715076.178,-12.207,-1000.0,-109.863,-24.902,1156.088,329
1042,1686715076.182,29.785,-891.113,76.172,76.66,1156.092,329
1043,1686715076.186,54.199,-441.406,204.59,90.332,1156.096,329
1044,1686715076.203,20.02,-462.891,-31.738,0.488,1156.099,330
1045,1686715076.207,-11.23,-901.367,-172.363,-41.504,1156.103,330
1046,1686715076.211,8.301,-653.809,88.379,41.992,1156.107,330
1047,1686715076.215,42.969,-312.5,180.176,97.656,1156.111,330
1048,1686715076.219,27.344,-481.445,25.879,22.949,1156.115,330
1049,1686715076.223,-14.16,-926.758,-62.988,-46.875,1156.119,330
1050,1686715076.227,-2.441,-929.199,92.285,8.301,1156.123,330
1051,1686715076.23,43.457,-471.68,173.828,91.797,1156.127,331
1052,1686715076.234,36.621,-541.992,-32.715,49.805,1156.13,331
1053,1686715076.238,-3.906,-942.383,-121.094,-40.527,1156.134,331
1054,1686715076.242,-8.301,-829.59,129.883,-22.949,1156.138,334
1055,1686715076.246,42.969,-695.801,154.297,80.566,1156.142,334
1056,1686715076.249,58.594,-694.336,-3.418,76.66,1156.146,334
1057,1686715076.253,9.277,-790.527,20.996,-23.926,1156.15,334
1058,1686715076.257,-14.648,-672.363,143.555,-41.016,1156.154,334
1059,1686715076.261,24.902,-461.914,143.555,41.016,1156.158,336
1060,1686715076.265,55.664,-566.406,-1.953,84.473,1156.162,336
1061,1686715076.269,13.672,-953.125,-7.324,2.441,1156.166,336
1062,1686715076.273,-26.367,-897.949,162.109,-57.617,1156.169,338
1063,1686715076.276,1.465,-532.715,161.133,21.484,1156.173,338
1064,1686715076.28,50.781,-672.852,-51.27,102.539,1156.177,338
1065,1686715076.284,44.434,-937.012,34.18,52.734,1156.181,341
1066,1686715076.288,-4.883,-925.293,171.387,-34.668,1156.185,341
1067,1686715076.292,4.883,-634.277,127.441,5.371,1156.189,341
1068,1686715076.294,60.547,-753.906,-56.152,102.051,1156.191,341
1069,1686715076.298,64.453,-958.984,33.691,71.289,1156.195,343
1070,1686715076.302,15.137,-699.219,190.918,-36.133,1156.199,343
1071,1686715076.306,0.977,-582.52,87.891,-27.344,1156.203,343
1072,1686715076.31,39.551,-833.496,-22.461,77.637,1156.207,343
1073,1686715076.314,56.152,-939.941,16.113,75.195,1156.211,346
1074,1686715076.318,23.438,-860.352,82.52,-10.254,1156.215,346
1075,1686715076.321,-3.418,-715.82,70.801,-25.391,1156.219,346
1076,1686715076.325,22.461,-947.266,-87.402,59.082,1156.223,346
1077,1686715076.329,46.387,-814.941,137.207,91.309,1156.226,349
1078,1686715076.333,20.996,-451.172,150.879,3.906,1156.23,349
1079,1686715076.337,-10.742,-681.641,-37.109,-51.758,1156.234,349
1080,1686715076.338,5.371,-741.699,69.336,11.23,1156.234,349
1081,1686715076.342,51.758,-393.066,140.625,87.891,1156.238,352
1082,1686715076.346,46.875,-388.672,40.527,38.086,1156.242,352
1083,1686715076.35,-6.348,-781.25,-103.027,-53.223,1156.246,352
1084,1686715076.354,-17.09,-976.562,-7.812,-21.973,1156.25,354
1085,1686715076.358,29.785,-836.914,137.207,69.336,1156.254,354
1086,1686715076.362,33.203,-798.828,63.477,41.992,1156.257,354
1087,1686715076.365,-20.508,-959.961,-91.309,-62.012,1156.261,354
1088,1686715076.369,-42.48,-974.609,-28.809,-58.105,1156.265,357
1089,1686715076.373,-4.883,-659.18,202.148,42.969,1156.269,357
1090,1686715076.377,12.695,-692.871,70.801,60.059,1156.273,357
1091,1686715076.381,-36.621,-942.871,-83.008,-42.969,1156.277,360
1092,1686715076.383,-67.871,-826.66,122.07,-85.938,1156.279,360
1093,1686715076.387,-23.926,-437.012,201.172,-7.324,1156.283,360
1094,1686715076.391,21.484,-348.145,57.617,53.711,1156.287,360
1095,1686715076.395,4.395,-703.613,-34.18,-24.414,1156.291,363
1096,1686715076.399,-41.504,-663.574,42.48,-102.539,1156.295,363
1097,1686715076.403,-40.039,-716.797,60.547,-21.973,1156.298,363
1098,1686715076.407,3.906,-873.047,62.988,67.383,1156.302,363
1099,1686715076.41,6.348,-967.285,-67.383,23.438,1156.306,365
1100,1686715076.414,-38.574,-864.258,77.148,-69.824,1156.31,365
1101,1686715076.418,-31.25,-467.285,204.59,-54.688,1156.314,365
1102,1686715076.422,20.02,-441.895,42.969,45.898,1156.318,368
1103,1686715076.426,21.973,-597.168,32.227,23.926,1156.322,368
1104,1686715076.428,-20.02,-499.023,78.125,-72.266,1156.324,368
1105,1686715076.432,-42.48,-443.359,79.59,-66.895,1156.328,368
1106,1686715076.436,2.441,-539.551,31.25,37.598,1156.332,369
1107,1686715076.44,27.344,-583.496,72.266,69.824,1156.336,369
1108,1686715076.444,-19.531,-538.574,64.941,-27.344,1156.34,369
1109,1686715076.448,-53.223,-786.621,-27.344,-83.008,1156.344,369
1110,1686715076.452,-25.391,-979.98,14.648,9.277,1156.348,370
1111,1686715076.455,15.625,-819.824,103.027,74.707,1156.351,370
1112,1686715076.459,6.836,-566.406,115.723,-7.324,1156.355,370
1113,1686715076.463,-33.691,-793.457,-20.996,-72.266,1156.359,371
1114,1686715076.467,-29.297,-1000.0,-90.82,-4.883,1156.363,371
1115,1686715076.471,13.672,-859.863,55.664,79.102,1156.367,371
1116,1686715076.473,10.742,-450.684,187.5,19.043,1156.383,371
1117,1686715076.477,-38.086,-537.598,-13.184,-68.848,1156.387,373
1118,1686715076.481,-29.297,-876.465,-61.523,-34.18,1156.391,373
1119,1686715076.485,10.254,-538.574,127.93,52.246,1156.395,373
1120,1686715076.489,7.812,-361.328,94.238,37.109,1156.398,373
1121,1686715076.493,-32.227,-829.102,-97.168,-68.359,1156.402,375
1122,1686715076.497,-61.035,-1000.0,-139.16,-90.332,1156.406,375
1123,1686715076.5,-24.414,-636.23,157.227,1.465,1156.41,375
1124,1686715076.504,18.066,-291.504,180.664,50.293,1156.414,377
1125,1686715076.508,-4.395,-529.297,-32.715,-37.109,1156.418,377
1126,1686715076.512,-47.852,-816.406,26.855,-86.914,1156.422,377
1127,1686715076.516,-20.508,-677.734,135.254,1.953,1156.426,377
1128,1686715076.519,24.902,-626.953,90.332,73.242,1156.427,378
1129,1686715076.523,1.465,-702.637,-41.992,-2.93,1156.431,378
1130,1686715076.527,-38.086,-823.73,32.227,-89.355,1156.435,378
1131,1686715076.531,-26.855,-619.141,168.945,-39.551,1156.439,378
1132,1686715076.535,25.391,-417.969,107.422,70.312,1156.443,379
1133,1686715076.539,25.879,-705.078,-47.363,42.969,1156.447,379
1134,1686715076.543,-32.715,-948.73,8.789,-71.777,1156.451,379
1135,1686715076.546,-46.387,-611.816,198.73,-59.082,1156.455,380
1136,1686715076.55,-3.906,-390.137,114.258,41.016,1156.458,380
1137,1686715076.554,17.09,-726.562,-98.145,43.457,1156.462,380
1138,1686715076.558,-28.32,-965.82,5.859,-58.105,1156.466,380
1139,1686715076.562,-52.246,-721.191,191.895,-86.914,1156.47,381
1140,1686715076.579,-12.695,-464.355,113.281,11.23,1156.476,381
1141,1686715076.583,19.531,-773.926,-111.816,54.688,1156.48,381
1142,1686715076.587,-3.906,-965.332,-39.551,-31.25,1156.484,381
1143,1686715076.591,-45.41,-700.195,178.711,-95.703,1156.488,381
1144,1686715076.595,-32.715,-552.246,90.332,-22.461,1156.492,381
1145,1686715076.599,9.766,-893.555,-165.039,67.871,1156.496,381
1146,1686715076.603,-0.977,-907.227,65.918,3.418,1156.5,381
1147,1686715076.606,-45.898,-566.406,201.172,-100.586,1156.504,381
1148,1686715076.61,-45.898,-623.047,62.5,-56.152,1156.507,381
1149,1686715076.614,-0.977,-693.848,118.652,51.27,1156.511,381
1150,1686715076.618,0.488,-448.242,138.672,30.762,1156.515,381
1151,1686715076.622,-50.781,-518.066,-2.441,-76.66,1156.519,381
1152,1686715076.623,-62.988,-745.117,39.062,-74.219,1156.519,381
1153,1686715076.627,-10.742,-700.684,151.367,28.809,1156.523,380
1154,1686715076.631,23.926,-426.27,116.699,43.457,1156.527,380
1155,1686715076.635,-11.23,-509.766,11.719,-50.781,1156.531,380
1156,1686715076.639,-44.922,-859.375,-44.922,-71.289,1156.535,380
1157,1686715076.643,-6.348,-937.988,91.797,19.043,1156.539,381
1158,1686715076.647,34.668,-856.445,115.723,71.289,1156.543,381
1159,1686715076.65,9.766,-825.195,114.258,-11.23,1156.547,381
1160,1686715076.654,-38.086,-891.113,-56.152,-79.59,1156.551,381
1161,1686715076.658,-24.902,-998.047,-19.531,4.883,1156.554,382
1162,1686715076.662,19.043,-774.414,253.906,69.336,1156.558,382
1163,1686715076.666,8.301,-506.348,104.004,0.977,1156.562,382
1164,1686715076.668,-41.992,-848.145,-141.113,-86.914,1156.564,382
1165,1686715076.672,-45.41,-852.539,111.816,-60.059,1156.568,381
1166,1686715076.676,4.395,-426.758,216.797,35.156,1156.572,381
1167,1686715076.68,13.184,-421.387,31.25,20.508,1156.576,381
1168,1686715076.684,-41.992,-828.125,-23.438,-86.426,1156.58,381
1169,1686715076.688,-67.871,-1000.0,58.105,-89.355,1156.583,381
1170,1686715076.692,-16.113,-778.809,168.457,19.043,1156.587,381
1171,1686715076.695,21.973,-616.699,55.176,48.828,1156.591,381
1172,1686715076.699,-27.344,-951.172,-151.367,-48.34,1156.595,380
1173,1686715076.703,-66.895,-896.484,123.535,-103.027,1156.599,380
1174,1686715076.707,-30.273,-415.039,223.633,-9.277,1156.603,380
1175,1686715076.711,9.277,-417.48,18.555,55.176,1156.607,380
1176,1686715076.713,-13.672,-692.871,19.531,-25.879,1156.609,380
1177,1686715076.717,-65.918,-609.863,120.605,-106.445,1156.613,380
1178,1686715076.721,-57.617,-460.938,126.465,-54.199,1156.617,380
1179,1686715076.725,-8.789,-531.25,43.457,43.457,1156.621,381
1180,1686715076.729,-7.324,-680.664,62.012,4.883,1156.624,381
1181,1686715076.733,-55.176,-847.656,38.574,-100.586,1156.628,381
1182,1686715076.737,-66.895,-948.242,74.219,-78.613,1156.632,381
1183,1686715076.74,-22.461,-906.738,103.027,33.203,1156.636,381
1184,1686715076.744,-14.16,-817.383,116.699,36.621,1156.64,381
1185,1686715076.748,-56.152,-782.715,58.594,-72.754,1156.644,381
1186,1686715076.752,-73.242,-938.477,43.945,-86.914,1156.648,381
1187,1686715076.756,-41.992,-1000.0,41.016,14.648,1156.652,380
1188,1686715076.759,-12.207,-851.562,96.68,40.039,1156.654,380
1189,1686715076.763,-34.18,-461.426,168.945,-53.223,1156.658,380
1190,1686715076.767,-64.453,-565.918,44.922,-94.727,1156.662,380
1191,1686715076.771,-35.156,-797.363,69.336,-13.184,1156.666,380
1192,1686715076.775,8.301,-501.953,103.027,51.27,1156.669,380
1193,1686715076.779,-10.254,-678.223,-35.156,-14.16,1156.673,380
1194,1686715076.783,-56.641,-1000.0,-56.641,-98.145,1156.677,380
1195,1686715076.786,-55.664,-979.492,-48.34,-54.199,1156.681,380
1196,1686715076.79,-19.043,-631.348,146.484,32.715,1156.685,380
1197,1686715076.794,-15.137,-334.473,178.711,0.977,1156.689,380
1198,1686715076.798,-51.758,-607.91,-2.93,-94.727,1156.693,380
1199,1686715076.802,-64.941,-782.227,46.875,-86.426,1156.697,380
1200,1686715076.805,-30.273,-638.672,140.625,12.695,1156.703,380
1201,1686715076.809,-7.324,-626.465,118.164,22.949,1156.707,381
1202,1686715076.813,-41.504,-735.352,-20.996,-79.59,1156.711,381
1203,1686715076.817,-71.289,-845.215,33.691,-111.328,1156.715,381
1204,1686715076.821,-31.25,-564.453,178.223,-15.625,1156.719,380
1205,1686715076.825,2.93,-641.602,79.102,29.785,1156.723,380
1206,1686715076.829,-30.273,-953.125,-70.312,-58.594,1156.727,380
1207,1686715076.832,-78.125,-951.172,36.621,-121.582,1156.731,380
1208,1686715076.836,-51.27,-541.504,220.703,-48.828,1156.735,380
1209,1686715076.84,-1.465,-430.664,61.035,24.414,1156.739,380
1210,1686715076.844,-17.09,-875.0,-101.562,-36.133,1156.743,380
1211,1686715076.848,-68.359,-811.035,88.867,-118.164,1156.746,380
1212,1686715076.848,-69.336,-478.027,185.547,-75.195,1156.757,380
1213,1686715076.852,-27.344,-385.254,79.102,19.531,1156.761,380
1214,1686715076.856,-19.043,-803.711,-110.352,5.371,1156.765,380
1215,1686715076.86,-58.105,-1000.0,-24.902,-96.68,1156.769,380
1216,1686715076.864,-76.172,-692.383,165.039,-97.168,1156.773,380
1217,1686715076.868,-28.809,-677.246,102.539,8.301,1156.777,380
1218,1686715076.872,1.465,-960.938,-145.996,37.598,1156.781,380
1219,1686715076.875,-39.062,-974.121,-11.23,-60.059,1156.785,380
1220,1686715076.879,-60.059,-575.684,220.703,-103.027,1156.789,380
1221,1686715076.883,-14.16,-466.309,114.258,-8.789,1156.793,380
1222,1686715076.887,21.484,-584.961,88.379,42.969,1156.797,380
1223,1686715076.891,-5.371,-476.074,97.168,-34.18,1156.8,381
1224,1686715076.897,-54.688,-554.688,40.527,-106.445,1156.804,381
1225,1686715076.901,-49.316,-662.598,78.125,-46.875,1156.807,381
1226,1686715076.905,0.977,-594.238,158.203,48.828,1156.811,381
1227,1686715076.909,1.953,-417.48,134.277,5.859,1156.815,381
1228,1686715076.913,-52.734,-553.223,50.781,-96.191,1156.819,381
1229,1686715076.917,-64.941,-915.527,-45.41,-69.824,1156.823,382
1230,1686715076.921,-13.184,-974.121,79.59,38.574,1156.827,382
1231,1686715076.924,-8.789,-738.77,179.688,22.461,1156.831,382
1232,1686715076.928,-51.758,-574.707,110.84,-83.496,1156.835,382
1233,1686715076.932,-56.641,-836.914,-20.996,-70.312,1156.839,381
1234,1686715076.936,-19.043,-905.762,81.543,36.621,1156.843,381
1235,1686715076.94,1.953,-483.887,217.773,37.598,1156.847,381
1236,1686715076.953,-34.18,-442.871,48.34,-60.059,1156.849,381
1237,1686715076.957,-72.266,-882.324,-131.836,-87.402,1156.853,381
1238,1686715076.961,-39.062,-745.605,125.488,-5.371,1156.857,381
1239,1686715076.965,8.789,-356.934,224.121,47.852,1156.861,381
1240,1686715076.969,-6.348,-445.312,33.203,-29.785,1156.864,381
1241,1686715076.973,-42.969,-923.828,-64.453,-90.82,1156.868,382
1242,1686715076.977,-32.715,-886.719,107.91,-25.391,1156.872,382
1243,1686715076.98,11.23,-451.172,169.922,50.781,1156.876,382
1244,1686715076.984,13.672,-655.273,-41.504,16.602,1156.88,382
1245,1686715076.988,-39.062,-988.281,-142.578,-82.52,1156.884,382
1246,1686715076.992,-49.805,-800.781,181.641,-74.707,1156.888,382
1247,1686715076.996,-6.836,-501.953,250.488,16.113,1156.892,382
1248,1686715076.998,1.465,-585.938,-6.836,4.883,1156.894,381
1249,1686715077.002,-42.48,-837.402,21.484,-92.773,1156.898,381
1250,1686715077.006,-64.941,-666.992,164.062,-100.586,1156.902,381
1251,1686715077.01,-19.531,-413.574,149.414,5.371,1156.906,381
1252,1686715077.014,7.812,-575.195,-9.277,38.086,1156.91,381
1253,1686715077.018,-34.18,-982.91,-18.066,-49.316,1156.914,381
1254,1686715077.022,-63.965,-905.762,152.344,-100.098,1156.917,381
1255,1686715077.025,-32.715,-515.625,176.758,-15.137,1156.921,381
1256,1686715077.029,-0.488,-652.832,-8.789,57.129,1156.925,382
1257,1686715077.033,-23.926,-947.754,45.898,-12.207,1156.929,382
1258,1686715077.037,-70.801,-977.539,155.273,-105.957,1156.933,382
1259,1686715077.041,-61.035,-888.184,142.09,-60.059,1156.937,382
1260,1686715077.058,-5.859,-908.203,28.32,46.387,1156.954,382
1261,1686715077.062,-0.977,-856.445,90.82,17.578,1156.958,382
1262,1686715077.066,-45.898,-526.367,178.223,-85.938,1156.962,382
1263,1686715077.07,-52.734,-541.016,85.938,-59.57,1156.965,382
1264,1686715077.074,-7.812,-721.68,97.656,40.527,1156.969,382
1265,1686715077.078,7.812,-808.105,75.684,28.32,1156.973,382
1266,1686715077.082,-29.785,-840.332,110.352,-70.312,1156.977,382
1267,1686715077.085,-48.828,-728.027,109.375,-90.332,1156.981,382
1268,1686715077.089,-26.367,-909.668,-54.199,0.977,1156.985,382
1269,1686715077.093,1.465,-603.516,129.883,26.855,1156.989,382
1270,1686715077.097,-15.625,-304.688,173.828,-62.012,1156.993,381
1271,1686715077.101,-49.805,-628.418,6.348,-104.492,1156.997,381
1272,1686715077.119,-34.18,-701.172,74.707,-29.297,1157.015,382
1273,1686715077.123,8.301,-566.406,137.695,50.781,1157.019,383
1274,1686715077.127,1.465,-662.109,96.191,-9.277,1157.023,383
1275,1686715077.131,-40.039,-787.109,-2.93,-101.074,1157.027,383
1276,1686715077.133,-59.57,-1000.0,-61.523,-96.191,1157.028,383
1277,1686715077.135,-37.109,-792.48,73.242,-52.734,1157.031,383
1278,1686715077.137,-16.602,-556.152,204.59,-1.953,1157.032,383
1279,1686715077.139,13.184,-755.859,181.641,45.898,1157.035,383
1280,1686715077.141,17.578,-285.156,138.184,47.852,1157.036,383
1281,1686715077.143,7.812,-759.766,113.281,14.648,1157.038,383
1282,1686715077.145,-9.277,-780.273,-86.914,-35.645,1157.04,383
1283,1686715077.146,-38.086,-798.828,43.457,-87.402,1157.042,383
1284,1686715077.149,-53.223,-987.793,5.371,-98.145,1157.044,383
1285,1686715077.15,-47.852,-718.75,158.691,-82.52,1157.046,382
1286,1686715077.153,-41.504,-836.426,151.855,-26.367,1157.048,382
1287,1686715077.154,-10.742,-492.188,163.574,9.277,1157.05,382
1288,1686715077.157,11.719,-793.945,95.703,55.664,1157.052,382
1289,1686715077.158,8.301,-719.727,60.059,20.996,1157.054,382
1290,1686715077.16,8.301,-831.543,69.824,-4.395,1157.056,382
1291,1686715077.162,-32.715,-960.449,-70.312,-71.777,1157.058,382
1292,1686715077.164,-43.945,-668.945,121.582,-100.586,1157.059,382
1293,1686715077.168,-57.129,-417.969,154.785,-72.266,1157.063,382
1294,1686715077.172,-16.113,-440.918,83.496,24.414,1157.067,382
1295,1686715077.176,-3.418,-704.102,82.52,18.066,1157.071,382
