timestamps,TP9,AF7,AF8,TP10,Secondary Timestamp
1686714898.453,-90.820,166.016,144.531,-146.484,978.377
1686714898.457,-73.730,-158.203,44.922,-61.035,978.381
1686714898.461,-28.320,-754.395,26.367,22.461,978.385
1686714898.465,-30.273,18.555,208.984,-53.711,978.389
1686714898.469,-86.426,348.145,116.211,-153.320,978.393
1686714898.473,-79.590,-243.652,-34.668,-81.543,978.397
1686714898.477,-26.855,-217.773,80.566,22.949,978.401
1686714898.480,-37.109,300.293,181.641,-28.320,978.404
1686714898.484,-80.078,297.363,71.777,-133.301,978.408
1686714898.488,-94.727,-465.820,-121.094,-127.930,978.412
1686714898.492,-51.270,-274.902,115.723,-23.926,978.416
1686714898.496,-13.184,459.473,240.234,3.906,978.420
1686714898.513,-58.105,248.535,58.594,-95.703,978.409
1686714898.517,-102.539,-118.652,64.941,-137.695,978.413
1686714898.521,-68.359,158.203,163.086,-37.109,978.417
1686714898.525,-15.625,369.141,162.598,35.645,978.421
1686714898.529,-32.227,-65.430,30.762,-45.410,978.425
1686714898.533,-89.844,-833.984,-97.168,-119.141,978.429
1686714898.537,-76.172,-380.371,180.664,-58.594,978.432
1686714898.540,-17.578,405.762,227.051,19.043,978.436
1686714898.544,-26.855,107.422,2.441,-30.762,978.440
1686714898.548,-88.867,-156.738,58.594,-133.301,978.444
1686714898.552,-86.914,-0.977,129.395,-100.098,978.448
1686714898.556,-36.621,53.223,148.926,10.742,978.452
1686714898.557,-26.855,-192.383,51.270,-4.883,978.453
1686714898.561,-74.219,-772.461,-16.602,-115.234,978.457
1686714898.565,-99.609,-122.070,219.238,-131.348,978.461
1686714898.569,-44.922,444.824,207.031,-13.184,978.465
1686714898.573,-10.742,119.629,3.418,21.484,978.469
1686714898.577,-54.688,-169.922,32.715,-84.473,978.473
1686714898.581,-81.543,-257.812,140.625,-118.164,978.477
1686714898.584,-52.734,-26.855,158.691,-27.344,978.480
1686714898.588,-7.812,-337.891,-23.926,47.363,978.484
1686714898.592,-39.062,-841.309,-17.578,-29.297,978.488
1686714898.596,-94.238,-70.801,209.961,-118.652,978.492
1686714898.600,-71.289,270.020,147.461,-55.664,978.496
1686714898.602,-29.297,76.660,108.398,30.273,978.498
1686714898.606,-28.320,319.824,150.879,-16.113,978.502
1686714898.610,-73.730,386.230,92.773,-130.859,978.506
1686714898.614,-94.238,164.062,53.223,-116.699,978.510
1686714898.618,-39.551,98.145,130.859,4.395,978.514
1686714898.622,-16.113,-9.277,102.539,5.371,978.518
1686714898.626,-60.059,3.418,114.746,-100.586,978.522
1686714898.629,-88.379,0.488,73.730,-120.605,978.525
1686714898.633,-48.828,-704.590,-20.996,-11.230,978.529
1686714898.637,-1.465,-312.988,163.574,29.785,978.533
1686714898.641,-30.273,270.996,164.551,-76.172,978.537
1686714898.645,-73.242,-242.188,19.043,-125.977,978.541
1686714898.647,-59.082,-824.219,13.184,-31.250,978.543
1686714898.651,-10.254,-10.254,226.074,34.180,978.547
1686714898.655,-23.438,488.770,156.738,-41.016,978.551
1686714898.659,-84.473,17.578,7.324,-132.324,978.555
1686714898.663,-77.637,86.914,113.281,-69.824,978.559
1686714898.667,-21.484,122.559,153.320,41.992,978.563
1686714898.671,-20.508,-14.160,93.750,-0.488,978.567
1686714898.674,-74.219,-407.227,-10.742,-115.723,978.570
1686714898.678,-89.844,-460.938,193.848,-111.328,978.574
1686714898.682,-34.668,376.953,278.809,0.000,978.578
1686714898.686,-15.137,461.426,85.938,11.230,978.582
1686714898.690,-62.500,-120.605,5.371,-91.797,978.586
1686714898.692,-96.191,-25.879,150.391,-120.605,978.588
1686714898.696,-53.223,469.238,223.145,-26.855,978.592
1686714898.700,-1.953,339.355,73.242,25.879,978.596
1686714898.704,-35.645,-298.828,-0.977,-64.453,978.600
1686714898.708,-86.426,-104.004,152.344,-145.508,978.604
1686714898.712,-60.547,76.172,165.039,-61.523,978.608
1686714898.716,-13.672,-126.953,87.402,39.062,978.612
1686714898.719,-36.621,-672.363,-31.738,-25.879,978.616
1686714898.723,-89.355,-264.160,153.320,-126.953,978.619
1686714898.727,-82.520,367.188,205.078,-86.426,978.623
1686714898.731,-29.297,187.012,82.520,28.809,978.627
1686714898.735,-20.020,-100.098,120.605,8.301,978.631
1686714898.754,-59.082,107.422,157.715,-108.398,978.652
1686714898.758,-72.266,328.613,127.930,-101.562,978.656
1686714898.762,-28.320,-154.297,64.941,19.043,978.659
1686714898.766,-6.348,-467.285,123.535,35.645,978.663
1686714898.770,-47.852,119.629,189.453,-75.195,978.667
1686714898.774,-93.750,60.059,72.754,-118.164,978.671
1686714898.778,-56.152,-543.457,10.254,-16.113,978.675
1686714898.781,-12.695,-432.129,217.773,41.016,978.679
1686714898.785,-47.363,304.199,214.355,-56.152,978.683
1686714898.789,-92.285,268.066,73.730,-133.301,978.687
1686714898.793,-77.637,-51.270,71.289,-66.406,978.691
1686714898.797,-25.391,223.633,146.484,24.902,978.695
1686714898.783,-23.438,464.844,143.066,-26.855,978.692
1686714898.787,-77.148,169.922,50.293,-130.371,978.696
1686714898.791,-89.844,-114.258,76.172,-99.609,978.700
1686714898.795,-31.250,235.352,165.527,8.301,978.704
1686714898.799,-14.160,296.875,110.352,-3.906,978.708
1686714898.803,-60.059,-252.930,7.812,-107.910,978.712
1686714898.807,-78.613,-563.965,89.844,-114.258,978.716
1686714898.810,-28.320,14.160,219.727,0.488,978.720
1686714898.814,7.812,464.355,169.434,31.738,978.724
1686714898.818,-34.668,37.109,-15.137,-77.637,978.727
1686714898.822,-75.195,-842.285,-81.543,-110.840,978.731
1686714898.826,-37.598,-525.391,217.773,-16.602,978.735
1686714898.857,22.461,349.609,236.328,42.480,978.753
1686714898.861,-3.906,-31.250,-9.277,-36.621,978.757
1686714898.865,-63.477,-511.230,77.148,-119.629,978.761
1686714898.869,-44.922,159.668,232.422,-56.152,978.765
1686714898.873,19.043,514.160,152.832,44.434,978.769
1686714898.877,20.508,-149.902,-33.691,9.277,978.773
1686714898.881,-42.480,-441.406,71.289,-101.074,978.777
1686714898.884,-58.594,-35.156,195.312,-80.078,978.780
1686714898.888,-6.348,237.305,147.949,41.016,978.784
1686714898.892,13.672,-280.273,-38.086,45.898,978.788
1686714898.896,-37.598,-448.730,138.184,-77.148,978.792
1686714898.900,-74.707,198.242,203.613,-115.234,978.796
1686714898.887,-27.832,214.844,114.258,0.488,978.783
1686714898.891,15.625,24.902,125.488,51.270,978.787
1686714898.895,-21.973,179.199,126.465,-52.246,978.791
1686714898.899,-64.453,272.461,134.766,-117.676,978.795
1686714898.903,-39.062,131.836,93.262,-38.574,978.799
1686714898.907,11.230,-155.273,93.262,41.016,978.803
1686714898.911,-8.301,-103.516,138.672,-33.691,978.806
1686714898.914,-62.012,152.344,126.953,-121.582,978.810
1686714898.918,-47.852,0.977,98.633,-52.734,978.814
1686714898.922,0.488,-190.430,95.703,42.969,978.818
1686714898.926,3.418,-170.898,81.543,2.441,978.822
1686714898.930,-44.922,-215.332,117.188,-104.492,978.826
1686714898.932,-62.988,-304.688,80.566,-92.285,978.841
1686714898.936,-15.137,-929.688,-8.301,35.156,978.845
1686714898.940,16.602,-617.188,239.258,38.086,978.849
1686714898.944,-23.438,210.449,213.867,-84.473,978.853
1686714898.948,-54.688,-51.270,4.395,-103.027,978.857
1686714898.952,-21.973,-222.168,77.148,-1.953,978.861
1686714898.956,19.043,89.355,186.523,50.293,978.865
1686714898.959,-12.695,297.852,108.887,-45.410,978.869
1686714898.963,-69.824,-392.578,-82.520,-112.793,978.873
1686714898.967,-33.203,-446.777,185.547,-18.555,978.876
1686714898.971,29.785,358.398,231.445,70.312,978.880
1686714898.975,11.230,89.355,-12.695,7.812,978.884
1686714898.986,-39.551,-379.395,35.156,-86.426,978.880
1686714898.990,-33.203,-51.270,172.852,-48.340,978.884
1686714898.994,18.555,433.594,184.082,50.781,978.888
1686714898.998,23.438,226.562,53.223,21.484,978.892
1686714899.002,-38.086,-472.656,3.418,-100.586,978.896
1686714899.006,-63.477,-378.418,163.574,-104.004,978.900
1686714899.010,-8.301,-21.973,197.266,23.926,978.904
1686714899.013,31.738,-88.867,78.125,61.523,978.908
1686714899.017,-14.160,-721.680,-31.250,-43.945,978.911
1686714899.021,-49.316,-292.969,166.504,-86.426,978.915
1686714899.025,-12.695,227.051,159.668,14.160,978.919
1686714899.029,20.020,-74.219,85.449,60.059,978.923
1686714899.022,-8.789,-34.180,158.691,-44.434,978.918
1686714899.026,-46.387,136.230,155.273,-121.094,978.922
1686714899.030,-22.949,245.117,150.879,-40.039,978.925
1686714899.034,24.902,-157.227,-5.371,67.871,978.929
1686714899.038,18.555,-710.938,5.859,12.695,978.933
1686714899.042,-29.785,-420.410,171.387,-95.215,978.937
1686714899.046,-37.109,-168.945,107.910,-57.129,978.941
1686714899.049,8.789,-496.094,34.668,52.734,978.945
1686714899.053,17.578,-456.543,199.707,32.715,978.949
1686714899.057,-23.926,207.520,200.684,-81.543,978.953
1686714899.061,-43.945,176.270,97.168,-81.543,978.957
1686714899.065,-0.488,-33.203,106.445,39.551,978.961
1686714899.067,29.785,207.520,133.301,71.289,978.963
1686714899.071,-9.277,348.145,136.719,-37.598,978.967
1686714899.075,-45.410,80.078,77.637,-91.309,978.970
1686714899.079,-14.648,-85.938,113.281,5.371,978.974
1686714899.083,43.945,190.918,145.996,86.426,978.978
1686714899.087,36.133,23.438,68.359,17.090,978.982
1686714899.091,-16.602,-399.414,23.926,-74.707,978.986
1686714899.094,-20.996,-877.930,-8.301,-11.719,978.990
1686714899.098,30.273,-329.102,238.770,78.613,978.994
1686714899.102,41.016,384.766,193.359,22.461,978.998
1686714899.106,-16.602,-65.430,8.301,-77.637,979.002
1686714899.110,-29.297,-355.469,115.723,-55.176,979.006
1686714899.112,42.969,165.527,218.262,70.312,979.008
1686714899.116,75.684,416.016,127.441,90.332,979.011
1686714899.120,0.488,-130.859,-8.301,-40.039,979.015
1686714899.124,-49.316,-332.031,153.320,-66.895,979.019
1686714899.128,4.883,145.508,212.891,58.105,979.023
1686714899.132,41.016,41.504,81.543,94.727,979.027
1686714899.136,4.395,-549.805,-29.785,-1.953,979.031
1686714899.139,-34.668,-681.641,96.191,-48.340,979.035
1686714899.143,-15.137,-157.227,213.867,24.902,979.039
1686714899.147,34.180,129.395,131.348,101.562,979.043
1686714899.151,25.879,-361.328,-72.754,39.551,979.047
1686714899.155,-26.855,-295.898,58.594,-62.500,979.051
1686714899.157,-22.461,172.852,196.289,-10.254,979.067
1686714899.161,40.039,144.043,106.445,104.492,979.070
1686714899.165,53.711,-58.594,102.051,69.336,979.074
1686714899.169,-1.465,23.438,133.789,-41.504,979.078
1686714899.173,-14.648,149.414,157.227,-21.973,979.082
1686714899.177,41.504,-189.453,89.355,107.422,979.086
1686714899.181,63.477,-808.594,-22.949,116.211,979.090
1686714899.184,26.367,-341.309,150.391,-3.418,979.094
1686714899.188,-4.883,180.664,180.176,-20.508,979.098
1686714899.192,24.902,51.270,112.793,81.055,979.102
1686714899.196,64.941,-54.688,129.395,131.348,979.106
1686714899.200,33.691,-204.102,96.680,37.109,979.110
1686714899.203,-16.602,-231.445,137.695,-39.062,979.111
1686714899.207,-0.977,-353.027,92.773,33.203,979.115
1686714899.211,41.016,-774.414,43.457,109.375,979.119
1686714899.215,37.598,-146.973,201.172,38.086,979.123
1686714899.219,-13.184,286.621,131.348,-57.129,979.127
1686714899.223,-17.578,-344.238,10.742,-1.465,979.131
1686714899.227,36.133,-322.754,146.484,116.211,979.134
1686714899.230,57.617,324.219,201.660,91.309,979.138
1686714899.234,17.090,233.887,91.797,-24.414,979.142
1686714899.238,-12.695,-399.902,-69.824,-22.461,979.146
1686714899.242,29.785,-146.973,119.629,91.309,979.150
1686714899.246,61.035,410.645,194.336,114.258,979.154
1686714899.262,23.438,143.555,32.227,9.277,979.158
1686714899.266,-13.672,-368.164,31.250,-35.645,979.161
1686714899.270,15.625,-86.426,159.668,46.875,979.165
1686714899.274,65.918,411.621,184.570,110.352,979.169
1686714899.278,39.551,142.090,22.949,28.809,979.173
1686714899.282,-19.043,-784.180,-143.066,-40.527,979.177
1686714899.286,9.766,-512.207,145.020,33.203,979.181
1686714899.289,66.406,310.059,208.496,113.770,979.185
1686714899.293,43.457,11.719,-32.227,55.664,979.189
1686714899.297,-15.137,-467.285,34.180,-50.781,979.193
1686714899.301,-12.207,-234.863,161.133,-17.578,979.197
1686714899.305,46.387,-111.816,117.676,109.375,979.201
1686714899.307,58.594,-228.516,96.191,99.121,979.202
1686714899.311,5.859,-228.516,167.969,-26.855,979.206
1686714899.315,-16.602,61.035,165.039,-35.156,979.210
1686714899.319,29.785,215.820,135.254,75.684,979.214
1686714899.323,57.129,-259.277,2.930,100.098,979.218
1686714899.327,12.207,-811.035,15.137,-15.137,979.222
1686714899.331,-24.414,-420.410,194.336,-64.941,979.226
1686714899.334,15.137,155.762,157.227,41.504,979.230
1686714899.338,55.176,-359.863,-26.367,115.234,979.234
1686714899.342,31.250,-541.992,138.672,32.715,979.237
1686714899.346,-10.254,97.656,203.613,-49.805,979.241
1686714899.350,2.930,122.070,87.402,13.672,979.245
1686714899.353,48.828,-96.680,96.680,106.934,979.248
1686714899.357,53.711,93.750,137.695,69.336,979.252
1686714899.361,0.000,206.543,103.027,-39.551,979.256
1686714899.365,-20.508,24.902,74.219,-25.391,979.260
1686714899.369,31.250,-68.359,105.957,87.402,979.263
1686714899.373,57.617,-168.457,98.145,94.727,979.267
1686714899.377,17.090,-329.590,96.191,-30.273,979.271
1686714899.380,-19.531,-444.336,72.754,-57.617,979.275
1686714899.384,13.672,-861.328,-0.977,71.289,979.279
1686714899.388,52.734,-335.449,209.473,105.469,979.283
1686714899.392,10.742,65.918,86.914,-13.184,979.287
1686714899.396,-27.344,-487.793,-41.016,-65.430,979.291
1686714899.412,6.836,-522.461,141.113,24.902,979.307
1686714899.416,57.617,212.891,214.844,94.727,979.311
1686714899.420,38.574,335.449,80.078,28.320,979.315
1686714899.424,-19.531,-173.828,-52.734,-57.129,979.319
1686714899.428,-11.230,-90.332,110.352,-2.930,979.323
1686714899.432,35.645,-10.742,142.578,94.727,979.327
1686714899.436,38.574,-168.457,87.402,53.223,979.331
1686714899.439,-8.789,-562.500,-43.945,-60.547,979.335
1686714899.443,-27.832,-683.105,62.988,-50.293,979.339
1686714899.447,36.621,-115.723,228.027,74.707,979.343
1686714899.451,62.988,-40.039,113.281,97.168,979.346
1686714899.455,11.719,-581.055,-83.496,-11.230,979.350
1686714899.442,-19.043,-366.211,104.004,-52.246,979.338
1686714899.446,14.648,239.258,203.125,49.316,979.342
1686714899.450,44.434,189.453,69.336,104.004,979.345
1686714899.454,18.066,-78.125,76.660,18.066,979.349
1686714899.458,-20.508,5.859,126.465,-50.293,979.353
1686714899.462,7.812,-62.012,92.773,33.691,979.357
1686714899.466,61.035,-254.395,83.496,120.117,979.361
1686714899.469,46.875,-227.051,102.539,45.410,979.365
1686714899.473,-3.418,20.020,132.324,-58.594,979.369
1686714899.477,-3.906,262.207,164.062,-22.461,979.373
1686714899.481,46.387,78.125,22.949,91.309,979.377
1686714899.485,50.293,-847.168,-108.887,90.332,979.381
1686714899.488,-4.395,-677.246,177.246,-38.574,979.384
1686714899.492,-25.879,120.605,204.590,-52.734,979.388
1686714899.496,23.926,-34.668,41.016,69.336,979.392
1686714899.500,51.758,-110.352,161.133,91.309,979.396
1686714899.504,4.395,114.746,149.414,-20.508,979.400
1686714899.508,-33.203,-102.539,14.648,-62.988,979.404
1686714899.512,3.418,-550.293,12.695,39.551,979.408
1686714899.515,41.992,-472.168,161.621,97.168,979.412
1686714899.519,25.391,210.449,175.781,5.859,979.415
1686714899.523,-19.531,167.969,78.613,-69.336,979.419
1686714899.527,-17.090,-147.461,84.961,0.488,979.423
1686714899.531,39.062,116.211,141.113,93.262,979.427
1686714899.533,43.945,350.586,136.230,41.504,979.441
1686714899.537,-16.602,41.504,0.977,-65.918,979.445
1686714899.541,-22.461,-394.531,31.738,-37.109,979.449
1686714899.545,37.109,-11.719,193.848,71.289,979.453
1686714899.549,55.664,316.406,132.324,58.594,979.457
1686714899.553,6.348,-218.750,-106.445,-46.387,979.461
1686714899.557,-26.367,-920.898,-111.328,-49.316,979.465
1686714899.560,21.973,-415.527,254.395,56.641,979.469
1686714899.564,61.523,290.039,196.777,93.262,979.472
1686714899.568,22.949,48.828,-9.766,-5.371,979.476
1686714899.572,-16.113,-198.730,84.473,-65.918,979.480
1686714899.576,8.789,-247.559,162.598,26.855,979.484
1686714899.580,56.152,187.012,169.922,96.680,979.486
1686714899.584,37.598,-40.527,-20.508,20.508,979.490
1686714899.588,-14.648,-627.930,42.480,-64.941,979.494
1686714899.592,5.859,-37.598,224.609,-7.812,979.498
1686714899.596,61.035,287.109,125.000,97.168,979.502
1686714899.600,56.641,-353.516,-53.223,64.941,979.506
1686714899.604,-8.789,-785.156,82.031,-50.293,979.509
1686714899.607,-18.066,-267.090,228.027,-46.387,979.513
1686714899.611,50.293,221.191,132.812,76.172,979.517
1686714899.615,60.547,-341.309,-92.773,84.961,979.521
1686714899.619,2.441,-400.391,62.012,-39.551,979.525
1686714899.623,-24.414,188.477,188.965,-60.547,979.529
1686714899.637,22.949,191.895,99.121,50.293,979.532
1686714899.641,56.641,-7.812,99.121,78.125,979.536
1686714899.645,20.020,53.223,113.770,-22.461,979.539
1686714899.649,-19.531,187.988,120.117,-79.102,979.543
1686714899.653,4.395,55.176,77.637,12.207,979.547
1686714899.657,46.387,-342.285,66.895,99.609,979.551
1686714899.661,23.438,-247.070,100.098,18.555,979.555
1686714899.664,-24.414,-129.395,27.832,-68.359,979.559
1686714899.668,-9.766,-372.559,31.738,-16.602,979.563
1686714899.672,47.363,-783.203,-27.832,93.750,979.567
1686714899.676,57.617,-339.844,119.629,70.312,979.571
1686714899.680,5.859,-187.012,74.707,-51.270,979.575
1686714899.682,-18.066,-416.992,73.242,-53.711,979.577
1686714899.686,34.668,-139.160,207.031,63.965,979.581
1686714899.690,69.824,244.629,173.828,84.961,979.585
1686714899.694,11.719,300.781,92.285,-40.527,979.588
1686714899.698,-39.062,-261.719,-50.781,-87.891,979.592
1686714899.702,3.906,-642.578,89.844,26.855,979.596
1686714899.706,49.805,-104.004,197.266,92.285,979.600
1686714899.709,12.695,241.211,56.641,-7.324,979.604
1686714899.713,-31.738,-444.336,-141.602,-69.336,979.608
1686714899.717,-12.695,-624.512,120.605,15.625,979.612
1686714899.721,34.180,16.113,246.582,95.703,979.616
1686714899.725,23.438,142.090,67.383,33.691,979.620
1686714899.727,-30.762,-443.848,-110.352,-60.547,979.622
1686714899.731,-31.738,-194.336,89.355,-26.367,979.626
1686714899.735,23.438,364.746,190.918,85.449,979.630
1686714899.739,33.203,213.867,60.059,66.406,979.634
1686714899.743,-18.066,-77.637,48.340,-55.176,979.638
1686714899.747,-29.785,-245.605,82.520,-58.105,979.642
1686714899.751,20.508,-107.910,162.109,64.941,979.645
1686714899.754,57.617,-45.898,70.312,101.074,979.649
1686714899.758,12.207,-740.234,-75.684,-4.395,979.653
1686714899.762,-28.320,-316.895,160.156,-55.664,979.657
1686714899.766,9.766,209.961,176.758,41.016,979.661
1686714899.770,48.340,-154.785,71.777,107.910,979.665
1686714899.773,22.461,-360.840,135.742,13.672,979.669
1686714899.777,-30.273,-210.938,173.828,-83.984,979.673
1686714899.781,-19.531,179.688,173.340,-18.555,979.677
1686714899.785,31.738,-106.445,-12.695,84.961,979.680
1686714899.789,11.719,-690.430,-8.301,18.066,979.684
1686714899.793,-38.086,-475.098,163.574,-79.590,979.688
1686714899.797,-27.344,-195.312,137.207,-38.574,979.692
1686714899.800,29.785,-434.082,20.996,67.383,979.696
1686714899.804,36.133,-463.867,105.957,53.223,979.700
1686714899.808,-14.160,117.676,141.113,-62.988,979.704
1686714899.812,-41.992,113.770,82.031,-82.031,979.708
1686714899.816,0.000,-89.844,76.172,36.621,979.712
1686714899.817,40.527,205.078,115.723,78.613,979.713
1686714899.821,3.906,347.168,112.793,-33.203,979.716
1686714899.825,-39.062,-13.672,-23.926,-81.543,979.720
1686714899.829,-0.488,-303.711,33.203,23.438,979.724
1686714899.833,52.246,99.121,151.367,93.750,979.728
1686714899.837,23.926,18.555,-13.672,-1.465,979.732
1686714899.841,-32.715,-425.293,-80.078,-91.309,979.736
1686714899.844,-25.879,-861.816,-41.992,-15.625,979.740
1686714899.848,31.738,-365.723,211.914,86.426,979.744
1686714899.852,39.062,352.539,187.988,41.992,979.748
1686714899.856,-21.973,-42.480,-44.434,-68.359,979.752
1686714899.860,-34.668,-358.398,19.043,-45.410,979.756
1686714899.862,26.855,130.859,196.289,66.895,979.757
1686714899.866,43.945,381.836,113.770,62.988,979.761
1686714899.870,-9.766,-191.406,-85.938,-42.480,979.765
1686714899.874,-39.062,-395.996,129.395,-73.730,979.769
1686714899.878,4.883,105.469,189.941,28.809,979.773
1686714899.882,37.598,18.066,18.555,69.336,979.777
1686714899.886,-2.930,-566.895,-114.258,-34.180,979.781
1686714899.889,-45.410,-901.367,-11.230,-88.867,979.785
1686714899.893,-19.043,-60.059,255.859,-12.695,979.789
1686714899.897,30.762,324.707,108.887,69.824,979.793
1686714899.901,19.043,-144.531,-44.922,13.672,979.797
1686714899.905,-32.227,-55.664,92.773,-81.543,979.800
1686714899.907,-25.391,240.234,163.574,-27.344,979.816
1686714899.911,31.738,211.426,88.867,83.984,979.820
1686714899.915,38.086,-62.500,66.895,54.688,979.824
1686714899.919,-22.949,-25.391,103.027,-67.871,979.828
1686714899.923,-42.480,138.184,150.391,-63.965,979.832
1686714899.927,14.648,-157.227,65.430,64.453,979.836
1686714899.931,35.156,-784.668,-77.148,82.520,979.840
1686714899.934,-9.766,-402.832,86.914,-33.691,979.843
1686714899.938,-36.621,-151.855,111.328,-70.312,979.847
1686714899.942,-2.930,-309.570,81.055,24.902,979.851
1686714899.946,26.367,-376.465,89.355,70.312,979.855
1686714899.950,-6.348,-313.965,106.934,-23.438,979.859
1686714899.952,-45.898,-3.906,120.117,-86.914,979.861
1686714899.956,-26.855,-189.453,56.641,0.488,979.865
1686714899.960,18.066,-423.340,90.332,83.984,979.869
1686714899.964,18.066,97.656,160.645,23.438,979.873
1686714899.968,-24.414,175.781,73.730,-68.359,979.877
1686714899.972,-34.668,-433.105,-66.406,-30.273,979.881
1686714899.976,7.324,-403.809,83.984,68.359,979.885
1686714899.979,18.555,247.559,203.125,45.410,979.888
1686714899.983,-29.297,175.781,30.762,-73.730,979.892
1686714899.987,-45.410,-469.727,-149.902,-76.660,979.896
1686714899.991,-0.488,-305.176,66.895,39.062,979.900
1686714899.995,24.414,57.129,151.367,66.406,979.904
1686714900.012,-8.789,-43.945,25.879,-35.156,979.907
1686714900.016,-37.109,-564.941,-77.637,-73.242,979.911
1686714900.020,6.348,-241.211,105.957,31.250,979.915
1686714900.024,51.758,316.406,178.223,90.820,979.919
1686714900.028,26.367,46.387,-14.648,1.953,979.923
1686714900.032,-26.367,-568.848,-14.160,-70.801,979.926
1686714900.036,-14.648,-486.816,157.227,-3.418,979.930
1686714900.039,36.621,164.551,180.176,83.496,979.934
1686714900.043,30.762,-15.137,-20.996,42.480,979.938
1686714900.047,-21.973,-608.887,-16.113,-52.734,979.942
1686714900.051,-29.297,-248.047,169.434,-37.598,979.946
1686714900.055,22.461,-23.926,149.902,62.500,979.950
1686714900.057,33.691,-249.023,24.902,46.875,979.953
1686714900.061,-25.391,-671.875,39.551,-69.336,979.957
1686714900.065,-46.387,-250.488,221.191,-83.008,979.961
1686714900.069,7.812,302.246,165.039,32.715,979.965
1686714900.073,32.715,-52.246,-35.645,70.801,979.969
1686714900.077,-16.602,-576.172,6.836,-36.621,979.972
1686714900.081,-54.199,-291.504,206.055,-94.727,979.976
1686714900.084,-25.879,232.422,144.043,-5.371,979.980
1686714900.088,13.672,-262.695,-101.562,67.383,979.984
1686714900.092,-0.488,-528.809,49.316,-9.766,979.988
1686714900.096,-41.992,59.570,126.953,-93.750,979.992
1686714900.100,-32.227,135.254,69.336,-37.109,979.996
1686714900.102,13.184,-11.230,86.426,62.012,979.998
1686714900.106,12.695,172.852,79.590,17.578,980.002
1686714900.110,-36.621,224.609,54.688,-90.332,980.006
1686714900.114,-54.688,-86.914,6.836,-72.266,980.010
1686714900.118,-4.395,-365.234,59.082,36.621,980.014
1686714900.122,20.020,-302.734,92.773,49.316,980.018
1686714900.126,-17.578,-141.602,98.145,-56.641,980.022
1686714900.129,-36.133,-152.344,53.711,-85.938,980.026
1686714900.133,-6.836,-772.949,-78.613,23.926,980.030
1686714900.137,28.320,-233.398,158.203,77.637,980.034
1686714900.141,12.695,164.551,43.945,-15.625,980.038
1686714900.145,-40.039,-446.777,-86.914,-78.613,980.041
1686714900.147,-28.320,-490.723,117.188,5.859,980.043
1686714900.151,31.738,111.816,193.848,91.309,980.047
1686714900.155,15.137,262.695,86.426,24.902,980.051
1686714900.159,-41.992,-185.059,-68.848,-85.938,980.055
1686714900.163,-33.691,-170.410,87.891,-57.617,980.059
1686714900.167,18.066,-39.551,135.254,56.152,980.063
1686714900.171,26.367,-106.934,93.750,28.320,980.067
1686714900.174,-34.180,-579.102,-93.262,-77.148,980.071
1686714900.178,-61.035,-901.367,-26.367,-65.430,980.074
1686714900.182,4.395,42.969,244.629,45.898,980.078
1686714900.186,33.203,343.262,74.707,65.918,980.082
1686714900.190,-10.742,-365.234,-145.508,-41.992,980.086
1686714900.192,-33.691,-158.203,66.895,-73.242,980.088
1686714900.196,4.395,357.422,190.430,33.203,980.092
1686714900.200,37.598,228.516,38.086,86.914,980.096
1686714900.204,3.418,-101.074,57.129,-8.301,980.100
1686714900.208,-40.039,-66.406,120.117,-85.938,980.104
1686714900.212,-17.578,-106.445,64.453,-2.441,980.107
1686714900.216,33.691,-255.371,49.316,98.633,980.111
1686714900.219,23.438,-729.492,-72.266,31.250,980.115
1686714900.223,-36.621,-427.246,77.637,-83.984,980.119
1686714900.227,-42.480,-42.480,141.113,-47.852,980.123
1686714900.231,19.531,-219.238,50.781,69.336,980.127
1686714900.235,32.715,-576.172,75.195,53.711,980.131
1686714900.237,-21.973,-222.168,174.805,-67.383,980.133
1686714900.241,-35.645,152.344,114.258,-64.941,980.137
1686714900.245,6.348,-81.055,50.781,48.828,980.140
1686714900.249,28.809,-90.332,165.527,64.941,980.144
1686714900.253,-11.719,145.508,113.770,-37.598,980.148
1686714900.257,-48.340,-78.125,-12.695,-70.312,980.152
1686714900.261,-22.949,-562.012,-17.578,29.297,980.156
1686714900.264,20.996,-526.367,106.934,81.055,980.160
1686714900.268,2.441,162.109,179.199,-5.371,980.164
1686714900.272,-40.039,154.785,40.527,-78.613,980.168
1686714900.276,-29.297,-132.812,3.418,-13.184,980.172
1686714900.280,9.766,10.254,97.168,79.102,980.176
1686714900.283,25.879,108.887,110.352,31.250,980.191
1686714900.287,-22.461,-0.488,36.621,-80.566,980.195
1686714900.291,-45.410,-520.996,-21.973,-60.059,980.199
1686714900.295,12.695,-78.613,156.738,56.152,980.203
1686714900.299,41.504,365.234,137.207,43.945,980.207
1686714900.303,-5.371,-197.754,-106.445,-62.500,980.211
1686714900.307,-29.297,-850.586,-120.605,-56.152,980.214
1686714900.310,21.973,-214.355,177.246,52.246,980.218
1686714900.314,55.176,365.723,147.949,75.195,980.222
1686714900.318,17.090,33.203,-53.223,-27.344,980.226
1686714900.322,-18.066,-214.844,-8.301,-66.406,980.230
1686714900.326,2.441,-250.977,122.559,24.902,980.234
1686714900.342,41.016,155.762,171.387,90.332,980.238
1686714900.346,14.160,-81.543,-44.434,12.695,980.242
1686714900.350,-41.992,-754.395,-15.625,-78.613,980.246
1686714900.354,-28.809,-196.777,219.238,-32.227,980.250
1686714900.358,31.250,411.133,149.902,80.566,980.254
1686714900.362,35.645,-224.609,-146.973,58.105,980.258
1686714900.366,-24.414,-796.875,-42.969,-60.059,980.262
1686714900.369,-29.785,-46.387,233.887,-56.641,980.266
1686714900.373,28.320,291.504,112.793,68.359,980.270
1686714900.377,45.410,-134.277,-73.242,83.496,980.273
1686714900.381,-8.301,-62.500,39.062,-41.504,980.277
1686714900.385,-41.016,144.043,127.930,-80.078,980.281
1686714900.387,1.465,93.262,79.102,23.438,980.288
1686714900.391,39.551,-87.402,63.477,71.777,980.292
1686714900.395,4.395,-7.812,88.867,-17.578,980.296
1686714900.399,-36.133,111.816,98.633,-78.125,980.300
1686714900.403,-11.719,-27.832,83.008,8.789,980.304
1686714900.407,30.762,-334.473,51.758,96.191,980.308
1686714900.411,10.742,-372.559,82.520,20.508,980.312
1686714900.414,-44.434,-135.254,145.996,-82.520,980.316
1686714900.418,-45.410,-164.551,43.457,-34.668,980.319
1686714900.422,6.348,-761.719,-86.426,79.102,980.323
1686714900.426,15.137,-387.695,118.164,41.504,980.327
1686714900.430,-23.926,-135.742,85.449,-76.172,980.331
1686714900.432,-31.738,-464.355,9.277,-64.453,980.328
1686714900.436,12.695,-471.191,121.582,56.641,980.332
1686714900.440,41.016,109.863,172.363,73.730,980.336
1686714900.444,-3.418,263.672,81.543,-37.598,980.339
1686714900.448,-42.969,-162.109,-25.879,-77.637,980.343
1686714900.452,0.977,-313.477,56.641,35.645,980.347
1686714900.456,43.945,-141.602,136.719,95.215,980.351
1686714900.459,16.113,-37.598,41.016,-0.488,980.355
1686714900.463,-33.203,-591.309,-174.805,-70.312,980.359
1686714900.467,-24.902,-830.566,9.766,-15.625,980.363
1686714900.471,33.203,156.250,224.121,55.664,980.367
1686714900.475,24.902,305.176,22.949,9.277,980.371
1686714900.477,-28.320,-203.613,8.789,-86.426,980.373
1686714900.481,-26.367,35.156,142.578,-48.340,980.377
1686714900.485,26.367,370.605,155.273,69.824,980.380
1686714900.489,34.180,247.559,30.762,60.547,980.384
1686714900.493,-26.367,-137.695,-5.859,-53.223,980.388
1686714900.497,-51.758,-254.883,82.520,-57.617,980.392
1686714900.501,3.906,-111.816,134.766,61.035,980.396
1686714900.504,27.832,-174.316,57.129,79.590,980.400
1686714900.508,-13.184,-752.930,-108.887,-30.762,980.404
1686714900.512,-45.410,-393.066,94.727,-79.590,980.408
1686714900.516,-19.043,47.363,201.172,15.137,980.412
1686714900.520,27.832,-243.652,31.738,84.473,980.416
1686714900.523,6.836,-802.246,-89.844,4.883,980.420
1686714900.527,-37.598,-276.367,145.996,-90.820,980.424
1686714900.531,-22.461,250.977,161.621,-30.273,980.428
1686714900.535,26.855,95.703,36.133,78.125,980.432
1686714900.539,13.184,135.742,70.312,35.645,980.435
1686714900.543,-39.062,-122.559,-42.480,-60.547,980.439
1686714900.547,-34.668,-210.449,24.414,-30.762,980.443
1686714900.550,6.348,-409.180,15.625,70.312,980.447
1686714900.554,18.066,-536.133,54.688,57.617,980.451
1686714900.558,-16.602,67.383,148.926,-56.641,980.455
1686714900.562,-41.992,111.328,71.777,-79.102,980.459
1686714900.566,-10.742,-40.527,73.730,24.902,980.463
1686714900.568,20.508,53.711,55.664,55.664,980.465
1686714900.572,-16.602,56.641,60.059,-54.199,980.468
1686714900.576,-65.918,-27.344,57.129,-116.211,980.472
1686714900.580,-37.598,-313.965,31.738,-23.438,980.476
1686714900.584,15.625,58.105,110.352,55.664,980.480
1686714900.588,-8.301,46.875,-12.695,-10.254,980.484
1686714900.592,-55.664,-373.047,-110.840,-88.379,980.488
1686714900.595,-38.574,-858.887,-81.055,-28.320,980.492
1686714900.599,5.859,-369.629,208.984,59.570,980.496
1686714900.603,5.859,343.750,160.156,21.973,980.500
1686714900.607,-47.363,-127.930,-103.516,-89.844,980.504
1686714900.611,-57.129,-442.383,-5.859,-85.449,980.508
1686714900.612,-0.488,88.867,170.898,26.855,980.508
1686714900.616,18.066,393.066,115.723,33.203,980.512
1686714900.620,-31.250,-156.250,-119.141,-66.406,980.516
1686714900.624,-55.664,-608.887,-15.625,-86.914,980.519
1686714900.628,-18.555,-33.691,196.777,12.695,980.523
1686714900.632,17.090,101.074,-4.395,59.082,980.527
1686714900.636,-21.973,-521.484,-178.223,-42.480,980.531
1686714900.639,-74.707,-894.043,-49.805,-110.352,980.535
1686714900.643,-29.785,-42.480,233.887,-28.320,980.539
1686714900.647,16.602,426.758,127.930,51.270,980.543
1686714900.651,-7.324,-42.480,-132.324,-6.836,980.547
1686714900.655,-46.875,-112.305,-17.090,-97.656,980.551
1686714900.657,-39.551,170.410,141.602,-53.223,980.567
1686714900.661,11.230,249.023,76.660,50.781,980.571
1686714900.665,7.812,-1.953,42.969,20.020,980.575
1686714900.669,-45.898,61.523,86.426,-88.379,980.579
1686714900.673,-62.500,177.734,79.590,-96.680,980.583
1686714900.677,-17.090,-162.598,-19.531,23.438,980.587
1686714900.681,12.695,-813.477,-139.160,53.711,980.590
1686714900.684,-24.902,-519.043,81.055,-59.570,980.594
1686714900.688,-57.129,162.109,179.199,-98.145,980.598
1686714900.692,-19.531,36.133,26.855,8.789,980.602
1686714900.696,13.672,-361.328,53.223,66.406,980.606
1686714900.700,-27.832,-292.969,70.312,-38.086,980.610
1686714900.702,-70.312,90.332,97.168,-113.281,980.612
1686714900.706,-43.457,-103.027,1.953,-29.297,980.616
1686714900.710,7.812,-587.402,9.766,63.965,980.620
1686714900.714,6.836,-1.953,177.734,6.836,980.624
1686714900.718,-38.086,238.770,48.828,-99.609,980.628
1686714900.722,-49.805,-399.414,-97.656,-66.406,980.632
1686714900.726,-0.977,-384.766,91.309,37.598,980.636
1686714900.729,8.301,139.648,129.883,8.301,980.640
1686714900.733,-39.062,-65.918,-95.703,-90.820,980.644
1686714900.737,-62.012,-665.039,-149.414,-83.008,980.647
1686714900.741,-17.578,-445.312,176.270,20.508,980.651
1686714900.745,25.391,313.965,195.312,53.223,980.655
1686714900.750,-12.207,145.508,-31.250,-41.992,980.656
1686714900.754,-53.223,-244.141,12.695,-89.355,980.660
1686714900.758,-15.625,55.176,138.184,1.953,980.664
1686714900.762,30.762,369.141,111.816,63.477,980.668
1686714900.766,14.160,119.141,-40.039,-8.789,980.672
1686714900.770,-41.504,-568.359,-54.688,-97.168,980.676
1686714900.774,-36.133,-417.969,126.465,-47.363,980.680
1686714900.777,21.484,270.996,175.781,49.316,980.684
1686714900.781,9.277,27.832,-58.594,1.953,980.688
1686714900.785,-60.547,-646.484,-61.035,-102.051,980.692
1686714900.789,-62.012,-350.586,127.930,-77.148,980.695
1686714900.793,-4.395,-95.215,90.820,41.016,980.699
1686714900.807,13.184,-276.855,54.688,34.668,980.703
1686714900.811,-36.621,-292.480,105.469,-88.379,980.707
1686714900.815,-64.453,2.441,139.648,-103.516,980.710
1686714900.819,-17.090,261.719,129.883,10.254,980.714
1686714900.823,16.113,-111.816,-103.516,53.223,980.718
1686714900.827,-22.949,-952.637,-184.082,-41.504,980.722
1686714900.831,-61.523,-500.488,185.547,-102.539,980.726
1686714900.834,-28.320,202.637,187.500,-12.207,980.730
1686714900.838,19.043,-218.750,-85.449,60.547,980.734
1686714900.842,5.371,-175.293,31.250,-16.113,980.738
1686714900.846,-43.945,217.285,115.234,-104.980,980.742
1686714900.850,-40.527,113.281,60.547,-52.734,980.746
1686714900.853,13.184,-31.738,69.336,57.617,980.749
1686714900.857,16.602,-57.617,36.133,25.391,980.753
1686714900.861,-38.086,-56.641,40.527,-76.660,980.757
1686714900.865,-51.270,-77.148,61.523,-62.500,980.761
1686714900.869,-13.672,-462.402,-1.953,47.363,980.765
1686714900.873,5.859,-369.141,62.500,61.523,980.769
1686714900.877,-31.250,-184.082,92.773,-63.965,980.773
1686714900.880,-59.082,-338.867,12.695,-100.586,980.777
1686714900.884,-21.484,-784.180,-65.918,15.625,980.781
1686714900.888,17.090,-169.434,138.184,53.711,980.785
1686714900.892,-17.090,92.285,7.324,-47.852,980.788
1686714900.896,-66.406,-526.367,-123.535,-103.027,980.792
1686714900.897,-37.598,-532.715,102.539,-19.043,980.792
1686714900.901,18.555,137.695,179.688,62.012,980.796
1686714900.905,2.930,327.148,59.082,1.465,980.800
1686714900.909,-42.480,-150.879,-78.125,-81.543,980.804
1686714900.913,-37.598,-346.191,40.527,-40.039,980.808
1686714900.917,12.695,-173.828,132.812,61.035,980.812
1686714900.921,20.996,-78.613,72.266,24.414,980.816
1686714900.924,-31.250,-512.207,-132.812,-83.496,980.820
1686714900.928,-51.758,-885.254,-39.551,-57.617,980.824
1686714900.932,12.207,22.461,245.605,58.594,980.828
1686714900.936,50.781,366.211,59.570,74.219,980.831
1686714900.940,-6.836,-114.746,-88.867,-47.852,980.835
1686714900.942,-45.410,-8.301,72.754,-86.426,980.838
1686714900.946,-4.883,276.367,146.973,10.254,980.842
1686714900.950,35.156,208.984,26.855,65.430,980.846
1686714900.954,10.254,-90.820,14.648,-16.113,980.850
1686714900.958,-40.527,-54.199,62.988,-83.008,980.854
1686714900.962,-20.996,-111.816,28.809,1.465,980.858
1686714900.966,35.645,-278.809,33.691,96.191,980.862
1686714900.969,21.973,-813.477,-90.820,33.203,980.866
1686714900.973,-20.020,-560.547,139.648,-81.055,980.870
1686714900.977,-13.184,217.773,206.543,-56.152,980.873
1686714900.981,20.508,100.098,-29.785,51.270,980.877
1686714900.985,25.879,-234.375,-2.930,50.781,980.881
1686714900.987,-17.578,39.551,113.281,-59.570,980.883
1686714900.991,-36.133,234.863,77.148,-69.336,980.887
1686714900.995,1.465,-83.984,0.488,38.574,980.890
1686714900.999,33.203,-213.379,113.770,65.430,980.894
1686714901.003,0.000,38.574,118.652,-41.504,980.898
1686714901.007,-48.340,-123.535,-27.832,-96.680,980.902
1686714901.011,-16.602,-558.105,-38.574,7.324,980.906
1686714901.014,28.809,-550.781,83.496,78.613,980.910
1686714901.018,11.230,30.273,114.258,-12.695,980.914
1686714901.022,-33.203,-125.000,-15.625,-89.844,980.918
1686714901.026,-20.020,-577.148,-92.773,-19.531,980.922
1686714901.030,31.738,-96.191,87.402,70.312,980.926
1686714901.032,21.973,367.188,143.066,18.066,980.941
1686714901.036,-29.785,-5.859,-59.082,-89.355,980.945
1686714901.040,-41.016,-271.973,16.602,-67.871,980.949
1686714901.044,9.277,121.582,161.621,48.340,980.953
1686714901.048,28.809,322.754,78.125,45.410,980.957
1686714901.052,-21.484,-231.934,-127.441,-68.359,980.961
1686714901.056,-60.547,-871.094,-169.922,-83.984,980.965
1686714901.059,-13.184,-254.883,163.086,28.320,980.969
1686714901.063,31.738,303.223,165.039,72.754,980.972
1686714901.067,-5.371,-4.395,-69.824,-19.531,980.976
1686714901.071,-41.504,-278.320,-16.602,-71.289,980.980
1686714901.075,-17.578,-350.586,88.379,4.883,980.984
1686714901.078,26.367,-146.484,114.258,70.801,980.986
1686714901.082,9.277,-300.781,-8.301,2.930,980.990
1686714901.086,-52.246,-843.750,-60.059,-79.102,980.994
1686714901.090,-41.992,-233.398,193.359,-31.250,980.998
1686714901.094,16.113,328.613,119.141,68.848,981.002
1686714901.098,11.719,-244.629,-104.492,31.738,981.006
1686714901.102,-41.992,-553.711,23.438,-89.844,981.010
1686714901.105,-48.340,13.672,173.340,-76.660,981.013
1686714901.109,0.488,265.625,96.680,38.574,981.017
1686714901.113,29.297,-293.945,-153.809,56.641,981.021
1686714901.117,-8.301,-328.613,-9.766,-45.410,981.025
1686714901.121,-42.969,112.793,152.344,-75.195,981.029
1686714901.138,-10.742,119.629,67.871,24.414,981.035
1686714901.142,23.926,-64.453,34.668,76.172,981.038
1686714901.146,-4.883,-193.848,-49.316,-15.625,981.042
1686714901.150,-48.828,-134.277,31.250,-92.773,981.046
1686714901.154,-25.391,-18.555,89.844,-2.441,981.050
1686714901.158,21.973,-716.309,-134.277,87.891,981.054
1686714901.162,4.883,-540.039,74.707,8.789,981.058
1686714901.165,-50.781,127.441,172.852,-95.215,981.062
1686714901.169,-53.223,-111.328,3.418,-55.664,981.066
1686714901.173,-0.488,-348.633,83.984,51.270,981.070
1686714901.177,7.324,-26.367,73.242,32.715,981.074
1686714901.181,-46.875,-193.848,-81.543,-91.309,981.077
1686714901.182,-62.500,-488.281,-13.672,-88.867,981.077
1686714901.186,-8.789,-456.055,103.516,32.227,981.081
1686714901.190,22.461,140.137,150.879,41.992,981.085
1686714901.194,-22.461,225.586,57.129,-62.500,981.089
1686714901.198,-61.035,-266.602,-84.473,-102.051,981.093
1686714901.202,-30.762,-342.285,47.852,-4.395,981.097
1686714901.206,12.207,-184.570,134.766,65.918,981.101
1686714901.209,-10.742,-157.715,36.621,-27.344,981.104
1686714901.213,-60.547,-604.492,-147.949,-104.980,981.108
1686714901.217,-52.734,-859.375,-28.320,-27.832,981.112
1686714901.221,0.977,89.844,212.891,58.105,981.116
1686714901.225,0.977,302.734,37.598,2.441,981.120
1686714901.257,-42.969,-214.844,-14.160,-93.750,981.153
1686714901.261,-42.480,-31.738,124.023,-57.617,981.157
1686714901.265,-7.324,292.969,139.160,38.086,981.161
1686714901.269,-5.371,169.922,7.812,17.090,981.165
1686714901.273,-41.504,-194.824,-3.906,-78.125,981.168
1686714901.277,-54.199,-367.676,42.969,-70.312,981.172
1686714901.281,-19.043,-228.516,124.512,39.551,981.176
1686714901.284,15.625,-122.070,56.152,59.082,981.180
1686714901.288,-13.672,-822.754,-155.273,-37.109,981.184
1686714901.292,-56.641,-553.223,152.344,-89.355,981.188
1686714901.296,-23.438,162.598,193.359,-3.906,981.192
1686714901.300,24.902,-215.332,-12.207,77.148,981.196
1686714901.272,-2.441,-545.410,59.570,1.465,981.168
1686714901.276,-56.152,-56.152,135.254,-91.797,981.172
1686714901.280,-41.504,213.379,99.121,-34.668,981.176
1686714901.284,10.742,59.082,20.508,62.988,981.180
1686714901.288,16.602,14.160,22.461,33.203,981.184
1686714901.292,-38.086,-167.969,-46.387,-68.359,981.188
1686714901.296,-49.805,-343.262,-30.273,-49.316,981.192
1686714901.299,3.906,-372.070,31.738,66.895,981.195
1686714901.303,20.508,-77.637,92.773,46.387,981.199
1686714901.307,-23.438,153.320,47.852,-76.172,981.203
1686714901.311,-52.734,-174.805,-41.504,-87.402,981.207
1686714901.315,-11.719,-453.125,-46.387,20.020,981.211
1686714901.317,25.879,-25.879,71.777,62.500,981.213
1686714901.321,-15.625,278.320,122.070,-37.598,981.217
1686714901.325,-64.941,33.691,-43.945,-102.051,981.221
1686714901.329,-35.156,-748.047,-180.664,-3.906,981.225
1686714901.333,20.996,-695.801,83.984,75.684,981.229
1686714901.337,6.348,-116.699,83.496,-9.277,981.233
1686714901.341,-47.852,-357.422,-119.141,-93.262,981.237
1686714901.344,-55.176,-820.801,-84.961,-38.574,981.241
1686714901.348,-7.324,-150.879,156.250,53.223,981.244
1686714901.352,3.418,429.688,138.184,16.113,981.248
1686714901.356,-50.293,-131.836,-121.094,-94.238,981.252
1686714901.360,-56.641,-408.203,-20.020,-73.242,981.256
1686714901.363,-3.906,-8.789,142.578,47.363,981.260
1686714901.367,11.719,121.094,79.590,51.270,981.264
1686714901.371,-27.344,-249.023,-85.449,-57.617,981.268
1686714901.375,-60.059,-635.254,4.395,-84.473,981.272
1686714901.379,-22.461,-40.039,193.359,21.973,981.276
1686714901.383,23.926,117.676,23.438,84.961,981.280
1686714901.387,-6.836,-491.699,-153.320,-16.113,981.284
1686714901.390,-57.129,-645.996,27.832,-94.238,981.288
1686714901.394,-34.668,105.469,221.680,-20.508,981.291
1686714901.398,9.766,367.676,79.102,60.059,981.295
1686714901.402,-1.465,-62.988,-111.816,-1.953,981.299
1686714901.406,-47.363,-32.715,0.000,-89.844,981.303
1686714901.407,-42.969,227.051,130.859,-37.598,981.317
1686714901.411,6.836,222.656,68.359,63.965,981.320
1686714901.415,2.441,-101.074,-15.625,24.902,981.324
1686714901.419,-41.992,-239.746,-20.020,-89.844,981.328
1686714901.423,-52.734,-25.879,104.492,-86.914,981.332
1686714901.427,-8.789,-106.445,24.414,31.738,981.336
1686714901.431,16.113,-829.590,-143.066,65.918,981.340
1686714901.434,-20.020,-608.887,127.930,-49.316,981.344
1686714901.438,-52.246,58.105,165.039,-87.402,981.348
1686714901.442,-25.879,98.145,79.590,8.789,981.352
1686714901.446,18.066,-14.648,95.703,62.500,981.356
1686714901.450,-6.348,-207.520,0.000,-21.484,981.360
1686714901.452,-49.805,-1.465,62.012,-104.980,981.363
1686714901.456,-27.344,-154.297,0.977,-29.297,981.367
1686714901.460,11.719,-470.215,41.504,62.988,981.371
1686714901.464,4.395,50.781,149.902,-1.953,981.375
1686714901.468,-41.992,171.875,29.785,-101.074,981.379
1686714901.472,-48.340,-382.812,-97.168,-61.035,981.383
1686714901.476,-1.953,-500.977,59.082,48.828,981.387
1686714901.479,15.137,-31.738,168.457,25.879,981.390
1686714901.483,-30.762,164.551,48.828,-92.285,981.394
1686714901.487,-56.152,-469.238,-185.059,-88.867,981.398
1686714901.491,-2.930,-572.266,73.242,27.832,981.402
1686714901.495,33.203,148.926,218.750,59.082,981.406
1686714901.512,-16.602,117.188,1.465,-40.039,981.408
1686714901.516,-60.547,-247.559,10.254,-93.750,981.412
1686714901.520,-24.414,44.922,135.254,-9.277,981.416
1686714901.524,24.902,346.680,125.000,60.547,981.420
1686714901.528,-0.977,91.797,-46.387,-21.973,981.424
1686714901.532,-47.363,-562.988,-64.941,-107.910,981.427
1686714901.536,-28.809,-381.348,127.930,-38.086,981.431
1686714901.539,20.508,312.012,167.969,66.895,981.435
1686714901.543,21.484,18.555,-62.012,27.344,981.439
1686714901.547,-35.156,-795.410,-190.430,-72.266,981.443
1686714901.551,-48.340,-466.797,131.348,-51.270,981.447
1686714901.555,12.207,-75.684,170.898,50.781,981.451
1686714901.557,36.621,-281.738,21.484,43.945,981.453
1686714901.561,-9.766,-519.531,64.453,-75.684,981.457
1686714901.565,-43.945,-62.988,162.598,-101.074,981.461
1686714901.569,-6.836,306.152,145.508,14.160,981.465
1686714901.573,44.922,73.242,-44.434,70.312,981.469
1686714901.577,-6.348,-358.887,-128.418,-29.785,981.473
1686714901.581,-72.754,-312.012,61.523,-107.910,981.476
1686714901.584,-38.574,176.758,142.578,-24.902,981.480
1686714901.588,5.859,-255.859,-78.125,61.523,981.484
1686714901.592,-26.367,-560.059,0.000,-28.320,981.488
1686714901.596,-74.219,14.160,117.188,-127.930,981.492
1686714901.600,-60.547,-134.277,1.465,-67.871,981.496
1686714901.602,-20.020,-490.723,-92.773,25.391,981.511
1686714901.606,-21.973,-72.266,46.875,-15.625,981.515
1686714901.610,-62.012,218.262,85.938,-119.629,981.519
1686714901.614,-74.707,-22.461,-7.812,-96.680,981.523
1686714901.618,-24.902,-93.750,65.918,11.230,981.527
1686714901.622,4.395,-134.766,50.781,23.926,981.531
1686714901.626,-43.457,-80.078,51.758,-90.820,981.535
1686714901.629,-72.754,-101.562,6.348,-120.605,981.539
1686714901.633,-33.691,-752.441,-114.258,-2.441,981.542
1686714901.637,3.906,-187.012,136.230,36.621,981.546
1686714901.641,-29.297,209.961,11.719,-61.035,981.550
1686714901.645,-79.102,-426.758,-138.672,-117.188,981.554
1686714901.648,-60.547,-490.723,93.750,-32.715,981.546
1686714901.652,-8.301,39.551,155.273,59.570,981.550
1686714901.656,-8.789,72.266,35.645,-0.977,981.553
1686714901.660,-53.711,-215.332,-31.738,-104.492,981.557
1686714901.664,-59.570,-261.230,86.914,-66.895,981.561
1686714901.668,-7.812,-70.801,125.000,41.016,981.565
1686714901.672,3.418,-49.805,75.195,19.043,981.569
1686714901.675,-51.270,-478.027,-112.305,-87.891,981.573
1686714901.679,-69.336,-604.004,27.832,-82.520,981.577
1686714901.683,-12.207,227.539,220.215,21.973,981.581
1686714901.687,20.996,342.285,6.348,47.363,981.585
1686714901.691,-24.902,-266.113,-182.617,-55.176,981.589
1686714901.692,-64.453,-125.488,32.227,-109.863,981.588
1686714901.696,-25.879,292.969,156.738,-14.648,981.592
1686714901.700,25.391,231.934,18.555,59.570,981.596
1686714901.704,-6.836,-140.137,-12.695,-31.738,981.600
1686714901.708,-63.477,-348.145,-29.297,-107.910,981.604
1686714901.712,-40.527,-263.184,84.473,-23.438,981.608
1686714901.716,14.648,-196.777,81.543,68.848,981.611
1686714901.719,4.883,-803.223,-127.930,10.742,981.615
1686714901.723,-42.480,-644.043,128.906,-105.469,981.619
1686714901.727,-46.875,155.762,205.078,-82.520,981.623
1686714901.731,2.441,94.727,-31.250,38.574,981.627
1686714901.735,18.555,-177.734,-27.344,32.715,981.631
1686714901.738,-25.391,102.051,92.285,-81.543,981.647
1686714901.742,-54.199,211.914,53.711,-97.168,981.651
1686714901.746,-19.043,-53.711,10.742,19.531,981.655
1686714901.750,11.230,-116.699,134.766,57.129,981.659
1686714901.754,-38.574,117.188,76.172,-58.105,981.662
1686714901.758,-82.031,-80.566,-58.105,-104.980,981.666
1686714901.762,-43.945,-544.434,-95.215,-9.277,981.670
1686714901.765,-1.465,-850.586,-34.180,49.316,981.674
1686714901.769,-21.973,-89.844,164.551,-33.691,981.678
1686714901.773,-60.547,215.820,67.383,-114.258,981.682
1686714901.777,-42.969,-147.461,-28.809,-40.039,981.686
1686714901.781,9.277,137.207,107.422,60.547,981.690
1686714901.787,8.301,401.855,87.891,18.066,981.707
1686714901.791,-42.480,134.277,-32.715,-89.844,981.710
1686714901.795,-51.758,-183.594,12.207,-73.730,981.714
1686714901.799,4.883,123.535,134.277,41.504,981.718
1686714901.803,21.973,318.848,100.586,37.598,981.722
1686714901.807,-34.668,-216.309,-132.324,-79.590,981.726
1686714901.811,-67.871,-841.797,-184.570,-93.262,981.730
1686714901.814,-26.367,-216.797,137.695,12.207,981.734
1686714901.818,17.090,402.832,143.066,58.594,981.738
1686714901.822,-13.672,-25.391,-115.234,-30.762,981.742
1686714901.826,-57.129,-765.137,-107.910,-90.332,981.746
1686714901.830,-22.949,-473.633,141.602,-6.348,981.750
1686714901.827,30.273,287.109,164.551,63.477,981.767
1686714901.831,7.324,-29.785,-105.469,-10.254,981.771
1686714901.835,-57.617,-842.773,-187.500,-102.051,981.775
1686714901.839,-51.270,-189.453,157.715,-55.664,981.779
1686714901.843,7.324,449.219,140.625,49.316,981.783
1686714901.847,14.648,-141.113,-132.324,21.484,981.787
1686714901.851,-39.062,-528.809,-11.230,-81.543,981.790
1686714901.854,-49.805,42.480,190.918,-74.707,981.794
1686714901.858,1.465,329.102,76.172,33.691,981.798
1686714901.862,20.020,-246.582,-191.406,48.340,981.802
1686714901.866,-31.250,-279.297,16.602,-61.523,981.806
1686714901.870,-68.848,99.609,144.043,-107.910,981.810
1686714901.877,-31.738,-61.523,24.414,-1.465,981.777
1686714901.881,10.254,-559.570,-123.535,68.359,981.781
1686714901.885,-12.695,-396.973,78.613,-30.762,981.784
1686714901.889,-62.988,168.457,148.438,-124.512,981.788
1686714901.893,-55.664,81.055,20.996,-56.152,981.792
1686714901.897,-8.301,-276.855,39.551,53.711,981.796
1686714901.901,-5.371,-151.855,75.195,2.930,981.800
1686714901.904,-52.246,203.613,84.473,-110.352,981.804
1686714901.908,-62.012,-67.871,-15.625,-81.543,981.808
1686714901.912,-24.414,-464.355,24.902,27.344,981.812
1686714901.916,-4.395,10.742,129.883,12.695,981.816
1686714901.920,-47.852,-112.305,-88.379,-100.098,981.820
1686714901.932,-69.824,-421.875,-37.598,-106.445,981.828
1686714901.936,-21.973,-81.543,201.660,7.812,981.832
1686714901.940,9.766,76.660,50.781,38.574,981.836
1686714901.944,-24.902,-25.391,-4.883,-62.012,981.840
1686714901.948,-64.453,-218.750,-40.527,-97.168,981.843
1686714901.952,-39.062,-946.289,-158.203,6.836,981.847
1686714901.956,-5.859,-979.980,60.547,62.500,981.851
1686714901.959,-32.715,-158.691,192.871,-30.762,981.855
1686714901.963,-68.359,-62.012,-6.836,-104.004,981.859
1686714901.967,-49.316,73.242,79.102,-34.668,981.863
1686714901.971,0.488,537.109,161.133,49.805,981.867
1686714901.975,-2.441,354.980,-41.504,-2.930,981.871
1686714901.977,-57.129,-120.117,-102.051,-104.492,981.873
1686714901.981,-65.430,77.637,84.961,-80.078,981.877
1686714901.985,-11.230,401.367,131.348,35.645,981.881
1686714901.989,-2.441,249.023,-15.137,40.527,981.885
1686714901.993,-59.082,-141.113,-45.410,-70.801,981.889
1686714901.997,-73.242,-272.461,56.152,-79.590,981.893
1686714902.001,-25.391,-101.562,123.535,44.434,981.897
1686714902.004,3.418,-97.168,27.344,75.195,981.900
1686714902.008,-35.156,-803.223,-168.945,-24.902,981.904
1686714902.012,-69.824,-570.312,125.000,-81.055,981.908
1686714902.016,-35.156,214.355,216.309,-4.883,981.912
1686714902.020,9.766,-81.543,-7.324,65.918,981.916
1686714902.022,-9.277,-482.910,55.664,-11.230,981.918
1686714902.026,-51.270,22.461,154.297,-102.539,981.922
1686714902.030,-39.551,265.625,83.496,-46.387,981.926
1686714902.034,3.418,110.352,16.113,50.781,981.930
1686714902.038,-1.953,154.297,21.484,8.789,981.934
1686714902.042,-52.734,-121.094,-89.355,-100.586,981.938
1686714902.046,-55.664,-189.941,26.367,-77.637,981.941
1686714902.049,-2.930,-369.141,9.766,48.828,981.945
1686714902.053,8.301,-842.773,-58.594,53.223,981.949
1686714902.057,-37.109,-125.000,156.738,-75.195,981.953
1686714902.061,-63.965,185.547,90.332,-92.773,981.957
1686714902.065,-27.832,-93.750,0.488,18.066,981.961
1686714902.067,13.672,185.059,91.797,49.805,981.963
1686714902.071,-11.719,359.863,52.734,-52.246,981.967
1686714902.075,-59.082,67.871,-38.086,-112.793,981.971
1686714902.079,-36.133,-109.375,46.387,-30.273,981.974
1686714902.083,20.020,173.828,103.516,50.293,981.978
1686714902.087,0.000,53.223,-47.852,-10.254,981.982
1686714902.091,-60.059,-387.207,-145.508,-103.516,981.986
1686714902.094,-56.152,-829.590,-144.043,-51.270,981.990
1686714902.098,-1.465,-206.055,143.555,46.387,981.994
1686714902.102,-0.488,371.094,91.797,15.625,981.998
1686714902.106,-46.387,-193.848,-186.523,-80.566,982.002
1686714902.110,-53.711,-664.062,-11.719,-72.266,982.006
1686714902.112,-4.883,-121.094,226.074,30.273,982.008
1686714902.116,25.391,423.828,116.211,45.898,982.012
1686714902.120,-20.996,-146.484,-145.996,-58.105,982.016
1686714902.124,-64.453,-552.246,14.648,-95.215,982.020
1686714902.128,-25.391,117.188,218.262,6.348,982.024
1686714902.132,21.973,193.359,-11.719,66.406,982.028
1686714902.136,-7.324,-440.430,-201.172,-21.973,982.032
1686714902.139,-51.270,-645.996,-3.906,-91.309,982.035
1686714902.143,-27.344,119.629,215.820,-17.578,982.039
1686714902.147,23.438,386.719,70.801,70.801,982.043
1686714902.151,7.812,-22.461,-132.324,9.766,982.047
1686714902.155,-36.133,14.160,-0.488,-85.449,982.051
1686714902.158,-38.574,171.387,99.121,-49.316,982.056
1686714902.162,-0.488,-51.758,-3.906,48.340,982.059
1686714902.166,13.184,-420.410,-117.188,38.086,982.063
1686714902.170,-27.832,-92.773,32.227,-75.195,982.067
1686714902.174,-46.875,255.859,110.840,-93.750,982.071
1686714902.178,-7.324,-141.602,-62.500,22.949,982.075
1686714902.182,13.184,-772.461,-197.754,61.523,982.079
1686714902.185,-31.250,-301.758,45.410,-43.457,982.083
1686714902.189,-63.477,217.773,118.164,-82.520,982.087
1686714902.193,-31.250,112.793,24.902,13.672,982.091
1686714902.197,7.324,-28.809,12.695,66.406,982.095
1686714902.201,-18.555,-169.434,-29.297,-23.926,982.099
1686714902.202,-59.082,78.125,62.988,-100.586,982.127
1686714902.206,-44.922,-99.121,-32.715,-37.109,982.131
1686714902.210,-4.395,-426.270,33.691,51.758,982.135
1686714902.214,-5.371,-98.633,81.543,13.184,982.139
1686714902.218,-49.316,-4.395,-15.137,-89.355,982.143
1686714902.222,-65.918,-407.715,-132.812,-74.219,982.147
1686714902.226,-21.973,-891.602,-77.148,44.434,982.151
1686714902.229,5.859,-132.324,180.664,33.203,982.155
1686714902.233,-33.691,208.008,49.805,-71.777,982.159
1686714902.237,-59.570,-203.613,-120.605,-71.289,982.162
1686714902.241,-11.719,75.195,65.918,34.180,982.166
1686714902.245,21.484,438.965,122.559,70.801,982.170
1686714902.262,-16.113,178.223,-77.148,-34.668,982.158
1686714902.266,-63.477,-258.301,-50.781,-92.285,982.162
1686714902.270,-37.598,16.602,135.254,1.465,982.166
1686714902.274,19.531,408.691,118.164,71.777,982.169
1686714902.278,-8.789,138.672,-31.738,-6.836,982.173
1686714902.282,-62.500,-511.719,-85.938,-94.727,982.177
1686714902.286,-47.363,-444.824,76.660,-53.223,982.181
1686714902.289,3.906,14.648,125.000,46.387,982.185
1686714902.293,9.277,16.113,-26.367,15.137,982.189
1686714902.297,-44.922,-310.059,-21.484,-99.121,982.193
1686714902.301,-54.688,-222.656,56.152,-74.219,982.197
1686714902.305,-0.488,-96.680,78.613,47.363,982.201
1686714902.307,7.324,-169.922,16.602,44.434,982.203
1686714902.311,-40.039,-874.512,-199.219,-59.570,982.207
1686714902.315,-54.688,-674.316,119.141,-87.402,982.211
1686714902.319,-8.301,180.176,242.188,9.277,982.215
1686714902.323,26.855,109.375,-31.738,55.176,982.219
1686714902.327,-15.625,-300.293,-82.520,-37.598,982.222
1686714902.331,-66.406,-246.094,65.430,-109.375,982.226
1686714902.334,-34.668,223.145,150.879,-28.320,982.230
1686714902.338,8.789,-256.348,-123.535,62.988,982.234
1686714902.342,-17.090,-833.008,-81.543,-0.977,982.238
1686714902.346,-51.270,-99.121,159.668,-95.703,982.242
1686714902.350,-35.645,-11.719,27.832,-43.945,982.246
1686714902.352,15.137,-170.898,45.898,65.918,982.248
1686714902.356,27.832,191.895,117.188,36.133,982.252
1686714902.360,-27.832,289.062,73.730,-81.543,982.256
1686714902.364,-55.176,78.125,22.949,-77.637,982.260
1686714902.368,-11.719,-43.945,44.434,28.809,982.264
1686714902.372,12.207,-144.043,-1.465,40.527,982.267
1686714902.376,-33.203,-117.188,26.367,-64.941,982.271
1686714902.379,-60.547,-73.242,8.789,-95.215,982.275
1686714902.383,-19.043,-724.121,-110.840,20.508,982.279
1686714902.387,23.438,-168.945,108.887,64.941,982.283
1686714902.391,-8.789,268.066,-2.441,-37.598,982.287
1686714902.395,-55.664,-362.305,-152.344,-103.027,982.291
1686714902.397,-34.668,-846.680,-90.332,-22.461,982.293
1686714902.401,16.602,-127.441,175.781,57.617,982.297
1686714902.405,1.953,368.164,89.844,-11.230,982.301
1686714902.409,-46.875,-121.094,-100.586,-110.352,982.305
1686714902.413,-48.828,-52.246,85.449,-67.871,982.309
1686714902.417,-2.441,56.641,82.031,48.340,982.312
1686714902.421,5.371,-16.113,12.207,28.320,982.316
1686714902.424,-50.781,-412.109,-131.836,-85.938,982.320
1686714902.428,-69.824,-624.512,-2.930,-87.402,982.324
1686714902.432,-9.766,207.520,223.633,23.438,982.328
1686714902.436,22.461,432.617,64.453,50.781,982.332
1686714902.440,-25.879,-62.012,-141.602,-57.617,982.336
1686714902.443,-58.594,8.301,32.715,-107.422,982.340
1686714902.447,-22.949,248.047,139.648,-2.930,982.344
1686714902.451,13.672,-45.410,-34.180,69.336,982.347
1686714902.455,-15.137,-517.578,-129.883,-20.508,982.351
1686714902.459,-65.430,-204.102,4.395,-112.305,982.355
1686714902.463,-50.781,-16.113,49.805,-48.340,982.359
1686714902.467,-0.488,-209.961,35.645,53.223,982.363
1686714902.470,-7.812,-697.266,-144.043,7.812,982.367
1686714902.474,-46.387,-340.820,48.340,-94.727,982.371
1686714902.478,-42.969,300.293,175.293,-71.777,982.375
1686714902.482,2.930,39.062,-35.156,37.598,982.379
1686714902.486,7.324,-250.488,-64.941,34.180,982.383
1686714902.488,-37.598,22.461,70.801,-82.520,982.383
1686714902.492,-60.059,226.074,98.145,-99.609,982.387
1686714902.496,-17.578,0.000,-41.016,8.301,982.391
1686714902.500,19.531,-129.883,0.488,35.156,982.395
1686714902.504,-7.812,-149.902,-26.367,-62.988,982.399
1686714902.508,-45.898,-231.934,-55.176,-106.445,982.403
1686714902.512,-42.480,-452.148,-40.039,-13.184,982.406
1686714902.515,-14.160,-850.586,-63.477,55.664,982.410
1686714902.519,-23.926,-110.840,159.668,-26.855,982.414
1686714902.523,-63.477,226.074,91.309,-110.352,982.418
1686714902.527,-59.082,-119.141,-84.961,-60.059,982.422
1686714902.531,-4.883,199.707,53.711,42.480,982.426
1686714902.532,3.418,465.332,101.074,12.695,982.442
1686714902.536,-50.781,125.000,-82.520,-97.168,982.446
1686714902.540,-68.359,-386.719,-106.445,-75.195,982.450
1686714902.544,-22.949,80.566,131.348,41.016,982.454
1686714902.548,-0.977,408.203,83.008,40.039,982.458
1686714902.552,-44.922,-181.152,-151.367,-78.125,982.461
1686714902.556,-81.055,-841.797,-222.168,-104.004,982.465
1686714902.559,-42.969,-467.773,104.980,-8.301,982.469
1686714902.563,9.277,339.355,183.594,39.551,982.473
1686714902.567,-21.484,135.254,-90.332,-51.270,982.477
1686714902.571,-73.730,-479.492,-35.156,-108.398,982.481
1686714902.575,-46.875,-327.148,150.879,-20.508,982.485
1686714902.577,6.348,247.070,144.531,55.664,982.487
1686714902.581,-14.160,33.691,-90.332,-9.277,982.491
1686714902.585,-64.941,-516.113,-48.340,-103.516,982.495
1686714902.589,-58.594,-24.414,165.039,-65.430,982.499
1686714902.593,-8.301,361.816,82.520,36.621,982.503
1686714902.597,0.977,-157.715,-122.559,22.949,982.507
1686714902.601,-47.852,-469.727,-10.742,-84.473,982.511
1686714902.604,-60.059,89.844,153.809,-81.055,982.515
1686714902.608,-18.555,351.562,78.125,40.527,982.518
1686714902.612,-2.930,-259.277,-154.785,55.176,982.522
1686714902.616,-43.457,-399.902,16.113,-69.824,982.526
1686714902.620,-72.266,182.129,156.250,-117.676,982.530
1686714902.637,-33.691,229.492,54.688,-3.906,982.533
1686714902.641,5.859,-100.098,-62.988,67.871,982.536
1686714902.645,-26.855,22.461,17.090,-24.902,982.540
1686714902.649,-72.754,231.934,90.820,-105.469,982.544
1686714902.653,-48.340,105.469,31.738,-27.344,982.548
1686714902.657,1.465,-264.648,-3.906,69.824,982.552
1686714902.661,-2.441,-232.422,50.781,10.254,982.556
1686714902.664,-46.387,167.969,103.027,-94.727,982.560
1686714902.668,-61.523,-6.348,-20.996,-54.688,982.564
1686714902.672,-17.578,-535.156,-58.594,62.988,982.568
1686714902.676,0.977,-131.836,60.059,37.598,982.572
1686714902.680,-58.105,-124.023,-55.176,-80.566,982.575
1686714902.682,-78.613,-478.516,-97.168,-84.961,982.577
1686714902.686,-32.715,-805.176,-85.449,29.297,982.581
1686714902.690,2.930,-104.492,127.441,47.363,982.585
1686714902.694,-26.367,344.238,62.012,-63.477,982.589
1686714902.698,-69.336,-160.156,-109.863,-107.422,982.593
1686714902.702,-39.551,-303.223,31.250,-14.160,982.597
1686714902.706,6.836,8.789,127.930,49.316,982.601
1686714902.709,-10.742,303.223,53.711,-28.320,982.605
1686714902.713,-67.383,-365.234,-240.723,-108.887,982.609
1686714902.717,-63.965,-618.652,-16.113,-51.758,982.613
1686714902.721,-7.812,243.164,198.730,41.504,982.616
1686714902.725,-6.348,311.035,-14.160,-4.395,982.620
1686714902.727,-62.012,-169.922,-111.816,-112.305,982.623
1686714902.731,-72.754,11.719,39.551,-94.238,982.627
1686714902.735,-17.578,254.395,104.004,22.949,982.631
1686714902.739,2.930,-47.363,-51.270,34.668,982.635
1686714902.743,-46.875,-548.340,-169.434,-75.195,982.639
1686714902.747,-65.430,-489.746,4.395,-92.285,982.642
1686714902.751,-18.555,-60.059,160.645,12.695,982.646
1686714902.754,14.648,60.059,51.270,43.945,982.650
1686714902.758,-24.902,-700.684,-185.547,-51.758,982.654
1686714902.762,-76.172,-327.148,65.918,-123.047,982.658
1686714902.766,-47.363,293.945,150.879,-34.668,982.662
1686714902.770,-0.977,-101.074,-28.320,58.594,982.666
1686714902.772,-19.043,-200.684,15.625,-18.555,982.668
1686714902.776,-63.965,112.305,90.332,-118.652,982.672
1686714902.780,-54.199,313.965,75.684,-59.570,982.676
1686714902.784,-9.277,115.234,-24.902,43.945,982.679
1686714902.788,-13.672,-160.645,-47.852,7.324,982.683
1686714902.792,-62.988,-229.980,-74.219,-94.727,982.687
1686714902.796,-71.777,-183.105,-1.465,-78.125,982.691
1686714902.799,-24.414,-382.812,-30.273,34.180,982.695
1686714902.803,-3.418,-823.242,-83.496,48.828,982.699
1686714902.807,-33.691,-125.000,132.812,-53.711,982.703
1686714902.811,-60.059,219.238,87.891,-80.078,982.707
1686714902.815,-27.344,-34.668,-41.992,11.719,982.711
1686714902.817,12.695,272.461,62.012,53.223,982.713
1686714902.821,-17.090,409.180,62.012,-42.969,982.717
1686714902.825,-61.035,60.547,-84.961,-107.422,982.720
1686714902.829,-33.203,-83.496,20.508,-12.695,982.724
1686714902.833,20.020,278.809,108.887,71.777,982.728
1686714902.837,4.395,144.531,-71.289,4.395,982.732
1686714902.841,-54.688,-321.289,-184.082,-89.355,982.736
1686714902.844,-48.340,-825.195,-166.992,-30.762,982.740
1686714902.848,14.160,-367.188,109.863,75.195,982.744
1686714902.852,10.254,395.996,153.320,20.020,982.748
1686714902.856,-48.828,25.391,-151.855,-94.727,982.752
1686714902.860,-66.895,-828.613,-221.680,-84.473,982.756
1686714902.877,-23.926,-220.215,153.320,21.484,982.773
1686714902.881,0.488,473.633,134.277,20.020,982.776
1686714902.885,-31.250,55.176,-117.188,-88.867,982.780
1686714902.889,-62.012,-12.695,31.738,-115.234,982.784
1686714902.893,-28.320,275.879,131.836,-4.395,982.788
1686714902.897,15.137,164.062,-48.340,60.059,982.792
1686714902.901,-14.648,-385.254,-183.594,-27.832,982.796
1686714902.904,-60.547,-593.262,10.742,-101.562,982.800
1686714902.908,-40.039,170.898,191.895,-35.156,982.804
1686714902.912,6.836,441.895,35.645,52.734,982.808
1686714902.916,-3.418,-152.344,-198.730,3.906,982.812
1686714902.920,-58.594,-131.836,-16.113,-107.910,982.816
1686714902.907,-54.199,302.734,174.805,-79.590,982.816
1686714902.911,4.395,289.551,43.457,38.574,982.820
1686714902.915,4.883,-133.789,-80.566,23.926,982.824
1686714902.919,-40.527,-2.441,48.828,-89.844,982.828
1686714902.923,-56.152,262.207,90.820,-99.609,982.832
1686714902.927,-22.461,-78.613,-12.207,10.254,982.835
1686714902.931,0.000,-330.078,21.973,35.156,982.839
1686714902.934,-35.156,-30.762,32.227,-68.359,982.843
1686714902.938,-69.824,180.176,50.293,-120.605,982.847
1686714902.942,-39.551,41.016,11.230,-26.855,982.851
1686714902.946,3.418,-720.215,-161.133,55.176,982.855
1686714902.950,-4.883,-564.941,46.387,-26.855,982.859
1686714902.953,-47.852,49.316,145.996,-111.816,982.861
1686714902.957,-42.480,-274.902,-40.039,-40.527,982.865
1686714902.961,0.488,-843.750,-81.543,62.500,982.869
1686714902.965,2.441,-151.855,141.602,6.836,982.873
1686714902.969,-50.781,264.648,56.152,-104.980,982.876
1686714902.973,-58.594,-361.328,-95.215,-71.777,982.880
1686714902.977,-10.254,-421.387,66.406,38.086,982.884
1686714902.980,7.812,183.594,165.039,38.086,982.888
1686714902.984,-29.785,297.363,38.086,-74.219,982.892
1686714902.988,-62.500,-321.777,-182.129,-93.750,982.896
1686714902.992,-32.715,-198.242,54.688,4.883,982.900
1686714902.996,5.859,435.059,169.922,37.598,982.904
1686714903.012,-24.414,247.559,-40.039,-60.547,982.907
1686714903.016,-61.523,-173.828,-64.453,-115.723,982.911
1686714903.020,-28.320,97.168,97.168,-18.555,982.915
1686714903.024,11.719,269.531,74.219,57.129,982.919
1686714903.028,-8.301,-147.461,-144.043,-20.996,982.923
1686714903.032,-57.129,-814.453,-246.094,-106.934,982.927
1686714903.036,-54.199,-477.051,107.422,-58.594,982.931
1686714903.039,6.836,369.629,198.730,44.434,982.935
1686714903.043,9.277,136.230,-60.547,11.719,982.939
1686714903.047,-56.152,-364.746,-21.973,-105.469,982.943
1686714903.051,-61.523,-120.117,105.469,-83.984,982.946
1686714903.055,-12.207,36.621,95.215,40.039,982.950
1686714903.057,7.812,-202.637,-3.418,50.781,982.952
1686714903.061,-39.551,-513.672,26.855,-58.105,982.956
1686714903.065,-71.289,-24.902,144.531,-94.727,982.960
1686714903.069,-24.902,368.164,96.191,7.324,982.964
1686714903.073,9.766,119.141,-11.230,60.059,982.968
1686714903.077,-18.066,-275.879,-105.469,-34.668,982.972
1686714903.081,-53.711,-351.562,-17.090,-104.004,982.976
1686714903.084,-39.551,-145.996,94.727,-31.738,982.980
1686714903.088,12.207,-353.027,-51.758,58.105,982.984
1686714903.092,2.930,-833.984,-80.566,2.441,982.988
1686714903.096,-53.223,-155.273,154.785,-111.328,982.992
1686714903.100,-47.363,240.234,95.215,-62.012,982.995
1686714903.102,6.348,16.113,7.324,55.176,982.998
1686714903.106,16.113,237.305,79.102,28.320,983.002
1686714903.110,-28.320,339.844,41.016,-86.914,983.006
1686714903.114,-51.270,120.605,-7.812,-90.820,983.009
1686714903.118,-0.488,27.832,65.430,25.879,983.013
1686714903.122,20.508,-95.703,-7.812,48.340,983.017
1686714903.126,-24.414,-47.363,25.391,-54.199,983.021
1686714903.129,-54.199,15.137,32.715,-97.168,983.025
1686714903.133,-28.809,-757.324,-138.672,2.441,983.029
1686714903.137,4.883,-339.844,97.168,56.152,983.033
1686714903.141,-25.391,251.953,46.387,-36.133,983.037
1686714903.145,-72.266,-276.855,-155.273,-106.445,983.041
1686714903.147,-57.129,-837.402,-119.141,-32.715,983.043
1686714903.151,-9.277,-128.906,159.180,52.246,983.047
1686714903.155,-18.066,442.383,105.469,-1.465,983.050
1686714903.159,-60.547,1.465,-90.332,-104.980,983.054
1686714903.163,-59.570,32.227,78.613,-83.496,983.058
1686714903.167,-8.301,93.262,89.844,34.180,983.062
1686714903.171,2.930,27.344,36.621,24.414,983.066
1686714903.174,-44.434,-366.211,-127.441,-91.309,983.070
1686714903.178,-66.406,-578.125,14.160,-97.168,983.074
1686714903.182,-21.484,231.445,237.305,8.301,983.078
1686714903.186,16.113,405.273,23.438,43.945,983.082
1686714903.190,-20.996,-185.059,-160.645,-53.223,983.086
1686714903.192,-66.406,-138.672,41.016,-111.328,983.088
1686714903.196,-35.156,342.773,173.828,-25.879,983.092
1686714903.200,9.766,347.656,24.414,46.875,983.096
1686714903.204,-21.484,-464.844,-229.980,-18.555,983.099
1686714903.208,-63.477,-391.113,1.953,-107.422,983.103
1686714903.212,-46.875,-44.434,129.883,-58.105,983.107
1686714903.216,1.465,-208.984,9.766,45.898,983.111
1686714903.219,-4.883,-700.684,-144.043,5.371,983.115
1686714903.223,-59.570,-395.020,41.992,-108.887,983.119
1686714903.227,-62.012,285.156,156.738,-86.914,983.123
1686714903.231,-18.555,121.582,4.883,31.738,983.127
1686714903.235,-15.137,-148.438,-4.883,29.785,983.131
1686714903.238,-44.434,86.426,73.730,-83.496,983.134
1686714903.242,-69.824,231.445,71.289,-103.516,983.138
1686714903.246,-30.762,-178.223,-31.250,10.254,983.142
1686714903.250,9.277,-583.496,-16.113,57.617,983.146
1686714903.254,-14.648,-14.160,124.512,-47.363,983.150
1686714903.258,-59.570,44.434,-18.066,-101.562,983.154
1686714903.262,-39.551,-487.305,-62.500,-10.742,983.158
1686714903.265,5.859,-480.957,84.473,53.223,983.162
1686714903.269,-11.719,230.957,151.855,-23.438,983.165
1686714903.273,-50.781,285.156,28.809,-104.004,983.169
1686714903.277,-46.875,-92.285,-83.008,-58.594,983.173
1686714903.281,0.000,174.805,64.941,40.039,983.177
1686714903.282,13.184,452.148,105.469,23.438,983.191
1686714903.286,-42.969,190.918,-30.762,-87.402,983.195
1686714903.290,-63.965,-150.879,-27.832,-83.984,983.199
1686714903.294,-1.953,146.484,116.699,37.598,983.203
1686714903.298,18.066,197.754,33.691,55.176,983.207
1686714903.302,-43.945,-258.789,-167.969,-66.895,983.211
1686714903.306,-65.430,-888.184,-209.961,-100.586,983.215
1686714903.309,-17.578,-520.996,182.617,2.441,983.219
1686714903.313,28.809,312.500,204.590,56.641,983.223
1686714903.317,0.488,167.969,-47.852,-36.133,983.226
1686714903.321,-55.664,-133.789,-30.273,-111.328,983.230
1686714903.325,-50.781,-154.785,71.777,-29.297,983.234
1686714903.327,0.000,227.539,135.254,56.641,983.237
1686714903.331,-3.418,-14.160,-70.312,-12.207,983.241
1686714903.335,-54.688,-559.570,-40.527,-110.840,983.245
1686714903.339,-43.457,-8.789,176.758,-66.406,983.249
1686714903.343,13.672,409.668,112.305,53.711,983.252
1686714903.347,18.066,-83.984,-126.465,38.086,983.256
1686714903.351,-35.156,-544.922,-87.402,-77.637,983.260
1686714903.354,-61.035,-260.742,121.094,-86.426,983.264
1686714903.358,-13.672,231.934,137.207,20.996,983.268
1686714903.362,20.020,-181.641,-125.488,49.316,983.272
1686714903.366,-24.902,-578.125,-60.547,-61.035,983.276
1686714903.370,-64.941,44.922,145.508,-115.723,983.280
1686714903.387,-28.320,238.281,82.520,-13.672,983.282
1686714903.391,20.020,41.992,14.160,54.688,983.286
1686714903.395,-1.465,144.531,26.367,-34.668,983.290
1686714903.399,-50.293,225.586,37.109,-118.164,983.294
1686714903.403,-39.062,105.957,40.527,-48.340,983.298
1686714903.407,-2.441,-258.789,-7.812,43.457,983.301
1686714903.411,-15.137,-299.316,16.113,-9.277,983.305
1686714903.414,-50.293,91.797,107.910,-105.469,983.309
1686714903.418,-42.480,-1.465,11.230,-66.406,983.313
1686714903.422,-6.836,-653.320,-68.848,40.527,983.317
1686714903.426,-3.418,-285.156,110.840,20.996,983.321
1686714903.430,-48.828,-36.133,29.785,-92.773,983.325
1686714903.432,-63.477,-328.125,-57.617,-102.051,983.327
1686714903.436,-23.926,-799.805,-92.773,20.020,983.331
1686714903.440,3.418,-187.012,123.047,44.922,983.335
1686714903.444,-32.715,357.910,111.816,-63.965,983.339
1686714903.448,-69.336,-47.852,-64.453,-108.398,983.343
1686714903.452,-36.133,-218.750,29.785,-13.184,983.347
1686714903.456,6.836,-37.109,109.375,52.734,983.351
1686714903.459,-13.672,242.188,53.711,-23.438,983.355
1686714903.463,-61.035,-307.129,-184.082,-108.398,983.359
1686714903.467,-51.758,-577.148,-12.695,-56.641,983.363
1686714903.471,6.348,292.969,205.566,38.574,983.366
1686714903.475,8.789,325.684,-17.578,2.441,983.370
1686714903.477,-50.293,-336.914,-216.797,-99.609,983.373
1686714903.481,-62.500,-121.582,26.855,-79.590,983.377
1686714903.485,-16.113,396.484,154.785,36.133,983.381
1686714903.489,1.465,244.629,-16.602,44.434,983.385
1686714903.493,-40.527,-260.742,-57.617,-66.406,983.389
1686714903.497,-66.406,-356.934,1.465,-100.098,983.393
1686714903.501,-24.414,-31.738,113.281,2.930,983.397
1686714903.504,21.484,133.301,41.016,55.176,983.401
1686714903.508,-16.602,-690.918,-238.281,-34.180,983.404
1686714903.512,-62.500,-415.527,24.414,-102.051,983.408
1686714903.516,-32.227,278.809,165.527,-23.926,983.412
1686714903.520,13.672,-91.309,-11.230,53.223,983.416
