timestamps,TP9,AF7,AF8,TP10,Secondary Timestamp
1686112412.406,-55.176,198.242,155.273,-65.918,2419.302
1686112412.410,-41.016,260.254,142.090,-32.227,2419.306
1686112412.414,-15.137,-95.703,-42.969,-14.648,2419.310
1686112412.418,-41.504,-131.836,-51.270,-56.641,2419.314
1686112412.422,-72.754,118.652,63.477,-72.754,2419.318
1686112412.426,-51.758,97.656,80.566,-33.203,2419.322
1686112412.429,-26.855,-404.297,-126.953,-4.883,2419.326
1686112412.433,-39.062,-649.414,-162.109,-34.668,2419.330
1686112412.437,-41.504,4.883,154.297,-63.477,2419.334
1686112412.441,-19.043,158.691,109.863,-31.738,2419.338
1686112412.445,5.859,-317.871,-45.898,-0.488,2419.341
1686112412.449,3.418,-212.402,44.434,-27.344,2419.345
1686112412.451,-41.504,287.598,151.855,-71.777,2419.361
1686112412.455,-45.898,216.309,54.199,-44.434,2419.365
1686112412.459,-6.348,87.402,105.957,11.230,2419.368
1686112412.463,-2.441,246.582,124.512,-1.953,2419.372
1686112412.467,-45.410,198.242,-6.836,-60.547,2419.376
1686112412.471,-55.664,-48.340,-93.262,-66.406,2419.380
1686112412.474,-23.926,-655.762,-270.020,-13.184,2419.384
1686112412.478,-11.230,-716.797,-123.535,-0.488,2419.388
1686112412.482,-22.461,128.906,194.824,-51.758,2419.392
1686112412.486,-40.527,55.664,25.391,-76.172,2419.396
1686112412.490,-39.551,-228.516,-6.348,-41.992,2419.400
1686112412.494,-20.508,-17.090,76.660,-13.672,2419.404
1686112412.496,-30.762,97.656,105.469,-45.410,2419.406
1686112412.500,-53.223,-153.809,-66.895,-74.707,2419.410
1686112412.504,-45.898,-482.422,-129.883,-42.969,2419.414
1686112412.508,-13.184,107.422,204.590,8.301,2419.418
1686112412.512,-7.812,396.973,134.766,-4.395,2419.422
1686112412.516,-44.434,-387.207,-247.559,-55.176,2419.426
1686112412.519,-44.434,-685.547,-189.453,-43.457,2419.430
1686112412.523,-6.836,169.922,229.492,-5.371,2419.434
1686112412.527,5.371,418.945,123.047,-4.883,2419.438
1686112412.531,-32.227,-86.426,-56.641,-49.316,2419.441
1686112412.535,-67.871,-83.984,41.016,-63.965,2419.445
1686112412.539,-42.969,351.074,160.645,-15.625,2419.449
1686112412.556,-8.301,339.355,75.195,13.672,2419.456
1686112412.560,-27.832,-7.324,-74.219,-33.203,2419.459
1686112412.564,-51.270,-275.879,-106.934,-59.570,2419.463
1686112412.568,-28.809,-4.395,67.383,-20.508,2419.467
1686112412.572,-0.488,348.633,159.668,9.277,2419.471
1686112412.576,-15.137,-425.781,-236.328,-16.602,2419.475
1686112412.579,-41.992,-973.633,-319.336,-53.711,2419.479
1686112412.583,-30.762,-250.977,147.949,-32.715,2419.483
1686112412.587,-11.719,205.566,193.359,1.953,2419.487
1686112412.591,-26.855,-416.504,-64.453,-21.973,2419.491
1686112412.595,-49.316,-383.301,37.598,-58.105,2419.495
1686112412.599,-29.297,241.699,180.176,-41.992,2419.499
1686112412.600,-3.906,87.402,65.918,-0.977,2419.498
1686112412.604,-4.395,3.418,55.664,-5.371,2419.502
1686112412.608,-31.250,184.570,111.816,-49.805,2419.506
1686112412.612,-49.805,217.773,76.172,-62.500,2419.510
1686112412.616,-22.461,-4.395,-5.371,-20.020,2419.514
1686112412.620,10.254,-258.301,-57.617,3.906,2419.518
1686112412.623,-12.695,-279.297,-71.289,-35.156,2419.522
1686112412.627,-41.504,-220.215,-82.031,-68.848,2419.525
1686112412.631,-25.879,-491.699,-180.176,-37.109,2419.529
1686112412.635,-12.695,-891.113,-224.609,-6.348,2419.533
1686112412.639,-14.648,-135.742,147.949,-39.551,2419.537
1686112412.643,-37.598,260.742,138.672,-68.848,2419.541
1686112412.646,-46.875,-8.789,97.168,-43.945,2419.542
1686112412.650,-24.902,141.113,161.621,3.906,2419.546
1686112412.654,-22.949,312.500,127.930,0.000,2419.550
1686112412.658,-47.852,160.645,0.000,-50.293,2419.554
1686112412.662,-49.805,-125.488,-109.863,-49.805,2419.558
1686112412.666,-11.230,-182.617,25.391,4.883,2419.562
1686112412.669,9.766,-156.250,40.039,8.301,2419.566
1686112412.673,-25.879,-204.102,-69.824,-52.246,2419.570
1686112412.677,-65.430,-706.055,-283.691,-72.266,2419.574
1686112412.681,-37.109,-973.145,-197.754,-26.367,2419.578
1686112412.685,-3.906,-14.160,242.188,-12.207,2419.581
1686112412.689,-20.508,177.734,110.352,-50.781,2419.585
1686112412.691,-43.457,-136.719,-26.855,-82.031,2419.588
1686112412.695,-27.832,260.254,164.551,-54.688,2419.592
1686112412.699,1.953,479.980,181.152,-5.371,2419.595
1686112412.703,-6.348,154.785,-57.617,-21.973,2419.599
1686112412.707,-44.434,-139.160,-187.012,-69.824,2419.603
1686112412.711,-50.781,-134.766,-58.105,-53.223,2419.607
1686112412.714,-25.391,0.488,84.961,-9.277,2419.611
1686112412.718,-19.531,-328.125,-116.699,-13.672,2419.615
1686112412.722,-45.898,-657.227,-184.082,-53.223,2419.619
1686112412.726,-64.453,-5.859,146.484,-58.105,2419.623
1686112412.730,-35.156,121.582,119.141,-6.836,2419.627
1686112412.734,-23.438,-318.359,-0.977,4.395,2419.631
1686112412.735,-43.457,-236.328,41.504,-40.039,2419.633
1686112412.739,-49.805,236.816,152.832,-53.223,2419.636
1686112412.743,-37.598,217.285,90.332,-25.391,2419.640
1686112412.747,-7.324,91.309,109.863,10.254,2419.644
1686112412.751,-15.625,95.215,65.918,-17.090,2419.648
1686112412.755,-36.621,-172.852,-158.203,-55.664,2419.652
1686112412.758,-14.648,-204.590,-7.812,-20.508,2419.656
1686112412.762,9.277,-635.254,-153.809,15.625,2419.660
1686112412.766,-3.418,-780.273,-148.926,-8.789,2419.664
1686112412.770,-38.086,83.008,237.793,-64.453,2419.668
1686112412.774,-30.273,128.418,100.586,-49.805,2419.672
1686112412.778,17.578,44.434,92.773,9.766,2419.676
1686112412.781,28.320,154.785,64.453,4.883,2419.681
1686112412.785,-14.648,116.211,54.688,-50.293,2419.685
1686112412.789,-37.109,-138.184,-47.852,-59.570,2419.689
1686112412.793,-23.926,-288.086,-87.402,2.930,2419.693
1686112412.797,-6.836,188.965,114.746,34.180,2419.696
1686112412.801,-25.391,76.660,-86.914,-21.973,2419.700
1686112412.804,-55.176,-524.902,-300.293,-63.477,2419.704
1686112412.808,-34.180,-649.414,-131.836,-10.742,2419.708
1686112412.812,-1.465,174.805,229.004,26.855,2419.712
1686112412.816,-7.324,322.754,102.539,-16.113,2419.716
1686112412.820,-32.715,-127.930,-69.336,-48.340,2419.720
1686112412.824,-32.715,-25.879,47.363,-28.320,2419.724
1686112412.825,-1.953,370.117,186.035,12.207,2419.736
1686112412.829,2.441,164.062,-15.625,-6.836,2419.740
1686112412.833,-30.762,-216.797,-179.199,-65.430,2419.744
1686112412.837,-36.621,-250.488,-47.852,-60.547,2419.748
1686112412.841,-5.371,34.180,81.055,-16.602,2419.752
1686112412.845,9.277,67.871,31.250,-15.625,2419.756
1686112412.848,-29.785,-662.598,-308.105,-60.547,2419.760
1686112412.852,-60.547,-942.871,-267.090,-69.336,2419.764
1686112412.856,-45.410,-18.066,232.910,-34.668,2419.767
1686112412.860,-23.926,292.969,157.715,-9.277,2419.771
1686112412.864,-26.855,-62.500,-5.371,-41.504,2419.775
1686112412.868,-57.129,139.648,120.605,-83.496,2419.779
1686112412.870,-55.176,359.863,185.547,-37.598,2419.797
1686112412.874,-32.227,158.203,49.805,9.766,2419.801
1686112412.878,-45.898,-11.230,-61.035,-28.809,2419.805
1686112412.882,-71.289,177.734,69.336,-76.660,2419.809
1686112412.886,-62.500,224.121,63.965,-61.523,2419.812
1686112412.890,-30.762,-310.547,-240.234,-17.090,2419.816
1686112412.893,-27.832,-739.746,-260.254,-27.344,2419.820
1686112412.897,-60.547,-243.164,73.242,-83.496,2419.824
1686112412.901,-64.941,301.270,178.711,-86.914,2419.828
1686112412.905,-29.297,-244.629,-107.422,-27.344,2419.832
1686112412.909,-15.625,-560.059,-145.508,-13.184,2419.836
1686112412.913,-29.297,188.965,169.922,-55.176,2419.840
1686112412.931,-34.668,236.816,60.059,-60.059,2419.827
1686112412.935,-19.043,37.109,32.227,-18.555,2419.831
1686112412.939,-6.836,145.996,88.867,-0.977,2419.835
1686112412.943,-27.344,289.551,80.566,-40.527,2419.839
1686112412.947,-59.570,130.859,-2.930,-69.336,2419.843
1686112412.951,-27.344,-262.695,-113.281,-30.762,2419.847
1686112412.954,33.203,-282.227,-25.391,24.902,2419.851
1686112412.958,10.254,-103.027,62.500,-1.465,2419.855
1686112412.962,-45.410,-110.840,1.465,-63.477,2419.859
1686112412.966,-48.340,-633.301,-140.625,-38.574,2419.863
1686112412.970,-9.277,-314.941,94.727,13.672,2419.866
1686112412.974,-5.859,446.289,274.414,2.930,2419.870
1686112412.976,-54.688,94.727,2.441,-43.457,2419.873
1686112412.980,-72.754,-827.148,-314.453,-47.852,2419.877
1686112412.984,-42.969,-462.891,38.086,0.488,2419.880
1686112412.988,-17.090,417.480,291.016,34.180,2419.884
1686112412.992,-38.086,56.641,-6.348,9.277,2419.888
1686112412.996,-51.758,-399.414,-132.324,-16.113,2419.892
1686112412.999,-18.555,-98.145,109.863,16.602,2419.896
1686112413.003,14.160,466.309,258.789,52.734,2419.900
1686112413.007,2.441,-155.273,-126.465,32.715,2419.904
1686112413.011,-34.668,-706.543,-226.562,-5.859,2419.908
1686112413.015,-28.809,34.180,178.711,17.090,2419.912
1686112413.019,7.812,137.207,123.535,62.988,2419.916
1686112413.021,7.324,-356.934,-24.414,48.828,2419.917
1686112413.025,-18.066,-283.203,67.871,3.906,2419.921
1686112413.029,-2.930,255.371,174.316,25.879,2419.925
1686112413.033,23.438,302.246,131.836,79.590,2419.929
1686112413.037,18.066,100.098,66.895,69.824,2419.933
1686112413.041,-11.719,-190.430,-45.898,23.438,2419.937
1686112413.044,-28.320,-312.988,-60.547,7.812,2419.941
1686112413.048,-11.719,-129.395,97.656,37.109,2419.945
1686112413.052,0.488,-635.254,-134.766,55.664,2419.949
1686112413.056,-13.672,-755.859,-130.371,19.531,2419.953
1686112413.060,-33.691,139.160,229.004,-19.043,2419.957
1686112413.064,-25.391,139.648,104.980,12.207,2419.960
1686112413.066,1.953,60.059,74.707,62.012,2419.966
1686112413.070,-1.465,72.266,50.293,34.668,2419.970
1686112413.074,-48.340,27.832,69.336,-21.973,2419.974
1686112413.078,-43.945,-80.078,-8.789,-3.906,2419.978
1686112413.082,7.324,-282.715,-100.098,42.480,2419.982
1686112413.086,4.395,-149.414,26.367,28.320,2419.986
1686112413.089,-21.973,11.230,84.961,-25.879,2419.990
1686112413.093,-21.973,-259.277,-80.078,-31.250,2419.994
1686112413.097,-5.859,-586.426,-101.074,13.672,2419.998
1686112413.101,-1.953,231.934,239.258,17.090,2420.002
1686112413.105,-15.137,322.266,73.730,-20.996,2420.005
1686112413.109,-12.207,-120.117,-67.383,-32.227,2420.009
1686112413.111,7.324,97.168,83.984,10.742,2420.008
1686112413.115,24.414,447.754,173.828,29.785,2420.012
1686112413.119,0.977,279.297,-1.953,-13.184,2420.015
1686112413.123,-32.715,-80.566,-168.457,-49.805,2420.019
1686112413.127,-20.020,-171.387,-33.203,-17.090,2420.023
1686112413.131,7.324,-136.230,25.879,22.949,2420.027
1686112413.134,-3.906,-187.988,-40.527,-4.395,2420.031
1686112413.138,-25.879,-698.730,-317.383,-36.621,2420.035
1686112413.142,-16.113,-986.328,-262.695,-10.742,2420.039
1686112413.146,5.859,-62.500,259.766,35.645,2420.043
1686112413.150,-2.930,250.977,167.969,22.949,2420.047
1686112413.154,-35.645,-76.660,-6.836,-37.598,2420.051
1686112413.156,-42.480,153.809,113.281,-42.480,2420.053
1686112413.160,-19.531,373.047,199.707,11.230,2420.057
1686112413.164,-15.137,158.203,39.062,20.508,2420.061
1686112413.168,-36.621,-77.148,-97.656,-29.785,2420.065
1686112413.172,-42.969,114.258,47.852,-48.828,2420.069
1686112413.176,-18.555,44.922,33.203,-5.859,2420.072
1686112413.179,1.465,-464.355,-208.496,13.184,2420.076
1686112413.183,-7.812,-899.902,-306.152,-30.273,2420.080
1686112413.187,-38.086,-260.254,102.051,-69.824,2420.084
1686112413.191,-23.438,316.406,216.797,-36.621,2420.088
1686112413.195,14.648,117.188,110.840,8.301,2420.092
1686112413.199,3.906,85.449,79.590,-8.789,2420.096
1686112413.201,-39.551,207.520,78.125,-49.805,2420.111
1686112413.205,-39.551,140.137,37.109,-40.039,2420.115
1686112413.209,-12.207,74.707,89.844,7.324,2420.119
1686112413.213,-18.066,181.641,116.211,-3.906,2420.123
1686112413.217,-39.551,135.742,-7.812,-55.176,2420.127
1686112413.221,-47.363,-124.023,-103.027,-55.176,2420.131
1686112413.224,-19.043,-701.172,-280.762,-3.906,2420.135
1686112413.228,-8.301,-671.387,-140.137,6.348,2420.139
1686112413.232,-34.180,143.555,191.406,-43.945,2420.143
1686112413.236,-49.805,15.137,12.695,-73.242,2420.147
1686112413.240,-33.203,-608.887,-115.234,-40.527,2420.151
1686112413.244,-8.789,-186.523,132.324,-2.441,2420.154
1686112413.246,-10.254,420.410,210.938,-26.855,2420.156
1686112413.250,-34.668,-59.570,-83.008,-69.824,2420.160
1686112413.254,-37.598,-208.984,-92.285,-45.898,2420.164
1686112413.258,-2.930,292.480,194.824,2.441,2420.168
1686112413.262,0.488,431.152,155.273,-21.973,2420.172
1686112413.266,-35.645,-274.414,-235.352,-71.777,2420.176
1686112413.269,-47.363,-646.484,-201.172,-66.406,2420.180
1686112413.273,-16.602,140.625,212.891,-22.461,2420.184
1686112413.277,-5.371,453.125,157.715,-14.648,2420.188
1686112413.281,-34.180,-255.859,-151.367,-62.012,2420.191
1686112413.285,-50.781,-439.453,-120.117,-71.289,2420.195
1686112413.289,-23.438,185.059,157.227,-16.602,2420.199
1686112413.305,-3.418,40.039,37.598,2.441,2420.202
1686112413.309,-35.156,-322.754,-82.520,-43.457,2420.206
1686112413.313,-62.012,-195.801,32.715,-71.777,2420.210
1686112413.317,-32.227,197.266,150.879,-23.438,2420.214
1686112413.321,3.906,287.598,117.188,20.020,2420.218
1686112413.325,-35.645,-438.965,-239.258,-20.508,2420.222
1686112413.328,-79.102,-923.340,-280.762,-73.242,2420.226
1686112413.332,-59.082,-257.324,143.555,-49.316,2420.230
1686112413.336,-18.066,169.922,166.504,0.488,2420.234
1686112413.340,-10.742,-441.895,-60.547,-9.766,2420.238
1686112413.344,-46.387,-400.879,35.645,-62.012,2420.242
1686112413.348,-53.711,261.719,183.594,-63.477,2420.245
1686112413.351,-10.742,113.281,50.781,-5.371,2420.248
1686112413.355,5.859,-14.648,4.883,-0.977,2420.252
1686112413.359,-24.414,-37.598,-8.301,-51.758,2420.256
1686112413.363,-43.945,1.953,13.672,-69.824,2420.260
1686112413.367,-23.438,-46.387,-18.066,-28.320,2420.264
1686112413.371,-3.418,-459.473,-158.203,1.465,2420.267
1686112413.374,-26.367,-231.934,24.902,-37.109,2420.271
1686112413.378,-40.039,200.195,165.039,-62.012,2420.275
1686112413.382,-21.484,-255.371,-80.078,-20.508,2420.279
1686112413.386,-12.695,-644.531,-153.320,1.465,2420.283
1686112413.390,-19.531,111.328,181.641,-28.809,2420.287
1686112413.394,-31.250,185.547,77.148,-62.988,2420.291
1686112413.396,-37.109,-85.938,-4.883,-56.152,2420.293
1686112413.400,-27.344,145.996,109.863,-15.625,2420.297
1686112413.404,-18.555,384.277,144.043,-20.508,2420.301
1686112413.408,-31.738,187.012,-36.621,-58.105,2420.305
1686112413.412,-41.016,-124.023,-137.207,-54.199,2420.308
1686112413.416,-16.602,-177.734,10.254,-14.160,2420.312
1686112413.419,0.488,-160.156,49.805,-3.906,2420.316
1686112413.423,-31.250,-221.191,-61.035,-45.898,2420.320
1686112413.427,-62.988,-725.098,-310.547,-57.617,2420.324
1686112413.431,-45.410,-976.074,-208.008,-14.648,2420.328
1686112413.435,-0.488,-34.668,232.422,14.648,2420.332
1686112413.439,-3.418,187.012,99.609,-18.066,2420.336
1686112413.441,-36.133,-118.164,-13.672,-62.988,2420.338
1686112413.445,-25.879,229.492,173.340,-37.598,2420.342
1686112413.449,9.277,446.289,207.520,8.301,2420.346
1686112413.453,2.441,153.809,10.742,-17.090,2420.350
1686112413.457,-44.434,-135.742,-131.836,-72.266,2420.353
1686112413.461,-61.035,-145.996,-84.961,-63.477,2420.357
1686112413.464,-35.645,-73.730,41.992,-20.996,2420.361
1686112413.468,-19.043,-395.508,-112.305,-16.113,2420.365
1686112413.472,-41.504,-935.059,-298.340,-52.246,2420.369
1686112413.476,-46.875,-233.887,128.906,-65.430,2420.373
1686112413.480,-18.555,389.648,257.812,-19.531,2420.377
1686112413.484,-8.789,145.508,70.312,9.277,2420.381
1686112413.485,-34.180,27.832,17.578,-38.086,2420.383
1686112413.489,-62.500,223.633,94.727,-75.195,2420.386
1686112413.493,-44.434,233.887,80.078,-32.715,2420.390
1686112413.497,-14.160,129.395,95.703,4.883,2420.394
1686112413.501,-18.066,68.848,42.480,-27.344,2420.398
1686112413.505,-43.945,-210.449,-173.340,-70.801,2420.402
1686112413.508,-40.039,-189.941,-44.922,-46.875,2420.406
1686112413.512,-0.488,-616.699,-164.062,11.719,2420.410
1686112413.516,10.254,-773.926,-117.188,4.883,2420.414
1686112413.520,-20.020,61.523,210.938,-58.594,2420.418
1686112413.524,-31.250,-33.691,30.762,-50.293,2420.422
1686112413.528,2.930,-266.602,65.918,6.348,2420.426
1686112413.532,13.184,205.078,190.430,3.418,2420.431
1686112413.536,-12.207,398.926,116.699,-39.062,2420.435
1686112413.540,-27.344,-28.809,-77.148,-51.270,2420.439
1686112413.544,-6.348,-60.547,-35.156,-8.301,2420.443
1686112413.548,5.859,285.156,117.676,7.324,2420.447
1686112413.552,-24.414,10.254,-79.102,-41.504,2420.451
1686112413.555,-39.551,-567.871,-313.477,-69.824,2420.455
1686112413.559,-20.508,-690.918,-168.945,-32.715,2420.459
1686112413.563,4.883,127.930,237.793,0.000,2420.462
1686112413.567,-3.906,375.000,138.672,-22.949,2420.466
1686112413.571,-30.273,-67.383,-43.457,-61.035,2420.470
1686112413.575,-34.180,-23.438,50.293,-35.645,2420.474
1686112413.576,-12.695,250.000,115.723,17.578,2420.486
1686112413.580,-10.254,30.273,-32.227,1.953,2420.490
1686112413.584,-37.598,-374.512,-155.762,-53.711,2420.494
1686112413.588,-37.109,-209.473,42.969,-55.664,2420.498
1686112413.592,-3.418,206.055,132.812,-13.184,2420.502
1686112413.596,2.930,48.828,71.777,-5.371,2420.506
1686112413.599,-32.227,-625.488,-242.188,-45.898,2420.510
1686112413.603,-45.410,-984.375,-283.203,-54.199,2420.514
1686112413.607,-8.301,-101.074,232.422,-18.066,2420.518
1686112413.611,20.020,234.375,143.555,4.395,2420.521
1686112413.615,-10.254,-149.902,-14.648,-30.273,2420.525
1686112413.619,-33.691,41.504,131.348,-70.312,2420.529
1686112413.621,-3.418,296.387,172.363,-39.062,2420.532
1686112413.625,14.648,138.184,47.852,6.348,2420.536
1686112413.629,-5.371,-59.570,-20.996,-21.484,2420.540
1686112413.633,-32.227,-126.953,-84.473,-65.918,2420.544
1686112413.637,-38.574,-90.332,-11.719,-48.340,2420.548
1686112413.641,-28.320,-286.133,-58.594,-5.859,2420.552
1686112413.644,-37.109,-875.000,-258.301,-1.953,2420.556
1686112413.648,-59.082,-361.328,87.402,-44.434,2420.560
1686112413.652,-56.152,194.824,189.941,-54.199,2420.564
1686112413.656,-23.926,-25.879,95.215,-5.859,2420.567
1686112413.660,-6.836,40.527,97.168,9.766,2420.571
1686112413.664,-24.414,261.230,99.609,-48.340,2420.575
1686112413.681,-29.785,94.238,32.227,-62.500,2420.578
1686112413.685,-5.859,-85.449,-3.906,-8.789,2420.582
1686112413.689,12.207,88.867,95.215,9.277,2420.585
1686112413.693,-3.418,270.996,104.980,-33.691,2420.589
1686112413.697,-31.250,56.641,-57.129,-68.359,2420.593
1686112413.701,-23.438,-357.910,-128.418,-30.273,2420.597
1686112413.704,-2.441,-324.707,12.695,1.953,2420.601
1686112413.708,1.953,-200.195,50.293,-23.926,2420.605
1686112413.712,-24.902,-267.578,-46.387,-49.805,2420.609
1686112413.716,-54.199,-751.953,-271.484,-40.039,2420.613
1686112413.720,-41.504,-812.012,-61.523,-4.883,2420.617
1686112413.724,-18.555,173.828,315.918,-11.719,2420.621
1686112413.726,-40.527,87.402,18.066,-46.875,2420.623
1686112413.730,-57.129,-355.957,-65.918,-49.316,2420.627
1686112413.734,-20.996,131.836,193.359,-19.043,2420.631
1686112413.738,-3.906,409.668,191.895,-6.348,2420.635
1686112413.742,-31.250,36.621,-36.621,-36.621,2420.639
1686112413.746,-50.293,-417.480,-218.262,-52.734,2420.643
1686112413.749,-23.438,-104.492,68.848,-26.855,2420.647
1686112413.753,-3.906,333.008,228.027,0.977,2420.650
1686112413.757,-17.578,-286.133,-177.734,-15.625,2420.654
1686112413.761,-44.922,-977.539,-362.305,-62.500,2420.658
1686112413.765,-38.574,-187.500,158.691,-59.082,2420.662
1686112413.769,-10.742,416.504,265.625,-10.742,2420.666
1686112413.785,-14.160,78.613,25.879,-22.461,2420.683
1686112413.789,-44.922,-11.719,6.836,-61.523,2420.687
1686112413.793,-54.688,219.238,126.953,-54.199,2420.691
1686112413.797,-25.879,237.793,89.844,-8.789,2420.694
1686112413.801,-20.996,27.832,17.090,-6.348,2420.698
1686112413.805,-48.340,-288.574,-89.844,-58.105,2420.702
1686112413.808,-56.152,-383.301,-90.820,-74.219,2420.706
1686112413.812,-27.832,-140.137,97.168,-33.691,2420.710
1686112413.816,-9.277,-607.910,-151.367,-5.371,2420.714
1686112413.820,-42.480,-777.344,-137.695,-41.992,2420.718
1686112413.824,-64.941,-10.254,210.449,-76.660,2420.722
1686112413.828,-46.387,-109.375,60.547,-48.828,2420.726
1686112413.816,-22.461,-272.461,61.035,-10.742,2420.716
1686112413.820,-25.391,124.023,159.180,-36.621,2420.720
1686112413.824,-44.922,294.922,113.770,-75.195,2420.724
1686112413.828,-44.922,-4.883,14.160,-47.852,2420.728
1686112413.832,-22.461,-44.434,30.762,-2.441,2420.732
1686112413.836,-23.926,-24.414,41.504,-14.160,2420.736
1686112413.839,-54.688,-60.059,50.781,-63.965,2420.740
1686112413.843,-61.523,-261.719,-42.480,-71.289,2420.744
1686112413.847,-39.062,-284.180,-24.902,-29.785,2420.748
1686112413.851,-21.484,258.301,156.738,-24.414,2420.752
1686112413.855,-33.203,329.590,103.027,-59.570,2420.755
1686112413.859,-56.641,-429.688,-226.562,-60.547,2420.759
1686112413.876,-41.016,-673.828,-171.875,-19.043,2420.776
1686112413.880,-10.742,67.383,176.758,2.930,2420.780
1686112413.884,-20.996,-75.684,-4.883,-23.926,2420.784
1686112413.888,-46.875,-356.934,-67.383,-62.988,2420.787
1686112413.892,-49.316,-105.469,73.242,-38.086,2420.791
1686112413.896,-21.484,-17.578,83.008,7.812,2420.795
1686112413.899,-14.648,-196.289,43.945,-17.090,2420.799
1686112413.903,-43.945,-666.992,-256.836,-62.012,2420.803
1686112413.907,-41.504,-987.793,-281.738,-54.199,2420.807
1686112413.911,-9.766,-66.406,253.418,-14.648,2420.811
1686112413.915,0.000,220.215,161.621,-17.090,2420.815
1686112413.919,-22.949,-152.344,-24.902,-64.453,2420.819
1686112413.905,-53.223,107.422,123.535,-66.406,2420.816
1686112413.909,-41.992,386.230,188.965,-17.578,2420.820
1686112413.913,-18.555,141.602,16.113,-5.859,2420.824
1686112413.917,-34.668,-121.582,-95.703,-42.969,2420.828
1686112413.921,-53.711,-82.031,-53.711,-73.730,2420.832
1686112413.925,-35.645,-134.277,10.254,-42.480,2420.836
1686112413.928,-29.785,-321.777,-43.945,-7.324,2420.840
1686112413.932,-44.434,-275.879,-103.516,-33.691,2420.844
1686112413.936,-51.758,41.016,59.082,-61.523,2420.848
1686112413.940,-54.688,249.512,156.250,-41.504,2420.851
1686112413.944,-38.574,-206.055,-103.516,-1.465,2420.855
1686112413.948,-39.551,-888.184,-296.387,-12.695,2420.859
1686112413.953,-63.477,-210.938,88.379,-62.500,2420.854
1686112413.957,-48.340,155.762,131.836,-52.246,2420.858
1686112413.961,-12.695,-178.223,17.578,1.465,2420.862
1686112413.965,-6.348,-31.738,112.793,12.695,2420.866
1686112413.969,-29.297,187.500,80.566,-43.457,2420.869
1686112413.973,-38.086,-197.266,-120.117,-51.758,2420.873
1686112413.976,-13.184,-660.645,-130.371,5.371,2420.877
1686112413.980,5.859,-541.504,24.414,18.555,2420.881
1686112413.984,-18.555,-89.844,151.367,-37.109,2420.885
1686112413.988,-48.828,66.406,103.027,-83.008,2420.889
1686112413.992,-31.250,-543.945,-95.703,-42.480,2420.893
1686112413.996,0.977,-380.371,83.008,-10.254,2420.897
1686112413.995,-9.277,397.461,230.957,-47.363,2420.908
1686112413.999,-35.645,7.324,-61.035,-82.031,2420.911
1686112414.003,-37.598,-457.031,-63.477,-53.711,2420.915
1686112414.007,-16.113,54.688,187.500,-5.371,2420.919
1686112414.011,-7.812,353.027,151.855,-13.184,2420.923
1686112414.015,-34.180,-204.102,-127.930,-48.828,2420.927
1686112414.018,-44.922,-1000.000,-467.773,-40.039,2420.931
1686112414.022,-16.113,-585.449,-41.016,-6.836,2420.935
1686112414.026,0.488,382.812,266.113,-12.207,2420.939
1686112414.030,-36.621,-89.844,5.371,-52.246,2420.943
1686112414.034,-60.547,-253.418,59.082,-63.477,2420.947
1686112414.038,-29.785,335.938,208.008,-19.531,2420.951
1686112414.055,-1.465,437.012,142.090,-2.441,2420.953
1686112414.059,-15.625,1.465,-45.898,-44.922,2420.957
1686112414.063,-38.574,-135.742,-9.766,-71.777,2420.960
1686112414.067,-25.391,247.559,149.902,-41.016,2420.964
1686112414.071,-2.930,329.590,84.961,-4.883,2420.968
1686112414.075,-9.766,-156.738,-107.422,-24.414,2420.972
1686112414.078,-32.227,-502.930,-168.457,-58.594,2420.976
1686112414.082,-20.996,-319.824,6.836,-41.992,2420.980
1686112414.086,5.859,71.289,138.184,-6.348,2420.984
1686112414.090,-5.371,-536.621,-205.566,-9.277,2420.988
1686112414.094,-33.691,-753.418,-160.645,-48.828,2420.992
1686112414.098,-42.969,118.652,229.492,-51.758,2420.996
1686112414.100,-25.879,-42.969,48.340,0.000,2420.998
1686112414.104,-11.719,-369.141,3.906,10.742,2421.002
1686112414.108,-35.645,-0.488,143.066,-35.156,2421.006
1686112414.112,-48.340,248.535,140.625,-51.758,2421.010
1686112414.116,-16.602,20.996,49.805,-10.742,2421.013
1686112414.120,-11.230,-238.281,-12.207,11.230,2421.017
1686112414.123,-23.438,-125.000,37.109,-33.691,2421.021
1686112414.127,-37.598,180.176,117.676,-70.312,2421.025
1686112414.131,-32.227,-301.270,-104.980,-34.180,2421.029
1686112414.135,-0.488,-651.855,-153.320,8.789,2421.033
1686112414.139,6.348,124.512,189.941,-19.043,2421.037
1686112414.143,-16.113,222.656,89.844,-50.781,2421.041
1686112414.145,-32.227,-85.449,0.488,-40.527,2421.043
1686112414.149,-19.531,108.887,116.211,-4.395,2421.047
1686112414.153,-12.207,128.906,56.641,-4.883,2421.051
1686112414.157,-26.855,-225.586,-159.668,-52.734,2421.054
1686112414.161,-33.203,-550.293,-200.684,-54.199,2421.058
1686112414.165,-8.789,-508.301,17.090,-10.254,2421.062
1686112414.168,-0.977,-265.137,68.848,2.441,2421.066
1686112414.172,-33.691,-267.090,1.465,-40.039,2421.070
1686112414.176,-51.270,-726.562,-208.984,-62.500,2421.074
1686112414.180,-31.738,-732.910,-92.285,-20.996,2421.078
1686112414.184,-1.465,286.621,332.520,-0.977,2421.082
1686112414.188,-21.484,181.641,59.082,-36.133,2421.086
1686112414.190,-55.176,-194.824,-55.664,-66.895,2421.088
1686112414.194,-44.434,177.734,157.227,-42.969,2421.092
1686112414.198,-8.301,461.426,210.938,-9.277,2421.096
1686112414.202,-9.277,162.598,-27.344,-22.949,2421.100
1686112414.206,-36.621,-168.945,-175.293,-64.941,2421.103
1686112414.210,-32.227,-144.531,-44.922,-59.570,2421.107
1686112414.213,-14.160,-69.824,81.055,-10.742,2421.111
1686112414.217,-5.371,-381.836,-125.488,-0.488,2421.115
1686112414.221,-33.203,-920.410,-332.520,-37.109,2421.119
1686112414.225,-54.199,-313.477,122.070,-61.035,2421.123
1686112414.229,-24.902,305.664,246.582,-25.879,2421.127
1686112414.233,0.488,135.254,134.766,-1.465,2421.131
1686112414.236,-27.832,30.762,83.496,-42.480,2421.133
1686112414.240,-54.199,162.598,61.523,-72.266,2421.137
1686112414.244,-39.062,158.203,76.660,-40.039,2421.140
1686112414.248,-17.578,73.730,122.559,-12.207,2421.144
1686112414.252,-24.414,56.641,72.754,-37.598,2421.148
1686112414.256,-53.711,-208.008,-125.488,-73.730,2421.152
1686112414.259,-46.875,-313.477,-63.477,-52.246,2421.156
1686112414.263,-14.160,-663.574,-208.496,0.977,2421.160
1686112414.267,-9.277,-989.746,-250.488,-2.441,2421.164
1686112414.271,-34.180,-227.051,165.039,-59.082,2421.168
1686112414.275,-35.645,83.984,148.438,-66.895,2421.172
1686112414.279,-14.648,-47.852,109.375,-25.391,2421.176
1686112414.280,-21.973,229.492,182.617,-25.391,2421.177
1686112414.284,-35.645,302.734,118.652,-55.176,2421.181
1686112414.288,-51.758,-93.750,-70.312,-65.918,2421.185
1686112414.292,-45.410,-117.188,-3.906,-34.180,2421.189
1686112414.296,-21.484,207.520,104.492,-17.578,2421.193
1686112414.300,-28.809,-41.992,-100.098,-46.875,2421.197
1686112414.303,-44.922,-596.191,-316.406,-59.082,2421.201
1686112414.307,-25.391,-746.582,-146.973,-25.391,2421.205
1686112414.311,-1.465,62.500,270.020,6.348,2421.209
1686112414.315,-16.113,338.867,115.234,-17.090,2421.213
1686112414.319,-58.105,-267.578,-89.355,-62.988,2421.216
1686112414.323,-60.547,-239.746,57.617,-59.570,2421.220
1686112414.326,-17.090,310.059,194.824,-9.277,2421.236
1686112414.330,-10.254,294.922,86.914,-6.836,2421.240
1686112414.334,-42.480,-188.965,-111.328,-52.246,2421.244
1686112414.338,-52.734,-173.828,6.348,-51.758,2421.248
1686112414.342,-20.020,185.059,112.305,3.418,2421.252
1686112414.346,1.465,2.930,-1.953,17.090,2421.256
1686112414.349,-31.250,-677.734,-311.523,-32.715,2421.260
1686112414.353,-45.898,-784.180,-174.805,-51.758,2421.264
1686112414.357,-14.648,130.859,272.461,-10.254,2421.268
1686112414.361,9.277,273.438,118.164,15.625,2421.272
1686112414.365,-6.348,-270.508,-50.293,-22.461,2421.275
1686112414.369,-34.180,-143.555,55.664,-55.664,2421.279
1686112414.372,-28.809,170.410,132.324,-19.043,2421.282
1686112414.376,-8.301,-142.578,-8.789,30.762,2421.285
1686112414.380,-16.113,-434.082,-60.547,4.395,2421.289
1686112414.384,-35.156,-50.781,115.234,-47.363,2421.293
1686112414.388,-28.809,197.754,158.691,-38.574,2421.297
1686112414.392,0.488,-334.473,-95.703,11.719,2421.301
1686112414.395,16.602,-617.188,-118.164,22.949,2421.305
1686112414.399,-20.508,-14.160,166.504,-38.574,2421.309
1686112414.403,-57.617,210.938,126.953,-75.684,2421.313
1686112414.407,-41.504,-112.793,54.199,-34.180,2421.317
1686112414.411,-13.672,-77.148,76.172,-5.371,2421.321
1686112414.415,-37.598,223.633,103.027,-56.641,2421.325
1686112414.430,-69.824,124.023,52.734,-92.285,2421.328
1686112414.434,-55.664,-29.297,21.484,-45.898,2421.332
1686112414.438,-37.109,109.375,84.961,-11.230,2421.336
1686112414.442,-55.176,41.504,20.508,-47.363,2421.340
1686112414.446,-84.473,-230.469,-142.578,-93.262,2421.343
1686112414.450,-70.801,-665.039,-274.902,-58.594,2421.347
1686112414.453,-34.668,-820.312,-133.301,-16.113,2421.351
1686112414.457,-32.715,-190.430,181.641,-47.363,2421.355
1686112414.461,-62.500,-4.395,61.035,-84.473,2421.359
1686112414.465,-68.848,-569.824,-120.605,-73.730,2421.363
1686112414.469,-26.855,-303.223,128.906,-19.531,2421.367
1686112414.473,-11.230,412.598,275.879,-4.883,2421.371
1686112414.476,-35.156,25.391,-2.930,-46.387,2421.373
1686112414.480,-42.969,-224.121,-59.570,-57.617,2421.377
1686112414.484,-17.090,166.992,158.691,-13.672,2421.381
1686112414.488,2.441,402.344,190.430,10.742,2421.385
1686112414.492,-15.625,5.859,-105.469,-26.367,2421.389
1686112414.496,-36.133,-480.957,-253.418,-52.734,2421.392
1686112414.499,-24.414,-351.074,7.324,-21.484,2421.396
1686112414.503,-0.488,55.176,170.898,8.789,2421.400
1686112414.507,-6.348,-233.887,-108.398,-12.207,2421.404
1686112414.511,-36.621,-961.426,-342.285,-49.805,2421.408
1686112414.515,-31.738,-286.621,142.578,-26.855,2421.412
1686112414.519,-4.395,336.426,240.234,22.461,2421.416
1686112414.521,5.859,69.336,37.598,0.000,2421.418
1686112414.525,-25.879,-97.656,23.438,-54.199,2421.422
1686112414.529,-36.621,112.793,133.789,-48.828,2421.426
1686112414.533,-3.418,232.910,121.582,0.977,2421.430
1686112414.537,-1.465,64.941,83.008,10.742,2421.433
1686112414.541,-32.227,-212.891,-62.012,-34.668,2421.437
1686112414.544,-43.457,-387.207,-178.223,-46.387,2421.441
1686112414.548,-22.949,-223.145,58.594,-2.441,2421.445
1686112414.552,-5.859,-602.539,-138.184,27.344,2421.449
1686112414.556,-19.531,-995.605,-267.090,-4.883,2421.453
1686112414.560,-34.668,-196.289,170.898,-42.969,2421.457
1686112414.564,-38.574,146.484,173.340,-30.273,2421.461
1686112414.565,-17.578,-2.930,119.629,-1.953,2421.463
1686112414.569,-3.418,205.078,144.531,-14.160,2421.467
1686112414.573,-28.320,266.113,101.074,-52.246,2421.471
1686112414.577,-34.180,2.441,21.484,-39.551,2421.475
1686112414.581,-5.371,-46.875,25.391,7.324,2421.479
1686112414.585,-0.977,-113.770,-22.949,3.418,2421.482
1686112414.588,-39.551,-133.789,2.930,-51.758,2421.486
1686112414.592,-55.664,-349.121,-101.562,-63.477,2421.490
1686112414.596,-33.203,-656.250,-141.113,-16.602,2421.494
1686112414.600,-22.461,95.703,242.676,-8.301,2421.498
1686112414.604,-40.039,265.137,94.727,-39.551,2421.502
1686112414.608,-53.711,-292.480,-91.309,-59.082,2421.506
1686112414.610,-35.156,-197.266,74.219,-26.367,2421.508
1686112414.614,-8.301,295.898,191.895,3.418,2421.512
1686112414.618,-8.789,206.055,41.504,-29.297,2421.515
1686112414.622,-35.156,-235.352,-118.652,-67.383,2421.519
1686112414.626,-32.715,-163.574,9.277,-42.969,2421.523
1686112414.630,-5.371,-20.508,74.707,2.441,2421.527
1686112414.633,-7.324,-181.641,23.438,-19.531,2421.531
1686112414.637,-36.621,-715.820,-306.641,-49.805,2421.535
1686112414.641,-45.410,-806.641,-164.062,-37.598,2421.539
1686112414.645,-16.602,144.531,328.125,-1.465,2421.543
1686112414.649,-9.766,236.816,122.070,2.441,2421.547
1686112414.653,-38.086,-143.066,-25.879,-41.016,2421.551
1686112414.656,-38.086,26.855,81.055,-45.410,2421.556
1686112414.660,-7.812,171.387,125.488,-1.465,2421.560
1686112414.664,0.977,-188.477,-57.617,11.719,2421.564
1686112414.668,-18.555,-429.199,-130.859,-27.344,2421.568
1686112414.672,-30.762,-57.617,79.102,-60.059,2421.572
1686112414.676,-19.531,-41.504,94.727,-28.809,2421.576
1686112414.679,2.930,-439.453,-111.816,6.836,2421.580
1686112414.683,-0.488,-647.461,-145.020,-23.438,2421.584
1686112414.687,-26.367,-73.730,165.039,-67.871,2421.588
1686112414.691,-25.879,240.723,134.277,-45.410,2421.592
1686112414.695,4.395,-26.855,25.391,-1.465,2421.595
1686112414.699,-1.465,-65.430,33.691,-20.020,2421.599
1686112414.701,-29.785,168.457,82.031,-66.406,2421.611
1686112414.705,-35.645,139.160,44.922,-59.082,2421.615
1686112414.709,-8.301,1.465,25.879,-11.230,2421.619
1686112414.713,0.000,72.266,59.570,-11.719,2421.623
1686112414.717,-31.250,-117.676,-106.445,-55.176,2421.627
1686112414.721,-42.969,-332.520,-142.090,-60.059,2421.631
1686112414.724,-29.297,-640.625,-187.500,-9.277,2421.635
1686112414.728,-14.648,-1000.000,-252.930,13.672,2421.639
1686112414.732,-19.531,-382.324,96.191,-35.645,2421.642
1686112414.736,-28.809,-44.434,129.395,-62.988,2421.646
1686112414.740,-19.531,-164.551,102.539,-26.367,2421.650
1686112414.744,-3.418,214.844,201.172,13.184,2421.654
1686112414.746,-14.160,371.094,177.734,-7.324,2421.657
1686112414.750,-44.922,-79.590,-75.684,-52.246,2421.661
1686112414.754,-46.387,-235.352,-108.398,-40.527,2421.665
1686112414.758,-13.184,230.957,173.340,-2.930,2421.669
1686112414.762,-5.371,342.773,128.418,0.977,2421.673
1686112414.766,-36.133,-359.863,-262.207,-38.574,2421.677
1686112414.769,-45.898,-727.539,-247.070,-41.504,2421.681
1686112414.773,1.465,-172.852,174.316,8.301,2421.684
1686112414.777,24.902,273.926,210.449,16.113,2421.688
1686112414.781,-26.367,-291.016,-164.551,-45.410,2421.692
1686112414.785,-58.594,-721.191,-217.773,-77.637,2421.696
1686112414.789,-21.484,94.238,190.430,-29.785,2421.700
1686112414.805,0.977,326.660,175.293,4.883,2421.703
1686112414.809,-14.648,-19.043,-2.441,-23.438,2421.706
1686112414.813,-35.645,-98.633,12.207,-57.129,2421.710
1686112414.817,-25.879,162.109,133.789,-31.250,2421.714
1686112414.821,10.742,230.469,55.664,25.391,2421.718
1686112414.825,12.207,-191.406,-113.281,6.836,2421.722
1686112414.828,-21.973,-502.441,-166.992,-44.434,2421.726
1686112414.832,-20.020,-273.926,9.277,-25.879,2421.730
1686112414.836,2.441,91.309,172.363,20.996,2421.734
1686112414.840,0.000,-532.715,-200.684,14.160,2421.738
1686112414.844,-28.320,-942.383,-273.926,-40.039,2421.742
1686112414.848,-37.109,-73.242,173.828,-45.410,2421.746
1686112414.851,-9.277,171.387,159.668,0.977,2421.748
1686112414.855,1.953,-6.348,85.449,8.301,2421.752
1686112414.859,-23.438,135.254,113.281,-36.621,2421.755
1686112414.863,-33.691,233.887,107.422,-56.152,2421.759
1686112414.867,-5.859,46.875,32.715,-16.113,2421.763
1686112414.871,12.207,-242.188,-36.621,13.672,2421.767
1686112414.874,-0.977,-158.203,13.672,-21.973,2421.771
1686112414.878,-18.555,164.062,118.652,-58.105,2421.775
1686112414.882,-13.672,-251.953,-81.055,-25.879,2421.779
1686112414.886,9.277,-616.211,-131.348,10.254,2421.783
1686112414.890,10.254,124.023,175.781,-25.391,2421.787
1686112414.894,-22.949,194.336,58.105,-64.453,2421.791
1686112414.895,-28.320,-286.133,-40.527,-42.969,2421.793
1686112414.899,-3.906,-115.723,101.562,-0.977,2421.796
1686112414.903,-0.488,309.082,153.320,0.000,2421.800
1686112414.907,-31.738,135.742,2.441,-51.758,2421.804
1686112414.911,-43.945,-232.422,-116.211,-70.312,2421.808
1686112414.915,-21.484,-252.441,7.324,-17.578,2421.812
1686112414.918,-15.137,-149.902,66.406,14.648,2421.816
1686112414.922,-32.715,-165.527,26.855,-31.250,2421.820
1686112414.926,-49.316,-696.777,-255.859,-63.477,2421.824
1686112414.930,-36.133,-743.652,-134.277,-37.109,2421.828
1686112414.934,-10.742,281.250,324.707,-8.789,2421.832
1686112414.938,-20.508,260.742,80.078,-31.250,2421.836
1686112414.940,-41.992,-122.559,-63.477,-69.336,2421.838
1686112414.944,-33.691,49.805,114.746,-49.316,2421.842
1686112414.948,-7.324,169.922,132.324,-4.883,2421.846
1686112414.952,-9.766,-150.391,-88.867,-21.973,2421.850
1686112414.956,-42.969,-446.289,-168.457,-79.590,2421.854
1686112414.960,-47.363,-241.699,37.598,-76.172,2421.858
1686112414.963,-14.648,-39.062,157.227,-16.113,2421.862
1686112414.967,-2.441,-307.129,-88.379,2.441,2421.866
1686112414.971,-34.180,-646.973,-202.637,-53.223,2421.870
1686112414.975,-50.293,-16.113,160.645,-72.266,2421.873
1686112414.979,-20.020,358.398,196.777,-20.996,2421.877
1686112414.983,-1.465,79.102,42.480,7.812,2421.881
1686112414.985,-30.273,-12.207,-32.227,-26.367,2421.883
1686112414.989,-61.523,210.938,77.637,-55.176,2421.887
1686112414.993,-41.504,178.711,75.195,-24.414,2421.890
1686112414.997,-16.602,62.012,65.918,5.371,2421.894
1686112415.001,-27.344,27.344,7.324,-20.020,2421.898
1686112415.005,-45.410,-222.656,-182.129,-49.316,2421.902
1686112415.008,-39.551,-243.164,-83.984,-33.203,2421.906
1686112415.012,-16.113,-598.145,-219.727,6.836,2421.910
1686112415.016,-17.090,-992.188,-272.949,-3.906,2421.914
1686112415.020,-32.715,-271.973,131.836,-59.570,2421.918
1686112415.024,-41.504,71.777,142.578,-62.012,2421.922
1686112415.028,-17.090,-6.348,115.723,-7.324,2421.926
1686112415.061,2.441,253.418,168.945,7.324,2421.958
1686112415.065,-26.367,297.363,100.098,-46.875,2421.962
1686112415.069,-46.387,-93.262,-109.375,-64.453,2421.966
1686112415.073,-25.391,-145.020,-63.477,-7.812,2421.970
1686112415.077,-3.906,233.887,119.141,19.531,2421.974
1686112415.081,-16.602,10.254,-46.387,-31.738,2421.978
1686112415.084,-45.898,-560.059,-322.266,-64.453,2421.982
1686112415.088,-36.133,-762.207,-211.914,-26.855,2421.986
1686112415.092,-4.883,-162.598,182.617,15.137,2421.989
1686112415.096,-15.625,293.945,169.922,-10.254,2421.993
1686112415.100,-52.734,-307.129,-124.023,-60.059,2421.997
1686112415.104,-54.688,-491.211,-109.863,-49.805,2422.001
1686112415.075,-22.461,203.125,198.242,4.395,2421.986
1686112415.079,-22.461,243.652,89.844,3.418,2421.990
1686112415.083,-51.758,-139.648,-136.230,-52.246,2421.994
1686112415.087,-60.547,-121.094,-4.883,-51.758,2421.998
1686112415.091,-31.250,154.297,120.117,-12.695,2422.002
1686112415.095,-12.207,-62.988,-32.227,-4.395,2422.006
1686112415.098,-31.250,-521.973,-180.664,-41.504,2422.010
1686112415.102,-54.688,-512.207,-61.523,-62.988,2422.014
1686112415.106,-27.832,100.098,177.734,-37.598,2422.017
1686112415.110,0.488,215.332,90.332,-9.277,2422.021
1686112415.114,-23.926,-366.699,-140.625,-29.785,2422.025
1686112415.118,-53.711,-324.219,-14.160,-61.523,2422.029
1686112415.121,-49.316,151.855,163.574,-48.828,2422.032
1686112415.125,-15.625,104.980,62.012,-8.301,2422.036
1686112415.129,-11.230,-737.793,-370.117,-7.324,2422.040
1686112415.133,-43.457,-915.527,-280.762,-54.199,2422.043
1686112415.137,-51.270,-51.758,214.844,-57.617,2422.047
1686112415.141,-29.785,-219.238,1.465,-1.953,2422.051
1686112415.144,-21.484,-544.922,-96.680,3.418,2422.055
1686112415.148,-37.109,-89.355,161.621,-50.781,2422.059
1686112415.152,-43.945,109.375,132.812,-64.453,2422.063
1686112415.156,-23.926,-43.945,77.148,-12.207,2422.067
1686112415.160,5.859,-0.977,111.328,17.578,2422.071
1686112415.164,-27.344,270.996,128.906,-39.551,2422.075
1686112415.196,-59.570,119.629,23.926,-83.008,2422.092
1686112415.200,-39.551,-207.520,-39.062,-40.039,2422.096
1686112415.204,-35.156,-41.504,76.660,-3.418,2422.100
1686112415.208,-46.875,273.438,132.812,-36.621,2422.104
1686112415.212,-56.641,72.266,-35.645,-72.266,2422.108
1686112415.216,-40.527,-526.855,-207.520,-44.434,2422.112
1686112415.219,-15.137,-546.387,-7.324,-13.184,2422.116
1686112415.223,-0.977,-157.227,107.910,-31.250,2422.120
1686112415.227,-22.949,-79.590,27.832,-67.871,2422.124
1686112415.231,-42.969,-661.621,-236.328,-58.594,2422.128
1686112415.235,-36.621,-580.566,-62.012,-17.578,2422.132
1686112415.239,-24.902,320.312,280.273,-11.719,2422.135
1686112415.225,-35.156,69.336,1.953,-45.410,2422.122
1686112415.229,-47.363,-238.281,-83.496,-53.223,2422.126
1686112415.233,-16.602,130.371,142.090,-9.277,2422.130
1686112415.237,7.812,229.004,106.445,10.742,2422.134
1686112415.241,-13.184,-313.965,-260.742,-24.902,2422.138
1686112415.245,-47.363,-763.184,-334.961,-51.270,2422.142
1686112415.248,-37.598,-283.203,88.867,-26.367,2422.146
1686112415.252,-1.465,280.762,200.684,12.695,2422.150
1686112415.256,-7.812,-158.203,-62.988,-10.254,2422.154
1686112415.260,-42.969,-404.297,-107.422,-49.805,2422.158
1686112415.264,-42.480,68.848,104.004,-34.180,2422.162
1686112415.268,-7.812,339.355,182.129,3.906,2422.165
1686112415.270,3.906,-321.777,-164.062,17.090,2422.168
1686112415.274,-34.180,-777.344,-273.438,-25.391,2422.172
1686112415.278,-58.105,-45.410,146.484,-63.477,2422.175
1686112415.282,-16.602,162.109,142.090,-16.602,2422.179
1686112415.286,0.977,-100.098,24.902,5.371,2422.183
1686112415.290,-24.902,-398.926,-97.168,-42.480,2422.187
1686112415.293,-41.016,-454.590,-81.543,-67.383,2422.191
1686112415.297,-20.996,-271.484,88.867,-26.855,2422.195
1686112415.301,12.695,-621.582,-158.691,6.836,2422.199
1686112415.305,-4.883,-998.047,-275.879,-34.668,2422.203
1686112415.309,-38.086,-276.367,161.621,-78.613,2422.207
1686112415.313,-30.273,41.016,156.250,-43.945,2422.211
1686112415.316,-5.371,-186.523,91.797,4.395,2422.213
1686112415.320,-9.277,103.516,177.734,-13.184,2422.217
1686112415.324,-34.180,279.785,136.719,-59.570,2422.221
1686112415.328,-34.180,-44.922,1.465,-48.828,2422.224
1686112415.332,-12.695,-93.262,30.273,-5.859,2422.228
1686112415.336,-11.230,-90.820,11.230,-4.883,2422.232
1686112415.339,-35.156,-92.773,23.926,-58.105,2422.236
1686112415.343,-42.969,-295.410,-113.281,-64.941,2422.240
1686112415.347,-13.672,-751.953,-215.820,-3.418,2422.244
1686112415.351,6.836,-154.297,169.434,13.184,2422.248
1686112415.355,-20.996,299.805,182.617,-35.645,2422.252
1686112415.359,-42.480,-288.574,-88.867,-57.129,2422.256
1686112415.361,-18.555,-348.145,-25.879,-15.137,2422.258
1686112415.365,6.836,214.844,195.312,3.906,2422.262
1686112415.369,-15.137,135.742,85.938,-35.645,2422.265
1686112415.373,-45.410,-103.516,-54.199,-59.570,2422.269
1686112415.377,-38.086,-0.977,15.625,-23.438,2422.273
1686112415.381,-7.812,11.230,51.758,24.902,2422.277
1686112415.384,2.930,-130.859,23.438,0.977,2422.281
1686112415.388,-37.109,-632.812,-274.902,-50.781,2422.285
1686112415.392,-53.223,-813.477,-166.504,-40.527,2422.289
1686112415.396,-8.789,141.602,286.621,2.930,2422.293
1686112415.400,0.000,270.508,118.164,6.348,2422.297
1686112415.404,-27.344,-275.879,-109.375,-36.133,2422.301
1686112415.410,-33.203,-106.934,5.859,-49.316,2422.308
1686112415.414,-6.836,394.531,218.750,-5.859,2422.312
1686112415.418,10.742,146.973,-3.906,15.137,2422.316
1686112415.422,-11.719,-372.559,-157.227,-31.250,2422.320
1686112415.426,-33.691,-108.887,24.414,-63.477,2422.324
1686112415.430,-22.949,-8.789,56.152,-24.414,2422.327
1686112415.433,-8.789,-325.684,-89.355,13.672,2422.331
1686112415.437,-28.320,-605.957,-221.680,-22.949,2422.335
1686112415.441,-52.246,-143.555,62.988,-67.871,2422.339
1686112415.445,-42.969,247.559,158.691,-38.574,2422.343
1686112415.449,-16.602,88.379,106.934,9.277,2422.347
1686112415.453,-16.602,77.148,79.102,-16.602,2422.351
1686112415.451,-43.945,236.816,70.312,-65.918,2422.361
1686112415.455,-44.922,101.074,2.930,-66.406,2422.365
1686112415.459,-16.113,-166.504,-30.273,-24.414,2422.369
1686112415.463,-4.883,40.527,86.426,-6.836,2422.373
1686112415.467,-28.320,169.922,48.340,-49.805,2422.377
1686112415.471,-54.199,-141.113,-85.449,-76.172,2422.381
1686112415.474,-46.875,-703.613,-277.344,-24.902,2422.384
1686112415.478,-34.180,-765.625,-117.676,-0.977,2422.388
1686112415.482,-40.527,40.039,232.910,-46.875,2422.392
1686112415.486,-58.105,87.402,52.246,-74.219,2422.396
1686112415.490,-44.922,-299.805,26.367,-44.434,2422.400
1686112415.494,-17.090,11.230,193.848,-2.441,2422.404
1686112415.495,-31.250,356.445,171.875,-26.367,2422.407
1686112415.499,-60.547,-19.531,-50.293,-74.707,2422.411
1686112415.503,-49.805,-168.945,-65.918,-49.316,2422.415
1686112415.507,-15.137,197.754,138.672,0.000,2422.419
1686112415.511,-12.695,124.512,58.594,-10.254,2422.423
1686112415.515,-44.434,-483.398,-295.410,-57.617,2422.427
1686112415.518,-62.500,-911.133,-344.238,-53.223,2422.430
1686112415.522,-35.645,-191.895,161.621,-7.812,2422.434
1686112415.526,-7.324,361.816,197.266,0.488,2422.438
1686112415.530,-22.461,-154.297,-40.527,-38.574,2422.442
1686112415.534,-42.480,-271.973,9.277,-56.641,2422.446
1686112415.538,-48.340,171.387,171.387,-39.551,2422.450
1686112415.555,-40.527,267.090,145.020,-23.438,2422.467
1686112415.559,-41.016,-79.102,-31.738,-35.645,2422.471
1686112415.563,-63.965,-173.828,-27.832,-66.895,2422.475
1686112415.567,-65.430,155.273,127.930,-55.176,2422.479
1686112415.571,-38.574,255.859,106.934,-17.578,2422.483
1686112415.575,-44.922,-181.641,-104.004,-34.668,2422.487
1686112415.578,-74.219,-498.535,-145.508,-61.523,2422.490
1686112415.582,-70.801,-344.238,1.953,-32.227,2422.494
1686112415.586,-38.574,-131.836,126.953,14.160,2422.498
1686112415.590,-25.879,-602.539,-168.457,3.418,2422.502
1686112415.594,-56.641,-913.086,-262.207,-34.668,2422.506
1686112415.598,-53.711,-118.652,181.152,-47.363,2422.510
1686112415.600,-17.578,111.816,165.527,-31.250,2422.498
1686112415.604,-4.395,16.602,126.465,-25.391,2422.502
1686112415.608,-13.672,185.547,127.441,-96.191,2422.506
1686112415.612,-35.645,220.215,88.379,-129.883,2422.509
1686112415.616,-22.461,-8.301,21.484,-63.477,2422.513
1686112415.620,14.160,-306.152,-62.500,-23.438,2422.517
1686112415.623,-6.348,-129.395,52.246,-53.223,2422.521
1686112415.627,-39.062,164.062,128.418,-81.055,2422.525
1686112415.631,-36.133,-171.387,-20.996,-41.504,2422.529
1686112415.635,-20.508,-433.105,-80.078,9.766,2422.533
1686112415.639,-24.414,-83.496,87.402,-5.859,2422.537
1686112415.643,-46.387,168.945,116.699,-54.688,2422.541
1686112415.646,-50.293,-434.082,-187.012,-46.387,2422.543
1686112415.650,-18.066,-763.672,-157.715,5.371,2422.546
1686112415.654,-4.395,83.984,218.262,14.648,2422.550
1686112415.658,-34.180,199.707,92.773,-20.996,2422.554
1686112415.662,-42.969,-146.484,-64.941,-27.344,2422.558
1686112415.666,-13.184,-186.035,26.855,14.648,2422.562
1686112415.669,8.301,-205.078,58.105,25.391,2422.566
1686112415.673,-4.883,-252.930,-29.785,-20.508,2422.570
1686112415.677,-25.879,-710.938,-277.832,-44.922,2422.574
1686112415.681,-20.020,-716.309,-129.395,-11.230,2422.578
1686112415.685,9.766,240.723,299.805,13.672,2422.582
1686112415.689,3.418,177.734,69.336,-9.766,2422.586
1686112415.691,-28.320,-622.559,-156.250,-47.363,2422.589
1686112415.695,-17.090,-288.574,118.652,-28.320,2422.593
1686112415.699,10.254,459.473,282.227,16.113,2422.596
1686112415.703,3.418,125.488,-6.348,2.441,2422.600
1686112415.707,-28.320,-258.301,-148.926,-41.504,2422.604
1686112415.711,-45.410,-222.656,-3.418,-48.828,2422.608
1686112415.714,-23.438,-73.730,121.094,-14.160,2422.612
1686112415.718,-3.906,-275.879,-80.566,6.836,2422.616
1686112415.722,-24.414,-653.809,-188.965,-32.715,2422.620
1686112415.726,-45.410,-59.082,175.781,-57.129,2422.624
1686112415.730,-25.391,325.195,193.848,-18.555,2422.628
1686112415.734,-1.465,103.516,76.172,5.371,2422.632
1686112415.735,-20.996,18.555,36.133,-33.203,2422.632
1686112415.739,-49.316,157.715,68.359,-61.035,2422.636
1686112415.743,-38.574,111.328,48.340,-21.484,2422.640
1686112415.747,-15.625,-74.219,15.137,9.766,2422.644
1686112415.751,-19.531,-34.180,7.812,-20.508,2422.648
1686112415.755,-55.664,-204.590,-141.602,-59.082,2422.652
1686112415.758,-49.316,-315.430,-82.520,-39.551,2422.656
1686112415.762,-13.672,-651.855,-164.062,10.254,2422.660
1686112415.766,-19.043,-950.684,-217.285,4.883,2422.664
1686112415.770,-42.969,-163.086,156.738,-64.941,2422.668
1686112415.774,-52.246,92.285,127.441,-85.938,2422.672
1686112415.778,-22.949,-59.082,79.102,-39.062,2422.675
1686112415.781,-10.254,249.512,171.387,-19.531,2422.678
1686112415.785,-41.504,244.629,104.492,-45.898,2422.681
1686112415.789,-61.523,-107.422,-57.129,-66.406,2422.685
1686112415.793,-39.062,-83.984,-0.977,-27.344,2422.689
1686112415.797,-3.418,215.820,131.836,2.930,2422.693
1686112415.801,-9.277,47.852,6.348,-35.156,2422.697
1686112415.804,-40.039,-493.652,-276.367,-57.129,2422.701
1686112415.808,-31.250,-944.824,-317.383,-24.414,2422.705
1686112415.812,12.207,-198.242,181.152,5.859,2422.709
1686112415.816,10.742,338.867,201.172,-11.230,2422.713
1686112415.820,-30.762,-124.023,-33.203,-52.734,2422.717
1686112415.824,-32.227,-93.750,64.941,-39.062,2422.721
1686112415.826,-8.301,341.309,196.289,13.672,2422.736
1686112415.830,-6.836,331.055,93.750,10.742,2422.740
1686112415.834,-36.621,-113.770,-72.754,-35.156,2422.744
1686112415.838,-48.340,-117.676,20.996,-48.340,2422.748
1686112415.842,-23.438,183.594,121.094,-11.719,2422.752
1686112415.846,-11.719,3.418,46.387,7.812,2422.756
1686112415.849,-37.109,-656.738,-301.758,-29.785,2422.760
1686112415.853,-53.223,-812.988,-256.348,-59.570,2422.764
1686112415.857,-25.391,-163.086,240.234,-41.016,2422.768
1686112415.861,4.883,149.414,189.453,-4.395,2422.771
1686112415.865,-7.812,-357.422,-42.480,-18.066,2422.775
1686112415.869,-32.715,-320.312,53.711,-43.457,2422.779
1686112415.870,-26.855,278.809,188.965,-23.438,2422.782
1686112415.874,-5.371,158.203,74.707,6.836,2422.786
1686112415.878,-2.930,-56.152,-1.465,-4.883,2422.790
1686112415.882,-27.344,86.426,92.773,-53.711,2422.794
1686112415.886,-35.156,124.512,87.891,-63.965,2422.798
1686112415.890,-7.324,-348.633,-127.930,-13.184,2422.802
1686112415.893,7.324,-603.516,-137.207,-0.977,2422.806
1686112415.897,-3.906,-55.664,135.742,-47.852,2422.809
1686112415.901,-12.695,202.148,154.297,-59.570,2422.813
1686112415.905,0.977,-84.961,60.059,-12.207,2422.817
1686112415.909,12.695,-252.441,10.254,17.578,2422.821
1686112415.913,-4.395,-90.820,53.711,-21.484,2422.825
1686112415.917,-25.879,77.637,66.406,-58.105,2422.841
1686112415.921,-18.066,-309.570,-27.832,-30.762,2422.845
1686112415.925,14.160,-303.711,42.480,10.254,2422.849
1686112415.929,-2.441,205.078,128.418,-8.789,2422.853
1686112415.933,-40.039,110.840,3.906,-48.828,2422.857
1686112415.937,-37.598,-289.551,-117.676,-36.133,2422.861
1686112415.940,-10.254,-354.004,8.789,1.465,2422.864
1686112415.944,0.000,-183.105,66.406,-14.648,2422.868
1686112415.948,-14.648,-41.016,21.484,-51.270,2422.872
1686112415.952,-29.297,-636.230,-259.766,-36.133,2422.876
1686112415.956,-16.113,-691.895,-112.793,0.000,2422.880
1686112415.960,-5.859,318.359,296.387,-1.465,2422.884
1686112415.976,-27.832,100.098,19.043,-49.805,2422.873
1686112415.980,-40.039,-391.602,-160.156,-65.430,2422.877
1686112415.984,-16.602,-16.602,86.426,-25.391,2422.880
1686112415.988,2.441,394.043,218.262,-8.301,2422.884
1686112415.992,-7.812,-20.508,-130.371,-31.738,2422.888
1686112415.996,-33.691,-764.160,-379.395,-53.223,2422.892
1686112415.999,-31.738,-347.656,73.242,-34.668,2422.896
1686112416.003,-3.906,205.078,232.910,3.418,2422.900
1686112416.007,-2.441,-364.746,-131.348,-10.742,2422.904
1686112416.011,-20.996,-663.086,-193.359,-49.316,2422.908
1686112416.015,-12.695,45.898,201.172,-45.898,2422.912
1686112416.019,5.371,375.000,201.660,-16.113,2422.916
1686112416.025,0.977,28.809,15.137,-24.414,2422.921
1686112416.029,-38.086,-107.422,24.902,-71.777,2422.924
1686112416.033,-66.406,187.012,133.789,-71.289,2422.928
1686112416.037,-40.527,181.641,94.238,-24.414,2422.932
1686112416.041,-25.879,-321.289,-95.215,-20.020,2422.936
1686112416.045,-49.805,-532.715,-111.816,-72.266,2422.940
1686112416.048,-71.289,-315.918,-13.184,-88.867,2422.944
1686112416.052,-49.316,-177.246,84.473,-35.156,2422.948
1686112416.056,-26.367,-586.914,-83.496,-1.953,2422.952
1686112416.060,-43.945,-532.715,-53.711,-35.645,2422.956
1686112416.064,-60.059,210.938,195.801,-71.777,2422.960
1686112416.068,-44.922,140.625,85.449,-46.387,2422.964
1686112416.066,-19.043,-349.609,-51.758,-8.301,2422.963
1686112416.070,-19.043,-112.305,73.242,-29.785,2422.967
1686112416.074,-44.434,289.551,124.023,-68.848,2422.971
1686112416.078,-50.781,-10.742,-19.531,-54.688,2422.974
1686112416.082,-25.391,-45.410,21.484,-0.488,2422.978
1686112416.086,-16.602,-33.203,43.457,-6.348,2422.982
1686112416.089,-43.945,-183.105,-55.664,-62.500,2422.986
1686112416.093,-55.664,-522.949,-256.348,-69.336,2422.990
1686112416.097,-19.531,-720.215,-117.188,-16.113,2422.994
1686112416.101,7.324,70.801,248.047,-5.859,2422.998
1686112416.105,-24.902,372.070,125.488,-55.176,2423.002
1686112416.109,-55.176,-366.211,-128.906,-70.312,2423.006
1686112416.110,-37.109,-393.555,-17.090,-37.598,2423.008
1686112416.114,-13.184,365.723,238.770,-7.812,2423.012
1686112416.118,-17.578,275.391,65.918,-32.227,2423.015
1686112416.122,-44.434,-143.555,-101.074,-65.918,2423.019
1686112416.126,-39.062,-77.148,39.062,-41.016,2423.023
1686112416.130,-3.906,-6.836,103.027,5.859,2423.027
1686112416.133,-4.395,-139.160,30.273,-18.555,2423.031
1686112416.137,-30.273,-596.191,-244.141,-57.129,2423.035
1686112416.141,-42.480,-870.605,-189.453,-41.504,2423.039
1686112416.145,-27.344,-106.934,258.301,-0.977,2423.043
1686112416.149,-15.137,268.066,175.781,0.977,2423.047
1686112416.153,-37.109,-202.148,16.602,-43.457,2423.051
1686112416.171,-53.223,-108.887,118.164,-56.641,2423.068
1686112416.175,-28.320,356.934,236.816,-16.113,2423.072
1686112416.179,-0.488,186.523,79.590,14.160,2423.075
1686112416.183,-20.020,-67.383,-59.570,-29.297,2423.079
1686112416.187,-49.805,77.148,45.898,-65.430,2423.083
1686112416.191,-32.227,-62.500,-8.301,-31.250,2423.087
1686112416.194,-10.742,-381.836,-141.113,4.883,2423.091
1686112416.198,-12.207,-613.770,-146.973,-9.766,2423.095
1686112416.202,-32.715,-122.070,141.602,-46.387,2423.099
1686112416.206,-45.410,243.652,171.387,-57.129,2423.103
1686112416.210,-17.578,51.270,77.637,-21.484,2423.107
1686112416.214,-1.953,-170.898,-17.090,-21.973,2423.111
1686112416.201,-39.551,-49.316,29.785,-75.195,2423.101
1686112416.205,-53.711,24.414,57.129,-76.660,2423.105
1686112416.209,-24.414,-250.488,-12.695,-36.133,2423.109
1686112416.213,-18.555,-71.289,83.496,-36.133,2423.113
1686112416.217,-43.945,161.133,92.285,-82.520,2423.117
1686112416.221,-51.270,-77.148,-83.984,-94.727,2423.121
1686112416.224,-25.879,-630.859,-218.262,-41.992,2423.125
1686112416.228,-1.953,-522.949,69.824,-17.090,2423.129
1686112416.232,-16.602,97.656,200.684,-49.805,2423.132
1686112416.236,-51.758,149.902,69.336,-74.219,2423.136
1686112416.240,-52.246,-608.887,-203.613,-37.598,2423.140
1686112416.244,-25.391,-738.770,-90.820,9.766,2423.144
1686112416.247,-22.949,217.773,269.043,-19.531,2423.172
1686112416.251,-46.387,58.105,22.461,-64.453,2423.176
1686112416.255,-41.504,-312.500,-21.973,-49.805,2423.179
1686112416.259,-5.859,141.113,192.383,2.441,2423.183
1686112416.263,1.953,389.160,174.316,-5.371,2423.187
1686112416.267,-35.156,-206.543,-170.410,-50.781,2423.191
1686112416.270,-51.758,-923.340,-357.910,-42.969,2423.195
1686112416.274,-35.156,-269.043,132.324,-11.719,2423.199
1686112416.278,-17.090,428.711,242.676,-10.742,2423.203
1686112416.282,-34.668,20.996,29.785,-52.734,2423.207
1686112416.286,-58.105,-117.188,59.570,-76.660,2423.211
1686112416.290,-34.180,210.449,164.551,-39.551,2423.215
1686112416.305,1.465,337.402,145.508,4.395,2423.203
1686112416.309,-8.789,40.039,-22.949,-27.832,2423.207
1686112416.313,-37.109,-74.707,-9.277,-83.984,2423.211
1686112416.317,-23.438,164.062,129.883,-49.316,2423.214
1686112416.321,-7.324,162.598,86.914,-4.883,2423.218
1686112416.325,-32.227,-438.965,-135.254,-25.879,2423.222
1686112416.328,-65.430,-678.711,-77.637,-74.219,2423.226
1686112416.332,-62.012,-303.223,100.098,-68.848,2423.230
1686112416.336,-26.367,-200.195,96.680,-18.555,2423.234
1686112416.340,-14.648,-237.305,130.371,-23.926,2423.238
1686112416.344,-39.551,-69.824,130.371,-67.383,2423.242
1686112416.348,-49.805,181.152,143.555,-76.660,2423.246
1686112416.350,-20.996,172.363,89.844,-35.156,2423.248
1686112416.354,-4.395,-580.078,-188.965,-7.324,2423.252
1686112416.358,-35.645,-511.719,-27.344,-39.062,2423.256
1686112416.362,-62.500,209.473,203.613,-68.848,2423.260
1686112416.366,-44.434,25.879,55.664,-36.621,2423.264
1686112416.370,-17.578,-289.062,-21.973,0.000,2423.268
1686112416.373,-22.949,-135.254,65.430,-36.133,2423.271
1686112416.377,-51.758,-78.125,35.156,-79.102,2423.275
1686112416.381,-40.039,-510.254,-160.645,-40.039,2423.279
1686112416.385,-14.648,-880.859,-198.730,8.789,2423.283
1686112416.389,-21.973,-195.312,165.039,-21.973,2423.287
1686112416.393,-44.922,204.102,175.781,-64.941,2423.291
1686112416.396,-51.758,-140.625,18.555,-63.477,2423.293
1686112416.400,-33.691,49.805,117.188,-20.996,2423.297
1686112416.404,-18.066,347.656,165.527,-1.953,2423.300
1686112416.408,-40.527,147.949,41.504,-50.781,2423.304
1686112416.412,-60.547,-219.727,-129.395,-66.895,2423.308
1686112416.416,-39.062,-300.293,-46.875,-22.949,2423.312
1686112416.419,-17.090,-182.129,60.547,-3.906,2423.316
1686112416.423,-30.762,-193.848,28.320,-41.504,2423.320
1686112416.427,-54.688,-688.965,-249.512,-65.430,2423.324
1686112416.431,-48.340,-884.766,-180.176,-31.250,2423.328
1686112416.435,-20.508,-98.145,268.555,-0.488,2423.332
1686112416.439,-13.672,110.840,104.492,-20.020,2423.336
1686112416.441,-39.062,-347.656,-13.672,-60.547,2423.338
1686112416.445,-42.480,-94.727,153.809,-46.387,2423.342
1686112416.449,-7.812,332.520,194.824,11.230,2423.345
1686112416.453,6.348,128.418,58.594,19.531,2423.349
1686112416.457,-23.438,-180.664,-81.543,-30.273,2423.353
1686112416.461,-46.875,-282.715,-62.988,-47.852,2423.357
1686112416.464,-16.113,-41.992,130.859,0.000,2423.361
1686112416.468,4.395,-172.363,-43.457,7.812,2423.365
1686112416.472,-20.996,-676.270,-219.727,-45.410,2423.369
1686112416.476,-39.062,-95.703,148.438,-68.359,2423.373
1686112416.480,-15.137,302.734,186.035,-26.367,2423.377
1686112416.484,11.230,60.547,61.035,8.301,2423.381
1686112416.486,-2.930,-257.324,-43.457,-29.297,2423.386
1686112416.490,-24.414,-95.215,56.641,-70.801,2423.390
1686112416.494,-16.602,210.938,129.883,-41.016,2423.393
1686112416.498,2.441,-183.105,13.672,0.488,2423.397
1686112416.502,-5.859,-304.688,19.043,-21.484,2423.401
1686112416.506,-28.809,-197.754,-13.672,-66.895,2423.405
1686112416.509,-22.461,-259.277,52.734,-59.570,2423.409
1686112416.513,2.441,-647.461,-124.023,-9.277,2423.413
1686112416.517,1.953,-809.570,-82.031,-2.930,2423.417
1686112416.521,-21.973,-60.059,242.188,-50.781,2423.421
1686112416.525,-45.410,41.016,99.609,-57.129,2423.425
1686112416.529,-28.320,-22.461,125.488,-3.906,2423.429
1686112416.531,-3.418,242.676,166.992,9.277,2423.428
1686112416.535,-24.414,285.645,118.652,-36.621,2423.432
1686112416.539,-38.574,-107.910,-91.797,-56.152,2423.435
1686112416.543,-26.367,-305.176,-90.820,-24.414,2423.439
1686112416.547,-15.137,112.793,160.645,-7.324,2423.443
1686112416.551,-26.855,-21.973,13.184,-38.086,2423.447
1686112416.554,-53.223,-571.777,-301.270,-62.012,2423.451
1686112416.558,-52.734,-916.016,-308.594,-29.785,2423.455
1686112416.562,-19.531,-259.766,185.547,6.348,2423.459
1686112416.566,-12.207,294.922,212.891,-10.742,2423.463
1686112416.570,-41.016,-120.117,-19.043,-57.617,2423.467
1686112416.574,-41.504,-180.664,59.570,-56.641,2423.471
1686112416.576,-7.324,195.801,192.871,-3.906,2423.489
1686112416.580,-1.953,242.188,132.324,3.418,2423.493
1686112416.584,-32.715,-116.211,-54.688,-50.781,2423.497
1686112416.588,-31.738,-105.957,19.531,-61.035,2423.501
1686112416.592,-8.789,90.820,89.844,-18.555,2423.504
1686112416.596,2.441,-89.844,38.086,-5.859,2423.508
1686112416.599,-18.555,-620.605,-229.492,-40.039,2423.512
1686112416.603,-56.152,-929.688,-259.766,-61.523,2423.516
1686112416.607,-24.414,-262.695,208.496,-29.785,2423.520
1686112416.611,14.648,158.203,186.523,2.441,2423.524
1686112416.615,-14.648,-509.277,-85.938,-21.484,2423.528
1686112416.619,-34.668,-451.172,60.059,-63.477,2423.532
1686112416.621,-15.625,244.629,226.074,-52.246,2423.532
1686112416.625,3.906,81.543,94.727,0.977,2423.536
1686112416.629,1.465,-141.113,27.832,2.441,2423.540
1686112416.633,-23.438,52.734,91.309,-47.852,2423.544
1686112416.637,-38.574,217.285,148.926,-56.152,2423.548
1686112416.641,-18.066,-234.375,-77.148,-12.695,2423.552
1686112416.644,-5.859,-578.613,-120.117,-0.977,2423.556
1686112416.648,-14.648,-115.234,114.258,-35.645,2423.560
1686112416.652,-33.203,-96.680,37.109,-63.477,2423.563
1686112416.656,-41.016,-538.574,-116.211,-33.203,2423.567
1686112416.660,-23.926,-555.176,-87.402,0.977,2423.571
1686112416.664,-23.926,90.820,148.438,-29.297,2423.575
1686112416.681,-46.387,95.703,82.520,-59.570,2423.578
1686112416.685,-35.156,-147.461,43.457,-25.391,2423.582
1686112416.689,-12.207,29.785,116.699,11.230,2423.586
1686112416.693,-17.090,227.051,123.047,-20.508,2423.590
1686112416.697,-39.551,1.465,0.000,-58.594,2423.594
1686112416.701,-40.527,-426.270,-143.066,-37.598,2423.598
1686112416.704,-13.184,-444.824,-23.438,1.465,2423.602
1686112416.708,-8.789,-275.391,82.031,-8.301,2423.606
1686112416.712,-41.016,-132.324,24.414,-54.199,2423.609
1686112416.716,-55.176,-632.812,-275.879,-45.898,2423.613
1686112416.720,-24.902,-826.172,-177.246,-0.977,2423.617
1686112416.724,0.488,-26.855,241.699,0.977,2423.621
1686112416.726,-19.531,-5.371,51.758,-36.621,2423.622
1686112416.730,-41.016,-434.082,-34.668,-59.082,2423.626
1686112416.734,-22.949,-53.711,190.430,-24.414,2423.630
1686112416.738,3.906,355.957,216.309,7.324,2423.634
1686112416.742,-16.113,39.551,-7.324,-31.250,2423.638
1686112416.746,-43.457,-468.262,-216.309,-65.918,2423.642
1686112416.749,-37.598,-285.156,29.785,-39.551,2423.646
1686112416.753,-11.230,220.703,216.309,2.441,2423.650
1686112416.757,-9.277,-228.027,-119.629,-3.906,2423.654
1686112416.761,-42.969,-843.750,-305.664,-46.387,2423.658
1686112416.765,-42.969,-210.938,137.207,-45.410,2423.662
1686112416.769,-6.836,266.113,227.539,3.906,2423.665
1686112416.771,-6.348,-18.066,46.875,5.859,2423.668
1686112416.775,-38.574,-357.910,-40.527,-40.527,2423.672
1686112416.779,-41.504,-105.957,88.867,-50.781,2423.676
1686112416.783,-10.742,241.211,162.109,-6.348,2423.680
1686112416.787,3.418,-284.668,-39.062,12.695,2423.684
1686112416.791,-12.695,-647.949,-118.652,-31.250,2423.688
1686112416.794,-37.598,-422.363,-35.156,-53.223,2423.692
1686112416.798,-31.738,-248.535,106.934,-17.090,2423.696
1686112416.802,-8.789,-604.004,-129.395,17.090,2423.700
1686112416.806,-9.766,-816.406,-147.461,-13.672,2423.704
1686112416.810,-34.668,-64.453,237.305,-67.871,2423.708
1686112416.814,-36.621,60.059,129.395,-49.805,2423.711
1686112416.816,-7.812,-31.250,132.812,-6.836,2423.717
1686112416.820,-11.230,161.621,147.461,-24.902,2423.721
1686112416.824,-39.062,207.520,93.262,-62.500,2423.725
1686112416.828,-36.621,-160.645,-70.312,-56.152,2423.729
1686112416.832,-12.695,-368.164,-77.637,-9.766,2423.733
1686112416.836,-9.277,-240.234,45.410,1.465,2423.737
1686112416.839,-42.969,-161.133,62.012,-51.758,2423.741
1686112416.843,-59.082,-402.344,-112.793,-66.406,2423.745
1686112416.847,-30.273,-873.535,-256.836,-10.742,2423.748
1686112416.851,-11.719,-178.223,169.434,1.465,2423.752
1686112416.855,-21.973,212.402,161.621,-41.992,2423.756
1686112416.859,-44.922,-196.777,-31.738,-67.383,2423.760
1686112416.860,-32.227,-144.043,46.875,-33.203,2423.757
1686112416.864,-4.883,255.371,177.246,0.488,2423.761
1686112416.868,-16.113,199.219,61.523,-32.715,2423.765
1686112416.872,-42.969,-160.645,-102.051,-67.383,2423.769
1686112416.876,-37.109,-113.281,21.973,-40.527,2423.773
1686112416.880,-17.578,-127.930,61.035,-5.371,2423.777
1686112416.883,-27.344,-298.828,-0.977,-27.832,2423.781
1686112416.887,-47.363,-677.246,-309.082,-66.895,2423.785
1686112416.891,-45.898,-1000.000,-323.242,-56.641,2423.789
1686112416.895,-20.020,-220.215,219.727,-18.555,2423.793
1686112416.899,-4.395,168.945,211.426,-6.836,2423.797
1686112416.903,-39.062,-147.949,59.082,-49.316,2423.800
1686112416.906,-66.406,9.277,130.371,-67.383,2423.803
1686112416.910,-43.457,234.375,177.246,-25.391,2423.807
1686112416.914,-13.672,56.641,41.504,-5.859,2423.811
1686112416.918,-22.949,-201.660,-66.895,-36.133,2423.815
1686112416.922,-47.363,-70.312,28.809,-62.988,2423.818
1686112416.926,-40.039,-123.047,57.129,-36.621,2423.822
1686112416.929,-17.578,-443.848,-95.703,-0.488,2423.826
1686112416.933,-21.973,-687.988,-175.781,-12.207,2423.830
1686112416.937,-41.992,-293.945,88.379,-59.570,2423.834
1686112416.941,-46.387,-138.184,103.516,-60.059,2423.838
1686112416.945,-21.484,-500.488,-39.551,-6.836,2423.842
1686112416.949,-9.277,-414.062,7.324,-7.324,2423.846
1686112416.951,-40.039,83.984,159.668,-56.641,2423.861
1686112416.955,-51.270,25.879,71.777,-53.711,2423.865
1686112416.959,-20.996,-122.070,62.500,-7.324,2423.869
1686112416.963,-6.348,18.555,108.398,-3.906,2423.873
1686112416.967,-26.367,88.867,48.828,-50.781,2423.877
1686112416.971,-44.434,-234.375,-96.191,-66.406,2423.880
1686112416.974,-30.762,-777.832,-273.438,-22.461,2423.884
1686112416.978,-5.859,-829.102,-137.207,0.977,2423.888
1686112416.982,-9.277,-175.781,184.570,-32.227,2423.892
1686112416.986,-32.715,2.930,88.379,-57.129,2423.896
1686112416.990,-35.156,-514.160,-65.918,-28.320,2423.900
1686112416.994,-13.672,-458.496,67.871,11.230,2423.904
1686112416.996,-10.742,30.273,175.781,-10.742,2423.907
1686112417.000,-42.969,-103.516,2.930,-64.941,2423.910
1686112417.004,-51.758,-440.918,-46.875,-58.105,2423.914
1686112417.008,-13.184,-16.602,187.988,-3.906,2423.918
1686112417.012,0.977,266.113,142.578,-1.465,2423.922
1686112417.016,-44.434,-375.977,-241.211,-50.781,2423.926
1686112417.019,-54.688,-706.055,-218.262,-60.547,2423.930
1686112417.023,-19.043,3.906,211.426,-17.090,2423.934
1686112417.027,-9.766,292.969,167.480,2.930,2423.938
1686112417.031,-36.621,-227.539,-61.035,-35.156,2423.942
1686112417.035,-58.594,-377.441,-22.949,-65.430,2423.946
1686112417.039,-53.223,75.684,165.039,-44.922,2423.949
1686112417.056,-37.109,193.359,136.719,-17.090,2423.954
1686112417.060,-46.387,-181.641,-49.316,-42.969,2423.957
1686112417.064,-68.359,-525.391,-129.395,-76.172,2423.961
1686112417.068,-52.246,-206.543,62.988,-43.945,2423.965
1686112417.072,-19.043,174.316,185.059,-3.906,2423.969
1686112417.076,-15.137,-453.613,-191.895,-10.254,2423.973
1686112417.079,-41.504,-937.988,-295.410,-57.617,2423.977
1686112417.083,-47.363,-452.148,118.164,-66.895,2423.981
1686112417.087,-13.184,-60.059,173.828,-5.371,2423.985
1686112417.091,-3.906,-486.816,-76.172,0.000,2423.989
1686112417.095,-39.551,-536.133,-9.766,-51.758,2423.993
1686112417.099,-52.246,80.078,193.359,-66.895,2423.997
1686112417.116,-23.438,6.348,96.191,-20.508,2424.013
1686112417.120,-2.930,-102.051,75.195,9.277,2424.017
1686112417.124,-22.461,18.555,84.473,-41.992,2424.021
1686112417.128,-37.598,54.688,66.895,-74.707,2424.025
1686112417.132,-22.461,-207.031,-33.691,-32.227,2424.029
1686112417.136,1.465,-474.609,-89.355,8.789,2424.032
1686112417.139,-7.324,-436.035,-0.977,-19.531,2424.036
1686112417.143,-39.551,-169.434,113.281,-68.848,2424.040
1686112417.147,-36.133,-395.020,-99.121,-43.945,2424.044
1686112417.151,-13.672,-872.559,-246.094,7.324,2424.048
1686112417.155,-4.395,-174.316,180.176,-17.578,2424.052
1686112417.159,-24.414,130.371,125.488,-60.059,2424.056
1686112417.145,-36.621,-378.418,-48.340,-51.758,2424.043
1686112417.149,-19.043,-311.523,65.430,-12.695,2424.047
1686112417.153,-2.930,140.625,171.387,-3.906,2424.050
1686112417.157,-18.066,59.570,60.547,-41.504,2424.054
1686112417.161,-45.410,-277.344,-131.348,-65.430,2424.058
1686112417.165,-23.926,-394.043,-70.312,-28.320,2424.062
1686112417.168,12.207,-324.219,73.242,4.395,2424.066
1686112417.172,-8.301,-401.855,-15.137,-32.715,2424.070
1686112417.176,-26.367,-591.797,-110.352,-62.500,2424.074
1686112417.180,-11.719,-261.719,94.238,-27.832,2424.078
1686112417.184,3.906,194.824,196.777,8.301,2424.082
1686112417.188,-0.977,17.578,38.086,-10.254,2424.086
1686112417.191,-30.762,-754.883,-341.797,-47.363,2424.088
1686112417.195,-50.781,-977.539,-268.555,-37.598,2424.092
1686112417.199,-26.855,-127.441,232.910,-0.977,2424.096
1686112417.203,-9.766,59.570,118.652,-0.977,2424.100
1686112417.207,-30.762,-289.062,-68.359,-37.598,2424.104
1686112417.211,-33.203,-341.309,27.832,-47.852,2424.108
1686112417.214,-10.742,-251.465,129.883,-5.859,2424.112
1686112417.218,-7.812,-408.203,-62.500,13.672,2424.115
1686112417.222,-33.203,-718.262,-163.574,-30.762,2424.119
1686112417.226,-46.875,-307.617,110.352,-63.477,2424.123
1686112417.230,-19.531,-109.375,128.418,-20.996,2424.127
1686112417.234,0.488,-455.566,-7.324,16.602,2424.131
1686112417.236,-22.949,-460.938,-8.301,-24.414,2424.134
1686112417.240,-40.039,5.371,148.926,-58.105,2424.138
1686112417.244,-19.531,-5.859,96.191,-27.832,2424.142
1686112417.248,7.324,-102.051,128.418,11.719,2424.145
1686112417.252,-5.371,-32.715,120.117,-8.789,2424.149
1686112417.256,-38.086,-260.742,-94.727,-47.852,2424.153
1686112417.259,-41.016,-426.270,-109.863,-38.574,2424.157
1686112417.263,-15.625,-707.520,-187.988,13.672,2424.161
1686112417.267,-6.836,-931.152,-202.637,23.438,2424.165
1686112417.271,-33.691,-224.609,152.344,-38.574,2424.169
1686112417.275,-44.434,-62.012,100.586,-59.082,2424.173
1686112417.279,-16.602,-174.316,101.074,-19.531,2424.177
1686112417.281,0.977,-76.660,119.141,-2.441,2424.181
1686112417.285,-25.879,-77.148,76.660,-44.922,2424.185
1686112417.289,-44.434,-220.215,-21.484,-76.660,2424.189
1686112417.293,-19.043,-399.414,-48.340,-29.785,2424.193
1686112417.297,2.441,-31.250,127.930,6.836,2424.197
1686112417.301,-19.531,-152.832,16.602,-25.879,2424.201
1686112417.304,-51.270,-642.578,-260.254,-53.711,2424.204
1686112417.308,-46.875,-924.805,-278.320,-26.855,2424.208
1686112417.312,-20.996,-220.703,190.430,8.301,2424.212
1686112417.316,-20.020,229.492,206.543,-8.301,2424.216
1686112417.320,-35.645,-229.980,-19.043,-48.340,2424.220
1686112417.324,-43.457,-242.676,50.293,-47.852,2424.224
1686112417.326,-25.879,155.273,179.199,-7.812,2424.237
1686112417.330,-13.672,208.984,116.211,-8.301,2424.241
1686112417.334,-44.434,-271.484,-93.262,-62.500,2424.245
1686112417.338,-62.500,-526.367,-137.695,-71.777,2424.249
1686112417.342,-35.645,-159.668,57.617,-18.066,2424.252
1686112417.346,-12.695,-147.461,105.957,14.648,2424.256
1686112417.349,-35.156,-658.203,-225.098,-23.926,2424.260
1686112417.353,-68.359,-1000.000,-400.879,-60.059,2424.264
1686112417.357,-51.758,-384.766,137.695,-27.832,2424.268
1686112417.361,-8.301,161.621,229.980,10.742,2424.272
1686112417.365,-2.441,-73.242,66.406,-10.742,2424.276
1686112417.369,-35.645,-66.895,106.445,-54.199,2424.280
1686112417.371,-39.062,103.027,139.648,-49.316,2424.282
1686112417.375,2.930,31.250,70.801,0.000,2424.286
1686112417.379,9.766,-152.344,-29.297,-4.883,2424.290
1686112417.383,-26.855,-49.805,58.105,-52.734,2424.294
1686112417.387,-34.180,7.324,75.195,-49.316,2424.298
1686112417.391,-5.371,-372.070,-109.863,-3.418,2424.302
1686112417.394,1.953,-769.531,-188.965,8.301,2424.306
1686112417.398,-26.855,-565.918,-22.949,-35.645,2424.310
1686112417.402,-54.688,-147.461,118.652,-68.359,2424.314
1686112417.406,-38.574,-457.520,-77.148,-24.902,2424.318
1686112417.410,-19.043,-772.949,-146.484,11.230,2424.321
1686112417.414,-30.273,-142.578,165.039,-28.320,2424.325
1686112417.430,-53.711,-39.062,93.750,-58.105,2424.328
1686112417.434,-48.828,-261.719,49.316,-29.785,2424.332
1686112417.438,-12.207,-116.699,91.797,11.230,2424.335
1686112417.442,-15.137,84.961,143.066,-12.695,2424.339
1686112417.446,-45.898,-42.969,25.391,-63.477,2424.343
1686112417.450,-49.316,-472.656,-150.879,-54.199,2424.347
1686112417.453,-20.508,-535.645,-2.441,-7.324,2424.351
1686112417.457,-15.137,-357.422,92.773,-9.766,2424.355
1686112417.461,-39.551,-423.828,-12.695,-52.734,2424.359
1686112417.465,-51.758,-812.500,-292.480,-50.293,2424.363
1686112417.469,-34.668,-926.270,-177.246,-8.789,2424.367
1686112417.473,-10.742,-115.234,272.461,1.953,2424.371
