timestamps,TP9,AF7,AF8,TP10,Secondary Timestamp
1686111259.932,-10.742,178.711,142.578,64.453,1266.829
1686111259.936,2.441,374.512,177.246,43.457,1266.833
1686111259.940,-80.078,18.555,-2.930,-94.238,1266.837
1686111259.944,-117.188,-208.496,-74.219,-102.539,1266.841
1686111259.948,-43.945,176.270,160.156,44.434,1266.845
1686111259.952,7.324,134.766,146.484,97.168,1266.849
1686111259.956,-51.270,-360.352,-119.141,-26.855,1266.853
1686111259.959,-117.676,-753.906,-306.152,-83.008,1266.856
1686111259.963,-67.383,-400.879,-0.977,41.016,1266.860
1686111259.967,11.719,227.051,199.707,125.488,1266.864
1686111259.971,-22.949,-141.602,-70.801,20.996,1266.868
1686111259.975,-96.680,-731.934,-282.715,-73.730,1266.872
1686111259.992,-67.383,-189.453,24.902,17.090,1266.889
1686111259.996,27.344,386.230,240.723,134.277,1266.893
1686111260.000,37.109,-296.875,-129.395,83.984,1266.897
1686111260.004,-49.805,-712.891,-235.352,-39.551,1266.901
1686111260.008,-56.152,19.043,133.301,-7.812,1266.905
1686111260.012,34.668,39.551,115.723,139.160,1266.909
1686111260.016,59.570,-570.312,-170.898,142.090,1266.913
1686111260.019,-7.324,-592.773,-171.387,3.906,1266.917
1686111260.023,-33.203,197.266,197.266,-13.184,1266.920
1686111260.027,37.598,300.293,145.996,124.023,1266.924
1686111260.031,59.570,-28.320,39.062,167.480,1266.928
1686111260.035,-18.066,-104.492,62.012,38.086,1266.932
1686111260.040,-74.707,182.617,131.348,-52.246,1266.940
1686111260.044,-27.344,134.766,79.102,71.289,1266.944
1686111260.048,51.758,-252.930,18.066,173.828,1266.948
1686111260.052,16.113,-29.785,118.164,68.848,1266.952
1686111260.056,-66.406,208.496,107.910,-47.363,1266.956
1686111260.060,-52.246,-298.340,-101.074,39.062,1266.960
1686111260.064,35.645,-395.508,-69.824,166.992,1266.964
1686111260.067,39.062,76.660,91.797,92.773,1266.968
1686111260.071,-42.480,171.387,116.699,-56.641,1266.971
1686111260.075,-57.129,-291.992,-106.445,-35.645,1266.975
1686111260.079,13.184,-644.043,-190.918,112.305,1266.979
1686111260.083,47.363,-255.859,71.777,115.234,1266.983
1686111260.068,-19.531,-134.277,-20.020,-30.273,1266.979
1686111260.072,-64.453,-404.297,-67.871,-64.453,1266.982
1686111260.076,-3.418,-246.094,82.520,72.754,1266.986
1686111260.080,63.477,302.246,184.082,132.324,1266.990
1686111260.084,25.391,218.750,83.008,18.066,1266.994
1686111260.088,-55.176,-413.086,-90.820,-65.918,1266.998
1686111260.092,-27.832,-430.664,7.812,34.668,1267.002
1686111260.095,49.316,236.328,187.500,137.207,1267.006
1686111260.099,24.902,275.391,120.605,47.363,1267.010
1686111260.103,-59.570,-527.344,-272.949,-61.035,1267.014
1686111260.107,-62.988,-1000.000,-401.855,-1.953,1267.018
1686111260.111,18.066,-116.211,124.512,104.004,1267.021
1686111260.127,41.016,245.117,105.469,62.500,1267.024
1686111260.131,-20.508,-162.598,-65.918,-69.824,1267.028
1686111260.135,-46.875,28.809,91.797,-66.895,1267.032
1686111260.139,29.785,300.293,164.062,75.684,1267.036
1686111260.143,92.773,1.465,25.391,120.605,1267.040
1686111260.147,16.113,-631.836,-231.445,-23.926,1267.044
1686111260.151,-64.453,-397.949,-60.547,-116.699,1267.048
1686111260.154,7.812,302.734,212.402,5.859,1267.052
1686111260.158,78.125,-46.875,-47.363,89.355,1267.056
1686111260.162,32.227,-536.133,-167.969,-12.207,1267.060
1686111260.166,-44.434,-37.598,76.660,-127.930,1267.063
1686111260.170,-27.832,65.918,74.707,-60.547,1267.067
1686111260.172,49.805,-502.441,-137.207,65.918,1267.070
1686111260.176,48.828,-612.305,-218.750,6.836,1267.074
1686111260.180,-14.648,69.824,112.305,-128.906,1267.077
1686111260.184,-14.648,230.469,128.418,-92.285,1267.081
1686111260.188,63.477,36.621,104.980,51.758,1267.085
1686111260.192,85.449,-213.379,35.156,49.805,1267.089
1686111260.196,13.672,-309.082,-65.430,-82.031,1267.093
1686111260.199,-21.973,-95.703,56.152,-104.492,1267.097
1686111260.203,42.969,-553.223,-178.223,26.855,1267.101
1686111260.207,79.102,-664.551,-189.453,65.918,1267.105
1686111260.211,19.043,122.559,112.305,-68.359,1267.109
1686111260.215,-37.109,-88.379,-54.199,-128.418,1267.113
1686111260.217,14.160,-86.914,19.043,1.465,1267.128
1686111260.221,90.332,341.309,187.988,90.332,1267.132
1686111260.225,57.129,411.621,148.926,-21.973,1267.136
1686111260.229,-23.438,20.020,-30.762,-117.676,1267.140
1686111260.233,-4.883,-150.391,-44.922,-28.320,1267.143
1686111260.237,62.500,-60.547,58.594,84.961,1267.147
1686111260.241,49.316,60.059,124.512,12.207,1267.151
1686111260.244,-33.203,-110.352,-66.406,-127.441,1267.155
1686111260.248,-44.434,-670.410,-305.664,-93.750,1267.159
1686111260.252,41.016,-257.812,35.645,41.992,1267.163
1686111260.256,68.359,367.676,238.281,32.715,1267.167
1686111260.260,-12.207,-258.301,-170.898,-86.426,1267.171
1686111260.262,-53.223,-749.512,-268.066,-104.492,1267.159
1686111260.266,29.297,104.004,168.457,10.254,1267.163
1686111260.270,93.262,379.395,161.133,75.684,1267.167
1686111260.274,31.738,-40.527,-14.160,-45.410,1267.171
1686111260.278,-43.457,-85.938,0.000,-137.207,1267.175
1686111260.282,-12.695,-39.551,42.480,-20.020,1267.178
1686111260.286,54.688,-78.613,48.340,87.402,1267.182
1686111260.289,20.996,-507.812,-194.824,3.906,1267.186
1686111260.293,-60.547,-598.633,-199.219,-105.957,1267.190
1686111260.297,-46.387,212.891,163.574,-53.223,1267.194
1686111260.301,37.598,290.527,120.605,70.801,1267.198
1686111260.305,38.086,-225.098,-88.379,34.668,1267.202
1686111260.309,-38.574,-185.547,-41.016,-93.750,1267.210
1686111260.313,-50.781,273.438,169.922,-87.891,1267.214
1686111260.317,18.066,145.508,65.918,36.133,1267.218
1686111260.321,34.180,-226.562,-32.715,45.898,1267.222
1686111260.325,-28.320,-98.633,34.668,-82.520,1267.226
1686111260.329,-65.430,-126.465,-24.414,-109.375,1267.230
1686111260.333,-21.484,-389.648,-130.859,15.137,1267.234
1686111260.336,13.672,-583.008,-185.547,70.801,1267.238
1686111260.340,-32.227,-166.504,19.531,-46.387,1267.242
1686111260.344,-78.125,193.848,81.543,-137.207,1267.245
1686111260.348,-36.621,37.598,48.828,-38.086,1267.249
1686111260.352,29.785,-122.070,30.762,70.312,1267.253
1686111260.353,17.578,-12.207,79.590,-10.742,1267.262
1686111260.357,-45.410,120.117,79.102,-129.883,1267.266
1686111260.361,-57.617,-299.805,-50.293,-85.449,1267.270
1686111260.365,8.789,-152.832,90.820,33.691,1267.274
1686111260.369,34.180,280.762,132.812,9.766,1267.278
1686111260.373,-32.227,-35.645,-48.340,-108.398,1267.282
1686111260.377,-62.500,-645.508,-333.008,-103.027,1267.286
1686111260.380,4.395,-949.707,-345.703,34.180,1267.290
1686111260.384,55.664,-113.281,113.770,58.105,1267.293
1686111260.388,-8.301,231.934,90.332,-72.754,1267.297
1686111260.392,-70.312,-49.805,12.207,-119.141,1267.301
1686111260.396,-22.461,157.715,143.066,-0.977,1267.305
1686111260.397,32.227,416.504,181.152,73.730,1267.309
1686111260.401,-15.137,154.785,12.207,-38.086,1267.313
1686111260.405,-77.637,-164.062,-90.332,-129.883,1267.317
1686111260.409,-45.410,125.488,102.539,-40.527,1267.320
1686111260.413,39.551,231.934,138.184,73.242,1267.324
1686111260.417,36.133,-229.492,-120.605,16.602,1267.328
1686111260.421,-55.176,-850.098,-405.273,-111.816,1267.332
1686111260.424,-56.641,-451.660,-63.477,-82.520,1267.336
1686111260.428,32.715,291.992,204.102,49.316,1267.340
1686111260.432,52.734,-16.602,-41.016,41.992,1267.344
1686111260.436,-16.113,-200.684,-57.617,-92.773,1267.348
1686111260.440,-39.551,-107.910,31.250,-101.074,1267.352
1686111260.457,21.484,-84.473,44.922,31.250,1267.354
1686111260.461,49.316,-438.477,-169.922,61.035,1267.358
1686111260.465,-3.418,-637.695,-238.770,-60.059,1267.362
1686111260.469,-45.410,73.730,104.492,-117.676,1267.366
1686111260.473,5.371,280.273,126.953,0.000,1267.370
1686111260.477,73.730,-58.594,-9.277,87.891,1267.374
1686111260.481,44.434,-225.098,-43.457,-1.953,1267.378
1686111260.484,-28.809,-182.129,-21.973,-92.773,1267.382
1686111260.488,-18.555,13.184,55.664,-19.043,1267.386
1686111260.492,39.062,-450.684,-158.203,100.098,1267.390
1686111260.496,28.320,-671.875,-219.727,41.992,1267.393
1686111260.500,-40.527,121.094,112.793,-92.285,1267.397
1686111260.502,-48.828,59.082,33.691,-62.988,1267.399
1686111260.506,29.297,-2.930,62.012,76.172,1267.403
1686111260.510,57.129,264.160,157.227,74.219,1267.407
1686111260.514,-11.719,295.898,130.859,-75.684,1267.411
1686111260.518,-52.734,-6.836,-8.789,-92.285,1267.415
1686111260.522,17.090,-308.594,-92.285,56.641,1267.419
1686111260.526,79.102,-104.980,49.805,98.145,1267.423
1686111260.529,33.203,253.418,159.668,-30.273,1267.427
1686111260.533,-25.391,-151.367,-104.004,-91.797,1267.430
1686111260.537,5.371,-734.375,-335.449,23.926,1267.434
1686111260.541,78.125,-211.914,16.113,120.605,1267.438
1686111260.545,65.918,62.500,92.773,26.367,1267.442
1686111260.547,-12.207,-569.336,-271.484,-86.426,1267.444
1686111260.551,-13.184,-864.746,-357.910,-26.855,1267.448
1686111260.555,78.125,-56.152,87.891,93.262,1267.452
1686111260.559,97.168,427.734,167.969,62.012,1267.456
1686111260.563,6.836,-223.633,-98.633,-66.406,1267.460
1686111260.567,-18.555,-557.617,-120.605,-50.781,1267.464
1686111260.571,62.988,-14.648,102.539,89.355,1267.468
1686111260.574,102.051,306.641,120.117,109.375,1267.472
1686111260.578,23.926,-412.598,-232.422,-22.461,1267.476
1686111260.582,-35.156,-595.703,-197.266,-63.477,1267.480
1686111260.586,36.133,284.180,187.500,60.547,1267.483
1686111260.590,93.750,306.641,122.070,127.441,1267.487
1686111260.592,33.203,-196.289,-99.609,17.578,1267.489
1686111260.596,-30.762,-177.734,-68.359,-78.613,1267.493
1686111260.600,17.578,281.738,156.250,18.066,1267.497
1686111260.604,85.938,203.613,87.891,125.977,1267.501
1686111260.608,51.758,-259.277,-62.988,34.180,1267.505
1686111260.612,-18.066,-339.844,-66.406,-80.566,1267.509
1686111260.616,-3.418,-14.160,87.402,-21.973,1267.513
1686111260.619,64.453,-15.137,1.953,102.539,1267.517
1686111260.623,62.012,-551.270,-224.121,80.078,1267.520
1686111260.627,-17.090,-165.527,18.555,-57.617,1267.524
1686111260.631,-45.898,217.773,106.934,-54.688,1267.528
1686111260.635,22.949,-190.430,-8.789,87.891,1267.532
1686111260.637,62.500,-222.656,18.555,103.027,1267.535
1686111260.641,12.207,165.039,107.910,-28.809,1267.539
1686111260.645,-22.461,241.211,123.047,-69.336,1267.543
1686111260.649,34.180,-421.387,-143.066,60.059,1267.546
1686111260.653,88.867,-670.410,-202.148,123.047,1267.550
1686111260.657,51.270,-164.062,39.551,1.465,1267.554
1686111260.661,-13.184,-177.246,-20.996,-91.797,1267.558
1686111260.664,6.836,-625.488,-218.262,-0.488,1267.562
1686111260.668,70.801,-516.113,-107.422,113.770,1267.566
1686111260.672,60.059,333.496,194.336,50.293,1267.570
1686111260.676,-19.043,186.035,21.973,-66.895,1267.574
1686111260.680,-35.156,-70.801,14.648,-29.297,1267.578
1686111260.682,39.551,201.172,176.758,101.562,1267.580
1686111260.686,61.035,402.832,184.082,81.055,1267.584
1686111260.690,-14.648,54.199,-6.348,-60.059,1267.587
1686111260.694,-42.480,-137.207,-63.965,-76.172,1267.591
1686111260.698,29.785,119.141,72.754,61.523,1267.595
1686111260.702,75.195,-25.879,64.453,99.609,1267.599
1686111260.706,24.902,-371.094,-160.645,-19.531,1267.603
1686111260.709,-41.016,-911.133,-467.773,-75.195,1267.607
1686111260.713,14.160,-377.441,-37.109,32.715,1267.611
1686111260.717,80.566,388.184,217.773,104.980,1267.615
1686111260.721,34.180,86.426,13.672,2.930,1267.619
1686111260.725,-33.203,-313.965,-77.637,-96.191,1267.623
1686111260.727,-17.090,-103.027,49.316,-21.484,1267.638
1686111260.731,67.871,460.938,266.602,106.934,1267.642
1686111260.735,71.289,-217.285,-133.789,64.453,1267.646
1686111260.739,-7.812,-606.445,-247.070,-79.102,1267.650
1686111260.743,-11.719,150.391,118.652,-55.176,1267.654
1686111260.747,58.105,156.738,106.934,92.773,1267.658
1686111260.751,70.312,-500.000,-180.664,94.727,1267.662
1686111260.754,-5.371,-658.203,-244.629,-43.945,1267.666
1686111260.758,-38.574,-102.539,68.359,-69.824,1267.669
1686111260.762,26.367,98.145,78.613,58.594,1267.673
1686111260.766,66.895,-45.898,-19.043,100.098,1267.677
1686111260.770,22.461,15.137,25.879,-15.137,1267.681
1686111260.772,-30.762,277.832,99.121,-87.891,1267.683
1686111260.776,-2.930,145.020,70.312,16.113,1267.687
1686111260.780,64.941,91.797,96.680,107.422,1267.691
1686111260.784,47.852,237.305,101.074,12.207,1267.695
1686111260.788,-21.484,255.859,112.305,-100.098,1267.699
1686111260.792,-23.438,-197.266,-60.059,-25.879,1267.703
1686111260.796,44.922,-484.375,-92.285,91.309,1267.707
1686111260.799,65.430,37.109,130.859,35.156,1267.711
1686111260.803,5.371,314.453,145.996,-85.449,1267.715
1686111260.807,-13.184,-156.738,-94.727,-51.758,1267.719
1686111260.811,46.387,-458.496,-192.871,85.938,1267.723
1686111260.815,73.242,-145.508,45.898,90.820,1267.726
1686111260.832,7.324,-89.844,20.020,-45.410,1267.729
1686111260.836,-44.922,-546.875,-251.465,-80.566,1267.733
1686111260.840,1.953,-749.023,-219.238,48.828,1267.737
1686111260.844,73.730,80.566,157.227,104.980,1267.741
1686111260.848,39.551,294.434,83.984,-0.977,1267.745
1686111260.852,-37.109,-267.090,-119.141,-82.520,1267.749
1686111260.856,-8.301,-359.863,-28.809,3.906,1267.752
1686111260.859,66.406,169.434,152.344,107.910,1267.756
1686111260.863,48.340,263.672,50.293,37.598,1267.760
1686111260.867,-20.996,-415.039,-155.273,-78.613,1267.764
1686111260.871,-16.113,-313.477,33.691,-28.809,1267.768
1686111260.875,57.129,397.461,212.402,95.703,1267.772
1686111260.878,66.895,203.613,54.688,60.059,1267.776
1686111260.882,-2.930,-293.945,-138.184,-74.219,1267.780
1686111260.886,-24.902,-133.301,12.695,-67.871,1267.784
1686111260.890,42.480,318.359,192.871,67.383,1267.788
1686111260.894,79.590,140.625,30.762,94.238,1267.792
1686111260.898,5.371,-581.055,-259.766,-36.133,1267.796
1686111260.902,-38.086,-514.160,-187.988,-91.309,1267.800
1686111260.905,29.785,215.820,149.902,27.832,1267.804
1686111260.909,77.637,-7.812,-49.316,101.074,1267.807
1686111260.913,26.367,-666.992,-327.148,-3.906,1267.811
1686111260.917,-35.156,-248.535,-31.738,-106.445,1267.815
1686111260.921,-6.348,9.766,75.195,-17.090,1267.819
1686111260.922,59.570,-471.680,-150.391,95.215,1267.834
1686111260.926,41.504,-592.285,-200.195,27.344,1267.837
1686111260.930,-27.832,30.273,96.680,-104.980,1267.841
1686111260.934,-36.621,172.852,100.098,-73.242,1267.845
1686111260.938,26.367,-125.977,-24.902,58.105,1267.849
1686111260.942,37.598,-319.336,-56.152,42.480,1267.853
1686111260.946,-23.926,-143.555,21.973,-76.172,1267.857
1686111260.949,-50.293,191.406,145.508,-82.520,1267.861
1686111260.953,-2.930,-441.406,-154.785,37.109,1267.865
1686111260.957,44.434,-693.359,-178.223,63.965,1267.869
1686111260.961,-1.953,177.246,145.020,-61.035,1267.873
1686111260.965,-62.988,115.234,27.344,-118.164,1267.877
1686111260.967,-9.277,-83.496,31.250,-13.184,1267.864
1686111260.971,58.594,179.688,128.418,76.172,1267.868
1686111260.975,28.320,330.078,155.762,-19.043,1267.872
1686111260.979,-33.203,25.879,-17.578,-122.559,1267.876
1686111260.983,-10.742,-98.633,-36.621,-35.645,1267.880
1686111260.987,60.547,-24.902,72.754,93.750,1267.884
1686111260.991,44.434,-137.207,30.273,44.922,1267.888
1686111260.994,-36.621,-433.105,-210.449,-87.891,1267.891
1686111260.998,-41.016,-418.457,-198.242,-60.059,1267.895
1686111261.002,41.504,241.211,153.320,70.312,1267.899
1686111261.006,69.824,361.328,138.184,62.500,1267.903
1686111261.010,-4.883,-306.641,-139.648,-65.918,1267.907
1686111261.012,-60.547,-1000.000,-532.227,-91.309,1267.909
1686111261.016,15.137,-510.254,-167.480,21.973,1267.913
1686111261.020,80.566,336.426,193.848,75.195,1267.917
1686111261.024,11.719,53.711,1.465,-27.832,1267.921
1686111261.028,-46.875,-49.805,-5.371,-104.492,1267.925
1686111261.032,-0.977,13.184,50.781,-4.883,1267.929
1686111261.036,62.012,35.156,87.891,88.867,1267.933
1686111261.039,31.738,-446.289,-183.594,4.883,1267.936
1686111261.043,-34.668,-654.297,-232.910,-97.656,1267.940
1686111261.047,-5.371,-5.859,120.605,-24.902,1267.944
1686111261.051,75.195,203.613,118.652,91.309,1267.948
1686111261.055,76.172,-95.215,-39.062,42.480,1267.952
1686111261.057,0.488,-54.688,9.277,-85.449,1267.954
1686111261.061,-21.484,279.785,145.996,-79.102,1267.958
1686111261.065,43.457,169.434,98.633,48.340,1267.962
1686111261.069,71.777,56.152,55.664,68.848,1267.966
1686111261.073,10.742,141.113,56.152,-51.758,1267.970
1686111261.077,-33.691,-45.410,9.766,-83.984,1267.974
1686111261.081,33.203,-314.941,-70.312,47.852,1267.977
1686111261.084,90.332,-574.219,-167.969,121.094,1267.981
1686111261.088,30.762,-117.188,65.918,4.883,1267.985
1686111261.092,-26.855,320.312,149.414,-83.008,1267.989
1686111261.096,6.348,27.344,1.465,6.348,1267.993
1686111261.100,62.012,-171.387,8.301,99.609,1267.997
1686111261.103,43.457,-144.531,7.324,13.672,1268.002
1686111261.107,-28.320,28.809,42.480,-118.164,1268.006
1686111261.111,-41.992,-375.488,-136.719,-55.176,1268.010
1686111261.115,28.320,-706.055,-184.570,85.449,1268.014
1686111261.119,55.176,27.832,137.695,50.293,1268.018
1686111261.123,-6.348,36.133,17.090,-77.637,1268.022
1686111261.127,-37.598,-671.387,-311.035,-71.777,1268.026
1686111261.130,20.996,-526.367,-156.250,57.617,1268.030
1686111261.134,69.824,303.711,185.059,86.914,1268.034
1686111261.138,15.137,157.715,22.949,-30.762,1268.038
1686111261.142,-43.457,-89.355,24.414,-89.844,1268.041
1686111261.146,5.371,171.875,154.785,24.414,1268.045
1686111261.162,74.707,458.008,177.734,91.309,1268.060
1686111261.166,28.320,188.965,50.293,-21.484,1268.064
1686111261.170,-41.016,-287.109,-92.773,-111.328,1268.068
1686111261.174,-9.277,0.000,80.566,-24.902,1268.072
1686111261.178,65.918,370.117,171.875,88.867,1268.076
1686111261.182,50.293,-83.984,-58.105,30.762,1268.080
1686111261.186,-32.715,-894.531,-428.223,-83.496,1268.084
1686111261.189,-39.062,-474.609,-133.301,-55.664,1268.088
1686111261.193,55.664,390.625,249.023,76.172,1268.092
1686111261.197,78.125,170.410,36.621,73.730,1268.096
1686111261.201,-11.230,-48.340,-27.832,-68.359,1268.099
1686111261.205,-39.062,-134.277,5.371,-86.914,1268.103
1686111261.207,33.203,99.609,136.230,43.945,1268.104
1686111261.211,69.336,-164.551,-47.363,85.938,1268.108
1686111261.215,1.953,-566.406,-210.449,-39.551,1268.112
1686111261.219,-41.504,110.352,130.371,-106.934,1268.116
1686111261.223,5.859,249.512,141.602,3.906,1268.120
1686111261.227,58.105,-106.445,1.465,93.262,1268.124
1686111261.231,24.414,-355.469,-78.125,0.000,1268.128
1686111261.234,-48.828,-148.438,20.996,-111.328,1268.132
1686111261.238,-35.645,223.633,159.180,-41.504,1268.136
1686111261.242,29.297,-440.918,-170.410,85.449,1268.139
1686111261.246,14.648,-695.801,-225.098,30.762,1268.143
1686111261.250,-43.945,145.020,116.699,-105.469,1268.147
1686111261.252,-43.945,102.539,54.688,-71.289,1268.149
1686111261.256,20.020,-15.137,75.684,66.895,1268.153
1686111261.260,48.828,224.121,141.602,60.059,1268.157
1686111261.264,-13.672,288.574,118.164,-69.336,1268.161
1686111261.268,-53.223,16.602,4.395,-86.426,1268.165
1686111261.272,5.859,-263.672,-71.777,47.852,1268.169
1686111261.276,50.781,-148.926,58.105,101.562,1268.173
1686111261.279,5.371,-68.848,72.754,-20.020,1268.177
1686111261.283,-52.734,-386.719,-194.824,-94.727,1268.180
1686111261.287,-21.484,-854.492,-318.848,7.812,1268.184
1686111261.291,48.340,-274.902,49.316,103.516,1268.188
1686111261.295,30.762,86.426,67.383,22.461,1268.192
1686111261.297,-48.340,-625.488,-310.547,-84.961,1268.194
1686111261.301,-33.691,-628.906,-220.215,-20.996,1268.198
1686111261.305,58.594,245.117,187.988,100.586,1268.202
1686111261.309,62.988,377.930,118.652,61.035,1268.206
1686111261.313,-20.996,-54.199,-60.059,-76.172,1268.210
1686111261.317,-45.410,-286.621,-37.598,-61.035,1268.214
1686111261.321,22.949,-45.898,130.371,79.590,1268.218
1686111261.324,62.012,328.125,179.688,96.191,1268.222
1686111261.328,-7.812,-351.562,-182.617,-23.926,1268.225
1686111261.332,-60.059,-652.832,-208.008,-78.125,1268.229
1686111261.336,11.719,35.156,144.043,47.852,1268.233
1686111261.340,70.312,166.992,104.492,118.652,1268.237
1686111261.342,14.648,-172.852,-34.180,-20.996,1268.239
1686111261.346,-42.480,-70.312,43.457,-111.328,1268.243
1686111261.350,-1.953,327.637,187.012,2.930,1268.247
1686111261.354,67.871,220.215,116.211,113.770,1268.251
1686111261.358,44.434,-20.020,-15.625,38.086,1268.255
1686111261.362,-36.621,-253.418,-110.352,-79.102,1268.259
1686111261.366,-19.531,-127.441,9.766,-25.391,1268.263
1686111261.369,64.941,-57.129,16.602,121.094,1268.266
1686111261.373,61.035,-551.270,-183.105,92.285,1268.270
1686111261.377,-12.207,-166.016,36.133,-68.359,1268.274
1686111261.381,-23.926,319.336,146.484,-72.266,1268.278
1686111261.385,33.691,-18.066,33.691,71.777,1268.282
1686111261.388,59.082,-359.375,-52.246,99.609,1268.288
1686111261.392,1.465,-138.672,39.062,-35.645,1268.292
1686111261.396,-42.969,243.652,152.832,-92.773,1268.296
1686111261.400,12.207,-283.203,-115.234,32.715,1268.299
1686111261.404,72.754,-660.156,-181.641,121.582,1268.303
1686111261.408,40.527,-143.066,43.945,22.461,1268.307
1686111261.412,-29.297,-90.820,10.742,-76.660,1268.311
1686111261.415,-12.695,-580.078,-167.480,9.766,1268.315
1686111261.419,56.641,-495.605,-111.816,115.723,1268.319
1686111261.423,62.012,309.082,185.059,46.875,1268.323
1686111261.427,-3.906,128.418,24.902,-65.430,1268.327
1686111261.431,-6.348,-60.059,11.230,-29.297,1268.331
1686111261.432,68.359,261.230,162.598,108.398,1268.329
1686111261.436,83.496,462.402,181.152,98.633,1268.333
1686111261.440,5.859,69.336,16.602,-42.480,1268.337
1686111261.444,-27.344,-310.547,-108.887,-51.758,1268.341
1686111261.448,47.852,54.199,74.707,78.125,1268.345
1686111261.452,91.797,75.684,97.656,122.559,1268.349
1686111261.456,39.551,-322.266,-134.277,1.465,1268.352
1686111261.459,-17.090,-866.211,-412.109,-65.918,1268.356
1686111261.463,14.160,-422.852,-36.133,41.016,1268.360
1686111261.467,76.660,414.551,242.188,128.418,1268.364
1686111261.471,49.805,110.352,-2.930,38.086,1268.368
1686111261.475,-22.949,-387.207,-177.246,-64.941,1268.372
1686111261.478,-5.859,-196.289,-6.348,8.789,1268.374
1686111261.482,85.938,421.875,237.793,123.047,1268.378
1686111261.486,73.730,-157.715,-101.562,67.871,1268.382
1686111261.490,-15.625,-580.078,-210.938,-61.035,1268.386
1686111261.494,-17.578,128.906,124.512,-34.668,1268.390
1686111261.498,58.594,158.203,134.277,107.910,1268.394
1686111261.502,70.312,-515.137,-195.801,102.539,1268.398
1686111261.505,-9.766,-706.543,-240.234,-43.457,1268.401
1686111261.509,-34.180,153.320,166.016,-79.590,1268.405
1686111261.513,32.715,334.961,120.605,50.781,1268.409
1686111261.517,71.777,73.730,67.871,105.469,1268.413
1686111261.521,16.602,155.762,124.023,-19.043,1268.417
1686111261.522,-46.387,305.664,130.371,-95.215,1268.434
1686111261.526,0.488,185.547,86.426,16.602,1268.438
1686111261.530,71.777,54.199,77.148,107.910,1268.442
1686111261.534,41.016,178.223,103.027,14.160,1268.445
1686111261.538,-23.926,196.289,98.145,-88.867,1268.449
1686111261.542,-15.137,-204.590,-61.035,-23.438,1268.453
1686111261.546,45.410,-654.297,-181.152,104.492,1268.457
1686111261.549,51.758,-166.504,40.527,58.594,1268.461
1686111261.553,-18.555,80.566,59.082,-83.008,1268.465
1686111261.557,-49.316,-458.496,-182.617,-65.918,1268.469
1686111261.561,20.996,-306.641,-95.215,67.383,1268.473
1686111261.565,68.359,90.820,113.770,84.961,1268.477
1686111261.597,2.930,-106.934,-24.902,-45.898,1268.494
1686111261.601,-49.316,-572.754,-266.602,-81.543,1268.498
1686111261.605,18.555,-527.344,-160.645,49.316,1268.502
1686111261.609,92.773,292.480,186.035,113.770,1268.506
1686111261.613,45.898,313.477,94.238,6.348,1268.510
1686111261.617,-35.156,-234.863,-94.727,-84.473,1268.514
1686111261.621,2.930,-302.734,-2.441,12.695,1268.518
1686111261.624,78.613,271.973,198.730,120.605,1268.522
1686111261.628,52.734,347.168,96.191,35.645,1268.526
1686111261.632,-19.531,-391.602,-145.996,-86.914,1268.529
1686111261.636,-18.066,-438.477,-33.691,-34.668,1268.533
1686111261.640,54.199,88.867,166.504,87.891,1268.537
1686111261.627,62.988,110.352,68.359,63.965,1268.524
1686111261.631,-20.508,-269.043,-128.418,-60.547,1268.528
1686111261.635,-39.551,-126.953,15.137,-66.895,1268.532
1686111261.639,39.551,359.375,221.680,69.336,1268.536
1686111261.643,81.055,216.797,81.543,96.191,1268.540
1686111261.647,7.812,-326.172,-196.289,-39.551,1268.544
1686111261.651,-40.527,-240.723,-53.711,-89.355,1268.548
1686111261.654,31.250,252.930,185.059,26.367,1268.552
1686111261.658,83.496,1.465,-20.508,100.586,1268.555
1686111261.662,26.367,-217.285,-94.238,-1.953,1268.559
1686111261.666,-35.645,102.051,112.305,-104.980,1268.563
1686111261.670,5.859,39.062,95.215,-18.066,1268.567
1686111261.688,79.102,-387.207,-83.496,104.492,1268.588
1686111261.692,49.805,-1000.000,-479.492,47.852,1268.592
1686111261.696,-21.484,-698.242,-267.578,-85.449,1268.596
1686111261.700,-18.066,119.141,122.559,-58.105,1268.600
1686111261.704,58.594,123.047,128.418,85.938,1268.604
1686111261.708,82.031,-125.488,62.988,82.031,1268.607
1686111261.712,7.812,-211.914,-37.109,-61.523,1268.611
1686111261.715,-24.902,79.590,62.988,-81.055,1268.615
1686111261.719,30.762,-361.816,-103.027,64.941,1268.619
1686111261.723,71.777,-492.676,-101.074,105.469,1268.623
1686111261.727,32.715,225.098,146.484,-20.020,1268.627
1686111261.731,-21.484,61.035,0.000,-86.426,1268.631
1686111261.717,16.113,-50.293,34.180,21.973,1268.614
1686111261.721,91.797,258.301,178.711,117.676,1268.618
1686111261.725,75.684,366.211,136.719,22.949,1268.622
1686111261.729,-7.324,41.016,2.441,-91.797,1268.626
1686111261.733,5.371,-239.746,-26.855,-17.578,1268.630
1686111261.737,82.031,-185.059,41.992,106.934,1268.634
1686111261.741,81.543,75.195,101.074,59.082,1268.638
1686111261.744,0.977,-134.766,-84.961,-72.266,1268.642
1686111261.748,-31.250,-388.672,-142.578,-54.199,1268.646
1686111261.752,42.480,184.570,164.062,70.801,1268.649
1686111261.756,73.730,415.039,177.734,66.895,1268.653
1686111261.760,-5.859,-203.125,-101.074,-55.176,1268.657
1686111261.762,-66.406,-1000.000,-542.969,-78.125,1268.659
1686111261.766,11.719,-613.281,-217.773,38.086,1268.663
1686111261.770,72.754,235.840,191.895,86.914,1268.667
1686111261.774,20.996,32.715,17.578,-17.090,1268.671
1686111261.778,-33.691,-6.348,6.348,-92.285,1268.675
1686111261.782,1.465,-15.137,37.109,5.859,1268.679
1686111261.786,74.219,-62.012,71.777,114.746,1268.683
1686111261.789,48.340,-512.207,-232.422,42.969,1268.687
1686111261.793,-33.203,-770.996,-343.750,-82.031,1268.690
1686111261.797,-9.766,129.883,118.164,-26.367,1268.694
1686111261.801,67.871,311.523,120.605,105.469,1268.698
1686111261.805,61.523,31.738,46.387,49.805,1268.702
1686111261.808,-6.348,154.297,82.031,-84.961,1268.707
1686111261.812,-9.766,301.270,96.680,-59.570,1268.710
1686111261.816,54.688,204.102,100.586,75.684,1268.714
1686111261.820,73.730,51.270,72.754,89.355,1268.718
1686111261.824,15.137,111.328,42.969,-36.621,1268.722
1686111261.828,-21.484,-38.086,12.695,-75.684,1268.726
1686111261.832,30.273,-266.113,-51.758,50.293,1268.730
1686111261.835,84.961,-539.062,-151.855,116.699,1268.734
1686111261.839,52.734,-171.387,23.926,8.301,1268.738
1686111261.843,-5.371,45.410,74.707,-77.637,1268.742
1686111261.847,11.230,-343.750,-122.070,11.230,1268.746
1686111261.851,66.895,-458.496,-142.090,113.281,1268.749
1686111261.867,55.664,-38.574,87.891,29.785,1268.764
1686111261.871,-13.184,219.238,111.328,-91.797,1268.768
1686111261.875,-21.973,-176.758,-17.578,-39.062,1268.772
1686111261.879,41.016,-50.293,99.121,93.750,1268.776
1686111261.883,62.012,337.402,162.598,80.078,1268.780
1686111261.887,-6.348,23.438,-1.953,-44.922,1268.784
1686111261.891,-39.062,-623.047,-270.508,-54.688,1268.788
1686111261.894,21.973,-877.441,-284.180,68.359,1268.792
1686111261.898,63.965,15.137,152.344,87.891,1268.795
1686111261.902,3.906,270.508,67.871,-49.805,1268.799
1686111261.906,-40.039,-94.727,-32.715,-91.797,1268.803
1686111261.910,12.695,-80.078,44.922,40.527,1268.807
1686111261.900,69.824,147.461,124.512,95.215,1268.801
1686111261.904,37.109,108.887,47.363,-18.066,1268.805
1686111261.908,-38.086,-315.918,-158.691,-96.191,1268.809
1686111261.912,-12.695,-25.391,56.152,-10.254,1268.813
1686111261.916,65.918,391.113,189.453,92.285,1268.816
1686111261.920,41.504,-43.457,-48.340,31.250,1268.820
1686111261.924,-39.551,-388.672,-128.418,-87.402,1268.824
1686111261.927,-35.156,63.477,132.812,-42.480,1268.828
1686111261.931,31.738,418.945,210.938,85.449,1268.832
1686111261.935,50.293,-62.988,-81.055,74.707,1268.836
1686111261.939,-12.207,-648.926,-313.477,-59.570,1268.840
1686111261.943,-42.480,-365.723,-35.645,-84.473,1268.844
1686111261.958,27.344,69.336,115.723,47.363,1268.857
1686111261.962,65.430,-54.199,14.160,87.402,1268.861
1686111261.966,-4.395,-442.383,-129.883,-43.457,1268.865
1686111261.970,-63.965,-112.793,0.000,-118.164,1268.869
1686111261.974,-12.695,284.668,146.973,2.441,1268.873
1686111261.978,44.434,-264.160,-101.074,113.281,1268.877
1686111261.982,-4.883,-1000.000,-490.723,21.484,1268.881
1686111261.985,-57.617,-476.074,-165.039,-100.586,1268.885
1686111261.989,-18.066,245.117,134.766,-23.926,1268.889
1686111261.993,51.758,188.477,119.141,102.539,1268.893
1686111261.997,56.641,287.598,168.457,47.363,1268.896
1686111262.001,-9.766,321.777,109.863,-90.332,1268.900
1686111262.002,-26.855,148.438,50.781,-74.219,1268.899
1686111262.006,30.273,-50.781,87.891,68.848,1268.903
1686111262.010,51.270,158.203,138.672,69.336,1268.907
1686111262.014,-8.301,329.590,120.117,-66.406,1268.911
1686111262.018,-48.828,15.137,9.766,-89.844,1268.915
1686111262.022,14.160,-226.074,-56.152,41.504,1268.919
1686111262.026,58.105,-147.461,30.762,95.215,1268.923
1686111262.029,9.277,71.777,108.398,-29.785,1268.927
1686111262.033,-45.410,-88.379,-80.078,-98.145,1268.931
1686111262.037,-29.785,-825.195,-336.426,17.090,1268.935
1686111262.041,45.898,-260.254,55.176,105.469,1268.938
1686111262.045,30.273,180.176,115.723,11.230,1268.942
1686111262.047,-53.223,-548.828,-252.441,-98.633,1268.944
1686111262.051,-38.086,-600.098,-191.406,-45.410,1268.948
1686111262.055,37.598,225.586,177.246,74.219,1268.952
1686111262.059,42.969,406.738,177.246,36.621,1268.956
1686111262.063,-38.086,-26.367,-43.457,-102.539,1268.960
1686111262.067,-64.941,-324.707,-142.578,-88.379,1268.964
1686111262.071,10.254,-39.551,62.500,45.898,1268.968
1686111262.074,45.410,226.074,134.766,61.035,1268.971
1686111262.078,-25.879,-518.066,-249.512,-62.988,1268.975
1686111262.082,-70.312,-767.090,-275.391,-98.633,1268.979
1686111262.086,9.766,199.219,178.223,37.109,1268.983
1686111262.090,68.848,318.359,108.398,110.840,1268.987
1686111262.092,6.348,-35.645,-8.789,-1.953,1268.989
1686111262.096,-60.059,89.844,81.543,-94.238,1268.993
1686111262.100,-27.344,332.520,166.016,-5.371,1268.997
1686111262.104,46.387,242.188,99.609,108.887,1269.001
1686111262.108,34.668,-22.461,-14.160,39.551,1269.005
1686111262.112,-34.180,-158.203,-40.039,-85.449,1269.009
1686111262.116,-24.414,-141.113,48.828,-34.180,1269.013
1686111262.119,53.711,-200.684,-37.109,107.910,1269.017
1686111262.123,58.105,-544.922,-194.824,80.566,1269.020
1686111262.127,-13.184,-197.266,-0.488,-59.082,1269.024
1686111262.131,-35.156,66.406,85.449,-59.082,1269.028
1686111262.135,30.273,-346.680,-98.633,85.938,1269.032
1686111262.137,68.359,-696.777,-256.348,127.441,1269.034
1686111262.141,9.766,-49.805,51.758,-20.508,1269.038
1686111262.145,-40.039,281.738,126.953,-82.031,1269.042
1686111262.149,5.371,75.684,125.488,41.992,1269.046
1686111262.153,58.105,212.891,123.047,111.328,1269.050
1686111262.157,10.742,10.254,11.230,-0.488,1269.054
1686111262.161,-58.594,-127.930,25.879,-111.328,1269.058
1686111262.164,-50.293,-547.363,-185.059,-28.809,1269.062
1686111262.168,14.160,-527.344,-100.586,91.309,1269.065
1686111262.172,25.879,336.426,193.359,21.973,1269.069
1686111262.176,-44.922,191.895,28.320,-110.352,1269.073
1686111262.180,-50.781,-7.812,55.664,-62.988,1269.077
1686111262.183,36.133,109.375,105.957,92.773,1269.082
1686111262.187,44.434,194.336,113.770,67.871,1269.086
1686111262.191,-53.711,94.727,26.855,-96.680,1269.090
1686111262.195,-89.355,-277.832,-63.477,-110.352,1269.094
1686111262.199,-8.301,-3.906,106.445,44.922,1269.098
1686111262.203,24.902,101.562,90.332,82.520,1269.102
1686111262.207,-53.711,-325.684,-193.359,-61.523,1269.106
1686111262.210,-103.516,-709.961,-322.266,-118.164,1269.109
1686111262.214,-46.875,-129.395,82.031,-6.836,1269.113
1686111262.218,19.531,435.059,190.918,75.684,1269.117
1686111262.222,-11.719,60.059,-23.926,-19.043,1269.121
1686111262.226,-96.191,-361.328,-203.613,-132.324,1269.125
1686111262.242,-58.594,-95.215,-20.508,-45.410,1269.139
1686111262.246,50.781,473.145,244.141,91.797,1269.143
1686111262.250,49.316,-164.551,-105.469,53.223,1269.147
1686111262.254,-35.156,-811.035,-332.031,-79.102,1269.151
1686111262.258,-49.805,-116.211,10.742,-55.176,1269.155
1686111262.262,45.898,125.000,118.164,97.168,1269.159
1686111262.266,74.707,-515.625,-191.406,105.957,1269.163
1686111262.269,0.488,-828.125,-339.844,-37.109,1269.167
1686111262.273,-29.785,-20.020,78.125,-72.754,1269.171
1686111262.277,39.062,334.961,143.555,66.895,1269.174
1686111262.281,81.055,165.039,93.750,124.023,1269.178
1686111262.285,21.973,199.707,105.957,2.441,1269.182
1686111262.272,-24.902,288.574,99.609,-86.426,1269.183
1686111262.276,13.184,203.125,88.867,13.672,1269.187
1686111262.280,75.684,99.121,57.129,120.605,1269.191
1686111262.284,55.664,224.121,103.027,29.785,1269.195
1686111262.288,-17.578,200.195,53.223,-71.777,1269.199
1686111262.292,-12.695,-236.816,-148.438,8.301,1269.203
1686111262.296,53.711,-473.633,-131.348,115.234,1269.207
1686111262.299,52.734,-104.004,54.688,61.523,1269.211
1686111262.303,-8.301,251.465,136.230,-79.102,1269.214
1686111262.307,-31.250,-89.844,-78.125,-71.777,1269.218
1686111262.311,15.625,-824.219,-324.707,71.777,1269.222
1686111262.315,49.805,-529.297,-33.691,77.148,1269.226
1686111262.332,0.000,-93.262,8.789,-65.918,1269.229
1686111262.336,-39.551,-536.621,-268.555,-91.797,1269.233
1686111262.340,20.508,-567.383,-179.688,44.922,1269.237
1686111262.344,85.938,268.555,166.504,111.816,1269.241
1686111262.348,47.363,400.391,111.328,7.324,1269.245
1686111262.352,-25.391,-356.934,-112.793,-70.801,1269.249
1686111262.356,3.418,-400.879,-24.414,13.672,1269.253
1686111262.359,75.684,341.309,179.199,104.980,1269.257
1686111262.363,49.805,260.254,64.453,37.109,1269.261
1686111262.367,-31.738,-508.301,-188.965,-79.102,1269.264
1686111262.371,-35.156,-412.109,-57.129,-40.527,1269.268
1686111262.375,42.969,433.105,222.168,81.543,1269.272
1686111262.377,61.035,302.734,85.938,59.082,1269.274
1686111262.381,-9.277,-137.207,-17.090,-77.637,1269.278
1686111262.385,-41.504,51.758,111.816,-93.750,1269.282
1686111262.389,22.461,385.254,204.102,35.156,1269.286
1686111262.393,56.152,232.422,63.477,66.895,1269.290
1686111262.397,-5.371,-283.203,-172.852,-49.316,1269.294
1686111262.401,-51.758,-223.145,-35.645,-99.609,1269.298
1686111262.404,-2.441,319.336,230.957,12.695,1269.301
1686111262.408,49.805,115.234,7.324,110.352,1269.305
1686111262.412,16.113,-582.031,-255.371,17.578,1269.309
1686111262.416,-30.273,-245.605,-16.113,-93.750,1269.313
1686111262.420,-0.977,103.027,101.562,-6.348,1269.317
1686111262.422,62.012,-351.074,-113.770,117.676,1269.319
1686111262.426,49.316,-749.512,-290.527,49.316,1269.323
1686111262.430,-17.090,-120.605,20.020,-96.680,1269.327
1686111262.434,-27.832,208.008,102.539,-62.500,1269.331
1686111262.438,33.691,76.660,102.051,80.566,1269.335
1686111262.442,53.711,-69.336,49.316,75.195,1269.339
1686111262.446,-16.602,-155.273,-6.836,-69.336,1269.343
1686111262.449,-45.898,104.980,97.168,-89.844,1269.347
1686111262.453,13.672,-459.473,-170.898,50.293,1269.350
1686111262.457,52.734,-561.523,-145.996,83.984,1269.354
1686111262.461,20.996,252.930,156.250,-40.527,1269.358
1686111262.465,-27.344,113.770,0.977,-101.074,1269.362
1686111262.468,-2.930,-14.160,19.531,9.277,1269.368
1686111262.472,57.617,66.406,84.961,109.863,1269.372
1686111262.476,26.367,91.309,80.566,17.090,1269.376
1686111262.480,-51.270,29.297,23.438,-99.121,1269.380
1686111262.484,-34.180,-323.730,-75.195,-19.531,1269.384
1686111262.488,38.574,-310.547,-18.066,107.422,1269.388
1686111262.492,39.062,10.742,86.426,50.293,1269.391
1686111262.495,-29.297,-94.727,-62.500,-82.031,1269.395
1686111262.499,-47.852,-668.457,-277.832,-52.246,1269.399
1686111262.503,24.902,-80.078,71.289,82.031,1269.403
1686111262.507,56.152,466.797,178.223,78.613,1269.407
1686111262.511,-14.648,-111.328,-95.215,-46.875,1269.411
1686111262.512,-55.664,-318.848,-81.055,-78.613,1269.409
1686111262.516,9.766,267.578,179.199,37.109,1269.413
1686111262.520,60.547,499.512,161.133,87.402,1269.417
1686111262.524,7.812,-201.172,-109.375,-23.438,1269.421
1686111262.528,-52.246,-627.930,-249.512,-80.078,1269.425
1686111262.532,-14.648,-229.492,-28.809,23.438,1269.429
1686111262.536,45.898,-7.812,101.074,112.305,1269.433
1686111262.539,15.137,-487.305,-206.543,35.156,1269.437
1686111262.543,-53.711,-800.293,-361.328,-69.336,1269.441
1686111262.547,-27.832,111.816,122.070,-21.484,1269.445
1686111262.551,54.199,395.996,137.695,111.328,1269.448
1686111262.555,55.176,117.188,32.227,83.496,1269.452
1686111262.557,-14.160,135.254,74.219,-62.500,1269.454
1686111262.561,-35.645,271.484,95.215,-59.570,1269.458
1686111262.565,22.949,224.609,89.844,74.219,1269.462
1686111262.569,50.293,109.863,101.562,92.773,1269.466
1686111262.573,-3.418,167.969,86.426,-37.109,1269.470
1686111262.577,-49.316,-81.055,-31.738,-81.055,1269.474
1686111262.581,1.465,-291.504,-57.129,40.527,1269.478
1686111262.584,47.363,-779.297,-300.781,116.211,1269.481
1686111262.588,2.930,-469.238,-130.859,-1.465,1269.485
1686111262.592,-41.992,286.133,131.836,-97.656,1269.489
1686111262.596,-4.883,74.707,7.324,6.836,1269.493
1686111262.600,57.129,-124.023,-16.113,115.234,1269.497
1686111262.602,38.574,6.836,75.684,23.926,1269.499
1686111262.606,-23.926,287.109,158.203,-96.191,1269.503
1686111262.610,-20.996,-232.910,-123.535,-31.250,1269.507
1686111262.614,52.246,-446.289,-153.320,102.051,1269.511
1686111262.618,66.895,234.375,170.410,70.312,1269.515
1686111262.622,-8.301,76.660,4.395,-65.918,1269.519
1686111262.626,-46.875,-637.695,-324.219,-68.359,1269.523
1686111262.629,3.418,-586.914,-180.176,57.617,1269.527
1686111262.633,60.547,281.738,183.105,84.961,1269.531
1686111262.637,10.254,80.566,1.465,-39.551,1269.535
1686111262.641,-44.922,-425.781,-147.949,-88.379,1269.538
1686111262.645,2.930,-78.613,74.707,29.785,1269.542
1686111262.647,67.871,442.383,214.844,102.539,1269.559
1686111262.651,32.715,131.836,0.488,5.371,1269.563
1686111262.655,-44.434,-194.824,-88.379,-94.727,1269.566
1686111262.659,-1.953,151.367,111.816,-6.348,1269.570
1686111262.663,84.473,359.375,170.898,119.141,1269.574
1686111262.667,52.246,-108.398,-77.148,49.316,1269.578
1686111262.671,-33.203,-740.234,-308.105,-72.266,1269.582
1686111262.674,-28.320,-249.023,23.926,-33.691,1269.586
1686111262.678,52.734,405.273,226.562,95.215,1269.590
1686111262.682,83.008,136.719,47.852,93.262,1269.594
1686111262.686,17.090,-50.781,-25.879,-27.344,1269.598
1686111262.690,-15.137,-73.242,3.906,-45.410,1269.602
1686111262.694,44.434,-50.781,70.801,84.961,1269.603
1686111262.698,83.008,-374.023,-119.629,133.301,1269.607
1686111262.702,11.230,-803.223,-347.168,-10.742,1269.611
1686111262.706,-38.086,-137.207,25.879,-100.586,1269.615
1686111262.710,23.926,315.918,188.477,21.484,1269.619
1686111262.714,86.426,-47.852,-0.488,126.465,1269.622
1686111262.718,51.270,-238.770,-48.340,29.297,1269.626
1686111262.721,-17.090,136.230,103.027,-86.426,1269.630
1686111262.725,0.488,268.066,83.984,-10.742,1269.634
1686111262.729,58.594,-289.062,-46.875,113.770,1269.638
1686111262.733,44.434,-356.445,-19.043,49.316,1269.642
1686111262.737,-26.855,102.051,58.105,-90.332,1269.646
1686111262.752,-24.414,84.473,35.156,-66.895,1269.650
1686111262.756,44.434,45.898,64.941,72.754,1269.654
1686111262.760,60.547,24.414,59.082,83.496,1269.657
1686111262.764,-5.371,3.418,46.387,-59.570,1269.661
1686111262.768,-38.574,50.293,36.133,-95.703,1269.665
1686111262.772,10.742,-577.148,-168.945,43.945,1269.669
1686111262.776,54.688,-422.852,-17.090,99.121,1269.673
1686111262.779,18.555,319.824,187.500,-26.367,1269.677
1686111262.783,-47.363,-83.984,-78.125,-97.656,1269.681
1686111262.787,-12.695,-418.945,-152.832,15.137,1269.685
1686111262.791,71.289,225.586,166.992,108.398,1269.689
1686111262.795,55.176,199.219,78.125,27.832,1269.693
1686111262.797,-25.879,-547.852,-236.816,-79.102,1269.694
1686111262.801,-17.578,-639.648,-192.383,-18.555,1269.698
1686111262.805,62.988,231.934,206.543,103.516,1269.702
1686111262.809,81.055,436.523,152.832,60.059,1269.706
1686111262.813,15.137,-51.270,-62.988,-62.500,1269.710
1686111262.817,-17.578,-245.117,-57.617,-48.828,1269.714
1686111262.821,51.758,-121.094,40.039,80.078,1269.718
1686111262.824,89.355,38.086,78.125,99.121,1269.721
1686111262.828,16.113,-491.211,-240.234,-29.297,1269.725
1686111262.832,-26.367,-784.180,-296.875,-77.148,1269.729
1686111262.836,41.992,170.410,166.504,37.598,1269.733
1686111262.840,87.891,385.254,121.094,111.328,1269.737
1686111262.842,35.645,52.246,31.738,6.348,1269.754
1686111262.846,-37.109,146.484,97.656,-83.984,1269.758
1686111262.850,-18.066,337.891,172.363,13.672,1269.762
1686111262.854,56.641,270.996,141.113,126.465,1269.766
1686111262.858,45.410,21.484,28.320,54.199,1269.769
1686111262.862,-33.691,-242.188,-72.266,-72.266,1269.773
1686111262.866,-32.227,-68.848,60.059,-27.344,1269.777
1686111262.869,42.480,79.590,62.500,103.027,1269.781
1686111262.873,47.363,-740.723,-325.684,86.426,1269.785
1686111262.877,-23.438,-506.348,-101.074,-57.617,1269.789
1686111262.881,-37.109,360.840,216.797,-78.125,1269.793
1686111262.885,28.320,-151.855,-98.633,59.082,1269.797
1686111262.887,48.828,-452.637,-163.086,79.590,1269.784
1686111262.891,-12.695,182.129,127.930,-53.711,1269.788
1686111262.895,-46.387,241.211,102.539,-95.215,1269.792
1686111262.899,7.812,-19.043,61.523,29.297,1269.796
1686111262.903,59.570,10.254,76.172,111.816,1269.800
1686111262.907,20.996,18.555,46.875,-0.488,1269.804
1686111262.911,-52.246,-215.332,-61.523,-111.328,1269.808
1686111262.914,-22.461,-289.551,-40.039,-20.996,1269.812
1686111262.918,62.012,47.852,122.070,102.051,1269.815
1686111262.922,46.387,308.594,157.227,33.203,1269.819
1686111262.926,-32.227,63.477,16.113,-90.820,1269.823
1686111262.930,-41.992,-665.039,-299.805,-46.875,1269.827
1686111262.932,34.180,-574.219,-165.039,87.402,1269.829
1686111262.936,63.965,354.004,217.285,69.824,1269.833
1686111262.940,-6.348,68.848,-14.648,-71.289,1269.837
1686111262.944,-38.086,-176.270,-36.133,-83.008,1269.841
1686111262.948,33.691,202.148,144.043,55.176,1269.845
1686111262.952,72.754,100.098,87.891,85.938,1269.849
1686111262.956,7.324,-319.336,-105.957,-41.504,1269.853
1686111262.959,-57.617,-703.125,-267.578,-101.562,1269.857
1686111262.963,-7.812,-143.555,68.359,1.953,1269.861
1686111262.967,64.453,453.613,231.934,94.238,1269.864
1686111262.971,29.297,87.402,17.090,-1.953,1269.868
1686111262.975,-39.551,-334.473,-144.043,-99.609,1269.872
1686111262.978,-12.207,-250.977,-43.945,-11.719,1269.878
1686111262.982,61.523,41.016,115.234,103.516,1269.881
1686111262.986,50.293,-401.855,-149.414,51.758,1269.885
1686111262.990,-33.203,-783.203,-312.500,-86.426,1269.889
1686111262.994,-44.434,-108.887,27.344,-74.707,1269.893
1686111262.998,32.715,129.395,129.395,68.848,1269.897
1686111263.002,55.176,-496.582,-163.574,83.008,1269.901
1686111263.005,-46.387,-677.246,-217.773,-59.082,1269.905
1686111263.009,-114.258,142.578,166.992,-92.285,1269.909
1686111263.013,-52.734,279.297,126.465,46.875,1269.913
1686111263.017,-7.812,95.703,95.703,99.609,1269.917
1686111263.021,-55.664,192.871,120.605,-18.555,1269.921
1686111263.022,-96.680,285.645,103.516,-88.867,1269.933
1686111263.026,-45.898,190.918,104.980,23.438,1269.937
1686111263.030,7.324,56.152,80.566,110.352,1269.941
1686111263.034,-14.160,-48.340,36.133,18.066,1269.945
1686111263.038,-69.336,-59.570,-2.930,-97.168,1269.949
1686111263.042,-79.102,-141.602,-39.551,-53.223,1269.952
1686111263.046,-32.227,-805.176,-294.922,70.801,1269.956
1686111263.049,-15.625,-574.707,-145.020,29.785,1269.960
1686111263.053,-67.383,201.172,136.230,-99.609,1269.964
1686111263.057,-97.168,20.996,0.977,-91.797,1269.968
1686111263.061,-12.695,29.785,70.312,42.969,1269.972
1686111263.065,28.320,52.246,67.871,68.848,1269.976
1686111263.082,-43.945,-52.734,34.180,-60.059,1269.979
1686111263.086,-90.332,-387.207,-124.512,-109.375,1269.983
1686111263.090,-35.645,-548.828,-140.137,16.602,1269.987
1686111263.094,27.344,251.953,218.750,91.797,1269.991
1686111263.098,-22.949,307.617,85.938,-24.902,1269.995
1686111263.102,-96.191,-387.207,-131.836,-113.281,1269.999
1686111263.106,-65.918,-524.902,-41.992,-18.066,1270.003
1686111263.109,17.578,38.574,141.113,89.355,1270.007
1686111263.113,6.836,329.590,158.203,19.043,1270.011
1686111263.117,-77.637,-415.527,-198.242,-92.773,1270.015
1686111263.121,-68.848,-580.078,-162.598,-46.387,1270.019
1686111263.125,21.484,345.703,244.141,79.590,1270.022
1686111263.127,31.250,264.648,88.379,62.988,1270.024
1686111263.131,-33.203,-83.008,-22.949,-71.289,1270.028
1686111263.135,-57.129,83.496,84.961,-76.172,1270.032
1686111263.139,-1.953,329.102,165.527,53.223,1270.036
1686111263.143,38.574,232.422,96.680,79.102,1270.040
1686111263.147,-18.066,-270.996,-168.457,-49.805,1270.044
1686111263.151,-67.383,-278.809,-79.590,-101.562,1270.048
1686111263.154,-8.789,212.402,189.941,18.555,1270.052
1686111263.158,53.223,14.648,10.254,105.469,1270.056
1686111263.162,14.648,-817.383,-358.887,3.418,1270.059
1686111263.166,-41.016,-531.250,-160.156,-106.445,1270.063
1686111263.170,-12.695,0.977,96.191,-14.648,1270.067
1686111263.172,48.828,-438.477,-129.883,114.746,1270.069
1686111263.176,36.621,-591.797,-211.426,46.875,1270.073
1686111263.180,-36.133,60.059,109.375,-93.750,1270.077
1686111263.184,-41.992,273.926,168.945,-43.457,1270.081
1686111263.188,32.227,53.711,63.965,102.051,1270.085
1686111263.192,45.898,-225.098,-29.297,79.102,1270.089
1686111263.196,-19.043,-157.715,25.391,-57.129,1270.093
1686111263.199,-41.504,189.453,112.305,-78.125,1270.097
1686111263.203,11.230,-398.438,-153.320,55.664,1270.100
1686111263.207,47.363,-570.801,-150.391,100.586,1270.104
1686111263.211,3.906,141.602,124.023,-25.391,1270.108
1686111263.215,-53.223,-125.000,-13.672,-86.426,1270.112
1686111263.217,-7.324,-352.539,-46.387,27.344,1270.128
1686111263.221,66.406,51.270,89.844,116.211,1270.132
1686111263.225,38.574,330.566,139.160,9.766,1270.136
1686111263.229,-35.156,-1.465,1.465,-102.051,1270.139
1686111263.233,-27.832,-116.699,19.043,-20.020,1270.143
1686111263.237,38.086,-55.664,75.684,104.004,1270.147
1686111263.241,41.992,-33.691,94.238,48.340,1270.151
1686111263.244,-23.438,-158.691,-44.434,-78.125,1270.155
1686111263.248,-45.898,-669.434,-258.301,-60.547,1270.159
1686111263.252,25.391,-112.793,104.004,57.617,1270.163
1686111263.256,61.035,490.723,267.090,64.453,1270.167
1686111263.260,-14.648,-265.625,-138.184,-68.359,1270.171
1686111263.263,-60.059,-602.539,-228.516,-92.285,1270.162
1686111263.267,9.766,16.113,103.516,36.133,1270.166
1686111263.271,52.734,76.172,114.746,85.938,1270.170
1686111263.275,-4.395,-480.957,-166.016,-20.996,1270.174
1686111263.279,-52.246,-636.230,-207.520,-93.750,1270.178
1686111263.283,-10.742,-183.594,60.547,9.766,1270.182
1686111263.287,50.781,-69.336,63.965,116.211,1270.186
1686111263.290,25.879,-462.891,-154.297,32.227,1270.190
1686111263.294,-51.270,-547.363,-145.996,-92.773,1270.194
1686111263.298,-26.367,274.902,197.754,-37.109,1270.198
1686111263.302,59.570,371.582,146.973,92.773,1270.202
1686111263.306,62.500,-100.586,-28.320,54.688,1270.205
1686111263.308,-1.953,-81.543,17.090,-69.336,1270.206
1686111263.312,-15.625,288.574,169.922,-45.410,1270.210
1686111263.316,41.016,211.914,144.043,87.402,1270.214
1686111263.320,72.266,40.039,104.492,97.168,1270.217
1686111263.324,10.742,-69.336,27.832,-37.109,1270.221
1686111263.328,-45.898,-240.234,-25.879,-85.938,1270.225
1686111263.332,2.930,-228.027,17.090,37.109,1270.229
1686111263.335,55.664,-741.211,-225.098,116.699,1270.233
1686111263.339,17.090,-537.109,-99.121,2.441,1270.237
1686111263.343,-36.133,256.348,193.848,-94.727,1270.241
1686111263.347,-11.230,106.445,64.453,2.441,1270.245
1686111263.351,52.246,-165.039,12.207,113.281,1270.249
1686111263.352,33.203,-1.953,78.125,32.715,1270.249
1686111263.356,-32.715,289.551,143.066,-86.914,1270.253
1686111263.360,-29.297,-290.039,-98.145,-22.949,1270.257
1686111263.364,44.434,-454.590,-124.512,114.258,1270.261
1686111263.368,69.336,267.090,161.133,84.473,1270.265
1686111263.372,2.441,71.289,68.848,-41.992,1270.269
1686111263.376,-34.668,-629.883,-226.074,-32.227,1270.273
1686111263.379,-5.859,-788.086,-226.562,83.496,1270.277
1686111263.383,32.715,104.492,177.246,91.797,1270.281
1686111263.387,-5.371,290.527,93.750,-30.273,1270.284
1686111263.391,-63.477,-81.543,19.043,-81.543,1270.288
1686111263.395,-25.879,97.168,157.227,26.367,1270.292
1686111263.397,30.762,460.449,210.938,100.098,1270.308
1686111263.401,3.418,270.020,84.473,0.000,1270.312
1686111263.405,-57.129,-40.039,28.320,-102.539,1270.316
1686111263.409,-26.855,142.578,129.395,-17.578,1270.320
1686111263.413,54.688,349.121,166.504,108.887,1270.324
1686111263.417,41.992,-56.152,-33.203,45.898,1270.328
1686111263.421,-43.457,-745.605,-266.602,-82.520,1270.331
1686111263.424,-43.945,-291.992,18.555,-50.293,1270.335
1686111263.428,44.434,352.051,200.684,87.402,1270.339
1686111263.432,59.082,-73.730,-51.270,86.914,1270.343
1686111263.436,-7.324,-253.418,-107.910,-51.758,1270.347
1686111263.440,-37.598,-125.000,49.316,-70.312,1270.351
1686111263.457,24.902,104.980,183.105,62.500,1270.369
1686111263.461,81.055,-118.164,-4.883,119.629,1270.372
1686111263.465,17.578,-648.926,-203.613,-4.395,1270.376
1686111263.469,-32.227,33.203,122.070,-76.660,1270.380
1686111263.473,28.809,393.066,177.734,51.270,1270.384
1686111263.477,82.031,-210.449,-4.395,147.461,1270.388
1686111263.481,37.109,-432.617,-19.531,33.691,1270.392
1686111263.484,-34.668,136.230,130.371,-88.867,1270.396
1686111263.488,-14.160,279.785,147.949,-8.789,1270.400
1686111263.492,44.922,-99.121,23.926,119.629,1270.404
1686111263.496,26.367,-60.547,55.176,60.547,1270.408
1686111263.500,-39.551,183.105,102.051,-66.895,1270.411
1686111263.502,-44.434,-122.559,15.625,-32.227,1270.413
1686111263.506,31.250,-283.691,20.020,106.934,1270.417
1686111263.510,61.523,20.996,108.887,104.492,1270.421
1686111263.514,-2.930,276.855,125.000,-39.551,1270.425
1686111263.518,-51.758,-19.043,-13.184,-74.707,1270.429
1686111263.522,5.371,-325.684,-58.594,57.617,1270.433
1686111263.526,70.312,-94.238,60.059,117.676,1270.437
1686111263.529,36.133,283.203,169.922,-13.184,1270.441
1686111263.533,-37.109,-120.605,-70.312,-84.961,1270.445
1686111263.537,-5.859,-604.492,-180.176,32.715,1270.449
1686111263.541,76.660,19.531,133.301,124.512,1270.453
1686111263.545,43.457,126.465,99.121,29.785,1270.456
1686111263.547,-46.875,-533.203,-196.289,-86.914,1270.458
1686111263.551,-38.574,-790.527,-295.410,-25.879,1270.462
1686111263.555,47.363,-223.145,55.664,96.680,1270.466
1686111263.559,68.848,167.969,146.484,62.500,1270.470
1686111263.563,-7.812,-284.668,-108.398,-63.477,1270.474
1686111263.567,-46.875,-640.137,-162.598,-55.664,1270.478
1686111263.571,39.062,-40.039,135.254,87.402,1270.482
1686111263.574,92.773,310.059,130.859,117.188,1270.486
1686111263.578,3.906,-81.055,-30.762,-35.156,1270.489
1686111263.582,-62.988,-92.773,48.828,-95.215,1270.493
1686111263.586,10.254,308.105,178.711,47.363,1270.497
1686111263.590,65.918,98.633,75.195,123.535,1270.501
1686111263.592,14.160,-481.934,-102.051,0.000,1270.489
1686111263.596,-46.387,-319.824,9.766,-94.727,1270.493
1686111263.600,-1.953,278.320,166.504,6.348,1270.497
1686111263.604,76.172,239.746,126.465,120.605,1270.501
1686111263.608,61.523,-23.926,64.453,50.781,1270.505
1686111263.612,-12.695,-187.012,-11.230,-66.406,1270.509
1686111263.616,-16.113,-186.035,48.340,-12.695,1270.513
1686111263.619,60.547,-194.824,13.184,127.930,1270.517
1686111263.623,69.336,-645.020,-184.570,105.469,1270.520
1686111263.627,1.953,-343.262,17.578,-36.621,1270.524
1686111263.631,-14.160,281.250,190.430,-44.434,1270.528
1686111263.635,46.875,-149.414,-82.520,98.633,1270.532
1686111263.637,70.312,-836.426,-294.434,128.906,1270.535
1686111263.641,18.066,-254.395,65.430,-20.996,1270.539
1686111263.645,-30.762,238.770,149.902,-84.961,1270.542
1686111263.649,14.160,46.875,107.422,41.016,1270.546
1686111263.653,78.613,134.766,155.273,127.930,1270.550
1686111263.657,35.156,-41.016,44.434,29.785,1270.554
1686111263.661,-34.180,-153.320,16.602,-80.078,1270.558
1686111263.664,-9.277,-550.781,-170.898,3.906,1270.562
1686111263.668,62.988,-625.000,-160.645,126.465,1270.566
1686111263.672,76.172,243.652,188.965,63.477,1270.570
1686111263.676,-6.348,204.590,82.031,-64.941,1270.574
1686111263.680,-25.879,-118.164,45.410,-31.250,1270.578
1686111263.682,56.152,113.770,150.391,107.910,1270.579
1686111263.686,74.707,427.246,206.543,100.098,1270.583
1686111263.690,0.488,128.418,59.082,-44.434,1270.587
1686111263.694,-44.434,-109.375,-14.160,-77.637,1270.591
1686111263.698,16.602,146.484,125.000,61.035,1270.595
1686111263.702,65.430,50.781,80.566,119.629,1270.599
1686111263.706,3.906,-329.102,-119.141,-16.602,1270.603
1686111263.709,-48.828,-716.309,-253.906,-77.148,1270.607
1686111263.713,5.371,-204.102,70.312,44.922,1270.611
1686111263.717,74.707,460.449,256.836,129.883,1270.614
1686111263.721,40.527,-85.938,-89.355,33.203,1270.618
1686111263.725,-38.086,-693.848,-276.855,-76.660,1270.622
1686111263.728,-14.648,-173.340,78.125,-14.648,1270.628
1686111263.732,76.660,444.336,246.582,109.375,1270.632
1686111263.736,67.871,-224.609,-99.609,73.242,1270.636
1686111263.740,-21.973,-675.781,-225.098,-62.012,1270.640
1686111263.744,-33.203,93.750,114.746,-51.270,1270.643
1686111263.748,37.109,187.988,149.414,83.008,1270.647
1686111263.752,60.059,-511.230,-157.715,99.121,1270.651
1686111263.755,-10.254,-744.141,-235.352,-41.016,1270.655
1686111263.759,-41.504,60.059,169.434,-92.285,1270.659
1686111263.763,17.578,308.105,158.691,40.039,1270.663
1686111263.767,55.664,129.883,109.375,103.516,1270.667
1686111263.771,6.836,149.902,123.047,-14.648,1270.671
1686111263.787,-55.176,100.098,43.945,-93.750,1270.684
1686111263.791,-15.137,-96.680,24.414,18.555,1270.688
1686111263.795,47.852,-153.809,91.797,119.141,1270.692
1686111263.799,24.414,102.051,138.184,28.809,1270.696
1686111263.803,-30.762,154.785,78.125,-72.754,1270.700
1686111263.807,-19.531,-152.344,18.066,-16.602,1270.704
1686111263.811,38.574,-787.598,-242.188,102.051,1270.708
1686111263.814,43.457,-551.758,-134.277,69.336,1270.712
1686111263.818,-16.602,255.859,151.367,-63.477,1270.715
1686111263.822,-35.156,-6.348,-0.488,-48.340,1270.719
1686111263.826,41.016,5.371,87.891,85.938,1270.723
1686111263.830,70.312,107.422,104.004,103.516,1270.727
1686111263.817,0.488,6.348,62.500,-31.250,1270.729
1686111263.821,-52.246,-337.891,-106.445,-79.590,1270.733
1686111263.825,-4.395,-550.781,-155.762,41.504,1270.736
1686111263.829,68.359,4.883,124.512,108.887,1270.740
1686111263.833,29.297,81.543,102.539,-7.324,1270.744
1686111263.837,-43.457,-527.344,-220.703,-92.285,1270.748
1686111263.841,-16.602,-668.457,-202.637,13.184,1270.752
1686111263.844,61.523,228.027,216.309,105.469,1270.756
1686111263.848,51.758,353.027,127.441,31.250,1270.760
1686111263.852,-34.668,-479.004,-230.469,-76.172,1270.764
1686111263.856,-44.922,-567.383,-162.109,-38.574,1270.768
1686111263.860,43.457,361.328,257.812,91.797,1270.772
1686111263.892,59.570,273.438,107.910,70.312,1270.789
1686111263.896,-6.348,-121.094,-9.766,-69.824,1270.793
1686111263.900,-33.691,46.387,113.281,-73.242,1270.797
1686111263.904,23.926,358.398,209.473,61.035,1270.801
1686111263.908,65.430,192.383,89.355,105.469,1270.805
1686111263.912,7.324,-354.492,-137.207,-15.137,1270.809
1686111263.916,-43.945,-428.223,-65.918,-84.961,1270.813
1686111263.919,3.418,4.883,144.531,23.438,1270.817
1686111263.923,64.941,60.059,43.457,107.910,1270.821
1686111263.927,27.832,-686.523,-258.789,4.395,1270.825
1686111263.931,-41.992,-364.258,10.254,-104.980,1270.828
1686111263.935,-22.949,154.785,171.387,-11.230,1270.832
1686111263.923,51.270,-325.195,-118.164,115.723,1270.819
1686111263.927,48.828,-597.168,-172.852,40.527,1270.823
1686111263.931,-24.414,-18.066,117.188,-100.586,1270.827
1686111263.935,-32.227,248.535,138.184,-57.129,1270.831
1686111263.939,29.785,-27.832,53.223,86.426,1270.835
1686111263.943,37.598,-288.574,-21.973,83.496,1270.839
1686111263.947,-32.227,-156.738,42.480,-50.781,1270.843
1686111263.950,-45.898,131.348,105.957,-75.684,1270.846
1686111263.954,17.090,-327.637,-30.762,66.406,1270.850
1686111263.958,60.547,-334.473,32.227,109.375,1270.854
1686111263.962,21.484,253.418,142.578,-41.504,1270.858
1686111263.966,-37.598,235.840,90.820,-114.258,1270.862
1686111263.969,-10.742,-543.945,-239.746,9.766,1270.867
1686111263.973,44.434,-695.312,-190.918,92.285,1270.871
1686111263.977,31.738,194.336,183.105,-11.719,1270.875
1686111263.981,-34.668,75.684,12.695,-115.723,1270.879
1686111263.985,-34.180,-125.000,-22.461,-47.852,1270.883
1686111263.989,39.062,-130.859,32.227,77.148,1270.887
1686111263.993,51.758,-7.324,120.605,32.227,1270.891
1686111263.996,-17.090,-28.809,5.859,-100.586,1270.895
1686111264.000,-55.664,-631.348,-241.211,-78.125,1270.899
1686111264.004,5.859,-101.562,102.051,51.758,1270.903
1686111264.008,57.129,393.066,201.660,59.082,1270.906
1686111264.012,-20.996,-202.637,-100.098,-63.477,1270.910
1686111264.012,-71.289,-549.805,-183.105,-80.566,1270.923
1686111264.016,20.508,-77.148,85.449,64.453,1270.927
1686111264.020,58.105,361.328,195.312,91.797,1270.931
1686111264.024,-32.715,-201.172,-35.156,-69.824,1270.935
1686111264.028,-89.355,-401.367,-50.293,-155.273,1270.939
1686111264.032,-49.316,-102.051,64.453,-40.527,1270.943
1686111264.036,13.184,-51.270,88.867,61.035,1270.947
1686111264.039,-8.301,-443.848,-193.359,-28.809,1270.951
1686111264.043,-89.844,-1000.000,-435.547,-156.738,1270.954
1686111264.047,-75.195,-219.238,81.055,-107.910,1270.958
1686111264.051,25.879,372.070,197.754,30.273,1270.962
1686111264.055,31.738,133.789,73.242,-10.254,1270.966
1686111264.058,-44.922,153.320,121.094,-149.902,1270.958
1686111264.062,-58.105,124.023,68.359,-136.230,1270.962
1686111264.066,6.836,-51.270,42.480,11.230,1270.966
1686111264.070,31.738,-169.922,99.609,33.203,1270.969
1686111264.074,-18.555,-17.578,89.844,-96.191,1270.973
1686111264.078,-57.129,-72.266,18.555,-131.836,1270.977
1686111264.082,-10.742,-298.340,-28.320,-5.859,1270.981
1686111264.085,46.387,-315.918,-15.137,65.918,1270.985
1686111264.089,2.930,21.973,100.098,-46.875,1270.989
1686111264.093,-59.082,297.363,168.457,-137.207,1270.993
1686111264.097,-29.785,-99.609,-31.738,-34.668,1270.997
1686111264.101,40.039,-535.156,-169.922,78.613,1271.001
1686111264.102,36.133,-104.980,81.543,7.812,1270.999
1686111264.106,-50.781,299.316,156.738,-112.305,1271.003
1686111264.110,-58.105,-264.160,-102.539,-61.523,1271.007
1686111264.114,28.809,-506.348,-143.066,77.637,1271.011
1686111264.118,51.758,-30.762,55.664,52.246,1271.015
1686111264.122,-15.625,-127.441,6.348,-86.914,1271.019
1686111264.126,-52.246,-611.816,-232.422,-99.121,1271.023
1686111264.129,0.488,-759.766,-187.500,32.715,1271.026
1686111264.133,63.477,122.559,193.359,66.895,1271.030
1686111264.137,15.137,264.648,83.984,-57.129,1271.034
1686111264.141,-45.410,-42.480,37.598,-112.793,1271.038
1686111264.145,0.977,172.852,155.762,13.184,1271.042
1686111264.147,59.082,478.516,238.770,102.051,1271.059
1686111264.151,29.785,212.891,69.824,7.324,1271.063
1686111264.155,-39.062,-179.688,-57.129,-92.773,1271.067
1686111264.159,-13.184,89.844,133.301,-11.719,1271.071
1686111264.163,73.730,337.402,178.223,112.305,1271.075
1686111264.167,68.848,-57.617,-26.367,57.617,1271.078
1686111264.171,-26.855,-740.234,-293.457,-79.102,1271.082
1686111264.174,-36.133,-546.387,-91.797,-56.641,1271.086
1686111264.178,62.500,238.281,221.191,81.055,1271.090
1686111264.182,77.637,30.273,-20.996,73.242,1271.094
1686111264.186,-1.465,-405.762,-198.730,-70.801,1271.098
1686111264.190,-45.410,-244.141,-18.066,-100.098,1271.102
1686111264.207,4.883,81.543,143.066,36.621,1271.104
1686111264.211,44.922,-140.137,-50.781,89.355,1271.108
1686111264.215,-12.207,-583.496,-223.633,-45.410,1271.112
1686111264.219,-51.758,19.043,112.793,-120.605,1271.116
1686111264.223,-6.836,299.805,123.047,1.465,1271.120
1686111264.227,57.129,-204.102,-44.922,106.934,1271.124
1686111264.231,35.156,-490.234,-64.453,10.742,1271.128
1686111264.234,-39.062,18.555,116.699,-116.211,1271.132
1686111264.238,-11.719,271.484,147.949,-35.645,1271.135
1686111264.242,63.965,-456.543,-170.898,109.863,1271.139
1686111264.246,50.781,-682.129,-193.359,50.781,1271.143
1686111264.250,-33.691,166.504,165.527,-109.375,1271.147
1686111264.252,-53.223,218.262,91.309,-92.285,1271.149
1686111264.256,25.879,61.035,73.730,55.664,1271.153
1686111264.260,52.734,232.422,130.371,67.871,1271.157
1686111264.264,-17.578,299.316,100.098,-71.289,1271.161
1686111264.268,-59.570,82.520,34.668,-101.562,1271.165
1686111264.272,-5.859,-240.234,-45.898,40.039,1271.169
1686111264.276,54.199,-188.965,39.062,93.750,1271.172
1686111264.279,4.395,180.664,149.414,-38.086,1271.176
1686111264.283,-61.523,-80.078,-50.781,-107.422,1271.180
1686111264.287,-21.973,-640.625,-246.094,5.859,1271.184
1686111264.291,44.434,-65.918,87.402,91.797,1271.188
1686111264.295,25.879,106.934,109.375,2.930,1271.192
1686111264.297,-44.434,-579.102,-254.395,-99.121,1271.194
1686111264.301,-42.969,-818.848,-311.523,-27.832,1271.198
1686111264.305,43.945,-28.320,122.559,90.820,1271.202
1686111264.309,70.801,390.625,175.781,52.734,1271.206
1686111264.313,-8.301,-74.219,-60.547,-74.219,1271.210
1686111264.317,-42.969,-394.531,-161.621,-58.594,1271.214
1686111264.321,23.438,-49.316,38.086,83.984,1271.218
1686111264.324,64.453,390.625,199.219,101.562,1271.222
1686111264.328,-3.906,-368.652,-213.867,-29.785,1271.225
1686111264.332,-52.734,-703.613,-280.273,-79.102,1271.229
1686111264.336,17.090,210.938,201.172,41.016,1271.233
1686111264.340,83.496,291.992,113.281,110.352,1271.237
1686111264.342,41.992,-69.336,-15.625,-12.207,1271.239
1686111264.346,-20.996,27.832,78.125,-110.352,1271.243
1686111264.350,1.465,125.977,83.984,-12.695,1271.247
1686111264.354,61.523,-87.891,23.926,107.422,1271.251
1686111264.358,43.945,-332.520,-34.668,33.203,1271.255
1686111264.362,-34.668,-390.137,-111.328,-95.215,1271.259
1686111264.366,-28.809,-131.836,-19.043,-46.875,1271.263
1686111264.369,52.246,-13.184,30.273,92.773,1271.266
1686111264.373,53.223,-520.996,-175.293,78.125,1271.270
1686111264.377,-18.555,-255.859,5.371,-70.312,1271.274
1686111264.381,-28.809,352.539,206.543,-70.801,1271.278
1686111264.385,45.898,-152.832,-64.941,85.449,1271.282
1686111264.387,76.660,-422.852,-148.438,114.258,1271.285
1686111264.391,15.625,176.758,121.582,-33.203,1271.289
1686111264.395,-39.551,242.676,100.586,-94.727,1271.293
1686111264.399,-7.812,-48.828,55.664,34.180,1271.297
1686111264.403,43.945,-55.664,69.336,116.211,1271.301
1686111264.407,5.859,-97.656,-1.465,2.441,1271.305
1686111264.411,-53.223,-247.559,-115.723,-107.910,1271.308
1686111264.414,-31.738,-639.648,-280.273,-16.602,1271.312
1686111264.418,42.969,-762.695,-202.148,106.934,1271.316
1686111264.422,50.293,33.691,143.066,30.762,1271.320
1686111264.426,-25.391,138.184,52.734,-95.703,1271.324
1686111264.430,-35.645,-81.055,35.645,-61.035,1271.328
1686111264.432,49.805,204.102,170.898,62.012,1271.329
1686111264.436,80.566,426.270,187.500,56.152,1271.333
1686111264.440,3.418,79.590,9.766,-67.383,1271.337
1686111264.444,-61.523,-199.707,-53.711,-83.496,1271.341
1686111264.448,-8.301,128.906,125.488,58.594,1271.345
1686111264.452,48.340,83.984,92.773,116.699,1271.349
1686111264.456,-4.395,-277.832,-91.797,-11.230,1271.353
1686111264.459,-65.430,-755.859,-289.551,-88.379,1271.356
1686111264.463,-15.137,-450.195,-36.133,18.555,1271.360
1686111264.467,62.988,351.074,232.422,107.422,1271.364
1686111264.471,27.344,-11.719,-54.199,12.695,1271.368
1686111264.475,-44.434,-702.148,-343.262,-92.773,1271.372
1686111264.477,-21.973,-268.066,-14.648,-22.461,1271.374
1686111264.481,62.500,437.012,266.113,106.445,1271.378
1686111264.485,67.383,-181.641,-104.004,81.543,1271.382
1686111264.489,-11.719,-657.227,-229.980,-54.688,1271.386
1686111264.493,-31.250,-12.695,90.332,-61.523,1271.390
1686111264.497,39.551,86.914,114.746,78.125,1271.394
1686111264.501,58.105,-495.605,-146.484,96.191,1271.398
1686111264.504,-17.090,-709.961,-250.977,-42.969,1271.401
1686111264.508,-45.898,83.496,117.188,-80.566,1271.405
1686111264.512,15.137,269.531,128.418,53.223,1271.409
1686111264.516,64.453,-68.359,11.230,121.582,1271.413
1686111264.520,22.949,-34.180,33.203,1.465,1271.417
1686111264.522,-39.551,245.117,97.168,-87.891,1271.433
1686111264.526,-2.930,149.414,58.594,11.719,1271.437
1686111264.530,59.570,-244.629,-38.086,110.840,1271.441
1686111264.534,17.578,-103.516,41.504,13.184,1271.445
1686111264.538,-55.176,167.969,105.469,-109.375,1271.449
1686111264.542,-40.039,-156.250,-45.410,-33.203,1271.453
1686111264.546,31.250,-640.137,-158.203,105.469,1271.457
1686111264.549,45.410,-266.602,38.574,65.918,1271.461
1686111264.553,-20.508,234.863,116.211,-76.660,1271.464
1686111264.557,-51.270,-43.945,-21.484,-80.078,1271.468
1686111264.561,10.254,-37.109,39.551,52.246,1271.472
1686111264.565,46.875,-12.695,48.340,74.219,1271.476
1686111264.568,-6.348,-127.441,-20.020,-54.199,1271.493
1686111264.572,-56.641,-479.004,-216.797,-94.727,1271.497
1686111264.576,-8.789,-837.891,-326.172,34.180,1271.501
1686111264.580,57.129,-20.508,117.188,92.773,1271.505
1686111264.584,22.949,268.066,91.309,-21.973,1271.509
1686111264.588,-53.711,-517.090,-246.094,-101.562,1271.512
1686111264.592,-22.949,-504.883,-75.195,-5.371,1271.516
1686111264.595,58.594,276.855,193.359,99.609,1271.520
1686111264.599,50.293,341.309,95.215,35.156,1271.524
1686111264.603,-31.250,-284.180,-105.957,-85.449,1271.528
1686111264.607,-37.109,-272.949,-15.625,-52.246,1271.532
1686111264.611,44.434,321.289,174.316,72.754,1271.536
1686111264.627,54.199,224.121,62.988,52.734,1271.524
1686111264.631,-15.137,-109.375,-5.371,-79.590,1271.528
1686111264.635,-33.203,20.508,77.637,-73.730,1271.532
1686111264.639,44.434,114.258,109.375,65.430,1271.536
1686111264.643,79.102,-122.070,16.113,93.750,1271.540
1686111264.647,7.324,-645.508,-229.980,-29.785,1271.544
1686111264.651,-42.969,-582.520,-97.656,-92.773,1271.548
1686111264.654,14.648,149.902,166.016,24.414,1271.552
1686111264.658,78.613,42.969,17.090,113.281,1271.556
1686111264.662,45.898,-276.367,-92.773,0.977,1271.560
1686111264.666,-22.461,44.922,87.402,-99.609,1271.564
1686111264.670,-5.859,53.711,116.699,-13.672,1271.567
1686111264.672,60.547,-402.344,-136.719,103.516,1271.569
1686111264.676,43.945,-789.062,-337.402,36.621,1271.573
1686111264.680,-28.809,-231.445,15.625,-110.352,1271.577
1686111264.684,-34.668,217.773,137.695,-73.730,1271.581
1686111264.688,29.297,16.602,67.383,73.242,1271.585
1686111264.692,51.270,-204.102,33.691,74.219,1271.589
1686111264.696,-21.973,-236.328,-11.719,-66.406,1271.593
1686111264.699,-60.059,-92.285,22.461,-96.680,1271.596
1686111264.703,8.301,-481.445,-162.109,51.270,1271.600
1686111264.707,50.781,-762.207,-171.387,100.586,1271.604
1686111264.711,5.859,33.203,148.438,-33.203,1271.608
1686111264.715,-44.434,187.988,52.734,-100.098,1271.612
1686111264.717,-15.625,64.453,61.035,7.324,1271.614
1686111264.721,46.387,299.805,161.621,98.145,1271.618
1686111264.725,27.832,359.863,136.719,4.883,1271.622
1686111264.729,-43.457,16.602,1.465,-113.281,1271.626
1686111264.733,-32.715,-155.762,-43.945,-45.898,1271.630
1686111264.737,41.992,-125.000,33.691,83.008,1271.634
1686111264.741,58.594,6.348,81.543,36.133,1271.638
1686111264.744,-13.184,-13.672,-32.715,-90.820,1271.642
1686111264.748,-49.805,-735.840,-280.762,-58.594,1271.646
1686111264.752,23.926,-366.211,28.320,77.148,1271.649
1686111264.756,59.570,423.340,236.328,70.312,1271.653
1686111264.760,-12.207,-153.320,-149.902,-59.570,1271.657
1686111264.762,-59.082,-878.418,-375.977,-76.660,1271.673
1686111264.766,6.836,-139.160,94.238,41.016,1271.677
1686111264.770,72.754,477.051,225.098,100.586,1271.681
1686111264.774,27.832,84.961,14.648,-5.371,1271.685
1686111264.778,-33.691,-47.852,-8.301,-93.750,1271.689
1686111264.782,-14.160,-74.219,23.926,13.672,1271.693
1686111264.786,52.734,-8.789,99.121,125.000,1271.697
1686111264.789,40.527,-427.246,-178.223,43.945,1271.701
1686111264.793,-26.367,-708.008,-273.438,-67.871,1271.705
1686111264.797,-10.742,166.016,148.438,-23.926,1271.709
1686111264.801,58.594,366.699,143.555,96.191,1271.712
1686111264.805,61.523,-146.973,-42.969,69.824,1271.716
1686111264.807,-9.277,-154.297,21.484,-75.684,1271.704
1686111264.811,-25.879,239.258,166.016,-73.730,1271.708
1686111264.815,38.574,206.543,90.820,65.918,1271.712
1686111264.819,67.383,-183.105,-47.363,83.008,1271.716
1686111264.823,8.789,-139.648,-20.508,-52.246,1271.720
1686111264.827,-41.992,-90.332,-53.223,-99.121,1271.724
1686111264.831,6.348,-286.133,-65.918,34.668,1271.728
1686111264.834,66.406,-195.801,8.301,108.887,1271.731
1686111264.838,31.250,63.965,87.402,-9.277,1271.735
1686111264.842,-26.855,241.211,131.348,-93.750,1271.739
1686111264.846,-12.207,-27.344,-41.016,10.254,1271.743
1686111264.850,46.387,-576.172,-157.715,116.211,1271.747
1686111264.868,43.457,-186.523,83.008,40.527,1271.768
1686111264.872,-20.996,208.008,128.418,-83.496,1271.772
1686111264.876,-34.180,-397.949,-155.762,-37.109,1271.776
1686111264.880,24.902,-742.676,-235.352,89.844,1271.780
1686111264.884,52.734,18.066,122.070,54.199,1271.784
1686111264.888,-10.742,77.148,5.371,-86.914,1271.787
1686111264.892,-53.223,-710.938,-346.680,-83.496,1271.791
1686111264.895,10.742,-606.445,-144.043,47.363,1271.795
1686111264.899,65.430,320.801,235.352,77.148,1271.799
1686111264.903,21.484,277.832,68.359,-34.668,1271.803
1686111264.907,-26.367,-75.684,-23.926,-82.031,1271.807
1686111264.911,20.508,104.980,99.121,29.297,1271.811
1686111264.897,84.961,436.523,202.148,105.469,1271.809
1686111264.901,48.340,231.934,76.172,5.859,1271.812
1686111264.905,-27.832,-120.117,-26.855,-94.727,1271.816
1686111264.909,-16.113,100.098,99.121,-24.902,1271.820
1686111264.913,43.945,176.758,87.402,83.496,1271.824
1686111264.917,29.297,-248.535,-92.285,29.785,1271.828
1686111264.921,-38.574,-545.898,-202.148,-99.609,1271.832
1686111264.924,-39.062,-124.512,53.711,-75.684,1271.836
1686111264.928,42.480,352.051,206.543,63.965,1271.840
1686111264.932,55.664,44.434,-29.297,55.176,1271.844
1686111264.936,-41.016,-771.973,-380.371,-84.961,1271.848
1686111264.940,-60.547,-696.777,-218.750,-83.008,1271.851
1686111264.942,11.230,31.738,145.020,67.383,1271.853
1686111264.946,40.527,-177.246,-62.012,112.305,1271.857
1686111264.950,-13.184,-613.281,-246.094,-20.020,1271.861
1686111264.954,-53.223,19.531,99.121,-94.238,1271.865
1686111264.958,1.465,316.406,146.973,25.879,1271.869
1686111264.962,58.594,-91.797,-46.387,111.816,1271.873
1686111264.966,22.949,-344.727,-63.477,12.695,1271.877
1686111264.969,-42.969,-183.105,35.156,-100.098,1271.881
1686111264.973,-15.137,140.137,126.465,-29.785,1271.885
1686111264.977,52.734,-360.840,-141.113,102.051,1271.889
1686111264.981,42.969,-704.590,-229.980,48.340,1271.892
1686111264.985,-29.785,91.797,122.559,-84.961,1271.896
