timestamps,TP9,AF7,AF8,TP10,Secondary Timestamp
1686361847.718,-43.945,176.758,9.277,-64.941,924.628
1686361847.722,3.418,222.656,-39.551,6.348,924.632
1686361847.726,17.578,-57.129,-5.371,-11.719,924.635
1686361847.730,1.465,18.555,5.371,-91.797,924.639
1686361847.734,-16.602,47.852,-29.785,-111.328,924.643
1686361847.738,-9.766,-267.578,-53.223,-68.359,924.647
1686361847.742,9.277,-629.395,11.719,-19.043,924.651
1686361847.745,-9.766,-248.535,64.941,-26.855,924.655
1686361847.749,-33.691,253.418,-3.418,-54.199,924.659
1686361847.753,-45.898,-69.336,-47.852,-17.578,924.663
1686361847.757,-42.969,-140.137,-21.484,36.133,924.667
1686361847.761,-43.945,193.848,6.836,41.016,924.671
1686361847.764,-75.195,125.000,-18.555,0.000,924.672
1686361847.768,-71.289,-394.043,-34.180,8.789,924.676
1686361847.772,-30.273,-406.738,0.977,32.227,924.680
1686361847.776,-26.855,62.012,7.324,5.371,924.684
1686361847.780,-56.641,20.508,-40.527,-36.621,924.687
1686361847.784,-58.594,-607.910,-62.012,-51.270,924.691
1686361847.788,-22.949,-791.504,24.414,-7.324,924.695
1686361847.791,-9.277,-235.352,32.227,16.602,924.699
1686361847.795,-43.945,48.828,-28.809,-26.367,924.703
1686361847.799,-78.125,-472.168,-47.852,-33.203,924.707
1686361847.803,-68.359,-683.594,16.602,32.715,924.711
1686361847.807,-40.039,230.957,48.828,66.895,924.715
1686361847.823,-53.711,228.027,-35.156,15.625,924.719
1686361847.827,-99.609,-169.922,-28.320,-24.902,924.723
1686361847.831,-93.750,-83.984,2.441,36.133,924.727
1686361847.835,-36.133,-25.879,-26.367,101.074,924.731
1686361847.839,-9.277,-182.129,-56.641,82.520,924.734
1686361847.843,-9.277,-762.207,-55.664,39.551,924.738
1686361847.847,-9.766,-587.891,45.410,34.180,924.742
1686361847.850,11.230,301.758,32.227,47.363,924.746
1686361847.854,23.438,69.824,-55.664,25.879,924.750
1686361847.858,-1.953,-278.320,-40.039,-41.504,924.754
1686361847.862,-0.488,-67.871,-7.324,-66.406,924.758
1686361847.866,21.484,74.707,-15.137,-36.133,924.762
1686361847.868,34.180,-199.219,-33.203,-12.207,924.763
1686361847.872,0.000,-373.535,-29.297,-34.668,924.767
1686361847.876,-33.203,-161.133,-9.766,-41.016,924.771
1686361847.880,-7.324,-127.441,-11.719,10.254,924.775
1686361847.884,18.555,-351.074,-3.418,44.434,924.779
1686361847.888,15.625,-637.207,-1.465,21.484,924.783
1686361847.892,-18.555,-602.539,-6.836,-42.480,924.787
1686361847.895,-26.855,-475.586,-5.859,-41.504,924.791
1686361847.899,-4.395,-639.160,-27.832,-3.418,924.795
1686361847.903,-19.043,-1000.000,-41.504,-30.273,924.798
1686361847.907,-66.895,-547.363,9.277,-127.930,924.802
1686361847.911,-66.895,127.930,-21.484,-140.625,924.806
1686361847.913,-28.320,-0.977,-34.180,-58.594,924.810
1686361847.917,-38.086,95.703,0.488,-60.547,924.813
1686361847.921,-97.168,163.574,-34.180,-163.086,924.817
1686361847.925,-111.328,-184.570,-42.969,-196.777,924.821
1686361847.929,-69.336,-377.930,-18.066,-121.582,924.825
1686361847.933,-15.625,-345.215,-28.320,-75.684,924.829
1686361847.937,6.348,-289.062,-14.160,-130.371,924.833
1686361847.940,-22.461,-259.766,-41.992,-210.449,924.837
1686361847.944,-42.480,-731.934,-40.039,-183.594,924.841
1686361847.948,-37.109,-526.855,51.270,-114.258,924.845
1686361847.952,-56.152,153.320,15.137,-107.422,924.849
1686361847.956,-104.980,-211.914,-72.754,-132.812,924.853
1686361847.972,-104.004,-619.629,-55.176,-97.168,924.869
1686361847.976,-42.969,-102.051,24.414,-32.715,924.873
1686361847.980,-8.301,153.320,-11.230,-17.090,924.876
1686361847.984,-34.668,-312.988,-23.926,-41.016,924.880
1686361847.988,-60.059,-532.227,0.000,-20.020,924.884
1686361847.992,-28.320,-396.973,-30.273,63.477,924.888
1686361847.996,-12.207,-393.066,-22.949,86.914,924.892
1686361847.999,-47.852,-661.621,-59.570,41.504,924.896
1686361848.003,-66.406,-962.891,-0.488,20.996,924.900
1686361848.007,-32.715,-184.082,70.801,76.172,924.904
1686361848.011,-6.836,256.348,-23.438,113.281,924.908
1686361848.015,-19.043,-176.758,-51.758,72.266,924.912
1686361848.003,-19.043,-201.660,-20.508,28.809,924.903
1686361848.007,14.160,100.586,-8.789,20.508,924.907
1686361848.011,68.359,76.660,-40.039,58.105,924.911
1686361848.015,76.172,-449.219,-13.672,51.758,924.914
1686361848.019,38.574,-445.312,20.508,-12.207,924.918
1686361848.023,46.387,-233.887,-21.973,16.113,924.922
1686361848.027,64.941,-380.859,-17.090,87.891,924.926
1686361848.030,65.430,-267.090,5.371,92.773,924.930
1686361848.034,38.086,-98.145,0.488,24.414,924.934
1686361848.038,14.160,6.836,-5.371,-11.230,924.938
1686361848.042,40.039,-187.988,-47.363,55.664,924.942
1686361848.046,64.453,-659.180,-8.789,60.547,924.946
1686361848.063,43.457,-219.727,55.176,-36.133,924.962
1686361848.067,20.996,122.070,-18.066,-46.875,924.966
1686361848.071,38.086,-383.301,2.930,37.109,924.970
1686361848.075,71.289,-285.645,62.012,80.078,924.974
1686361848.079,58.594,109.863,-1.953,57.129,924.977
1686361848.083,17.578,-258.301,-41.504,19.043,924.981
1686361848.087,20.996,-651.367,-24.414,37.109,924.985
1686361848.090,44.434,-1000.000,-15.137,70.801,924.989
1686361848.094,69.824,-462.402,76.172,0.977,924.993
1686361848.098,49.316,385.254,21.484,-100.586,924.997
1686361848.102,21.973,118.164,-17.090,-116.211,925.001
1686361848.106,37.109,178.711,35.645,-71.777,925.005
1686361848.092,56.641,421.387,7.324,-65.430,925.003
1686361848.096,21.484,187.500,-33.691,-104.492,925.006
1686361848.100,-20.020,-129.883,-14.648,-123.535,925.010
1686361848.104,-1.953,26.367,15.137,-99.121,925.014
1686361848.108,5.859,103.516,-19.531,-72.754,925.018
1686361848.112,-28.320,-212.402,-45.898,-113.281,925.022
1686361848.116,-68.359,-518.555,-10.742,-175.781,925.026
1686361848.119,-57.129,-158.203,36.621,-152.832,925.030
1686361848.123,-19.531,315.918,5.859,-80.078,925.034
1686361848.127,-26.367,128.418,-53.223,-81.055,925.038
1686361848.131,-64.941,-732.422,-51.758,-113.281,925.042
1686361848.135,-61.523,-448.730,65.430,-71.777,925.046
1686361848.138,-12.207,518.555,28.809,-6.348,925.048
1686361848.142,-5.859,223.145,-33.691,-25.391,925.052
1686361848.146,-52.246,24.414,-6.348,-70.801,925.056
1686361848.150,-76.660,256.348,-1.953,-20.508,925.060
1686361848.154,-50.293,338.379,-31.738,71.289,925.064
1686361848.158,-24.902,-277.344,-69.336,76.172,925.068
1686361848.162,-32.715,-520.020,-8.301,6.348,925.072
1686361848.165,-32.227,-9.766,9.277,-19.531,925.075
1686361848.169,-3.418,71.289,-10.742,25.879,925.079
1686361848.173,22.461,-287.109,-36.133,66.406,925.083
1686361848.177,-2.930,-536.133,18.555,44.434,925.087
1686361848.181,-34.668,292.480,46.875,11.230,925.091
1686361848.198,-14.648,506.836,-26.367,35.645,925.094
1686361848.202,20.996,310.547,-13.672,50.293,925.098
1686361848.206,18.066,433.594,-7.324,0.977,925.101
1686361848.210,-17.090,454.102,-32.227,-104.980,925.105
1686361848.214,-17.090,207.520,-46.387,-116.699,925.109
1686361848.218,27.832,-117.188,-15.625,-25.391,925.113
1686361848.222,32.227,-34.180,12.207,-6.836,925.117
1686361848.225,-17.578,348.633,-5.859,-80.566,925.121
1686361848.229,-36.621,204.102,-69.336,-89.844,925.125
1686361848.233,-4.883,-321.777,-42.969,-41.992,925.129
1686361848.237,20.020,-10.254,36.621,-12.207,925.133
1686361848.241,4.883,526.855,-3.418,-30.273,925.137
1686361848.243,-12.695,83.496,-75.684,-51.270,925.139
1686361848.247,-1.465,-267.090,-57.617,-10.254,925.143
1686361848.251,21.973,336.914,10.254,28.320,925.147
1686361848.255,14.160,525.391,-29.785,-23.438,925.151
1686361848.259,-9.766,57.617,-31.738,-101.074,925.155
1686361848.263,-10.742,-253.418,2.930,-83.008,925.159
1686361848.267,6.836,85.938,-24.902,-44.434,925.163
1686361848.270,3.418,278.320,-26.855,-69.336,925.167
1686361848.274,-21.973,-335.938,-59.082,-107.910,925.171
1686361848.278,-23.926,-862.305,-8.301,-55.176,925.174
1686361848.282,11.719,179.199,82.031,44.434,925.178
1686361848.286,27.344,721.680,-26.367,74.707,925.182
1686361848.287,-6.348,141.602,-56.641,29.785,925.184
1686361848.291,-32.715,178.223,0.977,4.883,925.188
1686361848.295,-12.207,528.809,-10.742,57.617,925.192
1686361848.299,18.555,425.781,-48.828,81.055,925.196
1686361848.303,5.371,-79.102,-25.879,9.277,925.200
1686361848.307,-32.715,-265.137,-10.742,-61.523,925.204
1686361848.311,-20.020,79.102,9.277,-76.660,925.208
1686361848.314,26.367,314.941,-31.250,-29.785,925.211
1686361848.318,27.344,-270.508,-48.828,-40.527,925.215
1686361848.322,-14.160,-153.320,22.949,-145.996,925.219
1686361848.326,-22.461,433.105,-17.578,-154.785,925.223
1686361848.330,-2.930,199.219,-43.945,-108.398,925.227
1686361848.333,-24.414,112.793,-31.738,-100.098,925.229
1686361848.337,-64.453,303.711,-15.137,-79.102,925.233
1686361848.341,-73.730,239.746,-33.203,-15.625,925.237
1686361848.345,-48.340,-245.117,-40.039,46.387,925.241
1686361848.349,-25.391,-263.184,-13.672,51.758,925.245
1686361848.353,-37.598,25.879,-38.086,-18.066,925.249
1686361848.357,-56.152,-89.355,-36.133,-78.125,925.253
1686361848.360,-37.598,-454.102,-59.082,-8.301,925.257
1686361848.364,-5.371,-885.742,-1.953,43.457,925.261
1686361848.368,-11.719,35.156,69.824,-9.277,925.264
1686361848.372,-28.809,502.930,-42.480,-21.973,925.268
1686361848.376,-5.371,146.973,-41.504,-1.953,925.272
1686361848.378,29.297,247.070,-0.488,-9.277,925.273
1686361848.382,29.297,426.270,-21.484,-51.270,925.277
1686361848.386,-9.277,181.641,-47.363,-108.398,925.281
1686361848.390,-25.391,-62.012,-5.371,-89.355,925.285
1686361848.394,-4.883,37.598,-3.906,-26.367,925.289
1686361848.398,3.906,-97.656,-46.875,-27.832,925.293
1686361848.402,-19.043,-199.707,-46.387,-62.500,925.297
1686361848.405,-36.621,-772.461,-50.293,-65.430,925.301
1686361848.409,-6.836,-552.246,30.762,-45.898,925.305
1686361848.413,16.602,445.312,16.113,-54.688,925.309
1686361848.417,-29.297,135.254,-59.082,-85.449,925.312
1686361848.421,-67.871,-136.230,-39.062,-106.445,925.316
1686361848.422,-57.129,200.195,-13.184,-84.961,925.319
1686361848.426,-43.457,334.473,-33.203,-65.430,925.322
1686361848.430,-44.922,-53.711,-27.832,-102.539,925.326
1686361848.434,-53.711,-239.746,6.836,-150.391,925.330
1686361848.438,-26.855,35.645,-26.855,-142.090,925.334
1686361848.442,8.301,-36.621,-45.410,-80.078,925.338
1686361848.446,13.672,-562.988,-61.035,-87.891,925.342
1686361848.449,-9.277,-810.059,-25.879,-150.879,925.346
1686361848.453,-19.531,-315.918,21.484,-137.695,925.350
1686361848.457,12.695,204.102,-15.625,-78.125,925.354
1686361848.461,14.160,-260.742,-70.312,-28.809,925.358
1686361848.465,-21.484,-636.230,-13.184,-19.043,925.362
1686361848.468,-36.133,206.543,30.273,-27.344,925.378
1686361848.472,-5.859,280.762,-37.109,-1.465,925.382
1686361848.476,19.043,86.914,-30.273,8.301,925.386
1686361848.480,-0.488,219.238,-7.324,-43.945,925.390
1686361848.484,-21.484,151.855,-36.133,-59.082,925.393
1686361848.488,-14.648,-177.246,-54.688,40.039,925.397
1686361848.492,-3.418,-572.266,18.066,116.211,925.401
1686361848.495,-13.184,-182.617,63.477,62.012,925.405
1686361848.499,-41.504,361.328,-13.672,-10.254,925.409
1686361848.503,-43.945,17.090,-56.641,37.598,925.413
1686361848.507,0.000,-235.352,-48.340,131.836,925.417
1686361848.511,28.320,-57.129,-21.484,102.051,925.421
1686361848.513,12.207,167.969,-22.949,1.953,925.422
1686361848.517,-5.371,-225.098,-72.754,-19.043,925.426
1686361848.521,26.367,-472.168,-65.918,45.410,925.430
1686361848.525,37.598,135.742,-4.883,38.086,925.434
1686361848.529,-22.949,210.938,-49.316,-70.312,925.438
1686361848.533,-60.547,-523.926,-71.289,-83.984,925.442
1686361848.537,-38.574,-549.316,6.348,-27.344,925.446
1686361848.540,-15.625,-75.684,-8.301,-16.602,925.450
1686361848.544,-26.855,24.414,-43.457,-83.008,925.454
1686361848.548,-65.918,-449.707,-71.289,-145.996,925.458
1686361848.552,-68.848,-693.848,8.789,-92.285,925.461
1686361848.556,-33.203,270.996,38.086,-38.086,925.465
1686361848.573,-29.785,354.980,-45.898,-46.875,925.483
1686361848.577,-50.293,-133.301,-34.668,-57.129,925.487
1686361848.581,-48.828,-58.105,-1.953,-31.250,925.491
1686361848.585,-21.973,278.320,-14.160,18.066,925.495
1686361848.589,-24.414,228.027,-55.664,40.039,925.499
1686361848.593,-83.984,-606.934,-62.012,-0.977,925.502
1686361848.597,-115.234,-601.562,32.715,-41.016,925.506
1686361848.600,-78.125,369.141,25.391,9.277,925.510
1686361848.604,-68.848,208.008,-59.082,32.227,925.514
1686361848.608,-85.938,-131.348,-47.852,-80.078,925.518
1686361848.612,-83.496,30.762,-10.254,-146.484,925.522
1686361848.616,-53.711,182.129,-20.020,-94.238,925.526
1686361848.618,-18.555,-5.859,-46.387,-39.551,925.514
1686361848.622,-26.367,-153.320,-43.457,-56.152,925.518
1686361848.626,-50.293,31.250,-17.578,-75.684,925.522
1686361848.630,-34.180,56.152,-34.180,-44.434,925.526
1686361848.634,4.883,-394.043,-52.246,-9.766,925.529
1686361848.638,13.672,-663.574,-20.020,-57.129,925.533
1686361848.642,-14.648,-268.555,6.348,-135.254,925.537
1686361848.645,-29.785,-152.832,-22.461,-102.051,925.541
1686361848.649,25.391,-522.461,-33.691,-6.836,925.545
1686361848.653,66.895,-306.641,37.598,-7.324,925.549
1686361848.657,30.762,268.555,11.719,-111.328,925.553
1686361848.661,-2.930,274.414,-47.363,-175.781,925.557
1686361848.663,4.395,-455.078,-66.406,-133.301,925.559
1686361848.667,36.133,-613.770,12.695,-83.984,925.563
1686361848.671,25.879,288.574,25.879,-98.145,925.567
1686361848.675,-27.832,235.352,-31.250,-116.211,925.570
1686361848.679,-42.969,-443.848,-12.695,-54.688,925.574
1686361848.683,-20.508,-464.355,17.090,19.531,925.578
1686361848.687,-19.531,-56.152,-10.742,-18.066,925.582
1686361848.690,-44.434,21.484,-38.086,-88.379,925.586
1686361848.694,-51.270,-637.207,-50.293,-61.035,925.590
1686361848.698,-20.996,-441.406,38.574,5.371,925.594
1686361848.702,-9.766,616.211,23.926,9.277,925.598
1686361848.706,-44.922,254.395,-61.035,-57.617,925.602
1686361848.723,-53.223,4.883,-33.203,-64.453,925.618
1686361848.727,-17.090,342.285,0.000,14.648,925.622
1686361848.731,-9.766,423.340,-30.273,3.906,925.626
1686361848.735,-41.016,1.953,-1.953,-91.309,925.630
1686361848.739,-39.551,-182.617,19.531,-120.117,925.634
1686361848.743,19.043,-119.629,-31.250,-64.941,925.638
1686361848.747,56.152,-29.297,-19.531,-33.203,925.642
1686361848.750,17.578,-346.680,-59.570,-70.312,925.646
1686361848.754,-36.133,-949.707,-24.414,-87.402,925.650
1686361848.758,-26.367,-187.988,85.938,-19.531,925.654
1686361848.762,3.906,579.102,5.859,25.391,925.657
1686361848.766,-6.836,149.414,-17.578,-18.066,925.661
1686361848.753,-35.156,85.449,31.738,-82.520,925.648
1686361848.757,-41.504,461.914,-15.137,-80.566,925.652
1686361848.761,-20.508,371.094,-28.809,-21.973,925.656
1686361848.765,-11.719,206.543,-13.672,-18.066,925.660
1686361848.769,-42.480,225.098,-15.625,-64.941,925.664
1686361848.773,-58.105,42.480,-40.527,-83.984,925.668
1686361848.777,-30.273,-190.430,-22.949,-58.594,925.672
1686361848.780,-7.324,-93.750,-0.977,-47.852,925.676
1686361848.784,-36.133,172.852,-2.930,-91.309,925.680
1686361848.788,-65.430,306.641,-22.949,-96.191,925.684
1686361848.792,-35.156,59.082,-64.941,-43.457,925.687
1686361848.796,-10.742,-598.633,-38.574,-0.488,925.691
1686361848.813,-33.203,-241.699,26.855,-48.828,925.710
1686361848.817,-60.059,426.758,-18.066,-131.348,925.714
1686361848.821,-53.223,-49.805,-64.453,-128.418,925.718
1686361848.825,-24.414,-262.207,-37.109,-65.918,925.722
1686361848.829,-18.555,234.863,-28.320,-35.645,925.726
1686361848.833,-62.500,110.352,-53.223,-51.758,925.730
1686361848.837,-77.637,-479.492,-57.617,-12.207,925.734
1686361848.840,-31.738,-745.605,-2.930,66.406,925.738
1686361848.844,-3.906,65.918,47.852,31.738,925.742
1686361848.848,-20.508,458.008,-58.105,-75.684,925.746
1686361848.852,-32.227,-174.316,-25.879,-119.629,925.750
1686361848.856,-10.254,-199.707,47.363,-80.078,925.753
1686361848.843,-0.488,448.242,-10.254,-31.250,925.753
1686361848.847,-41.992,269.531,-64.453,-62.988,925.757
1686361848.851,-77.148,-239.746,-43.945,-95.215,925.761
1686361848.855,-49.805,-35.156,8.789,-50.293,925.765
1686361848.859,-9.766,307.617,-30.762,-21.973,925.769
1686361848.863,-9.766,-64.453,-74.707,-65.918,925.773
1686361848.867,-40.527,-433.105,-14.160,-129.395,925.777
1686361848.870,-44.434,-105.469,19.531,-121.582,925.781
1686361848.874,-20.020,248.535,-17.090,-56.641,925.785
1686361848.878,-1.465,-0.977,-75.684,-71.289,925.788
1686361848.882,-28.809,-713.867,-53.223,-121.582,925.792
1686361848.886,-51.758,-385.254,72.754,-97.168,925.796
1686361848.903,-18.066,307.129,8.789,-42.480,925.799
1686361848.907,0.000,55.664,-49.805,-7.324,925.803
1686361848.911,-12.695,-146.484,-31.250,-37.109,925.807
1686361848.915,-7.324,3.418,-18.555,-52.734,925.811
1686361848.919,24.902,33.203,-49.316,4.395,925.815
1686361848.923,22.461,-507.812,-75.195,32.227,925.818
1686361848.927,-15.625,-795.898,-24.902,-35.645,925.822
1686361848.930,-42.969,-389.160,-17.090,-109.375,925.826
1686361848.934,-34.180,-177.246,-23.438,-48.828,925.830
1686361848.938,-1.465,-543.945,-57.617,41.992,925.834
1686361848.942,8.301,-792.969,3.906,28.320,925.838
1686361848.946,-16.113,31.738,38.574,-31.738,925.842
1686361848.947,-24.902,220.703,-62.988,-41.992,925.844
1686361848.951,5.859,-40.527,-54.688,-21.484,925.848
1686361848.955,15.625,35.156,-29.785,-53.711,925.852
1686361848.959,-10.254,89.355,-44.434,-109.375,925.856
1686361848.963,-20.508,-101.562,-48.340,-98.145,925.860
1686361848.967,-0.488,-445.801,-29.785,-29.785,925.864
1686361848.971,-9.766,-315.918,-21.484,-26.855,925.868
1686361848.974,-60.059,-182.617,-38.574,-94.727,925.871
1686361848.978,-87.891,-453.125,-61.523,-99.121,925.875
1686361848.982,-82.520,-898.926,-64.453,-10.742,925.879
1686361848.986,-71.289,-567.383,11.719,17.578,925.883
1686361848.990,-69.824,176.270,-3.418,-68.359,925.887
1686361848.993,-79.102,-169.434,-58.594,-125.488,925.889
1686361848.997,-62.500,-300.293,-32.715,-93.262,925.893
1686361849.001,-24.902,53.223,-19.531,-52.734,925.896
1686361849.005,-16.602,101.074,-42.969,-82.031,925.900
1686361849.009,-27.344,-382.324,-38.574,-107.910,925.904
1686361849.013,-21.973,-743.652,-15.137,-74.707,925.908
1686361849.017,5.371,-388.184,-15.137,-31.738,925.912
1686361849.020,9.277,-205.566,-21.484,-23.926,925.916
1686361849.024,-19.043,-678.223,-68.848,-58.105,925.920
1686361849.028,-18.555,-981.445,-13.672,-49.805,925.924
1686361849.032,6.836,-353.027,69.336,4.883,925.928
1686361849.036,28.320,195.312,-24.414,11.719,925.932
1686361849.053,0.000,-233.887,-36.133,-30.273,925.949
1686361849.057,-49.805,-273.926,20.020,-62.500,925.953
1686361849.061,-34.668,162.109,-22.949,-50.293,925.957
1686361849.065,-2.441,81.055,-31.738,-20.020,925.961
1686361849.069,-10.742,-168.945,-37.109,-48.340,925.965
1686361849.073,-29.297,-388.672,-45.898,-74.219,925.969
1686361849.077,-17.090,-418.945,-6.836,-29.785,925.973
1686361849.080,12.695,-216.797,-40.527,8.789,925.977
1686361849.084,-3.418,-564.453,-35.156,-23.438,925.980
1686361849.088,-56.152,-399.414,40.039,-104.004,925.984
1686361849.092,-72.266,86.426,-21.484,-98.145,925.988
1686361849.096,-35.645,-174.805,-55.176,-5.371,925.992
1686361849.083,-19.531,-455.078,-50.781,21.484,925.992
1686361849.087,-45.898,-291.016,-26.367,-40.527,925.996
1686361849.091,-51.758,-14.648,-25.391,-84.961,926.000
1686361849.095,-12.695,-367.188,-41.016,-14.160,926.004
1686361849.099,15.625,-634.766,-37.109,54.688,926.008
1686361849.103,-4.883,-367.676,-32.715,24.902,926.012
1686361849.107,-41.016,-373.047,-53.223,-13.672,926.016
1686361849.110,-39.062,-653.320,-14.648,22.949,926.020
1686361849.114,-6.836,-429.199,44.922,61.523,926.023
1686361849.118,-18.066,41.504,-16.602,-26.367,926.027
1686361849.122,-60.059,-20.020,-44.434,-134.277,926.031
1686361849.126,-45.410,-576.172,-74.219,-125.488,926.035
1686361849.127,-1.953,-918.457,6.348,-75.195,926.024
1686361849.131,0.488,-75.195,58.105,-89.355,926.028
1686361849.135,-32.227,106.445,-39.062,-141.602,926.032
1686361849.139,-33.691,-330.566,-5.371,-106.445,926.036
1686361849.143,2.930,-99.609,-2.930,-16.113,926.039
1686361849.147,13.672,-48.340,-54.199,-30.762,926.043
1686361849.151,-22.461,-261.230,-57.129,-100.586,926.047
1686361849.154,-53.711,-673.340,-13.184,-71.289,926.051
1686361849.158,-34.180,-375.977,65.430,19.531,926.055
1686361849.162,-2.441,406.250,6.836,60.547,926.059
1686361849.166,-21.973,50.781,-64.941,23.926,926.063
1686361849.170,-69.824,-399.414,-35.645,-14.648,926.067
1686361849.172,-65.430,-33.203,17.090,37.598,926.069
1686361849.176,-27.832,232.910,-22.461,71.777,926.073
1686361849.180,-32.715,-142.090,-55.176,30.762,926.076
1686361849.184,-72.754,-315.430,-22.949,-45.898,926.080
1686361849.188,-55.176,-62.988,-21.484,-26.367,926.084
1686361849.192,7.324,-184.082,-39.551,57.129,926.088
1686361849.196,19.043,-556.152,-64.941,32.227,926.092
1686361849.199,-24.902,-988.281,-36.621,-79.102,926.096
1686361849.203,-49.805,-372.559,65.430,-125.977,926.100
1686361849.207,-11.230,301.270,-29.785,-49.805,926.104
1686361849.211,17.578,-150.879,-25.879,-9.766,926.108
1686361849.215,-8.301,-192.383,56.152,-89.844,926.112
1686361849.218,-41.016,206.543,-15.625,-145.508,926.128
1686361849.222,-21.973,85.938,-44.434,-105.469,926.132
1686361849.226,2.441,-85.449,-35.645,-95.215,926.135
1686361849.230,-13.672,-10.254,-26.367,-157.715,926.139
1686361849.234,-32.227,5.371,-37.109,-159.668,926.143
1686361849.238,-29.785,-264.648,-65.918,-69.336,926.147
1686361849.242,-5.859,-675.293,3.418,-20.020,926.151
1686361849.245,-12.695,-311.035,59.082,-71.777,926.155
1686361849.249,-55.176,70.801,-20.508,-134.277,926.159
1686361849.253,-65.430,-270.508,-51.270,-131.348,926.163
1686361849.257,-25.879,-297.852,-42.969,-79.590,926.167
1686361849.261,7.324,25.391,-25.879,-69.824,926.171
1686361849.263,-25.879,228.516,-12.695,-154.785,926.173
1686361849.267,-54.199,-210.938,-71.777,-175.781,926.177
1686361849.271,-30.762,-450.684,-58.594,-105.469,926.181
1686361849.275,-8.301,129.395,13.672,-84.961,926.184
1686361849.279,-30.273,263.672,-48.340,-133.789,926.188
1686361849.283,-66.895,-489.746,-73.730,-148.438,926.192
1686361849.287,-44.922,-684.082,9.277,-74.707,926.196
1686361849.290,-29.785,-108.887,11.230,-34.668,926.200
1686361849.294,-51.270,-27.344,-35.645,-78.125,926.204
1686361849.298,-64.453,-514.648,-46.875,-112.305,926.208
1686361849.302,-44.922,-735.352,2.441,-70.801,926.212
1686361849.306,-6.348,32.227,41.992,-46.875,926.216
1686361849.322,2.930,331.055,-30.273,-87.402,926.248
1686361849.326,-24.414,-140.137,-23.926,-146.973,926.252
1686361849.330,-39.062,-124.512,31.250,-156.738,926.255
1686361849.334,-30.762,352.539,3.418,-99.609,926.259
1686361849.338,-26.367,279.297,-23.438,-75.684,926.263
1686361849.342,-27.832,-257.324,-25.391,-102.539,926.267
1686361849.346,-25.879,-276.855,10.742,-81.543,926.271
1686361849.349,1.465,216.797,2.930,3.906,926.275
1686361849.353,32.715,110.840,-47.852,58.105,926.279
1686361849.357,14.160,-403.809,-9.277,21.973,926.283
1686361849.361,-17.578,-133.301,36.621,13.184,926.287
1686361849.365,-8.789,266.113,9.766,74.219,926.291
1686361849.356,23.438,12.695,-12.695,87.891,926.263
1686361849.360,18.555,-303.223,-37.598,1.465,926.267
1686361849.364,-28.809,-181.152,-9.766,-65.430,926.271
1686361849.368,-33.203,160.156,7.812,-11.230,926.274
1686361849.372,19.531,-139.648,-33.691,67.383,926.278
1686361849.376,31.250,-601.562,-25.391,36.133,926.282
1686361849.380,-21.484,-210.938,13.184,-41.504,926.286
1686361849.383,-48.828,37.598,-17.578,-38.574,926.290
1686361849.387,-16.113,-539.062,-37.598,49.805,926.294
1686361849.391,12.695,-620.605,21.484,85.938,926.298
1686361849.395,3.906,181.152,43.457,27.832,926.302
1686361849.399,-8.301,272.949,-24.902,20.996,926.306
1686361849.413,0.977,-249.512,5.859,77.637,926.309
1686361849.417,14.648,-134.277,72.754,86.426,926.313
1686361849.421,-3.418,298.340,23.438,32.715,926.317
1686361849.425,-20.996,126.953,-13.672,1.953,926.321
1686361849.429,-6.836,-598.633,-44.922,41.504,926.325
1686361849.433,12.695,-839.355,22.461,94.238,926.328
1686361849.437,-9.277,95.703,66.895,68.359,926.332
1686361849.440,-53.711,292.969,-31.738,23.926,926.336
1686361849.444,-55.664,-273.438,13.184,29.785,926.340
1686361849.448,-9.766,61.523,87.402,40.039,926.344
1686361849.452,12.695,548.340,13.184,-19.043,926.348
1686361849.456,-10.742,141.113,-31.738,-109.863,926.352
1686361849.458,-8.301,-112.793,-19.043,-121.094,926.354
1686361849.462,20.996,175.293,15.625,-62.012,926.358
1686361849.466,23.926,291.992,-1.465,-55.664,926.362
1686361849.470,-13.672,-43.457,5.371,-138.672,926.366
1686361849.474,-52.246,-219.727,26.367,-152.344,926.370
1686361849.478,-42.480,-216.797,-20.508,-52.246,926.374
1686361849.482,-11.230,-237.793,-11.719,-11.230,926.378
1686361849.485,-24.414,-434.082,-27.832,-67.871,926.381
1686361849.489,-62.012,-1000.000,-40.527,-96.191,926.385
1686361849.493,-48.828,-515.137,81.055,-52.246,926.389
1686361849.497,-3.906,401.855,48.828,-20.020,926.393
1686361849.501,-4.395,203.125,-12.695,-84.961,926.397
1686361849.502,-46.875,151.367,20.508,-161.621,926.399
1686361849.506,-59.570,291.016,-5.371,-166.992,926.402
1686361849.510,-8.301,185.059,-24.902,-131.348,926.406
1686361849.514,23.438,-24.902,4.883,-132.324,926.410
1686361849.518,0.977,-30.273,7.812,-191.895,926.414
1686361849.522,-9.766,-194.336,-20.020,-147.461,926.418
1686361849.526,29.297,-221.191,-11.230,-41.992,926.422
1686361849.529,55.176,-566.406,-5.859,-28.809,926.426
1686361849.533,31.250,-419.922,45.410,-104.004,926.430
1686361849.537,18.555,73.242,9.766,-153.320,926.434
1686361849.541,31.738,-206.055,-35.645,-89.844,926.438
1686361849.545,42.969,-186.523,6.348,-16.113,926.442
1686361849.547,16.113,241.699,39.551,-32.715,926.444
1686361849.551,-29.785,309.570,-18.555,-85.449,926.448
1686361849.555,-16.113,-41.504,-6.348,-69.336,926.452
1686361849.559,24.414,-10.742,30.273,-36.133,926.455
1686361849.563,8.789,201.660,-9.277,-79.102,926.459
1686361849.567,-37.109,-113.281,-35.156,-131.348,926.463
1686361849.571,-37.598,-668.945,-37.598,-95.215,926.467
1686361849.574,-0.977,-825.684,19.531,-24.902,926.471
1686361849.578,18.555,10.254,86.914,-19.531,926.475
1686361849.582,-8.789,409.668,-10.742,-69.336,926.479
1686361849.586,-27.832,-190.430,-10.742,-84.473,926.483
1686361849.590,-1.465,-257.324,61.035,-41.016,926.487
1686361849.593,23.438,234.863,25.879,-29.297,926.492
1686361849.597,6.348,284.668,-39.062,-96.680,926.496
1686361849.601,-8.301,-185.059,-31.250,-132.324,926.500
1686361849.605,-5.371,-108.887,28.320,-92.285,926.503
1686361849.609,-14.160,246.582,-28.320,-78.613,926.507
1686361849.613,-13.672,-40.527,-62.500,-124.512,926.511
1686361849.617,-24.414,-611.328,-0.488,-149.414,926.515
1686361849.620,-15.625,-302.734,78.613,-108.887,926.519
1686361849.624,18.066,381.348,16.113,-39.551,926.523
1686361849.628,13.184,159.668,-34.668,-30.273,926.527
1686361849.632,-22.461,-41.992,-27.832,-79.102,926.531
1686361849.636,-32.227,149.902,-0.977,-94.238,926.535
1686361849.653,-3.906,288.086,-1.953,-16.602,926.550
1686361849.657,6.836,27.344,-38.574,38.574,926.554
1686361849.661,-20.996,-379.395,-32.227,-9.766,926.557
1686361849.665,-53.711,-162.109,4.883,-27.832,926.561
1686361849.669,-44.922,189.453,-23.926,47.363,926.565
1686361849.673,-18.066,-326.660,-79.102,88.379,926.569
1686361849.677,-41.992,-889.160,-14.160,8.789,926.573
1686361849.680,-75.195,-403.809,42.969,-62.500,926.577
1686361849.684,-63.477,178.711,-16.113,-39.551,926.581
1686361849.688,-26.855,-138.184,-34.180,13.184,926.585
1686361849.692,-28.809,-330.566,-6.348,-11.230,926.589
1686361849.696,-49.805,205.078,1.465,-72.754,926.593
1686361849.698,-33.203,251.465,-20.996,-20.996,926.594
1686361849.702,13.184,119.141,-20.508,83.008,926.598
1686361849.706,24.902,214.355,-4.395,51.270,926.601
1686361849.710,-1.953,272.949,-27.832,-44.434,926.605
1686361849.714,-12.207,19.531,-38.086,-59.082,926.609
1686361849.718,4.883,-287.109,-20.508,-2.441,926.613
1686361849.722,14.160,-290.039,-8.301,-5.859,926.617
1686361849.725,-19.043,-17.090,-4.395,-98.145,926.621
1686361849.729,-41.504,41.992,-63.477,-120.117,926.625
1686361849.733,-25.391,-664.551,-45.410,-49.316,926.629
1686361849.737,-4.395,-337.402,79.590,-9.277,926.633
1686361849.741,-20.996,425.293,-7.324,-56.152,926.637
1686361849.742,-42.969,30.273,-57.129,-85.938,926.639
1686361849.746,-28.809,-141.602,-32.227,-29.785,926.643
1686361849.750,-1.465,187.988,-20.996,3.418,926.646
1686361849.754,2.441,303.223,-34.180,-38.086,926.650
1686361849.758,-24.414,-101.074,-36.621,-82.520,926.654
1686361849.762,-23.438,-497.559,-14.160,-55.176,926.658
1686361849.766,-4.395,-180.176,-17.578,27.832,926.662
1686361849.769,-15.137,15.137,-16.602,45.898,926.666
1686361849.773,-45.898,-463.379,-52.734,0.000,926.670
1686361849.777,-63.477,-1000.000,-62.012,13.184,926.674
1686361849.781,-26.367,-449.707,42.969,41.016,926.678
1686361849.785,-1.953,433.105,0.488,26.855,926.682
1686361849.788,-24.414,202.148,-47.363,-30.273,926.684
1686361849.792,-43.457,164.551,-12.207,-66.406,926.688
1686361849.796,-36.133,319.336,-18.066,-10.742,926.692
1686361849.800,-1.953,229.492,-32.227,40.039,926.696
1686361849.804,-1.953,-71.289,-38.086,3.906,926.700
1686361849.808,-48.828,-300.781,-29.297,-47.363,926.704
1686361849.812,-56.152,-214.355,6.348,-46.387,926.707
1686361849.815,-22.461,22.949,-27.832,-20.020,926.711
1686361849.819,-24.902,-437.500,-15.625,-44.434,926.715
1686361849.823,-55.664,-339.844,35.645,-105.957,926.719
1686361849.827,-50.293,24.902,-31.738,-87.891,926.723
1686361849.831,-9.766,-223.145,-63.477,14.648,926.727
1686361849.832,13.184,-230.469,-40.039,68.848,926.729
1686361849.836,-16.602,177.246,-2.441,15.137,926.733
1686361849.840,-39.551,223.145,-41.504,-4.883,926.736
1686361849.844,-16.602,-80.078,-16.113,36.133,926.740
1686361849.848,-10.254,-71.777,-16.602,27.832,926.744
1686361849.852,-34.668,-153.320,-46.387,-29.297,926.748
1686361849.856,-59.570,-155.273,-12.207,-41.992,926.752
1686361849.859,-54.688,-377.930,-63.965,21.484,926.756
1686361849.863,-19.043,-1000.000,-36.133,50.293,926.760
1686361849.867,-13.672,-281.738,62.988,-32.227,926.764
1686361849.871,-37.598,338.379,-24.414,-105.469,926.768
1686361849.875,-23.438,27.344,-43.457,-77.148,926.772
1686361849.878,20.996,-44.922,-12.695,-0.977,926.777
1686361849.882,45.410,87.891,-2.441,-5.859,926.781
1686361849.886,37.109,156.738,-39.551,-53.711,926.785
1686361849.890,5.859,-296.875,-28.320,-68.359,926.789
1686361849.894,-9.766,-229.980,9.766,-69.824,926.792
1686361849.898,-11.230,1.953,-30.762,-77.148,926.796
1686361849.902,-52.246,-212.402,-45.410,-152.832,926.800
1686361849.905,-65.918,-633.789,1.953,-183.594,926.804
1686361849.909,-25.879,-279.297,72.266,-106.934,926.808
1686361849.913,2.441,392.090,0.000,-47.363,926.812
1686361849.917,-10.254,69.336,-58.105,-74.707,926.816
1686361849.921,-42.480,-200.195,-52.246,-96.680,926.820
1686361849.922,-28.809,46.875,-14.648,-50.293,926.819
1686361849.926,6.836,186.523,-25.391,-3.906,926.822
1686361849.930,-10.742,-134.766,-45.410,-39.062,926.826
1686361849.934,-48.828,-512.695,-9.277,-76.660,926.830
1686361849.938,-42.480,-280.762,-17.578,-26.367,926.834
1686361849.942,-20.020,-150.879,-42.969,38.574,926.838
1686361849.946,-23.438,-495.117,-43.457,31.250,926.842
1686361849.949,-54.688,-1000.000,-43.945,-5.859,926.846
1686361849.953,-59.082,-534.668,63.965,0.000,926.850
1686361849.957,-30.273,324.219,17.090,35.156,926.854
1686361849.961,-23.438,81.543,-29.785,41.992,926.858
1686361849.965,-50.293,9.766,3.906,-35.645,926.861
1686361849.967,-70.801,193.359,-17.090,-108.398,926.878
1686361849.971,-45.898,106.445,-31.250,-74.219,926.882
1686361849.975,-5.859,-22.949,-21.484,-18.555,926.885
1686361849.979,-28.809,102.051,7.812,-59.570,926.889
1686361849.983,-64.453,80.566,-39.062,-116.211,926.893
1686361849.987,-44.922,-219.727,-61.035,-103.516,926.897
1686361849.991,-7.812,-757.812,-26.855,-66.406,926.901
1686361849.994,-2.930,-566.895,34.180,-101.562,926.905
1686361849.998,-41.016,252.930,13.672,-179.199,926.909
1686361850.002,-54.199,17.578,-47.852,-172.852,926.913
1686361850.006,-17.578,-196.777,-21.973,-90.332,926.917
1686361850.010,-5.371,177.734,9.277,-56.152,926.921
1686361850.012,-45.898,243.652,-13.672,-124.512,926.923
1686361850.016,-59.570,-170.410,-25.879,-156.738,926.927
1686361850.020,-20.508,-291.016,-4.395,-68.359,926.931
1686361850.024,-1.953,84.961,25.879,-20.508,926.935
1686361850.028,-30.273,181.641,-16.113,-88.379,926.939
1686361850.032,-62.012,-517.578,-70.801,-139.648,926.943
1686361850.036,-43.457,-657.227,1.953,-101.562,926.947
1686361850.039,-12.695,-102.051,26.367,-40.527,926.951
1686361850.043,-24.902,-99.609,-18.555,-62.988,926.955
1686361850.047,-49.805,-545.898,-48.340,-109.375,926.959
1686361850.051,-42.480,-816.895,41.992,-67.871,926.963
1686361850.055,-0.977,161.133,99.609,-47.363,926.966
1686361850.073,18.066,456.543,-25.879,-95.215,926.969
1686361850.077,-8.301,71.777,-19.043,-165.039,926.973
1686361850.081,-27.832,159.668,15.137,-166.992,926.976
1686361850.085,2.441,376.953,-1.953,-96.191,926.980
1686361850.089,2.930,271.484,-35.156,-80.566,926.984
1686361850.093,-36.133,-258.301,-43.945,-141.602,926.988
1686361850.097,-31.250,-259.277,6.836,-173.828,926.992
1686361850.100,15.137,240.234,14.160,-118.164,926.996
1686361850.104,71.777,198.730,-41.992,-77.148,927.000
1686361850.108,72.266,-326.172,1.953,-110.840,927.004
1686361850.112,20.508,-143.555,47.363,-120.605,927.008
1686361850.116,24.414,71.777,-19.043,-44.922,927.012
1686361850.118,53.223,-202.148,-53.223,21.484,927.014
1686361850.122,23.926,-189.941,-32.227,-5.371,927.018
1686361850.126,-13.184,186.523,14.160,-71.777,927.021
1686361850.130,-17.090,288.574,-20.996,-70.801,927.025
1686361850.134,2.441,49.805,-15.137,-17.090,927.029
1686361850.138,6.348,-177.246,-8.789,-5.371,927.033
1686361850.142,-30.273,-33.203,-10.742,-49.805,927.037
1686361850.145,-32.227,31.738,-9.766,-38.086,927.041
1686361850.149,18.555,-424.316,-57.617,13.672,927.045
1686361850.153,40.039,-848.145,5.859,-14.160,927.049
1686361850.157,20.508,5.859,90.820,-72.754,927.053
1686361850.161,-1.953,527.832,-7.812,-63.477,927.057
1686361850.178,-12.207,257.324,-3.906,-13.672,927.077
1686361850.182,-12.695,181.641,13.672,13.672,927.081
1686361850.186,-20.508,266.602,-10.742,-38.086,927.085
1686361850.190,-56.152,342.285,-16.113,-109.375,927.089
1686361850.194,-58.594,-84.961,7.812,-107.910,927.093
1686361850.198,-13.184,-216.797,20.508,-33.691,927.097
1686361850.202,-18.555,186.035,23.438,-58.105,927.101
1686361850.205,-53.223,308.105,-21.973,-162.598,927.105
1686361850.209,-66.895,-395.996,-15.625,-130.371,927.108
1686361850.213,-26.855,-105.469,104.492,-21.973,927.112
1686361850.217,8.301,608.398,28.320,-0.488,927.116
1686361850.221,-29.297,186.035,-41.016,-74.707,927.120
1686361850.207,-57.129,1.953,-6.348,-103.516,927.104
1686361850.211,-21.484,334.961,8.789,-58.105,927.108
1686361850.215,16.113,454.102,-18.066,-15.625,927.112
1686361850.219,-6.836,99.609,-20.020,-57.129,927.116
1686361850.223,-52.734,-253.906,-3.906,-104.004,927.119
1686361850.227,-46.875,-130.859,-0.977,-41.504,927.123
1686361850.231,-19.043,33.203,-9.277,19.531,927.127
1686361850.234,-31.738,-213.379,3.906,0.488,927.131
1686361850.238,-60.059,-127.930,47.363,-25.391,927.135
1686361850.242,-53.711,345.703,27.832,18.066,927.139
1686361850.246,-14.648,496.094,-17.090,64.941,927.143
1686361850.250,-2.930,-100.098,-50.293,48.828,927.147
1686361850.252,-30.762,-1000.000,-9.766,-6.836,927.149
1686361850.256,-29.785,-319.824,83.984,-22.949,927.153
1686361850.260,8.789,578.613,33.691,27.344,927.156
1686361850.264,30.762,457.520,-1.465,27.832,927.160
1686361850.268,1.465,446.777,-2.930,-39.062,927.164
1686361850.272,-29.297,149.414,-35.645,-49.805,927.168
1686361850.276,-4.883,86.426,6.348,8.789,927.172
1686361850.279,8.301,-432.129,-13.184,47.852,927.176
1686361850.283,-7.812,-429.199,46.387,9.766,927.180
1686361850.287,-23.926,594.727,54.199,-48.340,927.184
1686361850.291,-6.348,434.082,-25.391,-2.930,927.188
1686361850.295,33.203,272.949,-5.371,78.613,927.192
1686361850.297,24.902,545.410,9.766,35.645,927.194
1686361850.301,-22.461,477.051,-26.855,-36.133,927.197
1686361850.305,-28.809,89.844,-24.414,21.484,927.201
1686361850.309,13.184,82.520,16.113,107.910,927.205
1686361850.313,19.531,351.074,7.324,73.730,927.209
1686361850.317,-17.578,127.930,-31.250,-12.695,927.213
1686361850.321,-29.297,-408.691,-53.223,-26.367,927.217
1686361850.324,-12.207,-708.008,23.438,43.457,927.221
1686361850.328,-3.906,85.938,78.613,65.918,927.225
1686361850.332,-15.625,447.754,-4.883,15.137,927.229
1686361850.336,-51.270,-369.141,-35.645,-41.992,927.233
1686361850.340,-62.500,-386.719,42.480,-40.527,927.236
1686361850.343,-20.020,590.820,60.547,-14.160,927.252
1686361850.347,-14.648,543.945,-23.438,-62.988,927.256
1686361850.351,-43.945,152.344,-2.930,-114.258,927.260
1686361850.355,-41.504,300.293,33.691,-63.477,927.264
1686361850.359,-23.438,444.824,1.953,-10.254,927.268
1686361850.363,-41.016,161.133,-31.250,-66.406,927.272
1686361850.367,-80.078,-511.230,9.277,-124.512,927.276
1686361850.370,-74.707,-249.023,87.402,-88.867,927.280
1686361850.374,-43.457,541.016,51.758,-20.996,927.284
1686361850.378,-50.781,333.984,-21.484,-42.969,927.287
1686361850.382,-95.215,96.191,-26.855,-138.184,927.291
1686361850.386,-102.051,207.520,-0.977,-149.414,927.295
1686361850.388,-45.898,108.398,-9.766,-75.195,927.297
1686361850.392,-15.137,-182.129,-39.551,-40.039,927.301
1686361850.396,-34.180,-274.902,-31.250,-89.844,927.305
1686361850.400,-53.223,142.578,20.020,-102.539,927.309
1686361850.404,-42.969,341.797,-10.254,-36.133,927.312
1686361850.408,-28.320,-210.938,-49.316,-5.859,927.316
1686361850.412,-44.922,-514.160,-8.301,-61.035,927.320
1686361850.415,-63.965,-131.348,10.742,-127.930,927.324
1686361850.419,-37.109,120.117,-1.465,-114.258,927.328
1686361850.423,12.695,-254.395,-42.480,-41.992,927.332
1686361850.427,17.090,-458.496,14.160,-34.668,927.336
1686361850.431,-13.184,342.285,54.688,-98.145,927.340
1686361850.447,-21.484,344.238,-25.879,-96.680,927.344
1686361850.451,6.348,138.184,-13.672,-42.969,927.348
1686361850.455,18.555,49.805,-7.324,-23.438,927.352
1686361850.459,-20.508,19.531,-11.230,-48.340,927.356
1686361850.463,-40.039,151.855,-23.926,-50.293,927.359
1686361850.467,-6.836,-580.078,-41.016,39.551,927.363
1686361850.471,16.113,-631.836,25.879,97.656,927.367
1686361850.474,-15.137,259.766,18.066,31.738,927.371
1686361850.478,-49.316,92.285,-37.109,-8.301,927.375
1686361850.482,-35.156,-133.301,-4.395,26.367,927.379
1686361850.486,-9.766,202.148,22.949,39.551,927.383
1686361850.490,-25.391,277.344,-6.836,-19.043,927.387
1686361850.493,-68.359,-153.809,-45.410,-65.918,927.389
1686361850.497,-54.688,-291.016,-31.250,-18.555,927.393
1686361850.501,-2.441,67.383,-3.418,51.758,927.397
1686361850.505,-3.906,143.066,-38.086,34.180,927.400
1686361850.509,-40.527,-294.922,-21.484,-51.270,927.404
1686361850.513,-52.246,-675.293,-1.953,-73.730,927.408
1686361850.517,-27.832,-462.402,-12.207,-55.176,927.412
1686361850.520,-3.906,-263.672,-13.672,-98.145,927.416
1686361850.524,-14.648,-555.664,-51.270,-160.645,927.420
1686361850.528,-19.531,-1000.000,-26.367,-118.652,927.424
1686361850.532,5.859,-568.359,46.875,-41.992,927.428
1686361850.536,21.973,103.516,-11.719,-25.391,927.432
1686361850.538,-13.672,21.484,-27.344,-71.777,927.433
1686361850.542,-52.734,37.598,-18.555,-123.047,927.437
1686361850.546,-35.156,155.273,-22.461,-59.570,927.441
1686361850.550,0.977,123.047,-28.809,3.906,927.445
1686361850.554,-10.742,-106.934,-39.062,-19.531,927.449
1686361850.558,-43.945,-346.680,-39.062,-43.945,927.453
1686361850.562,-52.734,-366.211,-23.926,-9.766,927.457
1686361850.565,-20.996,-138.184,-24.414,73.730,927.461
1686361850.569,-19.043,-717.773,-65.918,76.172,927.465
1686361850.573,-61.035,-714.355,12.207,-27.832,927.469
1686361850.577,-57.617,148.926,6.348,-52.246,927.472
1686361850.581,-31.250,-47.363,-58.594,12.695,927.476
1686361850.583,-36.621,-238.281,-32.715,23.926,927.479
1686361850.587,-61.523,17.090,-14.648,-60.059,927.483
1686361850.591,-64.941,-23.438,-47.852,-112.305,927.486
1686361850.595,-31.738,-327.637,-11.230,-36.621,927.490
1686361850.599,-1.953,-433.594,3.418,13.184,927.494
1686361850.603,-9.766,-412.598,-55.664,-36.133,927.498
1686361850.607,-28.809,-465.820,-29.297,-76.660,927.502
1686361850.610,-24.902,-701.172,-43.945,-4.883,927.506
1686361850.614,1.465,-971.680,20.508,74.707,927.510
1686361850.618,6.836,-282.227,89.355,68.848,927.514
1686361850.622,-30.762,0.488,-35.156,22.949,927.518
1686361850.626,-48.340,-506.348,6.836,-6.836,927.522
1686361850.628,-10.254,-236.328,78.613,9.766,927.524
1686361850.632,10.742,305.664,-0.977,-35.156,927.528
1686361850.636,-24.902,22.949,-56.152,-140.137,927.531
1686361850.640,-48.340,-288.574,-11.719,-147.461,927.535
1686361850.644,-20.996,-117.188,4.883,-60.059,927.539
1686361850.648,0.977,-169.434,-29.785,-4.883,927.543
1686361850.652,-22.461,-377.441,-41.992,-61.523,927.547
1686361850.655,-50.781,-697.754,-1.465,-146.484,927.551
1686361850.659,-39.551,-404.785,68.848,-103.516,927.555
1686361850.663,20.020,221.680,9.766,-3.906,927.559
1686361850.667,21.973,-35.156,-43.945,-64.453,927.563
1686361850.671,-21.484,-295.410,-48.340,-133.301,927.567
1686361850.673,1.953,-235.840,-28.320,-65.430,927.572
1686361850.677,25.879,-117.188,14.160,-37.598,927.576
1686361850.681,15.137,-308.594,-45.898,-85.449,927.580
1686361850.685,-9.277,-598.633,-60.547,-137.207,927.584
1686361850.689,-11.230,-238.281,-8.301,-120.117,927.588
1686361850.693,18.066,-293.945,-31.738,-52.734,927.591
1686361850.697,15.625,-657.715,-46.387,-38.086,927.595
1686361850.700,-38.086,-850.586,-13.184,-89.355,927.599
1686361850.704,-69.336,-323.242,49.805,-96.680,927.603
1686361850.708,-48.340,161.133,-12.695,-14.648,927.607
1686361850.712,-12.207,-419.434,-45.410,35.645,927.611
1686361850.716,-17.578,-604.004,26.367,-17.578,927.615
1686361850.718,-44.922,67.871,14.160,-80.566,927.630
1686361850.722,-30.273,50.781,-30.273,-37.598,927.634
1686361850.726,5.859,-118.652,-19.531,-0.977,927.638
1686361850.730,5.371,-211.914,2.930,-56.152,927.642
1686361850.734,-26.367,-195.801,-15.137,-93.750,927.646
1686361850.738,-22.461,-233.887,-30.273,-49.316,927.650
1686361850.742,8.789,-799.805,-46.387,13.672,927.654
1686361850.745,0.000,-703.125,16.113,-15.625,927.658
1686361850.749,-32.227,122.559,40.527,-97.656,927.661
1686361850.753,-40.527,-4.883,-42.480,-99.609,927.665
1686361850.757,-16.602,-182.617,-26.855,-19.043,927.669
1686361850.761,4.883,134.277,0.488,6.836,927.673
1686361850.762,-19.531,127.930,-25.391,-36.133,927.673
1686361850.766,-45.898,-267.578,-40.527,-42.480,927.677
1686361850.770,-15.137,-307.617,-16.602,10.742,927.681
1686361850.774,9.766,62.988,-2.441,47.852,927.685
1686361850.778,-20.996,33.691,-36.133,6.348,927.689
1686361850.782,-65.430,-606.934,-71.777,-29.785,927.693
1686361850.786,-63.477,-833.984,-9.277,15.137,927.697
1686361850.789,-28.809,-344.727,23.926,32.227,927.701
1686361850.793,-25.879,-135.742,-14.160,-16.113,927.704
1686361850.797,-40.527,-556.641,-62.012,-40.039,927.708
1686361850.801,-44.434,-860.840,0.977,-2.930,927.712
1686361850.805,-25.879,30.762,82.520,56.641,927.716
1686361850.823,-15.137,375.000,-30.762,37.109,927.719
1686361850.827,-44.922,0.000,-25.391,-47.852,927.723
1686361850.831,-66.895,-40.527,0.977,-97.168,927.727
1686361850.835,-62.988,110.840,-25.391,-76.172,927.731
1686361850.839,-38.086,99.609,-20.996,-29.785,927.734
1686361850.843,-33.203,-352.051,-33.203,-46.875,927.738
1686361850.847,-50.293,-394.043,4.883,-59.082,927.742
1686361850.850,-25.391,37.598,16.602,-17.578,927.746
1686361850.854,3.906,-5.859,-39.062,-9.766,927.750
1686361850.858,-18.555,-699.219,-26.367,-60.059,927.754
1686361850.862,-47.363,-539.062,57.617,-90.820,927.758
1686361850.866,-38.086,191.895,18.555,-55.664,927.762
1686361850.868,-22.461,-22.461,-40.527,-29.297,927.764
1686361850.872,-29.785,-156.250,-41.992,-95.703,927.767
1686361850.876,-49.805,80.078,-9.766,-139.160,927.771
1686361850.880,-42.969,118.164,-13.184,-94.238,927.775
1686361850.884,4.883,-151.855,-18.555,-47.852,927.779
1686361850.888,21.484,-473.145,10.254,-48.340,927.783
1686361850.892,-7.812,-279.297,-0.488,-109.863,927.787
1686361850.895,-20.996,-134.766,-12.207,-124.512,927.791
1686361850.899,-0.977,-586.426,-47.852,-26.855,927.795
1686361850.903,3.906,-932.617,14.160,24.902,927.799
1686361850.907,-36.133,-218.750,82.520,-62.988,927.803
1686361850.911,-74.707,63.477,-25.391,-103.516,927.806
1686361850.912,-69.336,-373.047,12.207,-39.062,927.809
1686361850.916,-33.691,-78.125,61.523,-17.578,927.813
1686361850.920,-34.180,362.305,-13.672,-68.359,927.817
1686361850.924,-75.195,116.699,-30.762,-120.117,927.821
1686361850.928,-52.246,-110.352,-5.859,-97.656,927.825
1686361850.932,4.395,-167.480,-20.020,-23.438,927.829
1686361850.936,0.488,7.812,0.000,-33.203,927.832
1686361850.939,-34.180,77.148,-46.875,-121.094,927.836
1686361850.943,-34.668,-556.152,-10.254,-89.844,927.840
1686361850.947,-6.836,-231.934,104.492,9.766,927.844
1686361850.951,-1.953,394.531,-10.254,7.324,927.848
1686361850.955,-29.297,-58.594,-73.730,-60.059,927.852
1686361850.958,-36.133,-189.941,-27.832,-65.430,927.857
1686361850.962,1.953,-22.949,-11.719,18.066,927.861
1686361850.966,23.926,96.191,5.371,74.219,927.865
1686361850.970,8.301,-108.887,-41.016,36.621,927.869
1686361850.974,-16.602,-420.898,-60.059,15.625,927.872
1686361850.978,-9.277,-203.613,-17.090,74.707,927.876
1686361850.982,28.809,-113.281,-6.836,88.867,927.880
1686361850.985,31.250,-373.535,-47.363,19.043,927.884
1686361850.989,6.348,-938.965,-9.766,-28.320,927.888
1686361850.993,5.371,-172.852,92.773,1.953,927.892
1686361850.997,21.973,484.863,-4.395,45.410,927.896
1686361851.001,3.906,187.988,-14.160,21.484,927.900
1686361851.018,-49.316,173.828,25.391,-38.574,927.914
1686361851.022,-63.965,298.828,1.953,-16.602,927.918
1686361851.026,-14.160,225.586,-24.414,43.457,927.922
1686361851.030,29.785,52.246,-20.020,28.809,927.926
1686361851.034,1.465,-107.910,-6.836,-39.062,927.930
1686361851.038,-31.738,-293.945,-16.602,-79.102,927.934
1686361851.042,-19.531,-110.840,-10.254,-24.414,927.938
1686361851.045,3.418,-569.824,-35.645,36.133,927.941
1686361851.049,-9.766,-678.711,16.602,-18.555,927.945
1686361851.053,-36.621,287.109,36.133,-89.844,927.949
1686361851.057,-25.879,249.023,-23.926,-51.758,927.953
1686361851.061,10.254,105.957,-15.625,-0.488,927.957
1686361851.048,9.766,337.891,-5.859,-30.273,927.944
1686361851.052,-30.273,306.641,-13.672,-89.844,927.947
1686361851.056,-35.156,-31.738,-23.438,-64.453,927.951
1686361851.060,1.953,-90.820,-4.883,13.184,927.955
1686361851.064,30.762,218.262,-8.301,13.672,927.959
1686361851.068,-1.465,-26.367,-48.340,-57.617,927.963
1686361851.072,-37.598,-527.832,-19.531,-89.844,927.967
1686361851.075,0.488,-501.953,21.484,-54.688,927.971
1686361851.079,35.645,-99.609,19.043,-28.809,927.975
1686361851.083,-6.348,203.613,5.371,-100.586,927.979
1686361851.087,-55.176,-237.305,-59.082,-99.609,927.983
1686361851.091,-41.992,-1000.000,-44.922,4.395,927.987
1686361851.093,7.324,-374.512,71.289,43.945,928.017
1686361851.097,13.184,486.328,4.395,-6.348,928.021
1686361851.101,-14.160,180.176,-28.809,-68.359,928.025
1686361851.105,-11.719,192.383,17.578,-60.547,928.029
1686361851.109,10.254,328.613,-22.949,-23.438,928.033
1686361851.113,0.488,118.652,-43.945,-20.996,928.037
1686361851.117,-43.457,-545.410,-5.859,-50.293,928.041
1686361851.120,-37.109,-347.168,64.941,-39.551,928.045
1686361851.124,16.113,446.777,24.414,19.531,928.048
1686361851.128,37.109,207.031,-45.898,55.176,928.052
1686361851.132,16.113,-205.566,-0.488,-4.883,928.056
1686361851.136,0.488,100.098,40.527,-59.082,928.060
1686361851.137,19.531,398.926,-5.859,-18.555,928.048
1686361851.141,19.531,104.004,-31.738,-25.879,928.052
1686361851.145,-22.461,-55.176,-18.555,-81.055,928.056
1686361851.149,-46.387,163.086,0.000,-83.496,928.060
1686361851.153,-21.484,252.441,-17.578,-41.504,928.064
1686361851.157,13.672,-252.930,-59.570,-12.695,928.068
1686361851.161,-1.953,-681.641,-30.273,-84.961,928.071
1686361851.164,-30.762,-275.391,7.812,-148.438,928.075
1686361851.168,-13.672,19.043,-26.855,-82.520,928.079
1686361851.172,28.809,-115.234,16.113,-12.695,928.083
1686361851.176,15.625,-35.156,62.500,-70.801,928.087
1686361851.180,-23.438,223.145,-20.508,-148.926,928.091
1686361851.198,-11.230,44.434,-44.434,-102.539,928.094
1686361851.202,30.762,-506.836,-40.039,-1.953,928.098
1686361851.206,40.039,-847.168,27.832,23.438,928.102
1686361851.210,15.625,40.527,53.223,-36.133,928.105
1686361851.214,-5.371,310.059,-41.504,-47.852,928.109
1686361851.218,-1.465,-159.180,-11.230,11.230,928.113
1686361851.222,24.902,-2.930,27.832,50.293,928.117
1686361851.225,19.531,441.406,0.977,-1.465,928.121
1686361851.229,-5.859,175.781,-52.734,-9.766,928.125
1686361851.233,7.324,-394.043,7.812,95.703,928.129
1686361851.237,36.133,3.906,67.383,146.484,928.133
1686361851.241,24.414,462.891,-7.324,99.121,928.137
1686361851.243,-20.996,70.801,-41.016,45.410,928.139
1686361851.247,-36.133,-106.934,-35.645,59.082,928.143
1686361851.251,-4.883,8.301,-7.812,126.953,928.147
1686361851.255,11.230,98.633,8.789,145.996,928.151
1686361851.259,-9.277,-167.969,-44.922,117.676,928.155
1686361851.263,-6.836,-636.230,-30.762,142.578,928.159
1686361851.267,22.949,-170.898,13.672,193.848,928.162
1686361851.270,40.527,137.695,-16.602,211.426,928.166
1686361851.274,16.113,-404.297,-65.430,130.371,928.170
1686361851.278,-14.648,-916.992,11.719,44.434,928.174
1686361851.282,9.766,-68.359,101.074,50.293,928.178
1686361851.286,42.480,476.074,-4.883,49.316,928.182
1686361851.287,42.480,77.148,-24.902,-19.531,928.184
1686361851.291,26.855,54.199,3.906,-61.035,928.188
1686361851.295,21.973,275.391,-4.883,-18.555,928.192
1686361851.299,46.875,243.652,-17.578,13.184,928.196
1686361851.303,50.293,17.090,-27.832,-17.090,928.200
1686361851.307,14.160,-186.035,-16.113,-35.645,928.204
1686361851.311,13.184,-301.270,-19.043,15.137,928.208
1686361851.314,56.152,-144.043,-32.227,86.426,928.212
1686361851.318,67.871,-615.234,-22.949,124.023,928.216
1686361851.322,29.297,-680.176,38.086,108.887,928.220
1686361851.326,7.324,291.504,28.809,102.051,928.223
1686361851.330,22.461,231.445,-26.855,158.691,928.227
1686361851.333,28.320,37.109,-17.090,160.645,928.229
1686361851.337,16.113,259.277,-9.277,79.590,928.233
1686361851.341,8.301,216.309,-29.297,53.223,928.237
1686361851.345,10.742,-52.734,-16.602,99.609,928.240
1686361851.349,29.297,-105.957,-13.672,119.141,928.244
1686361851.353,9.766,-119.629,-15.625,58.105,928.248
1686361851.357,-20.508,-214.355,3.906,-21.484,928.252
1686361851.360,-17.090,-485.352,-42.969,-23.438,928.256
1686361851.364,5.371,-1000.000,-42.480,39.062,928.260
1686361851.368,4.883,-544.434,58.594,28.809,928.264
1686361851.372,-23.438,315.430,12.695,-61.035,928.268
1686361851.376,-21.973,63.965,-27.344,-72.754,928.272
1686361851.378,31.738,148.926,13.184,-40.527,928.274
1686361851.382,67.383,477.051,-15.137,-59.082,928.278
1686361851.386,37.598,303.223,-43.945,-108.398,928.282
1686361851.390,4.395,2.930,-23.926,-88.379,928.285
1686361851.394,21.484,66.406,-6.836,-8.789,928.289
1686361851.398,41.992,36.133,-33.691,30.762,928.293
1686361851.402,14.160,-94.238,-33.691,13.672,928.297
1686361851.405,-19.531,-559.082,-1.953,-8.301,928.301
1686361851.409,1.953,-355.469,61.523,29.785,928.305
1686361851.413,51.758,358.398,11.230,95.703,928.309
1686361851.417,40.527,46.387,-55.664,87.402,928.313
1686361851.421,7.812,-346.680,-23.438,43.457,928.317
1686361851.426,19.531,41.504,23.926,74.707,928.322
1686361851.430,44.922,376.465,-10.254,146.973,928.326
1686361851.434,40.527,51.758,-41.992,136.230,928.330
1686361851.438,3.906,-107.910,-22.461,43.457,928.334
1686361851.442,-21.973,118.164,-25.879,9.277,928.338
1686361851.446,-1.953,-15.625,-34.668,64.941,928.341
1686361851.450,29.297,-406.250,-47.852,62.988,928.345
1686361851.453,-5.371,-737.793,-41.504,-28.320,928.349
1686361851.457,-23.438,-208.008,32.227,-98.145,928.353
1686361851.461,20.996,338.867,-20.508,-43.457,928.357
1686361851.465,71.289,-180.176,-45.898,61.035,928.361
1686361851.469,71.289,-281.250,35.645,61.523,928.365
1686361851.468,43.457,211.914,-9.277,38.086,928.379
1686361851.472,44.434,43.457,-56.152,105.469,928.383
1686361851.476,69.336,-409.668,-11.230,159.668,928.387
1686361851.480,64.941,-248.535,42.480,86.914,928.391
1686361851.484,27.832,260.254,-0.977,-10.254,928.395
1686361851.488,12.695,-7.324,-53.711,-11.230,928.399
1686361851.492,26.855,-564.453,-14.160,32.227,928.403
1686361851.495,-1.953,-263.672,49.316,8.301,928.406
1686361851.499,-50.293,492.188,-5.859,-69.824,928.410
1686361851.503,-41.016,188.965,-52.734,-67.871,928.414
1686361851.507,-18.555,-17.090,-12.207,-0.977,928.418
1686361851.511,-2.930,337.891,12.207,17.090,928.422
1686361851.512,-1.465,449.219,-23.926,-13.184,928.423
1686361851.516,-14.160,38.086,-42.480,3.418,928.427
1686361851.520,15.137,-111.328,-25.391,68.848,928.431
1686361851.524,44.434,92.285,-2.441,81.055,928.435
1686361851.528,15.137,109.863,-6.836,31.250,928.439
1686361851.532,-27.344,-378.418,-73.730,2.930,928.443
1686361851.536,-18.555,-673.340,8.301,21.973,928.447
1686361851.539,41.504,-73.730,66.406,38.086,928.451
1686361851.543,68.848,187.012,-11.230,33.691,928.455
1686361851.547,23.926,-278.809,-55.176,5.371,928.458
1686361851.551,-1.465,-754.395,31.738,24.902,928.462
1686361851.555,34.180,187.988,91.797,67.871,928.466
1686361851.573,47.363,635.742,-27.344,56.641,928.470
1686361851.577,5.371,256.348,-21.973,7.324,928.473
1686361851.581,-30.273,268.066,5.859,12.207,928.477
1686361851.585,-2.441,470.703,2.441,77.148,928.481
1686361851.589,32.227,416.016,-29.297,101.562,928.485
1686361851.593,15.625,-24.902,-14.648,47.852,928.489
1686361851.597,-4.883,-159.180,13.184,-6.836,928.493
1686361851.600,13.184,59.570,6.836,5.859,928.497
1686361851.604,48.828,307.617,-11.230,42.969,928.501
1686361851.608,31.738,-384.766,-36.621,-11.719,928.505
1686361851.612,-4.395,-416.992,47.852,-75.195,928.509
1686361851.616,7.812,538.086,23.438,-30.273,928.513
1686361851.618,41.016,284.180,-72.754,29.297,928.513
1686361851.622,36.133,7.324,-48.828,25.391,928.517
1686361851.626,1.465,358.398,-13.184,-7.812,928.521
1686361851.630,-5.859,414.062,-43.945,17.578,928.525
1686361851.634,23.438,114.746,-29.297,66.895,928.529
1686361851.638,41.504,-187.988,-21.484,57.129,928.533
1686361851.642,17.090,29.297,-15.137,-25.391,928.537
1686361851.645,11.230,126.465,-23.926,-54.688,928.541
1686361851.649,27.344,-321.289,-54.688,1.465,928.545
1686361851.653,29.785,-1000.000,-31.738,18.066,928.549
1686361851.657,27.832,-412.109,51.758,-63.477,928.552
1686361851.661,9.766,544.434,-1.953,-137.207,928.556
1686361851.662,27.832,291.992,-22.461,-93.262,928.559
1686361851.666,67.871,411.133,22.949,-25.391,928.563
1686361851.670,73.242,678.711,-16.113,-33.203,928.567
1686361851.674,40.527,442.383,-35.645,-70.312,928.571
1686361851.678,33.691,168.945,-34.180,-49.316,928.575
1686361851.682,62.012,-0.977,-20.508,0.488,928.578
1686361851.686,61.035,145.020,21.973,-7.812,928.582
1686361851.689,31.250,375.488,-22.461,-63.965,928.586
1686361851.693,14.648,-333.984,-2.441,-60.547,928.590
1686361851.697,36.621,-160.156,86.426,28.809,928.594
1686361851.701,50.781,628.418,15.137,81.055,928.598
1686361851.705,19.043,181.152,-51.758,36.133,928.602
1686361851.707,-9.766,-200.195,-1.465,16.602,928.604
1686361851.711,13.184,291.992,51.270,60.547,928.608
1686361851.715,41.504,580.078,-16.602,76.660,928.611
1686361851.719,0.977,187.500,-40.039,15.137,928.615
1686361851.723,-54.688,-20.020,-22.949,-40.039,928.619
1686361851.727,-41.992,45.410,-19.531,-0.977,928.623
1686361851.731,-2.930,86.426,-4.395,65.430,928.627
1686361851.734,1.953,-202.148,-60.059,45.410,928.631
1686361851.738,-22.461,-903.320,-18.066,-20.020,928.635
1686361851.742,-18.555,-147.461,101.074,-4.395,928.639
1686361851.746,16.602,630.371,-1.465,66.406,928.643
1686361851.750,12.695,379.883,-24.414,55.664,928.647
1686361851.764,-24.902,343.750,-0.977,-35.645,928.660
1686361851.768,-37.598,308.594,-44.434,-73.730,928.664
1686361851.772,-1.465,128.418,-29.297,-13.184,928.668
1686361851.776,34.668,-37.109,16.602,30.762,928.672
1686361851.780,19.531,108.887,12.207,-13.672,928.676
1686361851.784,9.277,105.957,-23.438,-53.223,928.680
1686361851.788,39.551,39.062,-16.113,-25.879,928.683
1686361851.791,67.383,-286.621,10.254,0.000,928.687
1686361851.795,50.293,-142.578,68.359,-31.738,928.691
1686361851.799,-0.488,555.176,8.301,-63.965,928.695
1686361851.803,-26.367,274.414,-40.527,-21.484,928.699
1686361851.807,-12.695,86.914,-25.391,51.270,928.703
1686361851.797,-17.578,412.598,-6.348,68.359,928.694
1686361851.801,-35.645,442.871,-20.996,56.152,928.698
1686361851.805,-29.785,88.867,-36.133,92.285,928.702
1686361851.809,7.812,20.020,-18.555,149.902,928.706
1686361851.813,36.133,115.234,-10.742,149.414,928.709
1686361851.817,19.043,-28.809,-24.902,91.309,928.713
1686361851.821,-2.441,-311.035,-41.992,52.734,928.717
1686361851.824,24.414,-1000.000,-34.180,85.449,928.721
1686361851.828,62.500,-422.363,65.918,110.352,928.725
1686361851.832,43.457,570.801,11.719,60.059,928.729
1686361851.836,20.020,210.938,-27.832,8.789,928.733
1686361851.840,40.039,175.293,32.227,28.809,928.737
1686361851.842,69.336,574.707,3.418,70.312,928.753
1686361851.846,41.992,448.242,-37.598,60.547,928.756
1686361851.850,-5.859,105.469,-10.742,20.020,928.760
1686361851.854,-8.301,190.918,21.973,49.805,928.764
1686361851.858,20.508,354.980,-22.461,121.094,928.768
1686361851.862,12.207,141.602,-55.176,97.168,928.772
1686361851.866,-37.109,-559.082,-44.434,36.621,928.776
1686361851.869,-47.363,-509.766,48.828,66.406,928.780
1686361851.873,-22.461,392.578,44.434,128.906,928.784
1686361851.877,-6.836,365.234,-51.270,115.723,928.788
1686361851.881,-29.297,-89.844,-13.672,29.297,928.792
1686361851.885,-58.594,90.820,40.039,9.277,928.796
1686361851.887,-27.344,431.152,6.836,89.844,928.797
1686361851.891,5.371,212.891,-34.668,113.770,928.801
1686361851.895,-20.508,33.203,-38.574,36.133,928.805
1686361851.899,-46.387,177.734,-8.301,-35.645,928.809
1686361851.903,-16.113,245.117,-11.719,1.465,928.813
1686361851.907,21.973,-267.578,-49.316,92.773,928.817
1686361851.911,39.551,-546.387,-16.602,88.379,928.821
1686361851.914,22.461,-135.254,19.531,23.926,928.825
1686361851.918,-11.230,73.242,-8.301,36.621,928.829
1686361851.922,12.207,-266.602,-37.598,109.375,928.833
1686361851.926,4.395,-760.254,32.227,73.730,928.837
1686361851.930,-58.594,56.152,68.359,-54.199,928.840
1686361851.962,-81.055,419.434,-32.227,-68.359,928.859
1686361851.966,-68.848,161.133,-11.230,-8.789,928.863
1686361851.970,-63.965,276.367,10.742,-16.113,928.866
1686361851.974,-86.426,452.637,-15.137,-98.145,928.870
1686361851.978,-111.816,277.832,-37.109,-138.672,928.874
1686361851.982,-87.891,-154.785,-20.996,-77.148,928.878
1686361851.986,-34.180,-104.004,25.391,-36.621,928.882
1686361851.989,-27.344,301.758,13.184,-74.707,928.886
1686361851.993,-43.457,191.895,-31.250,-116.211,928.890
1686361851.997,-17.578,-346.680,13.672,-78.613,928.894
1686361852.001,25.879,-26.367,83.496,-17.090,928.898
1686361852.005,10.742,444.336,12.207,-39.551,928.902
1686361851.993,-41.992,-69.824,-62.500,-71.289,928.891
1686361851.997,-46.875,-349.121,-3.906,-40.527,928.895
1686361852.001,-9.766,182.617,55.664,5.859,928.899
1686361852.005,8.789,411.621,-7.812,-22.949,928.903
1686361852.009,-6.348,-5.859,-29.785,-95.703,928.907
1686361852.013,-12.695,-379.395,-0.977,-102.539,928.911
1686361852.017,11.719,-196.289,21.973,-43.457,928.915
1686361852.020,25.391,-22.949,-25.391,-4.395,928.918
1686361852.024,1.465,-313.477,0.977,-60.547,928.922
1686361852.028,-48.340,-209.961,83.008,-113.281,928.926
1686361852.032,-52.734,300.781,44.434,-70.801,928.930
1686361852.036,-18.066,501.465,-5.371,-41.504,928.934
1686361852.052,-25.391,-220.215,-58.105,-93.750,928.949
1686361852.056,-69.336,-929.199,27.344,-145.508,928.953
1686361852.060,-64.941,-164.551,73.730,-117.676,928.957
1686361852.064,-6.836,223.633,-8.301,-51.758,928.961
1686361852.068,16.602,79.102,-3.418,-59.082,928.965
1686361852.072,-17.578,18.066,-2.930,-84.473,928.969
1686361852.076,-48.828,44.922,9.766,-56.641,928.973
1686361852.079,-26.367,328.613,-1.465,-15.137,928.977
1686361852.083,-15.137,-370.605,-42.969,-13.672,928.980
1686361852.087,-49.805,-575.195,34.180,-102.051,928.984
1686361852.091,-60.059,458.008,48.340,-126.465,928.988
1686361852.095,-20.508,345.703,-21.973,-47.852,928.992
1686361852.082,-6.836,165.039,-10.254,-23.926,928.978
1686361852.086,-31.250,443.359,14.648,-68.359,928.982
1686361852.090,-39.551,432.617,-19.531,-93.262,928.986
1686361852.094,-22.461,108.887,-22.461,-36.621,928.990
1686361852.098,7.812,-3.906,-11.230,5.371,928.994
1686361852.102,8.301,48.340,-29.297,-48.828,928.998
1686361852.106,-28.809,-77.148,-34.668,-116.211,929.002
1686361852.109,-45.898,-422.363,-17.090,-83.008,929.006
1686361852.113,-20.508,-297.363,39.062,-22.949,929.010
1686361852.117,-20.996,290.039,21.484,-39.062,929.014
1686361852.121,-63.477,365.723,-16.113,-69.336,929.017
1686361852.125,-75.195,-236.816,-46.387,-26.367,929.021
1686361852.127,-42.480,-1000.000,-22.949,37.109,929.023
1686361852.131,-8.789,-315.430,58.594,15.625,929.027
1686361852.135,-19.043,481.445,0.488,-48.340,929.031
1686361852.139,-37.109,215.332,-12.207,-73.730,929.035
1686361852.143,-20.020,313.965,18.555,-33.203,929.039
1686361852.147,4.883,251.465,-15.625,-8.301,929.043
1686361852.151,-8.301,106.445,-18.555,-67.383,929.047
1686361852.154,-42.969,-450.195,1.465,-83.984,929.051
1686361852.158,-36.133,-386.719,95.215,-27.344,929.055
1686361852.162,-5.371,523.438,70.312,38.574,929.058
1686361852.166,-2.930,393.066,-44.434,31.738,929.062
1686361852.170,-29.297,-98.633,-25.391,-51.758,929.066
1686361852.172,-37.598,161.133,46.875,-50.293,929.068
1686361852.176,-15.137,518.555,15.625,-1.953,929.072
1686361852.180,-18.555,206.543,-24.902,-25.391,929.076
1686361852.184,-52.246,-0.488,-11.719,-74.219,929.080
1686361852.188,-62.500,118.652,-20.020,-64.941,929.084
1686361852.192,-28.320,-2.930,-37.598,-3.906,929.088
1686361852.196,-8.301,-330.078,-41.016,15.137,929.092
1686361852.199,-42.969,-705.078,-25.391,-53.223,929.096
1686361852.203,-69.824,-179.199,53.223,-106.934,929.100
1686361852.207,-48.340,431.152,20.020,-87.402,929.103
1686361852.211,-1.465,-203.613,-58.105,-53.223,929.107
1686361852.215,1.953,-645.508,25.879,-89.355,929.111
1686361852.217,-22.949,207.031,69.336,-145.508,929.126
1686361852.221,-28.320,441.406,-19.043,-86.426,929.130
1686361852.225,-1.465,125.488,-4.883,-15.625,929.134
1686361852.229,7.324,233.398,28.809,-50.781,929.138
1686361852.233,-20.508,359.863,-22.461,-95.215,929.142
1686361852.237,-31.250,47.852,-50.781,-53.223,929.146
1686361852.241,-21.973,-556.152,2.441,27.832,929.150
1686361852.244,-19.531,-334.473,63.965,48.340,929.154
1686361852.248,-44.922,409.668,18.555,-8.301,929.158
1686361852.252,-55.664,185.059,-39.062,-36.621,929.162
1686361852.256,-18.066,11.719,-17.578,-6.348,929.165
1686361852.260,7.812,295.410,16.113,24.414,929.169
1686361852.263,-16.113,345.215,-11.230,-24.414,929.172
1686361852.267,-44.922,-206.055,-74.707,-64.941,929.176
1686361852.271,-18.555,-450.684,-20.020,-13.672,929.180
1686361852.275,18.555,167.969,46.875,29.785,929.184
1686361852.279,-1.953,347.168,-24.902,1.953,929.188
1686361852.283,-48.340,-435.059,-67.383,-35.156,929.192
1686361852.287,-46.387,-635.742,5.371,-15.137,929.196
1686361852.290,-2.441,-30.762,30.273,21.973,929.200
1686361852.294,3.418,115.234,-6.348,-3.418,929.204
1686361852.298,-44.922,-364.258,-45.410,-75.684,929.207
1686361852.302,-77.637,-584.961,-2.441,-66.406,929.211
1686361852.306,-50.781,294.922,65.918,-3.906,929.215
1686361852.323,-27.344,473.145,-4.395,23.438,929.219
1686361852.327,-56.152,112.305,-8.789,-13.672,929.223
1686361852.331,-85.938,93.262,7.812,-31.738,929.227
1686361852.335,-72.266,72.754,-7.324,-0.488,929.230
1686361852.339,-39.551,27.344,0.000,-0.977,929.234
1686361852.343,-35.645,-541.016,-45.898,-61.035,929.238
1686361852.347,-52.246,-648.438,32.715,-111.816,929.242
1686361852.350,-51.270,290.527,65.918,-95.215,929.246
1686361852.354,-22.949,319.824,-18.555,-38.574,929.250
1686361852.358,-6.836,71.289,9.766,-49.805,929.254
1686361852.362,-30.273,199.707,30.762,-112.305,929.258
1686361852.366,-40.039,356.934,9.277,-88.379,929.262
1686361852.368,-12.207,98.145,-8.301,-42.480,929.264
1686361852.372,-5.859,-63.477,2.930,-89.355,929.268
1686361852.376,-39.062,170.898,4.395,-171.875,929.271
1686361852.380,-53.711,178.223,-16.113,-176.758,929.275
1686361852.384,-34.668,-77.148,-8.789,-78.613,929.279
1686361852.388,-28.320,-310.059,-2.930,-47.363,929.283
1686361852.392,-41.992,-219.727,7.812,-140.137,929.287
1686361852.395,-45.410,-184.570,-8.789,-167.969,929.291
1686361852.399,-19.043,-432.617,-19.531,-89.355,929.295
1686361852.403,2.441,-1000.000,-21.484,-39.062,929.299
1686361852.407,-19.043,-565.430,62.988,-103.027,929.303
1686361852.411,-60.547,327.148,41.992,-135.742,929.307
1686361852.413,-67.383,176.758,-3.906,-55.176,929.309
1686361852.417,-36.133,276.367,47.852,23.926,929.313
1686361852.421,-46.387,501.953,11.230,11.230,929.317
1686361852.425,-90.820,259.277,-15.625,-35.645,929.321
1686361852.429,-104.980,-30.273,-3.906,-29.785,929.325
1686361852.433,-70.312,-103.027,11.230,9.277,929.329
1686361852.437,-46.387,-3.906,30.273,6.836,929.332
1686361852.440,-63.477,104.980,-6.836,-40.527,929.336
1686361852.444,-75.195,-515.137,10.742,-40.039,929.340
1686361852.448,-48.828,-376.953,106.934,10.742,929.344
1686361852.452,-15.625,473.145,58.105,43.457,929.348
1686361852.456,-31.250,195.312,-47.852,-23.438,929.352
1686361852.457,-62.988,-310.059,-19.043,-100.586,929.354
1686361852.461,-52.246,89.844,64.941,-81.543,929.358
1686361852.465,-32.715,487.793,17.578,-54.199,929.362
1686361852.469,-42.480,134.277,-17.090,-109.863,929.365
1686361852.473,-80.566,-102.051,-3.418,-180.664,929.369
1686361852.477,-93.750,-149.902,-4.395,-133.789,929.373
1686361852.481,-71.289,-116.211,10.254,-68.848,929.377
1686361852.484,-64.941,-287.109,-38.574,-86.914,929.381
1686361852.488,-87.402,-948.730,-10.742,-137.695,929.385
1686361852.492,-85.938,-230.469,111.328,-112.305,929.389
1686361852.496,-35.156,500.977,27.832,-19.531,929.393
1686361852.500,-20.508,76.660,-5.371,0.488,929.397
1686361852.503,-47.363,86.426,50.781,-50.781,929.402
1686361852.507,-45.410,375.000,27.832,-77.637,929.406
1686361852.511,-23.926,267.578,-14.648,-27.344,929.410
1686361852.515,-18.555,11.230,11.230,6.348,929.413
1686361852.519,-31.250,-1.465,12.695,-73.730,929.417
1686361852.523,-48.340,-118.164,-14.160,-149.414,929.421
1686361852.527,-44.434,-139.160,15.625,-94.238,929.425
1686361852.530,-28.809,-466.309,17.578,2.441,929.429
1686361852.534,-36.621,-313.477,70.312,-21.484,929.433
1686361852.538,-62.988,389.648,25.879,-110.352,929.437
1686361852.542,-51.270,141.113,-31.250,-71.289,929.441
1686361852.546,-18.066,5.859,-0.488,35.156,929.445
1686361852.548,-3.418,289.062,28.809,63.477,929.447
1686361852.552,-24.902,208.496,-19.531,30.762,929.451
1686361852.556,-52.246,-243.652,-28.320,34.180,929.454
1686361852.560,-29.785,-162.109,28.809,99.609,929.458
1686361852.564,-9.277,213.867,19.531,124.023,929.462
1686361852.568,-45.410,-23.926,-4.883,41.504,929.466
1686361852.572,-80.566,-467.773,-36.133,-3.418,929.470
1686361852.575,-62.988,-1000.000,-48.828,64.453,929.474
1686361852.579,-25.879,-456.543,89.844,104.980,929.478
1686361852.583,-30.273,504.883,54.199,63.965,929.482
1686361852.587,-63.965,111.328,2.930,11.230,929.486
1686361852.591,-52.734,78.125,72.754,32.715,929.490
1686361852.592,-17.578,517.090,56.152,83.008,929.505
1686361852.596,-27.832,416.504,-2.930,39.551,929.509
1686361852.600,-63.477,84.961,-0.488,-43.457,929.513
1686361852.604,-53.711,106.934,30.762,-21.973,929.517
1686361852.608,-14.160,150.879,2.930,60.059,929.521
1686361852.612,-9.277,29.297,-7.324,53.711,929.525
1686361852.616,-57.617,-616.699,-27.832,-45.898,929.529
1686361852.619,-87.402,-644.043,50.293,-99.121,929.533
1686361852.623,-65.918,361.328,75.195,-53.711,929.537
1686361852.627,-56.152,401.367,-13.184,-6.836,929.541
1686361852.631,-89.844,114.746,-16.113,-33.691,929.545
1686361852.635,-111.328,181.152,20.020,-47.363,929.548
1686361852.637,-78.613,423.828,36.621,-6.348,929.548
1686361852.641,-39.551,233.398,-2.441,-1.953,929.552
1686361852.645,-40.039,33.203,-9.766,-70.801,929.556
1686361852.649,-68.359,238.281,20.020,-124.512,929.560
1686361852.653,-65.430,284.668,7.324,-76.660,929.564
1686361852.657,-37.109,-226.074,-44.434,-21.973,929.568
1686361852.661,-40.039,-521.973,6.836,-37.598,929.571
1686361852.664,-71.289,-124.023,41.016,-107.422,929.575
1686361852.668,-81.055,20.996,22.949,-121.582,929.579
1686361852.672,-58.105,-299.316,-24.414,-43.457,929.583
1686361852.676,-50.293,-687.988,18.555,-32.715,929.587
1686361852.680,-79.102,85.449,104.980,-132.812,929.591
1686361852.697,-84.961,501.465,12.695,-147.949,929.594
1686361852.701,-41.016,253.906,13.672,-71.289,929.598
1686361852.705,-11.719,387.207,51.270,-47.363,929.602
1686361852.709,-21.484,521.973,6.348,-94.727,929.606
1686361852.713,-39.551,301.758,-20.996,-114.258,929.609
1686361852.717,-32.715,-97.168,13.184,-45.898,929.613
1686361852.721,-6.836,49.805,58.105,9.277,929.617
1686361852.724,-6.348,489.258,40.527,-13.672,929.621
1686361852.728,-54.688,313.965,-24.414,-44.922,929.625
1686361852.732,-86.426,-385.742,9.277,-11.719,929.629
1686361852.736,-57.129,-164.551,86.914,53.711,929.633
1686361852.740,-42.480,565.430,50.293,46.875,929.637
1686361852.742,-63.477,260.254,-35.156,-31.250,929.639
1686361852.746,-58.594,-188.965,-6.348,-54.199,929.643
1686361852.750,-22.949,257.324,72.266,-1.953,929.646
1686361852.754,-10.742,604.492,21.973,10.254,929.650
1686361852.758,-35.645,224.121,-27.344,-41.016,929.654
1686361852.762,-54.199,-177.734,-7.812,-63.965,929.658
1686361852.766,-36.133,28.320,31.250,-43.945,929.662
1686361852.769,-13.184,262.207,13.184,-44.434,929.666
1686361852.773,-35.156,-168.457,-46.387,-102.539,929.670
1686361852.777,-65.918,-856.934,7.324,-145.020,929.674
1686361852.781,-49.805,-42.480,125.977,-85.938,929.678
1686361852.785,-34.180,719.727,27.344,-8.301,929.682
