,timestamps,TP9,AF7,AF8,TP10,Secondary Timestamp,emg_signal
0,1686111637.55,-6.348,157.227,83.496,-20.508,1644.456,377.3835807772231
1,1686111637.55,-36.621,375.0,93.262,-84.473,1644.46,375.26834975709863
2,1686111637.56,-32.715,133.301,26.855,-57.617,1644.464,371.913503029312
3,1686111637.56,19.043,227.051,124.512,17.578,1644.467,383.30863875391634
4,1686111637.56,25.879,374.023,143.066,3.906,1644.471,374.02487607106536
5,1686111637.57,-23.438,42.48,-51.758,-65.918,1644.475,383.8105889676003
6,1686111637.57,-43.457,-357.91,-209.473,-53.711,1644.479,374.8320336915527
7,1686111637.57,-7.324,-522.949,-107.422,17.09,1644.483,377.4818505072746
8,1686111637.58,28.32,242.676,174.805,25.879,1644.487,378.4684481347827
9,1686111637.58,0.977,477.539,144.531,-45.41,1644.491,378.9123264013467
10,1686111637.59,-29.785,-123.535,-123.535,-66.406,1644.495,375.76745117555004
11,1686111637.59,-4.883,-146.484,-55.176,4.883,1644.499,378.4192688939354
12,1686111637.59,23.438,386.719,197.266,39.551,1644.489,378.8900950006122
13,1686111637.6,-4.883,433.105,123.535,-22.461,1644.492,373.5206619553979
14,1686111637.6,-51.27,-321.777,-250.488,-71.289,1644.496,368.4973835704985
15,1686111637.6,-29.785,-161.133,-45.898,-16.602,1644.5,374.991241316646
16,1686111637.61,13.184,405.762,219.238,41.016,1644.504,378.3296271365907
17,1686111637.61,-4.395,23.438,0.977,-14.648,1644.508,371.05199942651
18,1686111637.62,-47.852,-775.391,-389.648,-74.219,1644.512,374.15404027269096
19,1686111637.62,-48.34,-649.902,-187.012,-41.992,1644.516,374.7080514557607
20,1686111637.62,1.953,345.703,229.98,32.227,1644.52,378.6513119124621
21,1686111637.63,5.371,395.02,101.074,26.367,1644.524,378.76087253632113
22,1686111637.63,-33.691,-10.742,-21.973,-58.594,1644.528,379.45898126939034
23,1686111637.63,-39.062,236.816,85.449,-64.941,1644.532,378.44695057666536
24,1686111637.64,8.301,525.879,186.035,22.949,1644.546,374.4886134759074
25,1686111637.64,32.715,267.09,72.754,39.062,1644.55,376.4736599584932
26,1686111637.64,-5.371,-8.301,-15.137,-47.363,1644.554,376.39985335591086
27,1686111637.65,-36.621,206.543,68.848,-83.496,1644.558,381.580144071751
28,1686111637.65,-9.766,402.344,147.461,-8.789,1644.562,375.73534895620173
29,1686111637.66,20.996,-46.875,-30.273,47.852,1644.566,378.0466876901578
30,1686111637.66,-5.371,-795.41,-357.422,-1.953,1644.57,372.0267715780391
31,1686111637.66,-37.598,-249.512,-74.707,-68.359,1644.574,373.7491123518469
32,1686111637.67,-30.762,277.344,138.672,-32.227,1644.577,377.9411731758335
33,1686111637.67,-2.93,136.719,45.41,31.738,1644.581,374.9736558440454
34,1686111637.68,7.324,210.938,75.684,2.441,1644.585,375.83842613997297
35,1686111637.68,-19.043,348.633,104.004,-62.988,1644.589,375.70204529074084
36,1686111637.71,-28.809,304.199,105.469,-41.016,1644.607,373.485817310578
37,1686111637.71,2.441,92.773,34.668,31.738,1644.611,370.99466389148284
38,1686111637.72,5.859,248.535,84.473,15.625,1644.615,374.80086108435813
39,1686111637.72,-47.363,319.336,98.145,-73.242,1644.619,379.6094859070768
40,1686111637.73,-70.312,-28.809,-37.598,-81.543,1644.623,384.2764274599923
41,1686111637.73,-35.156,-659.18,-329.59,6.836,1644.627,373.51509089348093
42,1686111637.73,-10.254,-698.73,-191.895,32.227,1644.631,381.47951687405873
43,1686111637.74,-27.344,-9.277,94.238,-37.598,1644.635,377.07432366886536
44,1686111637.74,-56.152,82.031,-22.949,-78.613,1644.639,372.05403596347105
45,1686111637.74,-31.738,-597.168,-270.996,-9.277,1644.643,370.9140498306096
46,1686111637.75,16.113,-130.371,30.762,41.504,1644.647,375.168267459713
47,1686111637.75,-10.742,500.488,197.754,-29.785,1644.65,379.00745626781656
48,1686111637.76,-55.664,168.457,-13.184,-93.75,1644.654,372.5495579290149
49,1686111637.76,-51.27,31.738,-13.672,-60.547,1644.658,384.3143922166723
50,1686111637.76,-13.672,364.258,158.203,16.602,1644.662,375.18552597451696
51,1686111637.77,-8.301,474.121,137.695,-2.93,1644.666,375.1991330430198
52,1686111637.77,-54.688,123.535,-30.273,-78.613,1644.67,370.285893041531
53,1686111637.78,-65.918,-245.117,-142.09,-65.918,1644.674,369.81038799293424
54,1686111637.78,-29.297,-170.898,-58.594,7.812,1644.678,381.59799394194596
55,1686111637.78,-10.254,-13.672,21.484,14.16,1644.682,378.70066589574077
56,1686111637.78,-26.367,-209.961,-185.547,-43.457,1644.682,373.67657962912494
57,1686111637.79,-54.199,-209.961,-98.633,-66.406,1644.686,375.4724439445937
58,1686111637.79,-76.172,-836.914,-360.84,-87.891,1644.686,387.64370613740425
59,1686111637.79,-79.59,-132.812,-10.254,-89.844,1644.69,381.56411032089807
60,1686111637.79,-45.41,53.223,99.609,-28.32,1644.69,374.95668617753995
61,1686111637.8,-34.18,290.527,155.273,-10.254,1644.694,374.455755050007
62,1686111637.8,3.906,457.52,189.453,45.898,1644.694,372.14894076251824
63,1686111637.8,4.883,458.008,181.152,22.461,1644.697,370.3526327017489
64,1686111637.8,-7.324,-60.547,-72.266,-1.953,1644.698,378.7021833601657
65,1686111637.8,-39.551,-268.066,-167.48,-77.637,1644.702,367.1248680145101
66,1686111637.81,-34.668,-125.488,-90.82,-53.223,1644.706,376.00434855469103
67,1686111637.81,2.93,-80.566,3.418,20.996,1644.71,375.12935127714525
68,1686111637.82,0.977,-467.285,-197.266,8.789,1644.714,378.56608338333297
69,1686111637.82,-49.805,-314.941,-118.164,-67.383,1644.717,381.3950664053528
70,1686111637.82,-63.477,244.629,155.273,-73.73,1644.721,372.27832549418815
71,1686111637.83,-8.789,354.492,134.277,1.953,1644.725,378.48759606752907
72,1686111637.83,14.16,-642.09,-302.246,36.133,1644.729,379.0406032797558
73,1686111637.84,-31.738,-955.566,-372.559,-48.34,1644.733,369.4870036331238
74,1686111637.84,-60.059,77.148,56.152,-91.309,1644.737,370.3800302033466
75,1686111637.84,-19.531,325.195,103.516,-11.23,1644.741,370.8848967575298
76,1686111637.85,12.207,289.062,126.953,34.18,1644.745,365.190417893524
77,1686111637.85,-27.344,154.297,54.688,-33.691,1644.749,373.11227901938037
78,1686111637.86,-69.336,-69.824,-81.055,-88.379,1644.753,374.3628200586825
79,1686111637.86,-44.922,-212.891,-120.117,-32.715,1644.757,376.9780374644745
80,1686111637.86,0.0,-424.805,-35.156,36.133,1644.761,371.4359406906263
81,1686111637.87,5.371,256.836,153.32,6.348,1644.764,371.99365177052016
82,1686111637.87,-37.109,437.988,99.609,-71.777,1644.768,379.1154437280686
83,1686111637.88,-38.574,-82.031,-80.078,-58.594,1644.772,371.49590275493
84,1686111637.89,-8.789,-11.23,11.719,16.602,1644.788,384.34688950291707
85,1686111637.89,-6.348,321.777,146.973,7.324,1644.792,382.7135524764573
86,1686111637.9,-40.527,291.992,91.797,-71.777,1644.796,376.325849820087
87,1686111637.9,-67.871,-239.258,-184.082,-65.43,1644.8,383.7616021560519
88,1686111637.91,-22.949,-144.531,-13.672,19.043,1644.804,375.54150292750126
89,1686111637.91,20.508,151.367,122.07,36.133,1644.808,361.6936480057258
90,1686111637.91,-7.324,-62.5,-57.129,-32.227,1644.812,371.0355658370977
91,1686111637.92,-50.293,-764.16,-363.77,-76.172,1644.816,387.80029075955576
92,1686111637.92,-37.109,-739.746,-208.496,-27.832,1644.819,373.1428650104335
93,1686111637.92,-37.109,338.379,117.188,-33.203,1644.831,374.37541103599284
94,1686111637.92,10.742,338.379,211.914,20.508,1644.823,375.52132678974255
95,1686111637.93,19.043,559.082,210.449,34.668,1644.835,372.2786889077905
96,1686111637.93,-2.441,437.5,114.258,-35.156,1644.827,370.27442250258423
97,1686111637.93,10.254,242.188,52.246,0.977,1644.839,369.6639799477343
98,1686111637.93,-48.828,108.887,-11.23,-90.332,1644.831,378.9084096719003
99,1686111637.93,-47.852,-32.227,-29.297,-81.055,1644.843,378.7899338923138
100,1686111637.94,-56.641,246.582,107.91,-64.453,1644.847,379.3240683286592
101,1686111637.94,-9.766,194.336,84.961,22.949,1644.851,367.99495210862403
102,1686111637.95,12.207,-103.516,-13.672,26.855,1644.855,387.32413653278957
103,1686111637.95,-22.949,-57.617,-21.973,-63.477,1644.858,369.32542148448823
104,1686111637.95,-39.551,240.723,89.844,-74.707,1644.862,374.7583891979421
105,1686111637.96,1.953,483.887,204.102,17.578,1644.866,371.6442781399649
106,1686111637.96,21.484,-20.996,-59.57,37.598,1644.87,372.8067901886675
107,1686111637.96,-22.461,-690.43,-246.094,-51.758,1644.874,378.1549430866993
108,1686111637.96,-55.176,22.949,75.684,-102.539,1644.876,366.6924030397935
109,1686111637.97,-34.18,393.555,143.555,-38.574,1644.88,370.00522227587965
110,1686111637.97,1.953,91.309,19.043,20.02,1644.884,380.72822887288123
111,1686111637.98,-0.488,262.695,95.215,-27.832,1644.888,374.2107511260553
112,1686111637.98,-41.992,216.309,54.688,-96.68,1644.892,366.59358373579494
113,1686111637.98,-34.18,-48.34,-11.719,-44.434,1644.896,381.55102197158965
114,1686111637.99,8.789,-602.539,-286.133,38.086,1644.9,370.34233776744077
115,1686111637.99,7.324,-789.551,-227.539,5.371,1644.903,379.73741249636373
116,1686111638.0,-30.762,28.809,130.371,-75.684,1644.907,374.7924498593024
117,1686111638.0,-47.363,152.832,32.715,-66.895,1644.911,378.5776558853495
118,1686111638.0,-16.113,-474.609,-202.637,9.277,1644.915,377.4385033698186
119,1686111638.01,4.395,58.105,62.012,-0.488,1644.919,376.5089013963746
120,1686111638.02,-40.039,484.375,176.758,-79.102,1644.923,379.13745475686744
121,1686111638.03,-69.824,135.742,15.137,-82.031,1644.927,381.20376630754777
122,1686111638.03,-32.227,108.887,47.852,-14.16,1644.931,377.53202089691246
123,1686111638.04,2.441,417.48,174.316,10.254,1644.935,378.6074202630506
124,1686111638.04,-28.32,467.285,161.133,-57.129,1644.939,375.22053794017097
125,1686111638.04,-67.383,-162.598,-122.07,-92.773,1644.943,366.10462793264463
126,1686111638.05,-42.969,-477.051,-107.91,-27.832,1644.947,374.84034360860045
127,1686111638.05,4.883,39.551,109.375,31.738,1644.951,377.0872023754572
128,1686111638.06,6.836,229.492,100.586,-17.09,1644.954,372.820432967247
129,1686111638.06,-33.203,-127.441,-111.328,-84.961,1644.958,373.92254182553313
130,1686111638.06,-28.32,-309.57,-90.332,-58.594,1644.962,377.9626251753688
131,1686111638.07,9.766,349.609,194.336,4.883,1644.966,377.2162191072537
132,1686111638.07,7.324,440.43,136.719,-12.207,1644.967,370.5486684434358
133,1686111638.07,-30.762,-41.992,-89.844,-84.473,1644.971,383.2201766624484
134,1686111638.08,-55.176,63.477,13.672,-85.449,1644.975,380.84440425329393
135,1686111638.08,-25.391,478.516,205.566,-12.695,1644.979,378.44844341945213
136,1686111638.09,-5.859,291.504,109.863,0.977,1644.983,372.0228164198657
137,1686111638.09,-50.781,-495.117,-258.301,-74.707,1644.987,370.1224051000336
138,1686111638.09,-73.242,-515.137,-243.164,-100.586,1644.991,380.54064150716215
139,1686111638.1,-37.109,-38.574,41.016,-17.578,1644.995,376.75083945390134
140,1686111638.1,2.441,194.824,103.516,21.484,1644.999,376.68917653708604
141,1686111638.1,-19.043,-591.309,-302.246,-36.133,1645.003,379.2687990691323
142,1686111638.11,-66.895,-667.48,-255.371,-81.543,1645.007,377.08733863264837
143,1686111638.11,-37.109,307.129,167.969,-34.18,1645.01,374.6307061135888
144,1686111638.12,14.16,325.684,119.141,35.156,1645.014,371.122782625588
145,1686111638.12,-5.371,-136.719,0.977,-6.836,1645.018,370.45776310888544
146,1686111638.12,-34.668,140.625,88.379,-78.125,1645.022,384.50449531676384
147,1686111638.13,-13.184,395.996,141.602,-54.688,1645.026,371.0212455136169
148,1686111638.13,24.414,237.305,78.613,18.555,1645.03,370.2101418247432
149,1686111638.14,21.484,-52.734,7.324,8.301,1645.034,375.9532438349015
150,1686111638.14,-14.648,-25.391,44.434,-68.359,1645.038,369.66701818290966
151,1686111638.14,-36.133,285.156,103.516,-78.613,1645.042,381.386539192048
152,1686111638.15,4.395,-12.207,-11.719,5.859,1645.046,382.6347696147434
153,1686111638.15,33.691,-468.75,-49.316,38.086,1645.05,371.30204055580145
154,1686111638.16,-2.93,131.348,120.605,-52.246,1645.054,378.2162828808793
155,1686111638.16,-25.879,294.922,85.449,-83.496,1645.057,380.74743203939323
156,1686111638.16,0.488,-153.809,-67.871,-1.465,1645.058,374.403445789537
157,1686111638.16,10.742,-31.25,28.32,46.875,1645.062,381.93903462505045
158,1686111638.17,-5.859,398.926,185.547,-5.371,1645.066,373.6578197512329
159,1686111638.17,-33.203,307.617,87.402,-66.406,1645.07,373.9713296062977
160,1686111638.18,-40.527,-370.117,-220.215,-38.086,1645.074,380.79098623795227
161,1686111638.18,-7.812,-344.238,-65.918,22.949,1645.078,378.7285895681843
162,1686111638.18,-1.465,-19.531,78.125,-6.348,1645.082,376.69316627336457
163,1686111638.19,-39.062,-158.203,-87.402,-76.66,1645.086,375.4306490694122
164,1686111638.19,-38.574,-811.523,-383.789,-52.246,1645.09,376.763892261078
165,1686111638.2,0.488,-705.566,-168.945,29.297,1645.094,379.1339135895805
166,1686111638.2,24.902,333.496,224.121,21.973,1645.098,374.48342030656374
167,1686111638.2,-5.371,333.496,62.012,-58.594,1645.101,368.2618622198844
168,1686111638.21,-40.527,63.477,-21.484,-74.707,1645.11,375.0433797637535
169,1686111638.22,-0.488,389.648,156.25,5.371,1645.114,371.6514498375252
170,1686111638.22,20.508,523.926,189.941,37.598,1645.117,374.25501160866935
171,1686111638.22,-20.508,163.574,0.488,-38.574,1645.121,378.1057515777162
172,1686111638.23,-44.434,-45.898,-47.363,-80.566,1645.125,380.90888392713777
173,1686111638.23,-18.555,-83.496,6.836,-13.672,1645.129,385.7611674563547
174,1686111638.24,16.113,140.137,113.281,33.203,1645.133,374.74283783223535
175,1686111638.24,1.953,-48.828,-55.664,-21.484,1645.137,378.2341438288124
176,1686111638.24,-41.992,-775.879,-325.195,-73.73,1645.141,375.3468060017912
177,1686111638.25,-36.133,-28.809,75.684,-41.016,1645.145,376.6439382098189
178,1686111638.25,12.695,538.574,233.398,31.738,1645.149,375.7112826960772
179,1686111638.25,-46.387,76.66,-4.883,-63.965,1645.147,370.4277394495725
180,1686111638.25,18.066,137.207,-27.344,20.508,1645.153,375.9321554344662
181,1686111638.25,-63.477,335.938,141.113,-58.105,1645.151,372.8891283709717
182,1686111638.26,-9.277,373.535,127.441,21.484,1645.155,373.9142185719615
183,1686111638.26,19.043,113.77,6.348,30.762,1645.159,372.76676908900095
184,1686111638.27,-12.695,86.426,30.762,-42.969,1645.163,379.60308019364857
185,1686111638.27,-46.387,-64.941,-35.156,-65.43,1645.167,374.72156334662526
186,1686111638.27,-15.137,-125.0,-9.766,4.883,1645.171,384.4748202578675
187,1686111638.28,21.484,-639.16,-260.742,42.48,1645.175,369.0309412035251
188,1686111638.28,-19.043,-1000.0,-381.348,-17.09,1645.179,377.6193307103921
189,1686111638.28,-56.641,-122.559,37.598,-78.613,1645.183,371.13087650408465
190,1686111638.29,-17.09,287.109,144.043,-26.367,1645.186,373.1494301149461
191,1686111638.29,32.227,196.777,141.113,52.734,1645.19,376.77534828472585
192,1686111638.31,9.766,429.688,187.012,9.766,1645.21,371.67712548987856
193,1686111638.32,-35.645,250.0,24.414,-58.594,1645.213,377.72845230122846
194,1686111638.32,-35.645,-79.59,-28.32,-21.973,1645.217,379.11869534269954
195,1686111638.32,6.836,147.461,159.668,46.387,1645.221,376.5746381049543
196,1686111638.33,19.043,382.324,162.109,28.809,1645.225,376.008400821015
197,1686111638.33,-25.391,91.797,-8.789,-43.945,1645.229,375.6503965227814
198,1686111638.34,-42.969,-315.918,-151.855,-40.527,1645.233,371.0795633677933
199,1686111638.34,-7.812,-537.109,-124.512,36.133,1645.237,378.65814952372176
200,1686111638.34,16.602,456.543,215.332,16.113,1645.251,377.8763278036062
201,1686111638.34,22.949,-10.254,89.355,48.34,1645.241,383.5113135174374
202,1686111638.34,-3.906,408.691,133.789,-38.574,1645.255,376.83250039772764
203,1686111638.35,-11.719,212.402,92.773,-31.738,1645.245,369.6851869788812
204,1686111638.35,-48.828,-46.875,-71.777,-80.078,1645.259,377.1439189144998
205,1686111638.35,-55.176,-159.18,-74.219,-64.453,1645.249,376.27812923589636
206,1686111638.35,-36.133,136.719,65.43,-17.09,1645.263,368.8228323678645
207,1686111638.35,-23.438,-87.402,49.805,-10.742,1645.253,375.03365838296605
208,1686111638.36,26.855,429.199,201.66,63.965,1645.267,368.73026817284995
209,1686111638.36,11.719,-11.23,-19.043,17.09,1645.271,379.5447109004227
210,1686111638.36,-63.965,-609.863,-256.348,-74.707,1645.274,378.22053920367074
211,1686111638.37,-68.359,-331.543,-83.008,-59.082,1645.278,367.97416364960753
212,1686111638.37,-14.648,361.328,183.594,17.578,1645.282,379.9787130721127
213,1686111638.38,-4.883,350.586,123.047,13.672,1645.286,381.90369668399154
214,1686111638.38,-64.941,-726.562,-393.066,-57.617,1645.29,379.3971964005206
215,1686111638.38,-93.75,-927.734,-388.672,-65.918,1645.294,375.5076054279067
216,1686111638.4,-38.086,187.988,145.996,7.324,1645.297,379.4940440320541
217,1686111638.4,-10.742,364.746,118.164,26.367,1645.301,368.12095622615044
218,1686111638.41,-54.688,24.902,-7.812,-47.363,1645.305,377.5824696592334
219,1686111638.41,-86.426,168.945,77.637,-79.59,1645.309,371.6531527914205
220,1686111638.42,-54.688,416.016,168.945,-10.254,1645.313,371.1989249928998
221,1686111638.42,-11.719,-5.371,2.93,44.922,1645.317,378.30939904558824
222,1686111638.42,-36.621,-460.449,-74.707,-6.836,1645.321,370.22658214482937
223,1686111638.43,-81.543,115.723,120.117,-68.359,1645.324,380.09124448664784
224,1686111638.43,-67.383,357.91,130.371,-25.391,1645.328,382.15954687516063
225,1686111638.44,-17.578,83.984,31.25,54.199,1645.332,376.74053047634936
226,1686111638.44,-23.438,132.324,67.383,28.32,1645.336,371.7641839617289
227,1686111638.44,-68.359,337.891,144.043,-41.504,1645.34,376.1274332660324
228,1686111638.44,-60.547,279.297,100.586,-22.461,1645.342,374.09464514000365
229,1686111638.45,-15.625,-80.566,-4.395,55.664,1645.346,375.7848072073986
230,1686111638.45,-5.371,-26.855,75.195,56.641,1645.35,370.4124424982714
231,1686111638.46,-34.668,295.41,139.16,-9.766,1645.354,373.6151818646823
232,1686111638.46,-52.734,199.219,66.406,-20.02,1645.358,378.3922117433332
233,1686111638.46,-17.578,-576.66,-271.484,48.828,1645.362,380.53979896131705
234,1686111638.47,13.672,-748.047,-212.891,76.172,1645.366,373.07106793375135
235,1686111638.47,-8.789,-48.828,95.215,2.441,1645.37,372.06718985582603
236,1686111638.48,-42.969,112.305,52.734,-39.551,1645.374,370.09126533537193
237,1686111638.48,-33.691,-569.336,-221.191,30.273,1645.377,371.8956766918059
238,1686111638.48,13.672,-180.176,18.066,86.426,1645.381,381.93722481248733
239,1686111638.49,12.207,441.895,189.453,28.809,1645.385,384.0436973027186
240,1686111638.49,-32.227,144.043,-6.348,-39.551,1645.395,375.4190087523602
241,1686111638.5,-35.156,9.277,9.277,0.488,1645.399,379.40824198734987
242,1686111638.5,2.93,285.645,161.133,69.824,1645.403,374.3412343059828
243,1686111638.5,3.418,369.629,154.297,41.504,1645.406,379.3294062210135
244,1686111638.51,-46.387,-101.074,-51.27,-33.691,1645.41,375.4070563909819
245,1686111638.51,-52.734,-548.828,-162.598,-31.25,1645.414,371.22232337462424
246,1686111638.52,-2.441,-164.551,31.738,41.016,1645.418,369.424804268685
247,1686111638.52,15.137,248.047,120.605,51.27,1645.422,380.49799510273914
248,1686111638.52,-20.508,-278.32,-95.215,-18.555,1645.426,376.17954107651326
249,1686111638.53,-41.992,-626.953,-117.676,-39.062,1645.43,382.9108128430639
250,1686111638.53,0.0,174.316,196.289,23.438,1645.434,370.6262739099095
251,1686111638.54,-1.465,3.906,-47.363,-11.719,1645.432,370.67862142878676
252,1686111638.54,27.832,479.004,206.055,53.223,1645.438,375.84512044509796
253,1686111638.54,-35.645,-12.207,-1.953,-66.895,1645.436,366.397835757667
254,1686111638.54,-22.949,286.133,181.641,-15.625,1645.44,374.627218436148
255,1686111638.55,15.137,326.66,150.391,40.527,1645.444,375.03261179962806
256,1686111638.55,0.977,-78.613,-32.227,2.441,1645.448,367.1931861527351
257,1686111638.56,-30.762,-338.867,-123.535,-58.105,1645.452,380.31807541247485
258,1686111638.56,-12.207,-272.949,-82.031,-20.02,1645.456,373.98143929895116
259,1686111638.56,34.668,-157.715,59.082,50.781,1645.46,372.4014796485028
260,1686111638.57,29.297,-721.68,-272.949,32.227,1645.464,375.4133800604919
261,1686111638.57,-18.066,-1000.0,-444.336,-38.086,1645.467,375.8899512768736
262,1686111638.57,-32.227,-112.793,31.25,-41.504,1645.471,371.2545391178874
263,1686111638.58,8.789,297.852,183.105,36.621,1645.475,373.11379264910005
264,1686111638.58,39.062,184.57,152.344,42.969,1645.48,372.0938538105988
265,1686111638.59,7.324,336.426,131.348,-42.969,1645.483,373.6935339566895
266,1686111638.59,-20.508,331.543,84.473,-70.312,1645.487,380.5778235790081
267,1686111638.59,2.93,135.254,78.613,4.395,1645.491,373.7411132082436
268,1686111638.6,30.762,100.586,136.719,42.48,1645.495,382.14197085876543
269,1686111638.6,9.766,-93.262,-6.348,-13.184,1645.499,376.6415765818448
270,1686111638.61,-17.578,-170.41,-69.824,-51.758,1645.503,375.99909742735207
271,1686111638.61,-18.555,-178.223,-26.367,-17.578,1645.507,380.4103445343299
272,1686111638.61,4.883,-508.789,-69.336,22.949,1645.511,371.0546211489968
273,1686111638.62,9.277,-161.621,37.598,-14.648,1645.515,365.737865213574
274,1686111638.62,-36.621,138.184,96.68,-90.82,1645.519,374.5743585206391
275,1686111638.62,-49.316,-156.738,-21.484,-65.918,1645.523,365.62980448302415
276,1686111638.64,-1.953,-60.059,75.195,21.484,1645.537,369.69968953559527
277,1686111638.64,20.02,421.387,198.242,9.277,1645.541,376.15324945282646
278,1686111638.65,-17.09,259.277,84.961,-69.336,1645.545,376.0060596353585
279,1686111638.65,-42.969,-81.543,-31.738,-83.984,1645.549,381.46558494515125
280,1686111638.66,-3.906,50.781,62.5,-11.23,1645.553,378.17298138762465
281,1686111638.66,21.484,25.391,65.918,20.02,1645.557,383.5316695162517
282,1686111638.66,-15.137,-201.172,-37.598,-42.969,1645.561,379.4402243900198
283,1686111638.67,-49.805,-826.172,-372.559,-75.684,1645.565,373.87759780883755
284,1686111638.67,-18.555,-773.926,-225.098,-18.066,1645.569,384.3359686194217
285,1686111638.67,-36.133,-94.238,46.875,-55.664,1645.573,378.6868469955381
286,1686111638.68,26.855,251.465,226.562,26.367,1645.573,386.83070512713647
287,1686111638.68,14.648,364.258,203.125,14.648,1645.577,386.53296880041916
288,1686111638.68,3.906,331.055,116.699,-28.32,1645.576,380.3427186796479
289,1686111638.68,14.16,225.586,52.246,-10.254,1645.581,382.07850662480877
290,1686111638.68,-41.016,-82.031,-47.363,-88.379,1645.58,380.8775494199986
291,1686111638.68,-31.738,-298.828,-73.242,-79.59,1645.585,381.76716430645496
292,1686111638.69,-31.738,68.848,87.402,-62.012,1645.589,381.56424632063494
293,1686111638.69,4.883,157.715,111.328,13.184,1645.593,390.4300645566149
294,1686111638.7,10.742,-111.328,7.324,19.043,1645.596,385.52048127230256
295,1686111638.7,-25.391,-37.109,17.578,-55.176,1645.6,392.5007307218075
296,1686111638.7,-45.41,228.027,128.418,-76.66,1645.604,390.7665791607981
297,1686111638.71,-8.789,389.648,161.621,0.0,1645.608,389.2822999550234
298,1686111638.71,31.738,-61.523,-49.805,38.086,1645.612,382.04815616979334
299,1686111638.72,-43.945,43.945,114.258,-97.656,1645.626,381.73561673785224
300,1686111638.72,-1.953,-552.734,-116.211,-37.598,1645.616,386.8720639883259
301,1686111638.72,-18.555,162.598,54.688,-32.227,1645.63,394.03910947207703
302,1686111638.72,10.742,-214.844,-20.996,30.762,1645.634,391.032108073385
303,1686111638.73,-0.977,-10.742,97.656,-22.461,1645.638,387.9374589421902
304,1686111638.73,-35.156,118.652,63.965,-85.938,1645.642,391.5669654522283
305,1686111638.74,-33.691,-127.93,-21.973,-43.945,1645.646,391.41871773562696
306,1686111638.74,-1.465,-678.223,-298.828,32.227,1645.65,391.4243373002912
307,1686111638.74,-7.812,-1000.0,-417.969,7.324,1645.654,393.7961037975148
308,1686111638.75,-40.039,-159.18,44.922,-71.777,1645.657,391.11787964219457
309,1686111638.75,-41.016,237.305,143.066,-53.223,1645.661,406.98033828320183
310,1686111638.75,-0.977,93.262,77.637,27.832,1645.665,390.6047040474143
311,1686111638.76,7.324,329.102,151.855,29.297,1645.669,393.727626496225
312,1686111638.78,-29.297,368.164,105.957,-53.711,1645.674,405.05093570677775
313,1686111638.78,-49.316,135.254,32.227,-81.543,1645.678,389.4595925539213
314,1686111638.78,-15.625,102.051,116.211,-1.953,1645.682,399.69033089365035
315,1686111638.79,14.16,401.367,188.965,31.738,1645.686,401.457739156371
316,1686111638.79,-15.137,394.531,137.695,-42.969,1645.689,406.055354095306
317,1686111638.8,-56.641,-103.516,-49.805,-83.008,1645.693,403.1648478000175
318,1686111638.8,-41.016,-514.648,-116.699,-18.066,1645.697,409.9498667794943
319,1686111638.8,8.789,-54.688,114.746,38.086,1645.701,403.79072822120077
320,1686111638.81,-2.93,377.441,146.484,-18.555,1645.705,397.4761273011549
321,1686111638.81,-62.988,-223.145,-128.906,-87.402,1645.709,405.18363540270775
322,1686111638.81,-59.082,-593.75,-125.488,-50.293,1645.713,398.6696982007074
323,1686111638.82,-1.953,204.59,174.316,17.578,1645.717,401.13069039658876
324,1686111638.82,8.789,423.34,167.969,-0.488,1645.717,401.2809154075371
325,1686111638.82,-39.062,-104.004,-79.102,-67.871,1645.721,402.40269158431454
326,1686111638.83,-60.059,-61.523,2.93,-66.406,1645.725,395.31799310574405
327,1686111638.83,-11.719,374.512,218.262,8.301,1645.729,400.8798728107721
328,1686111638.84,23.438,263.184,115.723,34.18,1645.733,408.56515361085854
329,1686111638.84,-20.996,-533.691,-276.367,-31.25,1645.737,403.13351379118797
330,1686111638.84,-55.176,-605.957,-258.301,-61.035,1645.741,396.3521127039656
331,1686111638.85,-13.672,-167.969,9.766,0.488,1645.745,402.54633686997374
332,1686111638.85,15.137,-44.434,59.57,38.574,1645.749,402.87330625175855
333,1686111638.86,-20.508,-714.844,-312.012,-17.09,1645.752,409.69729622828737
334,1686111638.86,-68.848,-724.121,-194.824,-83.496,1645.756,397.83925066915174
335,1686111638.86,-50.293,225.098,200.195,-41.016,1645.76,401.17439627367355
336,1686111638.88,-0.977,296.875,139.16,27.832,1645.779,409.51770913947405
337,1686111638.88,0.488,128.418,112.305,-12.695,1645.783,410.51506895657906
338,1686111638.89,-40.527,255.859,117.188,-74.707,1645.786,403.6345859855416
339,1686111638.89,-27.344,321.777,135.254,-37.598,1645.79,404.647216510668
340,1686111638.9,21.973,145.508,103.027,28.32,1645.794,397.72788786267193
341,1686111638.9,0.488,-174.316,17.09,5.859,1645.798,400.84024285479285
342,1686111638.9,-49.805,-174.805,-19.531,-73.242,1645.802,412.1673373319221
343,1686111638.91,-57.617,210.449,106.445,-82.52,1645.806,406.2170671669618
344,1686111638.91,-15.137,-127.441,-35.156,-12.207,1645.808,412.89577203636685
345,1686111638.91,-13.672,-28.32,17.578,-4.395,1645.81,398.49679427704297
346,1686111638.92,5.859,-5.371,72.266,37.598,1645.812,398.54880477947853
347,1686111638.92,14.648,-551.27,-90.82,28.32,1645.814,398.8594686353752
348,1686111638.92,0.977,398.438,186.523,-7.812,1645.816,397.8485123293344
349,1686111638.92,-13.184,-207.031,8.301,-32.715,1645.818,400.25260867578277
350,1686111638.92,-31.25,223.145,53.711,-72.754,1645.82,398.40780106171144
351,1686111638.92,-31.738,134.277,81.055,-71.289,1645.822,398.92371571626467
352,1686111638.93,-30.273,-133.789,-24.902,-42.969,1645.824,403.37410951517313
353,1686111638.93,7.324,-177.246,31.25,21.973,1645.828,400.08735089724786
354,1686111638.94,6.836,-50.293,60.547,-13.184,1645.832,403.2953388860244
355,1686111638.94,-37.109,-299.805,-114.258,-80.078,1645.836,403.00347070120125
356,1686111638.94,-43.945,-686.035,-293.945,-59.57,1645.839,391.81558651505986
357,1686111638.95,6.348,-52.734,50.293,14.648,1645.843,389.9019524313366
358,1686111638.95,19.531,525.391,229.98,19.531,1645.847,397.7729254374777
359,1686111638.95,-25.879,220.703,42.48,-55.664,1645.851,400.68096877611595
360,1686111638.96,-62.988,-808.105,-369.141,-70.312,1645.859,393.5603150321101
361,1686111638.96,-31.738,-668.457,-147.949,-1.953,1645.863,389.4266513587802
362,1686111638.97,13.184,349.609,226.562,28.32,1645.867,393.23720636102854
363,1686111638.97,-20.996,243.652,37.109,-36.621,1645.871,393.75147600583955
364,1686111638.97,-57.617,-54.688,-40.527,-83.496,1645.875,394.2652559697021
365,1686111638.98,-27.832,-88.379,18.555,-13.184,1645.878,386.0396954579582
366,1686111638.98,14.648,91.797,105.957,38.086,1645.882,388.73397767171497
367,1686111638.98,-2.93,-107.91,-27.344,-15.137,1645.886,391.52047553969936
368,1686111638.99,-50.293,-770.02,-310.059,-71.289,1645.89,386.926161157796
369,1686111638.99,-34.18,-81.543,59.57,-44.434,1645.894,381.2085067507861
370,1686111639.0,20.996,482.422,242.676,30.273,1645.898,386.9738646454511
371,1686111639.0,-30.273,44.922,19.531,-67.871,1645.897,384.36408214261877
372,1686111639.0,18.555,88.867,-2.93,14.648,1645.902,385.2502061780798
373,1686111639.0,-37.109,329.102,140.137,-65.918,1645.901,378.75731758496767
374,1686111639.01,5.371,334.473,122.07,9.766,1645.905,381.0718785350061
375,1686111639.01,18.066,-32.715,-21.484,11.23,1645.909,393.85731139666376
376,1686111639.02,-16.113,-43.457,26.367,-60.547,1645.913,386.55370770072216
377,1686111639.02,-38.574,-61.523,8.789,-77.148,1645.917,379.434120091293
378,1686111639.02,-10.742,-120.605,10.254,-8.301,1645.921,386.3090370363338
379,1686111639.03,15.137,-655.273,-275.391,34.18,1645.925,377.21670841579675
380,1686111639.03,-21.484,-1000.0,-423.34,-31.25,1645.929,377.57739325026563
381,1686111639.04,-62.5,-158.203,38.574,-89.355,1645.932,382.4409362804525
382,1686111639.04,-29.785,286.133,171.387,-36.621,1645.936,391.85979095521685
383,1686111639.04,10.254,177.734,138.184,25.391,1645.94,381.3556549915268
384,1686111639.05,-11.719,340.332,147.461,-13.184,1645.956,380.242763344643
385,1686111639.05,-56.641,364.746,112.305,-75.195,1645.96,370.96257330879
386,1686111639.06,-60.547,203.613,81.543,-56.641,1645.964,378.89591173567794
387,1686111639.06,-18.066,219.238,166.504,5.859,1645.968,380.7328780891234
388,1686111639.06,-1.465,356.934,167.969,-13.672,1645.972,378.70120353881686
389,1686111639.07,-31.25,63.477,8.301,-86.914,1645.976,378.86491087532164
390,1686111639.07,-53.223,-364.258,-196.289,-78.125,1645.98,372.1395163384592
391,1686111639.07,-33.203,-849.121,-325.684,6.348,1645.984,375.5877307879737
392,1686111639.08,0.488,-55.176,109.375,17.578,1645.988,373.5755930015783
393,1686111639.08,-21.484,493.652,197.266,-59.57,1645.992,378.75535842647366
394,1686111639.09,-53.711,-15.625,-44.922,-89.355,1645.995,375.9801705758304
395,1686111639.09,-32.715,142.09,104.492,-23.926,1645.999,371.7728050458457
396,1686111639.09,0.488,506.836,228.516,20.02,1646.001,373.23040582569746
397,1686111639.09,-22.949,358.887,124.512,-42.48,1646.005,377.671292191377
398,1686111639.1,-65.43,-130.371,-91.309,-91.797,1646.009,381.04228138699915
399,1686111639.1,-39.551,44.922,52.246,-40.527,1646.013,371.3611224992736
400,1686111639.11,9.277,362.305,201.172,25.879,1646.017,364.0374483475736
401,1686111639.11,-0.488,-39.551,-10.254,-10.254,1646.02,365.76433591558884
402,1686111639.11,-54.199,-808.594,-410.156,-77.637,1646.024,379.06425331123137
403,1686111639.12,-68.359,-676.27,-193.359,-63.965,1646.028,372.8967443369999
404,1686111639.12,-17.578,144.531,206.543,0.977,1646.032,364.2276758534242
405,1686111639.12,-0.977,16.113,21.973,0.0,1646.036,369.08002784104673
406,1686111639.13,-46.387,-662.109,-289.551,-76.172,1646.04,360.17212263231085
407,1686111639.13,-59.082,-156.738,5.859,-82.52,1646.044,365.70395713846125
408,1686111639.15,-14.648,482.91,233.887,-5.859,1646.048,355.71694539490943
409,1686111639.15,1.465,253.418,104.98,21.973,1646.052,360.61168766653446
410,1686111639.16,-36.133,99.121,98.145,-51.27,1646.056,355.379549188585
411,1686111639.16,-60.547,211.426,97.168,-82.52,1646.06,357.34610119870507
412,1686111639.17,-30.273,393.066,173.34,-11.23,1646.064,363.57086006596154
413,1686111639.17,6.836,-4.395,7.324,27.832,1646.068,352.2655525721857
414,1686111639.17,-9.277,-428.223,-141.113,-24.902,1646.072,358.5751984011795
415,1686111639.18,-47.363,4.395,62.012,-84.961,1646.075,355.35188390108584
416,1686111639.18,-41.016,296.875,141.602,-44.922,1646.079,355.37663799302874
417,1686111639.18,11.719,33.203,54.688,33.203,1646.083,351.8775093070762
418,1686111639.19,8.789,-172.363,56.152,2.441,1646.087,352.29085774517
419,1686111639.19,-51.758,-90.82,38.086,-87.402,1646.091,343.5430208954336
420,1686111639.2,-54.199,67.383,76.172,-80.078,1646.106,355.0274313031731
421,1686111639.2,-16.113,-150.391,-25.391,7.812,1646.11,341.2936122058421
422,1686111639.2,-11.23,-130.859,28.32,3.418,1646.113,339.2821930631518
423,1686111639.21,-58.105,248.047,125.488,-93.262,1646.117,351.4756235742647
424,1686111639.21,-82.031,113.281,40.527,-108.398,1646.121,341.0061591890017
425,1686111639.22,-54.199,-504.883,-219.238,-29.297,1646.125,347.25764644042556
426,1686111639.22,-14.16,-481.934,-115.723,5.859,1646.129,344.5675147491534
427,1686111639.22,-22.949,17.578,110.352,-60.547,1646.133,351.7982759172017
428,1686111639.23,-57.129,68.359,18.066,-102.539,1646.137,337.9863529018236
429,1686111639.23,-43.457,-666.992,-257.812,-40.527,1646.141,350.24555922206343
430,1686111639.23,0.977,-361.816,20.02,18.066,1646.145,347.1383608674869
431,1686111639.24,-3.418,377.93,201.66,-29.785,1646.149,338.8559054978328
432,1686111639.24,-51.27,160.645,15.625,-101.074,1646.143,341.1083545702236
433,1686111639.25,-43.457,-86.426,-11.23,-65.43,1646.147,339.8014307811495
434,1686111639.25,7.812,60.547,94.727,27.832,1646.151,339.70398408414644
435,1686111639.26,9.766,370.117,177.734,11.719,1646.155,331.8214813222948
436,1686111639.26,-44.922,30.762,-41.504,-79.59,1646.159,340.66055734321543
437,1686111639.26,-58.105,-583.984,-175.293,-72.754,1646.163,338.71378811685724
438,1686111639.27,-8.301,-232.91,76.172,8.789,1646.167,342.20607994009697
439,1686111639.27,14.16,388.184,198.242,14.648,1646.17,337.0105972802608
440,1686111639.27,-22.949,-68.848,-77.637,-57.617,1646.174,339.12691515792716
441,1686111639.28,-63.477,-548.34,-117.188,-85.938,1646.178,343.0682397415931
442,1686111639.28,-27.832,134.766,167.48,-17.09,1646.182,338.85659853963256
443,1686111639.28,-4.395,-86.426,-62.012,-43.945,1646.183,338.02427836863677
444,1686111639.29,20.02,402.344,160.156,23.438,1646.186,338.05170080140243
445,1686111639.29,-36.621,-99.609,-12.207,-93.75,1646.187,349.13489035287085
446,1686111639.29,-18.555,279.785,158.203,-34.18,1646.191,340.24091020028317
447,1686111639.3,24.902,294.922,145.508,30.273,1646.195,333.4437389756801
448,1686111639.3,4.883,-159.18,-102.539,-11.23,1646.199,342.3054789121187
449,1686111639.3,-49.805,-399.414,-200.684,-78.125,1646.203,339.8573110490738
450,1686111639.31,-46.875,-266.113,-50.781,-60.059,1646.206,344.8570204713738
451,1686111639.31,-9.277,-176.758,50.293,18.066,1646.21,342.91304749831323
452,1686111639.32,-1.465,-729.004,-298.828,19.531,1646.214,342.20480388441575
453,1686111639.32,-34.668,-1000.0,-449.219,-53.711,1646.218,339.7447977347842
454,1686111639.32,-44.434,-148.438,43.457,-62.988,1646.222,351.5911481211103
455,1686111639.33,-8.789,284.668,187.988,7.812,1646.226,346.81898424492846
456,1686111639.33,17.578,126.953,111.328,23.926,1646.23,341.82914735580454
457,1686111639.34,-7.324,236.816,111.328,-46.875,1646.234,346.15527332192374
458,1686111639.34,-41.504,270.02,116.211,-85.938,1646.237,342.22116798375663
459,1686111639.34,-17.578,191.406,114.746,-24.414,1646.241,354.6265765463629
460,1686111639.35,25.391,201.172,149.414,23.438,1646.245,346.07344674126205
461,1686111639.35,0.488,-28.809,8.301,-24.902,1646.249,352.0415105558568
462,1686111639.36,-46.875,-177.246,-33.691,-74.707,1646.253,349.4011134094601
463,1686111639.36,-34.668,-292.48,-50.293,-29.297,1646.257,343.82574760941657
464,1686111639.36,8.301,-858.398,-257.324,39.551,1646.261,351.2547313403231
465,1686111639.37,19.531,-137.695,69.336,-0.977,1646.265,350.84509361626255
466,1686111639.37,-28.809,349.121,163.086,-81.055,1646.269,352.8499405781882
467,1686111639.37,-47.363,-114.746,-40.527,-58.105,1646.273,355.61705100007276
468,1686111639.38,0.488,151.855,109.375,20.508,1646.272,353.6493629913696
469,1686111639.38,15.137,491.211,199.707,13.184,1646.276,359.91826835119053
470,1686111639.38,-33.691,270.508,78.125,-67.871,1646.28,354.95164582350765
471,1686111639.39,-55.664,-78.613,-47.852,-75.195,1646.284,359.2788512991053
472,1686111639.39,-24.902,10.254,53.223,1.953,1646.288,348.4259114306947
473,1686111639.4,-7.812,19.043,91.797,24.414,1646.292,355.850671742374
474,1686111639.4,-33.203,-157.227,-14.16,-40.039,1646.296,356.27138162011613
475,1686111639.4,-59.57,-812.988,-389.16,-67.871,1646.3,360.20960616478635
476,1686111639.41,-36.621,-817.871,-263.184,-18.066,1646.303,351.5168304113288
477,1686111639.41,6.836,57.617,160.645,29.297,1646.307,352.02769567870075
478,1686111639.41,-6.836,-65.918,-21.484,-8.301,1646.311,357.3533241825706
479,1686111639.42,-61.035,-510.254,-162.598,-82.031,1646.315,359.74379841059607
480,1686111639.42,-47.852,32.715,105.957,-61.523,1646.332,364.9705307433122
481,1686111639.43,14.648,437.5,189.453,20.508,1646.336,355.1956330358779
482,1686111639.43,-9.766,176.758,55.176,-4.883,1646.339,351.50122969459386
483,1686111639.43,-60.059,35.645,55.176,-82.031,1646.343,350.69813277061877
484,1686111639.44,-51.758,189.941,101.562,-68.848,1646.347,356.0001703878796
485,1686111639.44,-11.23,145.996,111.328,4.883,1646.351,360.4284050399706
486,1686111639.45,2.441,-227.051,-27.344,11.719,1646.355,356.2979428538598
487,1686111639.45,-29.785,-662.598,-230.957,-63.477,1646.359,363.50777260595487
488,1686111639.45,-46.387,-53.711,51.27,-88.379,1646.363,356.1845288265555
489,1686111639.46,-20.508,387.695,191.406,-6.836,1646.367,361.3893250357512
490,1686111639.46,10.254,137.207,34.18,33.203,1646.371,354.3648295724943
491,1686111639.46,-11.719,61.523,28.809,-38.086,1646.375,349.2862432889151
492,1686111639.47,-52.734,-38.574,21.484,-83.496,1646.366,357.259451022314
493,1686111639.47,-34.668,103.027,74.707,-29.785,1646.37,350.95445545226386
494,1686111639.47,-4.395,-139.648,-54.688,29.297,1646.374,351.5667429781335
495,1686111639.48,-13.184,-131.348,18.066,-18.555,1646.378,356.7398190692605
496,1686111639.48,-52.246,173.828,118.652,-82.031,1646.381,347.8534553933586
497,1686111639.49,-37.598,-73.242,18.066,-37.109,1646.385,353.62801221145475
498,1686111639.49,0.0,-687.988,-249.023,37.109,1646.389,347.0584662471166
499,1686111639.49,-2.441,-697.266,-161.621,17.578,1646.393,352.16757510594135
500,1686111639.5,-29.297,130.859,157.227,-65.43,1646.397,346.1534641884056
501,1686111639.5,-41.016,81.543,50.293,-64.941,1646.401,353.0907005697535
502,1686111639.5,-11.23,-553.223,-197.266,9.766,1646.405,342.8151816157238
503,1686111639.51,7.324,-45.898,45.898,13.184,1646.409,347.97298330629826
504,1686111639.53,-20.508,396.973,189.453,-65.918,1646.424,350.7097270201086
505,1686111639.53,-54.199,87.891,2.93,-88.379,1646.428,341.7937709779643
506,1686111639.53,-34.668,-141.602,-21.973,-17.578,1646.432,348.36887428050176
507,1686111639.54,1.465,63.965,116.211,7.812,1646.436,350.1586877833466
508,1686111639.54,-22.461,353.516,166.504,-60.059,1646.44,338.31380073485406
509,1686111639.55,-52.734,-158.203,-95.703,-99.121,1646.444,341.06662723891213
510,1686111639.55,-37.598,-886.23,-342.773,-39.551,1646.448,349.6875835109049
511,1686111639.55,-4.395,-164.062,81.055,18.555,1646.452,335.19839531137245
512,1686111639.56,-9.766,427.734,208.496,-18.066,1646.456,346.09108696434936
513,1686111639.56,-54.199,-4.395,-52.734,-90.82,1646.459,341.54316141921976
514,1686111639.56,-48.828,9.766,51.27,-69.336,1646.463,343.6938580985071
515,1686111639.57,-0.977,375.488,207.031,16.113,1646.467,341.6303460904162
516,1686111639.57,7.812,354.98,140.137,9.766,1646.468,340.3199934959441
517,1686111639.57,-28.809,-86.914,-95.703,-71.777,1646.472,342.0686748902481
518,1686111639.58,-34.668,-15.625,21.973,-78.125,1646.476,351.36950734115163
519,1686111639.58,10.254,375.977,209.473,16.113,1646.48,348.4071334126651
520,1686111639.59,26.367,158.203,61.523,25.391,1646.483,363.5732769239849
521,1686111639.59,-22.949,-463.379,-233.887,-58.594,1646.487,352.69494776949796
522,1686111639.59,-58.105,-494.141,-193.848,-83.496,1646.491,356.5001419690776
523,1686111639.6,-15.137,-227.051,21.973,-9.766,1646.495,369.7114355714193
524,1686111639.6,27.832,-149.414,56.641,43.945,1646.499,371.8980489487456
525,1686111639.6,-5.859,-777.344,-354.98,-11.719,1646.503,369.5988791353833
526,1686111639.61,-49.316,-960.449,-404.297,-69.824,1646.507,373.2633971697616
527,1686111639.61,-15.625,41.016,114.258,-29.785,1646.511,390.9578578745762
528,1686111639.62,28.32,373.047,203.125,35.156,1646.515,391.4530519009093
529,1686111639.62,19.531,143.555,125.0,1.953,1646.518,392.1351162748792
530,1686111639.62,-22.949,172.363,75.684,-68.359,1646.522,412.3120143799289
531,1686111639.63,-42.48,248.535,83.008,-56.152,1646.526,415.2841873472318
532,1686111639.63,-1.465,129.395,75.684,22.461,1646.53,403.18100158671064
533,1686111639.64,4.395,-204.102,-5.859,17.578,1646.534,430.88846249043763
534,1686111639.64,-35.645,-174.316,7.812,-67.871,1646.538,418.06404322716185
535,1686111639.64,-40.039,108.887,96.68,-65.918,1646.542,421.66161267770326
536,1686111639.65,-10.742,-205.078,-23.926,16.113,1646.546,420.5100168761597
537,1686111639.65,4.395,-871.094,-264.16,38.574,1646.55,435.48721201858154
538,1686111639.66,-20.996,-181.152,49.805,-32.227,1646.554,434.4642919771905
539,1686111639.66,-45.898,323.73,154.297,-71.289,1646.558,434.98911466433015
540,1686111639.66,-17.578,-45.898,1.465,-9.277,1646.557,433.6982927538463
541,1686111639.66,28.32,187.5,138.672,33.203,1646.561,432.5142353543857
542,1686111639.67,5.859,375.0,164.551,-21.973,1646.565,436.5787838310657
543,1686111639.67,-37.598,160.645,51.758,-76.66,1646.569,439.01567154955063
544,1686111639.68,-23.438,-183.105,-58.594,-30.762,1646.573,439.6717876771311
545,1686111639.68,16.113,-194.824,43.945,36.133,1646.577,441.91543807881686
546,1686111639.68,7.812,-82.52,67.871,4.395,1646.581,443.9768798157867
547,1686111639.69,-41.016,-205.566,-79.102,-62.5,1646.585,449.2091287172105
548,1686111639.69,-45.898,-812.5,-356.445,-45.41,1646.589,452.0230055101696
549,1686111639.7,-8.789,-696.289,-180.664,30.762,1646.592,448.14327516219197
550,1686111639.7,7.324,45.41,92.773,27.832,1646.596,443.7486628549496
551,1686111639.7,-22.461,-130.859,-53.711,-42.48,1646.6,452.5082900606521
552,1686111639.71,-48.34,-432.129,-65.43,-64.941,1646.604,451.5642404495342
553,1686111639.71,-9.766,178.223,155.762,0.488,1646.608,454.58463534850955
554,1686111639.72,29.297,508.789,183.594,40.039,1646.612,454.1877668012784
555,1686111639.72,0.977,190.918,49.316,-24.902,1646.616,450.5426545694686
556,1686111639.72,-41.016,38.574,36.621,-69.336,1646.62,453.63836082538336
557,1686111639.73,-26.855,-30.273,60.059,-8.301,1646.624,448.82264569659884
558,1686111639.73,6.836,5.859,101.562,52.734,1646.628,438.76705072511834
559,1686111639.73,4.883,-226.562,-37.109,11.23,1646.632,448.24930790566725
560,1686111639.74,-37.598,-645.996,-167.969,-59.082,1646.635,448.97593752588335
561,1686111639.74,-43.945,49.316,129.883,-44.434,1646.639,445.16171133378896
562,1686111639.75,4.395,469.238,221.191,30.762,1646.643,442.5966245908186
563,1686111639.75,5.371,122.07,43.457,16.113,1646.647,442.27552351711114
564,1686111639.75,-36.133,-16.113,-9.766,-63.477,1646.651,450.6728265687013
565,1686111639.76,-49.316,-24.414,53.711,-61.523,1646.655,447.89644523661474
566,1686111639.76,-13.672,172.363,131.348,17.09,1646.659,454.4673426187404
567,1686111639.76,12.207,-99.121,-39.551,33.203,1646.663,453.50511962265654
568,1686111639.77,-27.344,-224.609,-21.484,-45.41,1646.666,446.06092469000833
569,1686111639.77,-61.035,-186.035,-31.738,-78.613,1646.67,448.69003903754407
570,1686111639.78,-23.438,-129.395,14.648,-6.348,1646.674,441.42619576920833
571,1686111639.78,10.742,-615.723,-254.395,35.645,1646.678,440.9408385777316
572,1686111639.78,-20.996,-844.727,-308.105,-33.203,1646.682,443.8166535239661
573,1686111639.79,-57.129,35.156,83.496,-87.891,1646.686,443.1311001660543
574,1686111639.79,-30.762,207.52,114.746,-33.691,1646.69,444.58660299755337
575,1686111639.79,2.93,95.703,132.324,28.809,1646.694,445.8897880035431
576,1686111639.8,-10.742,334.961,158.203,-11.23,1646.711,440.0451222397627
577,1686111639.8,-47.363,346.68,124.023,-82.52,1646.715,444.7376933110537
578,1686111639.8,-48.828,136.23,84.473,-52.246,1646.719,442.8369255257047
579,1686111639.81,-6.348,-25.391,93.75,25.391,1646.722,440.62422791088204
580,1686111639.81,-4.395,60.059,122.559,3.906,1646.726,437.2418353127603
581,1686111639.82,-42.48,-8.789,13.184,-76.172,1646.73,427.1844008124723
582,1686111639.82,-43.945,-365.723,-156.738,-70.801,1646.734,435.3591532469504
583,1686111639.82,-1.465,-856.934,-324.707,7.812,1646.738,433.1403150862372
584,1686111639.83,18.555,-174.316,49.805,15.137,1646.742,424.7595150599349
585,1686111639.83,-21.484,393.066,187.012,-54.688,1646.746,432.7124834211432
586,1686111639.84,-62.988,-41.016,-62.5,-70.801,1646.75,432.711759207102
587,1686111639.84,-30.273,108.887,91.797,1.953,1646.754,430.31828387493186
588,1686111639.84,19.531,467.285,218.262,44.434,1646.754,433.4848072671042
589,1686111639.84,-0.977,296.387,104.98,-16.602,1646.758,426.18790965165635
590,1686111639.85,-50.781,-170.898,-113.281,-84.961,1646.761,422.1488769690712
591,1686111639.85,-39.551,41.992,34.18,-41.504,1646.765,413.88528330889756
592,1686111639.86,4.883,326.66,200.195,23.926,1646.769,416.0630759677661
593,1686111639.86,-7.324,-115.723,-34.668,-13.672,1646.773,410.6000685788223
594,1686111639.86,-52.734,-804.688,-431.152,-73.242,1646.777,407.8802863870527
595,1686111639.87,-59.082,-852.539,-277.344,-59.082,1646.781,409.68509440358645
596,1686111639.87,-11.719,33.691,195.801,7.324,1646.785,399.40269693006917
597,1686111639.88,15.137,259.766,112.305,14.648,1646.789,405.3268318481954
598,1686111639.88,-22.461,-646.484,-302.246,-61.523,1646.793,394.3325600227151
599,1686111639.88,-57.617,-262.207,-11.719,-83.008,1646.797,399.5732834039053
600,1686111639.9,-25.879,464.844,247.07,1.953,1646.799,366.91775801092314
601,1686111639.9,0.977,288.086,106.445,32.715,1646.803,365.01313643130067
602,1686111639.91,-41.016,47.852,59.082,-46.387,1646.807,368.3641149036992
603,1686111639.91,-74.707,94.727,80.566,-99.121,1646.81,371.2581104514867
604,1686111639.92,-39.062,302.734,165.527,-37.109,1646.814,360.9139878223354
605,1686111639.92,-5.371,-81.055,-0.977,28.809,1646.818,359.94536880999163
606,1686111639.92,-22.461,-556.152,-104.492,-20.02,1646.822,357.9962426558426
607,1686111639.93,-59.57,-17.578,109.375,-94.238,1646.826,342.9182116247227
608,1686111639.93,-57.617,234.375,136.23,-57.129,1646.83,345.3068847849115
609,1686111639.94,-9.277,-195.312,-1.953,21.484,1646.834,341.4352343891957
610,1686111639.94,-8.789,-328.125,-20.996,-9.277,1646.838,338.2627138879585
611,1686111639.94,-44.922,196.289,131.836,-91.797,1646.842,334.93541924207
612,1686111639.94,-52.734,250.488,102.051,-72.754,1646.846,344.257046876031
613,1686111639.95,-12.207,-49.805,28.809,8.301,1646.85,332.78093968846275
614,1686111639.95,11.719,185.059,133.789,13.672,1646.854,346.3318902564022
615,1686111639.96,-29.785,365.234,157.227,-61.523,1646.858,324.25960331468775
616,1686111639.96,-45.41,99.121,56.152,-78.125,1646.862,338.001664743464
617,1686111639.96,-4.395,-496.582,-183.594,7.324,1646.866,329.42373871700977
618,1686111639.97,21.484,-443.848,-57.617,47.852,1646.87,323.83706684165196
619,1686111639.97,-6.348,-13.672,111.816,-25.391,1646.874,332.665256072949
620,1686111639.98,-48.828,34.668,28.809,-82.031,1646.877,324.4313233250577
621,1686111639.98,-41.504,-659.668,-246.094,-23.438,1646.881,317.59011993054935
622,1686111639.98,5.371,-428.223,-15.625,39.551,1646.885,332.27227425943244
623,1686111639.99,2.441,118.652,119.629,-2.441,1646.889,322.542914554667
624,1686111639.99,-34.18,-232.422,-93.262,-62.012,1646.889,330.05721948365334
625,1686111640.0,-41.016,-518.066,-66.406,-47.852,1646.893,318.69443308697004
626,1686111640.0,-10.254,74.707,157.227,10.742,1646.897,319.17914455833443
627,1686111640.0,3.906,454.102,173.34,-3.906,1646.901,328.0681178388867
628,1686111640.01,-37.598,101.562,4.395,-75.195,1646.905,326.7850380450924
629,1686111640.01,-52.246,-298.828,-101.562,-69.824,1646.909,318.94681776682773
630,1686111640.02,-19.531,-78.125,83.008,5.371,1646.913,327.2114618022076
631,1686111640.02,0.0,435.547,213.379,12.695,1646.917,331.54793728936204
632,1686111640.02,-45.41,-51.27,-65.43,-62.5,1646.921,319.7611868690699
633,1686111640.03,-72.754,-625.977,-145.508,-80.078,1646.924,320.9695260223642
634,1686111640.03,-25.879,135.742,187.988,-13.672,1646.928,323.38653534215047
635,1686111640.03,1.953,459.961,189.941,16.602,1646.932,324.77853699108
636,1686111640.04,-21.973,14.648,-37.598,-44.434,1646.936,320.5530819618431
637,1686111640.04,-53.711,-119.141,-28.809,-87.402,1646.94,327.6899839238979
638,1686111640.04,-35.156,13.184,95.703,-26.367,1646.944,330.6723577576054
639,1686111640.05,23.438,320.801,157.715,46.387,1646.948,327.376516009026
640,1686111640.05,21.484,-213.867,-148.926,7.324,1646.952,324.42813357328623
641,1686111640.06,-31.25,-565.918,-240.723,-70.801,1646.956,330.3383456318554
642,1686111640.06,-32.715,-234.375,-36.133,-51.27,1646.959,327.20061281794614
643,1686111640.06,10.742,-49.316,65.918,22.949,1646.963,333.4112433501107
644,1686111640.07,21.973,-619.629,-277.832,25.879,1646.967,327.10309972414774
645,1686111640.07,-32.715,-821.289,-280.273,-59.082,1646.971,327.8663565292145
646,1686111640.08,-65.43,45.898,133.301,-78.125,1646.975,331.29939331586996
647,1686111640.08,-25.391,234.375,158.691,9.766,1646.979,322.8241931102813
648,1686111640.08,5.371,154.785,157.227,33.691,1646.98,328.70456952405317
649,1686111640.09,-10.742,289.062,124.512,-39.062,1646.984,323.547486727666
650,1686111640.09,-43.457,304.688,117.676,-76.66,1646.988,333.6698556500627
651,1686111640.09,-18.555,221.191,114.258,-6.348,1646.992,333.4036189076556
652,1686111640.1,16.602,13.672,71.289,37.598,1646.996,334.3058378782875
653,1686111640.1,-10.254,-182.617,-36.133,-23.926,1647.0,332.2950326024989
654,1686111640.11,-41.992,-190.918,-97.656,-82.52,1647.004,331.9823986727072
655,1686111640.11,-24.414,-294.434,-105.957,-33.691,1647.008,323.604616657482
656,1686111640.11,6.348,-838.379,-292.969,35.645,1647.012,321.7373986990001
657,1686111640.12,-6.348,-234.863,13.672,-11.719,1647.016,331.3952154915677
658,1686111640.12,-50.293,294.434,137.695,-83.008,1647.02,335.3354726799033
659,1686111640.12,-60.547,-44.922,-38.086,-62.012,1647.023,337.9034066575024
660,1686111640.12,-19.043,150.391,109.863,15.625,1647.022,340.6676066985593
661,1686111640.13,8.301,411.133,173.828,14.16,1647.026,332.6614459433523
662,1686111640.13,-22.949,238.281,65.918,-69.336,1647.03,339.58807382727866
663,1686111640.14,-53.711,-89.844,-45.898,-89.355,1647.034,332.94153854501974
664,1686111640.14,-10.742,72.266,76.66,-14.648,1647.038,336.22865902758554
665,1686111640.14,21.973,81.543,92.773,18.066,1647.042,329.18424727269166
666,1686111640.15,-26.855,-225.586,-62.988,-54.688,1647.046,339.8392591555884
667,1686111640.15,-69.336,-778.809,-386.719,-81.055,1647.05,333.8905356279027
668,1686111640.16,-35.645,-1000.0,-412.109,-4.395,1647.053,347.1483546408536
669,1686111640.16,13.672,-105.957,102.539,33.691,1647.057,340.29208573102227
670,1686111640.16,-2.441,304.688,143.066,-15.137,1647.061,335.2601279792873
671,1686111640.17,-45.898,-79.59,-57.129,-76.172,1647.065,348.8142183670918
672,1686111640.19,-35.645,225.586,134.277,-43.945,1647.085,347.7200377835991
673,1686111640.19,1.953,536.133,207.52,27.832,1647.089,345.68593562695145
674,1686111640.2,2.93,314.941,100.098,-2.441,1647.092,343.8668583621094
675,1686111640.2,-29.785,102.051,91.797,-76.172,1647.096,342.29363330102785
676,1686111640.2,-30.273,170.898,117.188,-61.523,1647.1,339.410980113362
677,1686111640.21,13.184,147.461,129.395,22.949,1647.104,351.89736448211886
678,1686111640.21,23.438,-155.762,-11.719,29.297,1647.108,343.5936758724668
679,1686111640.21,-24.902,-695.312,-235.352,-60.547,1647.112,344.66449667035465
680,1686111640.22,-61.035,244.629,149.414,-86.914,1647.126,345.2101778068304
681,1686111640.22,-54.688,-130.859,31.25,-90.332,1647.116,354.47881303723847
682,1686111640.22,-41.016,306.641,145.02,-29.297,1647.13,356.8736151211464
683,1686111640.22,-22.949,269.531,156.25,-3.906,1647.12,351.3011367160396
684,1686111640.22,8.789,26.855,50.781,35.156,1647.134,349.2272749399022
685,1686111640.23,22.949,-132.812,53.223,36.133,1647.124,346.65574365830355
686,1686111640.23,0.0,180.664,118.652,-14.16,1647.138,349.2918742240121
687,1686111640.23,-2.93,-135.742,84.961,-38.086,1647.128,343.14125918758066
688,1686111640.23,-45.898,198.242,85.938,-92.773,1647.142,346.5318318968905
689,1686111640.24,-60.547,-170.898,-24.902,-58.105,1647.146,344.2480793507755
690,1686111640.24,-26.367,-342.285,-65.918,21.484,1647.15,356.7603941815159
691,1686111640.24,-16.113,-177.246,-4.883,4.883,1647.154,349.17021317777284
692,1686111640.25,-62.5,156.738,106.934,-76.66,1647.158,355.2624542008972
693,1686111640.25,-70.312,166.016,98.145,-74.707,1647.161,349.9927969846775
694,1686111640.25,-26.367,-676.758,-261.23,11.719,1647.165,355.3849858997105
695,1686111640.26,-16.113,-756.348,-163.574,20.508,1647.169,358.4254776709915
696,1686111640.28,-44.434,-98.145,28.809,-60.059,1647.172,361.09769568987724
697,1686111640.28,-62.5,-234.863,-152.344,-84.961,1647.176,357.35922621463806
698,1686111640.28,-22.949,-342.285,-17.578,-8.301,1647.18,352.9278456187374
699,1686111640.29,13.672,250.488,178.711,32.715,1647.184,352.15981789352475
700,1686111640.29,-10.742,427.734,130.859,-30.762,1647.188,353.9960498119632
701,1686111640.3,-47.363,-175.781,-66.406,-79.59,1647.192,353.02214089451223
702,1686111640.3,-32.227,-480.469,-69.336,-29.297,1647.196,356.9307243512528
703,1686111640.3,9.277,218.262,192.871,31.25,1647.2,355.2142436399845
704,1686111640.31,0.977,521.973,194.336,-13.184,1647.204,358.0597805250085
705,1686111640.31,-54.199,-114.746,-86.914,-92.285,1647.208,362.09036804355793
706,1686111640.31,-54.688,-432.129,-81.055,-59.082,1647.212,361.37265845520034
707,1686111640.32,10.742,258.301,215.332,25.391,1647.215,362.1750168242503
708,1686111640.32,16.113,415.527,168.457,8.789,1647.231,369.76126397607544
709,1686111640.32,-41.992,-55.664,-63.477,-72.266,1647.235,360.98285735163347
710,1686111640.33,-57.617,-152.832,-29.297,-73.242,1647.239,359.8306273874705
711,1686111640.33,-10.742,88.867,129.883,0.977,1647.243,363.1595964808844
712,1686111640.34,19.531,341.797,167.48,18.555,1647.247,361.13052201678306
713,1686111640.34,-20.996,-446.289,-261.23,-46.875,1647.251,365.2385220890068
714,1686111640.34,-65.918,-892.09,-282.227,-84.473,1647.255,366.8455097530271
715,1686111640.35,-37.109,-85.449,129.883,-19.531,1647.258,366.2759720723641
716,1686111640.35,11.719,337.891,158.203,35.156,1647.262,365.0308579965784
717,1686111640.36,-12.695,-485.352,-209.473,-30.762,1647.266,353.9742356031297
718,1686111640.36,-60.059,-331.055,-29.785,-98.145,1647.27,368.41407772831826
719,1686111640.36,-33.203,367.676,197.754,-50.293,1647.274,363.290484323456
720,1686111640.37,6.836,247.559,115.234,18.066,1647.265,356.7079252670651
721,1686111640.37,-3.906,139.648,136.23,-16.113,1647.269,359.6022476013925
722,1686111640.38,-29.297,235.84,113.281,-77.637,1647.273,369.62236701060306
723,1686111640.38,-39.062,306.641,115.723,-50.781,1647.277,349.605213510637
724,1686111640.38,-7.324,148.926,107.422,10.742,1647.281,367.91697959036276
725,1686111640.39,3.418,-112.793,48.828,2.93,1647.284,369.68558582612746
726,1686111640.39,-29.297,-282.715,-69.336,-67.871,1647.288,364.8540586510778
727,1686111640.39,-42.969,-78.613,-14.16,-78.613,1647.292,365.0551831841472
728,1686111640.4,-13.672,-89.355,-9.277,2.93,1647.296,361.69297280591286
729,1686111640.4,15.137,-636.23,-138.672,28.809,1647.3,359.9678925594246
730,1686111640.41,-0.488,-55.664,86.426,-47.363,1647.304,365.4707267723291
731,1686111640.41,-31.25,406.25,173.34,-87.402,1647.308,370.81058669252843
732,1686111640.41,-20.508,-169.434,-62.5,-28.809,1647.307,362.5838912119174
733,1686111640.41,9.766,-552.246,-92.285,20.996,1647.311,370.1288852131347
734,1686111640.42,-7.812,62.012,124.023,-36.621,1647.315,367.274032806057
735,1686111640.42,-45.898,256.348,85.938,-94.727,1647.319,368.6264372831676
736,1686111640.43,-40.039,-125.977,-36.621,-48.34,1647.323,362.7874604486266
737,1686111640.43,4.883,-110.84,58.594,24.902,1647.327,362.2768482515582
738,1686111640.43,12.695,-34.18,62.988,3.906,1647.331,372.1118945602833
739,1686111640.44,-32.715,-224.121,-68.359,-69.824,1647.335,373.8753155724311
740,1686111640.44,-41.992,-782.715,-338.867,-40.527,1647.339,371.40149590976586
741,1686111640.44,-8.301,-1000.0,-358.887,36.133,1647.343,369.889686603341
742,1686111640.45,7.812,-8.301,111.816,10.254,1647.346,367.07146035840077
743,1686111640.45,-26.367,298.828,105.469,-77.148,1647.35,363.151515032674
744,1686111640.46,-62.5,-52.734,-16.113,-91.797,1647.366,367.43413880046563
745,1686111640.46,-33.691,340.82,177.734,-12.207,1647.37,368.2707537055234
746,1686111640.46,5.371,553.711,202.148,25.391,1647.374,369.0049046926882
747,1686111640.47,-16.602,245.605,57.129,-42.48,1647.378,362.60461773251717
748,1686111640.47,-67.383,12.695,5.859,-97.168,1647.382,358.46777170048176
749,1686111640.48,-41.504,-40.527,47.852,-41.992,1647.386,368.3338775057338
750,1686111640.48,9.277,78.125,137.207,21.973,1647.39,367.1266326939597
751,1686111640.48,-5.859,-117.676,-15.625,-10.254,1647.394,374.16445122309693
752,1686111640.49,-56.641,-616.699,-191.406,-68.359,1647.397,356.8070098967425
753,1686111640.49,-47.852,26.855,121.582,-52.734,1647.401,371.4763645617354
754,1686111640.5,6.348,377.93,173.828,23.438,1647.405,372.9526573461102
755,1686111640.5,6.348,-127.93,-22.461,10.742,1647.409,373.62136469413775
756,1686111640.5,-47.363,-174.316,39.062,-74.707,1647.412,367.42556806565636
757,1686111640.5,-62.012,303.711,186.035,-79.59,1647.416,373.76138418038374
758,1686111640.51,-19.043,387.207,150.879,-0.488,1647.419,374.50877940978233
759,1686111640.51,8.789,17.578,-6.836,24.902,1647.423,372.63064915462724
760,1686111640.52,-20.508,-17.578,28.809,-51.27,1647.427,371.5090592124154
761,1686111640.52,-62.988,-104.98,27.344,-85.938,1647.431,366.99990177171776
762,1686111640.52,-42.48,-137.207,37.109,-15.137,1647.435,374.091930565019
763,1686111640.53,1.953,-615.723,-253.906,30.762,1647.439,371.1594587614171
764,1686111640.53,-12.207,-656.25,-155.762,-31.25,1647.443,364.40523388100974
765,1686111640.54,-51.758,236.816,198.242,-92.285,1647.447,375.8475921814792
766,1686111640.54,-30.762,242.676,89.355,-39.551,1647.451,377.0326863195657
767,1686111640.54,23.438,-220.215,-34.668,33.691,1647.455,376.1859559919371
768,1686111640.55,13.672,75.195,79.102,-7.324,1647.449,367.8586612222743
769,1686111640.55,-36.621,69.824,29.297,-80.078,1647.453,383.7526804494007
770,1686111640.56,-39.062,-239.746,-43.457,-49.316,1647.456,371.72351714434586
771,1686111640.56,-3.418,-201.66,33.691,16.113,1647.46,368.89093601967556
772,1686111640.56,10.742,192.871,131.348,-2.93,1647.464,378.10502647157585
773,1686111640.57,-26.367,22.949,-12.695,-68.359,1647.468,374.56335773565104
774,1686111640.57,-54.199,-414.062,-199.219,-66.895,1647.472,374.2536032518549
775,1686111640.58,-18.555,-507.812,-69.336,8.789,1647.476,371.44355779386075
776,1686111640.58,17.578,189.941,176.27,29.297,1647.48,373.3310264779008
777,1686111640.58,-18.066,480.469,141.602,-45.898,1647.484,377.29383257886883
778,1686111640.59,-52.734,-146.484,-65.43,-80.566,1647.488,380.0849739253859
779,1686111640.59,-18.066,-341.309,-36.621,-13.184,1647.492,371.81782492178615
780,1686111640.61,26.855,379.883,218.75,32.227,1647.503,374.3334176401707
781,1686111640.61,-0.488,434.57,159.668,-27.344,1647.506,375.5437963211567
782,1686111640.61,-43.457,-85.938,-80.078,-85.938,1647.51,378.29765359848176
783,1686111640.62,-27.344,-73.242,10.742,-33.691,1647.514,372.0890811744771
784,1686111640.62,11.719,58.105,120.117,36.621,1647.518,383.06838717370124
785,1686111640.63,7.324,-40.039,53.711,-3.418,1647.522,373.1538431676126
786,1686111640.63,-43.457,-616.211,-312.5,-74.707,1647.526,378.00615490763727
787,1686111640.63,-55.176,-1000.0,-457.031,-57.617,1647.53,371.75193182956207
788,1686111640.64,-4.395,-144.043,102.051,11.719,1647.534,379.0941127360307
789,1686111640.64,9.766,387.695,174.805,5.859,1647.538,377.19860807450505
790,1686111640.64,-30.762,50.781,6.348,-68.359,1647.542,371.3824620881688
791,1686111640.65,-41.992,249.512,120.117,-75.684,1647.546,375.26648129973063
792,1686111640.65,-11.23,472.168,161.621,-7.324,1647.549,378.80960232456533
793,1686111640.65,-3.906,285.156,136.23,8.301,1647.553,371.13116050019363
794,1686111640.66,-27.344,54.688,89.355,-53.223,1647.557,380.17531740715253
795,1686111640.66,-57.129,229.98,115.723,-85.938,1647.561,366.5448122661861
796,1686111640.67,-36.133,395.02,173.828,-31.25,1647.565,375.31985354038176
797,1686111640.67,5.371,45.898,41.992,14.648,1647.569,374.2414653708806
798,1686111640.67,-16.113,-357.91,-128.906,-35.156,1647.573,374.21129935290116
799,1686111640.68,-57.617,-203.613,-56.641,-98.633,1647.577,373.17767169591116
800,1686111640.68,-37.598,296.875,166.504,-56.152,1647.581,378.5658974039024
801,1686111640.68,20.508,52.734,16.113,35.156,1647.585,377.23115592382015
802,1686111640.69,15.625,-850.098,-343.75,19.531,1647.588,382.4435161123445
803,1686111640.69,-34.18,-259.766,-5.371,-69.824,1647.592,369.7302156370162
804,1686111640.7,-39.551,300.293,143.555,-66.406,1647.595,384.7085642713284
805,1686111640.7,-4.395,37.598,34.18,16.602,1647.599,374.9642426593058
806,1686111640.71,0.488,210.449,132.812,14.16,1647.603,375.464605570592
807,1686111640.71,-33.691,353.027,122.07,-66.895,1647.607,373.811574811374
808,1686111640.72,-52.734,154.297,74.219,-78.125,1647.611,373.54004684507646
809,1686111640.72,-24.414,-435.059,-179.688,4.395,1647.615,372.8945939352036
810,1686111640.72,8.789,-425.781,-87.402,39.062,1647.619,376.02474456777935
811,1686111640.73,-22.461,12.695,90.82,-32.227,1647.623,378.097240667067
812,1686111640.73,-64.453,102.539,32.227,-78.125,1647.627,375.6999198934261
813,1686111640.74,-47.363,-705.078,-272.461,-16.113,1647.63,370.45518961597645
814,1686111640.74,-25.391,-719.238,-145.996,25.391,1647.634,374.2287702759405
815,1686111640.74,-68.359,209.473,49.805,-83.984,1647.64,376.1449410744881
816,1686111640.74,-35.156,292.969,188.965,-24.414,1647.638,376.1172723090561
817,1686111640.75,-57.129,-30.273,11.719,-48.34,1647.644,378.46048490851564
818,1686111640.75,-3.906,339.355,164.062,22.949,1647.647,384.1094580954542
819,1686111640.75,1.465,473.633,175.293,2.93,1647.651,379.98828618030296
820,1686111640.76,-41.504,121.582,-22.461,-69.824,1647.655,375.6248792799899
821,1686111640.76,-63.477,-306.152,-113.77,-68.359,1647.659,380.1106357181358
822,1686111640.77,-17.578,-117.188,83.008,8.789,1647.663,380.4374904395276
823,1686111640.77,20.02,398.926,189.453,16.602,1647.667,373.4769456234148
824,1686111640.77,-15.625,-37.109,-80.078,-62.012,1647.671,376.47030504341114
825,1686111640.78,-47.363,-629.883,-178.223,-83.008,1647.675,376.93751573996906
826,1686111640.78,-11.23,23.926,96.191,-13.184,1647.679,379.65615463526575
827,1686111640.78,20.996,213.867,73.242,18.555,1647.683,376.95497992409054
828,1686111640.78,-12.207,-293.945,-96.68,-37.598,1647.683,380.5706356278946
829,1686111640.79,-51.27,-245.117,12.207,-93.262,1647.687,377.8676610686068
830,1686111640.79,-31.738,263.672,176.758,-46.387,1647.691,375.44575485800243
831,1686111640.8,6.348,344.727,141.113,29.297,1647.695,377.6304301509697
832,1686111640.8,-2.93,-93.262,-68.359,-10.742,1647.699,379.3765102078693
833,1686111640.8,-46.387,-346.68,-200.684,-85.449,1647.703,376.38877804831833
834,1686111640.81,-48.828,-223.633,-74.219,-56.152,1647.707,384.0028671643674
835,1686111640.81,-10.254,0.0,83.496,10.254,1647.711,372.93658518244797
836,1686111640.82,-8.789,-583.008,-275.879,1.465,1647.715,372.10371740774076
837,1686111640.82,-46.387,-839.355,-305.664,-71.777,1647.718,383.777602646262
838,1686111640.82,-46.875,101.562,113.77,-78.613,1647.722,371.1216152542517
839,1686111640.83,-9.766,340.82,164.551,-4.883,1647.726,358.0584731737156
840,1686111640.83,2.93,175.293,143.555,14.16,1647.731,377.7644999996961
841,1686111640.84,-30.762,105.957,51.27,-51.27,1647.735,385.4924024207381
842,1686111640.84,-53.711,-83.008,-17.578,-76.172,1647.739,376.85871641027694
843,1686111640.84,-18.066,-161.621,5.859,-16.113,1647.743,383.0139217427196
844,1686111640.85,18.555,-158.691,35.156,28.32,1647.747,380.6985253261115
845,1686111640.85,-5.371,-127.93,-3.418,-20.508,1647.751,379.8016282804406
846,1686111640.86,-43.457,-56.152,-15.137,-86.426,1647.755,378.59477852097075
847,1686111640.86,-30.762,-95.703,-43.945,-45.41,1647.759,374.08559856955384
848,1686111640.86,1.465,-515.625,-90.82,34.18,1647.763,378.45700304612933
849,1686111640.87,3.418,143.555,152.832,-3.906,1647.766,381.19996202323114
850,1686111640.87,-39.551,401.855,112.793,-84.961,1647.77,378.9072863714084
851,1686111640.87,-52.246,-27.832,-16.602,-78.613,1647.774,377.5244474235591
852,1686111640.89,-10.742,190.43,118.164,0.488,1647.787,375.6581112274711
853,1686111640.89,-1.465,494.141,205.078,6.348,1647.791,375.5387018748122
854,1686111640.9,-43.945,339.844,112.305,-70.312,1647.795,375.747823080415
855,1686111640.9,-70.801,-202.148,-145.02,-77.637,1647.799,373.04389714076524
856,1686111640.91,-28.32,-150.879,0.0,2.93,1647.803,384.3360765166352
857,1686111640.91,6.348,61.523,119.141,43.457,1647.807,373.5135441833517
858,1686111640.91,-17.09,-100.586,-6.348,-24.414,1647.811,387.52718410276987
859,1686111640.92,-51.758,-722.168,-371.094,-72.754,1647.815,378.2180340861218
860,1686111640.92,-34.668,-1000.0,-436.523,-12.695,1647.818,373.68453268798464
861,1686111640.92,7.324,-45.41,135.742,28.32,1647.822,381.8135074484236
862,1686111640.93,3.906,338.379,151.367,-24.902,1647.826,374.67664518270163
863,1686111640.93,-36.621,-2.93,-26.367,-88.379,1647.83,376.66895530278475
864,1686111640.94,-28.809,279.297,154.297,-58.594,1647.834,380.931376713116
865,1686111640.94,14.648,513.184,198.242,12.695,1647.838,379.5138534736464
866,1686111640.94,14.16,304.199,96.191,-4.395,1647.842,379.40982119275503
867,1686111640.95,-23.926,87.891,49.316,-71.777,1647.845,382.1520131231597
868,1686111640.95,-28.32,190.43,93.262,-64.941,1647.849,381.0180104070562
869,1686111640.96,9.277,106.445,79.102,4.883,1647.853,385.2588469485583
870,1686111640.96,18.555,-204.102,-33.691,16.602,1647.857,387.40874795016333
871,1686111640.96,-20.996,-369.141,-91.309,-60.547,1647.861,384.4920081123007
872,1686111640.96,-39.062,-217.285,1.953,-81.055,1647.876,378.79195284829933
873,1686111640.97,-39.551,43.457,89.355,-88.379,1647.865,382.4208773442351
874,1686111640.97,-15.137,374.023,206.543,-23.926,1647.879,381.7012327862257
875,1686111640.97,-10.742,476.562,226.074,-12.695,1647.869,383.66219422401804
876,1686111640.97,17.578,69.336,36.621,40.527,1647.883,376.540002991399
877,1686111640.98,15.137,64.453,15.137,31.738,1647.873,377.6901150515018
878,1686111640.98,11.23,236.328,125.977,-0.488,1647.887,385.9235987036585
879,1686111640.98,-15.137,-842.773,-373.535,-27.832,1647.877,378.4025838678258
880,1686111640.98,-30.273,251.953,101.074,-73.242,1647.891,378.36215274833813
881,1686111640.98,-33.203,-78.613,2.441,-41.016,1647.895,378.68317849954474
882,1686111640.99,3.418,-243.164,-26.367,37.109,1647.899,381.9527888747421
883,1686111640.99,7.812,-81.543,47.852,12.695,1647.903,378.15179810432744
884,1686111641.0,-27.344,245.117,121.582,-64.453,1647.907,379.98095870040856
885,1686111641.0,-38.574,201.66,115.723,-65.918,1647.911,376.8657021306354
886,1686111641.0,-13.672,-682.129,-268.066,16.602,1647.915,372.3190450929757
887,1686111641.01,-0.488,-1000.0,-362.793,36.133,1647.919,379.6651963004151
888,1686111641.03,-29.785,-84.473,70.801,-56.641,1647.924,375.31462769680803
889,1686111641.03,-40.527,199.707,107.422,-83.984,1647.928,370.2515055603428
890,1686111641.03,1.465,39.062,84.473,-7.812,1647.932,380.8485884160701
891,1686111641.04,15.625,392.09,179.199,22.949,1647.936,381.2756331179152
892,1686111641.04,-17.09,438.965,143.555,-37.598,1647.94,377.3423689881713
893,1686111641.05,-51.27,-164.551,-70.312,-79.59,1647.944,368.8328514946488
894,1686111641.05,-46.875,-536.621,-96.68,-26.367,1647.948,366.9239501142024
895,1686111641.05,0.488,53.711,135.254,37.109,1647.951,377.67979986424126
896,1686111641.06,5.371,405.762,158.691,-6.348,1647.955,377.49281799145723
897,1686111641.06,-49.316,1.465,-32.715,-87.402,1647.959,381.89891028546003
898,1686111641.06,-56.152,-57.617,61.523,-66.895,1647.963,374.87307678927743
899,1686111641.07,-4.395,332.031,178.223,4.395,1647.967,374.9513313542447
900,1686111641.07,11.719,169.434,26.855,-8.301,1647.981,377.641867193939
901,1686111641.07,-39.551,-337.891,-126.953,-71.289,1647.985,381.6591518708208
902,1686111641.08,-70.312,-224.121,23.926,-75.195,1647.989,380.37991503485375
903,1686111641.08,-36.133,353.027,194.336,-6.836,1647.993,368.4439946548698
904,1686111641.09,-2.441,267.09,108.887,16.113,1647.997,382.12021434789085
905,1686111641.09,-22.949,-342.285,-187.988,-46.875,1648.0,378.1665647793802
906,1686111641.09,-44.434,-468.262,-214.844,-68.848,1648.004,382.54724322807624
907,1686111641.1,-17.578,-124.023,44.922,-4.883,1648.008,383.20979259322246
908,1686111641.1,13.672,229.492,162.598,27.344,1648.012,371.95383930868314
909,1686111641.1,-14.648,-578.125,-277.344,-14.16,1648.016,375.13182369444485
910,1686111641.11,-61.035,-724.121,-198.73,-72.266,1648.02,376.41588704687723
911,1686111641.11,-41.504,240.723,201.66,-38.574,1648.024,371.98831584470776
912,1686111641.12,5.371,328.613,147.461,32.715,1648.015,376.81270036348405
913,1686111641.12,8.789,163.086,106.934,5.859,1648.019,376.8760688992084
914,1686111641.12,-32.227,110.352,64.941,-61.035,1648.023,374.1928581434327
915,1686111641.13,-45.898,24.414,40.527,-47.852,1648.027,372.4421979991966
916,1686111641.13,-2.93,58.105,33.691,18.066,1648.031,378.9208570129302
917,1686111641.14,9.766,-323.242,-67.871,10.254,1648.034,381.1098314810008
918,1686111641.14,-25.391,-318.359,-36.133,-65.918,1648.038,371.6878757272085
919,1686111641.14,-45.898,162.598,81.543,-79.102,1648.042,378.45327423183033
920,1686111641.15,-20.02,-35.156,-24.414,-0.488,1648.046,377.24425858706275
921,1686111641.15,17.09,-550.293,-99.609,33.691,1648.05,375.32657516670156
922,1686111641.16,-2.441,79.102,132.324,-35.645,1648.054,377.9220504110034
923,1686111641.16,-37.109,312.012,110.352,-76.172,1648.058,373.4463444822919
924,1686111641.16,-16.602,-88.379,-13.672,-13.672,1648.057,378.47651658071254
925,1686111641.16,16.113,137.207,100.586,44.922,1648.061,374.1532080983925
926,1686111641.17,-12.695,416.992,167.48,-3.906,1648.065,380.9870360122125
927,1686111641.17,-61.523,241.699,72.754,-77.637,1648.069,378.30015755476825
928,1686111641.18,-54.688,-165.527,-82.52,-43.945,1648.073,371.6162040037042
929,1686111641.18,-12.207,-199.219,16.602,17.09,1648.077,375.2379636427566
930,1686111641.18,-6.348,-80.566,42.48,-17.578,1648.081,381.2306068486067
931,1686111641.19,-39.062,-217.773,-104.98,-83.496,1648.085,374.8711909121343
932,1686111641.19,-55.176,-772.461,-365.234,-64.453,1648.089,379.14869435644573
933,1686111641.2,-39.062,-1000.0,-424.316,16.113,1648.093,372.29807093668387
934,1686111641.2,-14.16,-12.695,102.051,11.23,1648.096,373.49952128258144
935,1686111641.2,-37.598,335.938,145.02,-65.918,1648.1,377.9906445208501
936,1686111641.22,-82.031,8.301,-5.859,-83.008,1648.119,373.43247049553935
937,1686111641.23,-50.293,338.379,176.758,-16.602,1648.123,379.17611279690095
938,1686111641.23,0.977,489.258,174.316,16.602,1648.127,380.4771685292304
939,1686111641.23,-15.625,194.824,19.531,-41.992,1648.131,376.1391656976084
940,1686111641.24,-54.688,3.906,-40.039,-82.031,1648.135,373.2553805823337
941,1686111641.24,-32.227,-61.035,2.441,-26.855,1648.139,378.1030682516719
942,1686111641.25,18.555,23.438,91.797,28.809,1648.143,377.8581366589241
943,1686111641.25,-4.883,-156.738,-47.363,-10.742,1648.146,372.4946543160123
944,1686111641.25,-42.48,3.906,26.855,-64.453,1648.161,371.26299947422615
945,1686111641.25,-62.988,-810.059,-363.77,-73.73,1648.15,382.19254816810945
946,1686111641.25,-58.594,172.852,99.609,-67.383,1648.165,387.56910039640536
947,1686111641.26,-40.527,-125.977,27.344,-47.363,1648.154,375.2077218238052
948,1686111641.26,-18.066,234.863,128.906,3.418,1648.169,369.83727836686984
949,1686111641.26,14.648,556.152,247.559,30.762,1648.158,374.2350626007803
950,1686111641.26,6.348,92.285,36.133,17.578,1648.173,379.2800537094903
951,1686111641.26,6.836,153.809,12.695,18.555,1648.162,377.29069965300135
952,1686111641.27,-28.32,26.855,20.996,-49.316,1648.177,378.3347792370345
953,1686111641.27,-49.805,-66.895,14.16,-70.801,1648.181,377.3798065673037
954,1686111641.27,-21.973,-177.246,-12.207,-5.371,1648.185,377.998362380815
955,1686111641.28,8.789,-347.656,-157.715,33.691,1648.189,370.5825383526783
956,1686111641.28,-0.488,-2.93,12.207,-24.902,1648.192,378.5782910585499
957,1686111641.28,-40.039,270.996,124.023,-69.336,1648.196,377.0742603578387
958,1686111641.29,-19.043,98.145,51.758,-20.508,1648.2,377.7752704863871
959,1686111641.29,15.137,-687.5,-267.578,37.109,1648.204,379.867534872312
960,1686111641.3,-4.883,-1000.0,-378.906,-7.812,1648.206,376.58252699519585
961,1686111641.3,-33.203,-114.258,25.879,-89.844,1648.21,375.8363854741225
962,1686111641.3,-34.18,135.742,94.238,-62.012,1648.214,373.67560705317624
963,1686111641.31,4.883,85.938,116.211,14.16,1648.218,371.1323683563084
964,1686111641.31,18.066,348.633,156.738,-0.488,1648.222,376.5562124832894
965,1686111641.32,-35.156,113.281,32.227,-74.707,1648.226,380.3702293289802
966,1686111641.32,-69.336,-321.777,-142.09,-75.684,1648.229,375.7240240870337
967,1686111641.32,-27.344,-552.246,-110.352,-1.953,1648.233,381.2010431926391
968,1686111641.33,-1.465,126.953,175.293,7.324,1648.237,377.55358584680994
969,1686111641.33,-34.18,440.918,143.555,-58.594,1648.241,380.39983993766964
970,1686111641.34,-64.453,-61.523,-55.176,-89.355,1648.245,377.0460683421464
971,1686111641.34,-25.391,-88.867,59.57,-21.484,1648.249,370.2826721254794
972,1686111641.34,22.461,355.957,170.41,22.949,1648.244,380.61430898596694
973,1686111641.34,-8.301,139.648,12.207,-39.062,1648.247,372.8075752085085
974,1686111641.35,-62.012,-416.992,-171.875,-87.891,1648.251,374.54183617976696
975,1686111641.35,-55.176,-141.113,36.621,-38.574,1648.255,376.0605373932446
976,1686111641.36,-8.789,306.641,179.199,29.785,1648.259,382.62001267656103
977,1686111641.36,-6.348,-15.625,0.977,4.395,1648.263,379.9719339347229
978,1686111641.36,-61.523,-713.379,-362.793,-80.566,1648.267,379.79701418556976
979,1686111641.37,-79.102,-699.219,-189.453,-83.008,1648.271,378.3199385393005
980,1686111641.37,-18.555,317.383,247.07,-1.465,1648.275,383.7222100780521
981,1686111641.38,0.488,365.723,101.562,6.348,1648.279,377.42382090882757
982,1686111641.38,-44.922,-194.824,-50.781,-79.59,1648.283,378.5457210932772
983,1686111641.38,-61.523,97.168,87.402,-93.75,1648.287,382.692375065627
984,1686111641.4,-18.555,471.68,191.895,-7.812,1648.297,378.458467977298
985,1686111641.4,18.555,322.266,97.168,33.691,1648.301,381.76461724658014
986,1686111641.41,-17.578,92.285,5.371,-32.715,1648.305,370.9071398957537
987,1686111641.41,-43.457,0.0,-21.973,-75.684,1648.309,376.0906915014699
988,1686111641.42,-23.926,-7.324,22.949,-18.066,1648.313,373.9112885578674
989,1686111641.42,2.93,-113.281,0.0,41.504,1648.317,376.11730261432854
990,1686111641.42,-18.555,-809.57,-333.008,-4.395,1648.321,369.59782916317414
991,1686111641.43,-56.641,-383.301,-80.566,-80.566,1648.325,373.64168268804264
992,1686111641.43,-39.551,260.742,145.996,-46.387,1648.329,379.4173617888371
993,1686111641.44,6.836,136.719,58.594,21.484,1648.333,377.5305615756387
994,1686111641.44,7.324,181.152,98.633,3.418,1648.337,374.6677895209854
995,1686111641.44,-37.109,321.289,122.07,-63.965,1648.34,381.75510190732774
996,1686111641.45,-63.477,252.93,98.145,-67.383,1648.343,374.990045037666
997,1686111641.45,-14.16,40.039,17.09,4.883,1648.347,373.10180069673186
998,1686111641.45,18.555,194.336,92.773,20.508,1648.351,368.8290561702315
999,1686111641.46,-27.832,361.328,126.953,-53.711,1648.355,378.6497364631264
1000,1686111641.46,-44.922,115.723,27.344,-84.961,1648.359,368.80515401784595
1001,1686111641.47,-22.461,-512.695,-204.59,-13.672,1648.362,373.4861246045774
1002,1686111641.47,-1.465,-464.844,-91.309,25.391,1648.366,377.39076823880987
1003,1686111641.47,-23.926,-129.883,32.227,-37.109,1648.37,378.9495077613037
1004,1686111641.48,-62.5,-204.59,-102.539,-90.332,1648.374,375.5546002649945
1005,1686111641.48,-45.898,-737.305,-318.848,-37.598,1648.378,372.16434074217955
1006,1686111641.48,-9.277,-611.816,-104.004,23.438,1648.382,381.25775240054304
1007,1686111641.49,-6.836,319.336,194.336,-18.555,1648.386,379.07228591419283
1008,1686111641.49,-38.086,215.332,26.855,-81.055,1648.39,372.3510865837508
1009,1686111641.5,-42.969,-15.625,15.137,-57.129,1648.394,378.10127043946824
1010,1686111641.5,3.906,340.332,167.48,17.09,1648.398,380.2128003525546
1011,1686111641.5,9.277,434.57,156.738,5.859,1648.402,376.86800877222316
1012,1686111641.51,-47.852,162.109,19.531,-75.684,1648.406,381.8777779505623
1013,1686111641.51,-65.43,-215.332,-99.121,-79.59,1648.409,372.1717475880625
1014,1686111641.52,-20.996,-42.969,68.359,-6.836,1648.413,375.998541242496
1015,1686111641.52,11.719,454.59,203.125,14.648,1648.417,380.19232543318634
1016,1686111641.52,-32.227,11.719,-75.195,-52.734,1648.421,368.44028475860574
1017,1686111641.53,-70.801,-876.465,-394.043,-78.613,1648.425,375.2488230440326
1018,1686111641.53,-29.297,-129.883,54.199,-16.602,1648.429,376.2868204173363
1019,1686111641.54,13.184,569.824,245.605,20.508,1648.433,378.4787351693226
1020,1686111641.54,-16.602,106.445,-34.668,-41.992,1648.432,379.4250265091821
1021,1686111641.54,-58.594,13.672,5.371,-97.656,1648.436,374.5515630612031
1022,1686111641.54,-33.691,336.426,155.273,-42.969,1648.44,380.924956532941
1023,1686111641.55,2.441,416.504,165.039,17.578,1648.444,378.15294239203064
1024,1686111641.55,-8.301,-19.043,-59.082,-9.277,1648.448,368.46362567171616
1025,1686111641.56,-45.898,-324.707,-182.617,-76.172,1648.452,368.55293654357223
1026,1686111641.56,-54.199,-228.516,-47.363,-62.5,1648.456,378.1926233476479
1027,1686111641.56,-5.371,-20.02,75.195,17.09,1648.46,372.3069755064843
1028,1686111641.57,8.301,-540.527,-274.902,16.113,1648.464,382.0643789540802
1029,1686111641.57,-39.062,-966.797,-405.762,-58.105,1648.467,377.0847896572567
1030,1686111641.57,-47.852,-19.043,92.773,-70.801,1648.471,372.73516684234204
1031,1686111641.58,-12.207,182.617,79.59,-2.441,1648.475,377.01425583505534
1032,1686111641.58,-6.348,-332.031,-79.102,10.742,1648.484,378.40372487274783
1033,1686111641.59,-33.203,119.629,105.469,-56.641,1648.488,376.27230826151845
1034,1686111641.59,-59.57,389.648,135.742,-87.891,1648.492,376.31216933656543
1035,1686111641.6,-38.086,207.52,117.676,-26.855,1648.495,376.07206875142606
1036,1686111641.6,-4.395,173.34,173.828,19.531,1648.499,369.3241363182768
1037,1686111641.6,-22.461,-21.973,37.598,-28.32,1648.503,378.67169565142905
1038,1686111641.61,-53.711,-20.508,37.109,-87.891,1648.507,374.1299515621475
1039,1686111641.61,-41.016,-58.105,0.488,-57.617,1648.511,381.35885267508235
1040,1686111641.61,-2.441,-596.68,-130.859,21.484,1648.515,381.8591911634001
1041,1686111641.62,0.977,36.621,127.441,-13.184,1648.519,368.764566752802
1042,1686111641.62,-38.086,418.945,132.812,-90.82,1648.523,382.2229497069346
1043,1686111641.63,-50.781,21.484,-40.039,-61.523,1648.527,388.474161534569
1044,1686111641.64,-16.113,191.895,98.145,22.949,1648.541,382.9041063582797
1045,1686111641.64,-0.977,413.086,176.27,21.484,1648.545,372.9927278809682
1046,1686111641.65,-40.527,-16.602,-76.66,-68.848,1648.549,374.64275985305676
1047,1686111641.65,-58.594,-401.855,-256.348,-85.449,1648.552,381.04437834424357
1048,1686111641.66,-17.578,-50.781,16.113,-10.742,1648.556,373.20483101674125
1049,1686111641.66,10.742,90.332,105.957,14.648,1648.56,375.144821738161
1050,1686111641.66,-16.602,-163.574,-63.965,-48.34,1648.564,374.92162075166823
1051,1686111641.67,-48.828,-736.816,-392.578,-72.754,1648.568,373.52904877242963
1052,1686111641.67,-38.574,270.996,132.324,-40.039,1648.584,380.40499876115837
1053,1686111641.67,-39.551,-1000.0,-414.551,-14.16,1648.572,379.783593530751
1054,1686111641.68,-7.812,-5.371,112.305,21.484,1648.576,379.3328514960796
1055,1686111641.68,3.906,459.473,178.223,25.879,1648.588,376.3936615860751
1056,1686111641.68,-10.254,381.348,137.695,-10.254,1648.58,372.0381634337332
1057,1686111641.68,8.301,273.926,105.957,-2.93,1648.591,376.62474887164194
1058,1686111641.68,-48.828,-60.547,-32.715,-62.988,1648.584,384.870495847309
1059,1686111641.68,-43.945,128.418,27.832,-88.379,1648.595,379.4404862405331
1060,1686111641.69,-67.383,156.25,77.148,-70.312,1648.599,378.6587345630297
1061,1686111641.69,-16.602,88.867,89.355,11.719,1648.603,370.68859951160147
1062,1686111641.7,12.695,-95.215,18.555,20.996,1648.607,374.87556397541323
1063,1686111641.7,-30.762,-94.238,-12.207,-57.617,1648.611,375.9782084872695
1064,1686111641.7,-52.734,192.383,107.91,-82.52,1648.615,378.1124828020362
1065,1686111641.71,-19.043,464.355,204.59,-7.812,1648.619,382.65236565793117
1066,1686111641.71,7.324,105.469,22.461,30.762,1648.623,380.6285018255647
1067,1686111641.72,-24.414,-831.055,-312.5,-25.391,1648.627,378.7962676031421
1068,1686111641.73,-54.688,-223.145,1.953,-77.148,1648.628,371.66747092729076
1069,1686111641.74,-23.438,390.137,178.223,-18.066,1648.632,373.7542280640168
1070,1686111641.74,12.207,73.242,19.531,44.922,1648.636,382.19158107123206
1071,1686111641.74,-1.953,221.68,112.305,-6.348,1648.64,380.39115835338663
1072,1686111641.75,-43.945,245.117,109.863,-78.613,1648.644,384.11255671110376
1073,1686111641.75,-41.504,-36.133,8.789,-59.57,1648.648,374.33159261170687
1074,1686111641.76,-6.836,-589.844,-229.98,27.832,1648.651,378.6228745069346
1075,1686111641.76,-2.93,-822.754,-201.172,19.531,1648.655,379.09261115144034
1076,1686111641.76,-25.879,-101.074,82.52,-66.895,1648.659,373.9803749066251
1077,1686111641.77,-29.785,217.285,77.637,-58.594,1648.663,369.4311117203267
1078,1686111641.77,-3.906,-373.535,-163.574,14.16,1648.667,377.9095464468051
1079,1686111641.77,-4.883,-28.809,29.785,16.602,1648.671,376.89565350209216
1080,1686111641.78,-37.598,482.91,185.059,-59.57,1648.673,377.90865863592796
1081,1686111641.78,-72.754,203.125,50.781,-89.844,1648.677,381.20344902904947
1082,1686111641.78,-47.363,113.77,78.125,-16.602,1648.681,377.8068574831638
1083,1686111641.79,2.93,415.039,182.129,36.621,1648.685,374.7131542540973
1084,1686111641.79,-16.602,390.137,128.418,-18.555,1648.689,376.5696346024826
1085,1686111641.8,-58.105,-93.262,-35.645,-77.637,1648.693,375.45064448212173
1086,1686111641.8,-31.738,-140.625,0.977,-21.973,1648.696,376.6287527037079
1087,1686111641.8,13.184,322.266,176.27,49.316,1648.7,370.371497451114
1088,1686111641.81,-8.301,508.789,191.895,-5.371,1648.704,378.03899463800565
1089,1686111641.81,-51.27,-37.598,-62.012,-77.637,1648.708,379.84199142108264
1090,1686111641.82,-49.805,-877.93,-333.008,-48.34,1648.712,372.2882854498531
1091,1686111641.82,0.977,-117.188,76.172,12.207,1648.716,375.56930789402907
1092,1686111641.82,14.648,503.418,207.031,3.906,1648.718,379.4497916755585
1093,1686111641.82,-32.715,4.395,-66.406,-52.734,1648.722,373.71695572421123
1094,1686111641.83,-56.152,31.738,35.645,-74.219,1648.725,386.0883132574165
1095,1686111641.83,-21.484,445.312,216.309,-15.137,1648.729,372.69095378826887
1096,1686111641.84,6.348,413.574,144.043,15.625,1648.733,381.4726624959132
1097,1686111641.84,-30.273,-356.445,-213.379,-55.176,1648.737,377.99010193644096
1098,1686111641.84,-68.359,-582.52,-245.117,-104.98,1648.741,376.5386832424831
1099,1686111641.85,-22.949,-62.012,38.574,-35.156,1648.745,374.6353019420883
1100,1686111641.85,22.949,316.895,168.457,22.949,1648.749,375.79822494743553
1101,1686111641.86,-16.602,-484.375,-260.254,-28.809,1648.753,369.67098618530844
1102,1686111641.86,-65.43,-580.566,-184.57,-83.984,1648.757,369.8949051947303
1103,1686111641.86,-53.223,282.715,195.801,-45.41,1648.761,370.6422891598153
1104,1686111641.87,-11.719,132.324,45.898,14.16,1648.765,382.09502441860633
1105,1686111641.87,-24.414,-375.0,-76.172,-14.648,1648.769,377.75292276932606
1106,1686111641.88,-68.359,19.043,86.914,-84.961,1648.773,373.71149344289364
1107,1686111641.88,-63.965,328.125,133.301,-81.543,1648.777,380.30991145733856
1108,1686111641.88,-19.043,177.246,85.938,-5.859,1648.781,374.9932497970169
1109,1686111641.89,-13.672,-94.238,32.715,-3.418,1648.785,379.0397979356101
1110,1686111641.89,-53.223,-167.969,-25.879,-81.543,1648.789,372.4601090931393
1111,1686111641.89,-62.012,71.777,51.27,-89.844,1648.792,373.342042384256
1112,1686111641.9,-31.25,-102.051,-0.977,-11.719,1648.796,388.84168930326354
1113,1686111641.9,-2.441,-702.637,-226.562,25.391,1648.8,376.5651884433028
1114,1686111641.91,-23.438,-104.492,19.043,-44.434,1648.804,382.40642996216206
1115,1686111641.91,-47.852,317.383,130.859,-84.473,1648.808,371.67663340641496
1116,1686111641.91,-23.438,13.672,18.555,-22.461,1648.808,375.314024903235
1117,1686111641.91,9.766,226.074,127.441,34.18,1648.812,369.4597462423905
1118,1686111641.92,-6.836,330.078,127.441,-19.043,1648.815,378.08211140350426
1119,1686111641.92,-44.434,-51.758,-71.777,-80.078,1648.819,377.3028160093841
1120,1686111641.93,-35.156,-452.148,-232.91,-42.48,1648.823,379.15620896525326
1121,1686111641.93,0.977,-312.5,-21.484,21.484,1648.827,377.51104601565197
1122,1686111641.93,-0.977,-96.68,63.965,-2.93,1648.831,382.27178211457306
1123,1686111641.94,-32.715,-199.707,-51.758,-65.43,1648.835,373.9946974661155
1124,1686111641.94,-46.387,-708.496,-347.656,-48.828,1648.839,381.9120046537192
1125,1686111641.94,-10.254,-793.945,-251.953,20.996,1648.843,380.7237285521362
1126,1686111641.95,18.066,248.047,202.148,17.578,1648.847,377.72716288533195
1127,1686111641.95,-16.113,326.66,94.727,-64.941,1648.851,371.0496627969271
1128,1686111641.96,-49.316,-74.707,-9.766,-89.844,1648.855,382.2095636445457
1129,1686111641.96,-18.066,313.477,173.828,-20.508,1648.859,375.58052930936736
1130,1686111641.96,8.789,550.293,201.66,18.555,1648.862,375.67929551752434
1131,1686111641.97,-20.996,235.84,29.785,-37.598,1648.866,383.31883108227413
1132,1686111641.97,-49.805,-35.645,-32.715,-79.59,1648.87,385.1681381108105
1133,1686111641.98,-24.414,-76.66,40.039,-28.32,1648.874,374.43549135482317
1134,1686111641.98,19.531,11.23,106.445,23.926,1648.878,374.399630701192
1135,1686111641.98,-1.953,-191.406,-58.594,-14.648,1648.882,372.2823629162761
1136,1686111641.99,-59.57,-844.727,-379.883,-80.566,1648.886,387.9277667834085
1137,1686111641.99,-52.734,-224.609,16.602,-60.059,1648.89,376.1541274411495
1138,1686111642.0,6.836,485.352,241.211,19.531,1648.894,373.54101778831813
1139,1686111642.0,18.555,204.102,31.738,19.043,1648.898,372.52632799850903
1140,1686111642.0,-31.738,137.695,55.664,-66.895,1648.897,375.55583880837395
1141,1686111642.0,-53.223,349.121,155.762,-73.73,1648.901,381.5031993588519
1142,1686111642.01,-20.508,366.211,128.418,9.277,1648.905,370.7853024675062
1143,1686111642.01,-10.742,79.59,27.344,20.02,1648.909,376.5228104370867
1144,1686111642.02,-40.039,13.184,35.156,-53.711,1648.913,379.22037826474354
1145,1686111642.02,-64.453,-143.555,-41.992,-86.426,1648.917,373.31795159175437
1146,1686111642.02,-22.949,-124.512,40.039,-21.973,1648.921,369.1450941056119
1147,1686111642.03,10.254,-545.898,-251.953,27.832,1648.925,371.766448578982
1148,1686111642.03,-29.785,-1000.0,-461.914,-29.785,1648.928,370.62467653877576
1149,1686111642.04,-51.27,-217.285,21.973,-85.938,1648.932,383.5518265801596
1150,1686111642.04,-28.809,265.137,165.527,-35.156,1648.936,378.42919424701034
1151,1686111642.04,4.395,104.492,91.797,25.391,1648.94,373.964180020586
1152,1686111642.05,-3.906,278.809,132.812,-14.16,1648.944,376.9506703643567
1153,1686111642.05,-43.457,367.676,119.629,-82.031,1648.948,377.67900025494765
1154,1686111642.06,-46.875,201.66,104.492,-60.059,1648.952,383.1073279414717
1155,1686111642.06,1.953,219.727,175.293,30.273,1648.956,372.39071526101037
1156,1686111642.06,15.137,382.812,173.34,16.113,1648.96,380.497704320779
1157,1686111642.07,-38.574,46.387,-3.418,-77.637,1648.964,377.45291001065675
1158,1686111642.07,-66.406,-358.887,-171.875,-77.637,1648.968,378.2762627755522
1159,1686111642.07,-27.832,-646.973,-175.293,10.254,1648.972,380.2682817828379
1160,1686111642.08,2.93,93.262,155.762,23.926,1648.976,378.3492455570167
1161,1686111642.08,-24.902,457.031,158.203,-43.945,1648.98,374.5664893761145
1162,1686111642.09,-53.223,-86.426,-53.711,-74.219,1648.984,374.80810812696353
1163,1686111642.09,12.695,387.207,198.73,24.414,1649.001,375.2728252669403
1164,1686111642.09,-25.879,-80.566,51.758,-20.508,1648.987,377.08250196168274
1165,1686111642.09,-8.789,251.953,67.871,-22.949,1649.005,370.6812455076361
1166,1686111642.1,-63.965,-382.812,-164.551,-81.055,1649.008,372.34006931152965
1167,1686111642.1,-59.57,-208.496,26.855,-42.969,1649.012,381.53271693360523
1168,1686111642.11,-4.883,310.547,189.453,21.484,1649.016,379.27359299212475
1169,1686111642.11,-2.93,88.379,53.711,-10.254,1649.02,378.2769366752743
1170,1686111642.11,-51.27,-664.551,-357.91,-80.566,1649.024,382.6530144421545
1171,1686111642.12,-65.43,-940.43,-414.551,-70.801,1649.028,377.43545596633135
1172,1686111642.12,-17.09,100.586,141.113,-2.441,1649.032,384.11143973685284
1173,1686111642.12,4.395,435.059,166.016,-1.465,1649.036,384.111813662043
1174,1686111642.13,-31.738,20.996,-6.348,-68.359,1649.04,381.0799532111943
1175,1686111642.13,-47.363,198.73,109.375,-76.66,1649.044,372.8463298996399
1176,1686111642.14,-7.812,447.754,174.805,-0.977,1649.047,368.6054301947852
1177,1686111642.14,21.973,127.93,19.531,30.273,1649.051,379.5577445082828
1178,1686111642.15,-20.02,-363.77,-49.316,-35.645,1649.055,371.43954686242085
1179,1686111642.15,-53.223,34.668,112.793,-78.613,1649.059,380.9326546596225
1180,1686111642.15,-31.25,418.945,191.895,-24.902,1649.063,382.9719597936988
1181,1686111642.16,2.441,-28.809,38.086,32.715,1649.067,374.31800125088984
1182,1686111642.16,-24.414,-545.898,-91.309,-23.438,1649.071,379.39981310608385
1183,1686111642.16,-54.688,-7.812,98.633,-98.633,1649.075,376.8192258827364
1184,1686111642.17,-36.133,369.141,151.367,-55.664,1649.078,370.4678037415367
1185,1686111642.17,8.789,131.348,71.289,29.297,1649.082,385.7336334151715
1186,1686111642.18,18.066,37.109,84.473,6.836,1649.086,377.29136793138673
1187,1686111642.18,-31.738,235.352,114.258,-76.66,1649.09,375.27759038607195
1188,1686111642.2,-44.434,236.328,106.934,-63.965,1649.092,371.90781348511337
1189,1686111642.2,-4.395,30.762,68.848,20.996,1649.096,378.93926632170536
1190,1686111642.2,16.602,169.922,134.766,26.855,1649.1,370.3510161499119
1191,1686111642.21,-23.438,144.531,67.871,-49.316,1649.104,383.9570560315618
1192,1686111642.21,-61.523,-175.293,-46.875,-64.941,1649.108,376.9946563639398
1193,1686111642.22,-44.434,-632.324,-269.043,13.184,1649.112,379.32231681703934
1194,1686111642.22,-12.207,-839.844,-253.906,33.691,1649.116,383.9463641465206
1195,1686111642.22,-26.367,-154.297,85.938,-40.039,1649.119,377.9827731475967
1196,1686111642.23,-58.105,110.352,67.383,-81.055,1649.123,376.23468531832407
1197,1686111642.23,-37.598,-523.438,-218.75,-19.531,1649.127,382.1913554366797
1198,1686111642.23,3.906,-131.348,38.086,33.691,1649.131,374.40532426436806
1199,1686111642.24,-12.695,475.098,223.633,-20.508,1649.135,376.4713383715859
1200,1686111642.24,-54.199,130.371,22.461,-87.891,1649.14,374.1696249384029
1201,1686111642.25,-40.039,-101.074,-2.441,-44.434,1649.144,381.13663223772005
1202,1686111642.25,14.16,267.09,138.184,44.434,1649.147,379.15328785216997
1203,1686111642.25,13.672,456.055,177.734,25.391,1649.151,380.4357473742743
1204,1686111642.26,-27.344,93.262,27.832,-49.805,1649.155,377.5502959167984
1205,1686111642.26,-51.27,-319.336,-125.0,-51.27,1649.159,374.82593925935134
1206,1686111642.27,-23.438,-225.098,25.391,21.484,1649.163,380.6630001773237
1207,1686111642.27,11.23,149.414,166.992,39.062,1649.167,382.098025916968
1208,1686111642.27,-20.02,-56.152,-67.871,-39.062,1649.171,386.70244347820255
1209,1686111642.28,-63.965,-846.191,-386.23,-70.312,1649.175,374.6512847135932
1210,1686111642.28,-42.48,-214.355,28.32,-14.16,1649.179,385.5351486111927
1211,1686111642.28,2.441,426.27,224.609,22.461,1649.183,372.5720875310078
1212,1686111642.29,-11.719,61.035,-14.16,-22.949,1649.182,373.555003754846
1213,1686111642.29,-52.734,60.059,30.762,-75.684,1649.186,372.58439486069085
1214,1686111642.29,-34.668,351.074,160.645,-29.297,1649.19,377.425247162143
1215,1686111642.3,10.742,392.09,155.273,34.668,1649.194,374.81417753456407
1216,1686111642.3,-2.441,-20.996,-23.926,-11.719,1649.198,377.86180332407855
1217,1686111642.31,-47.363,-264.648,-80.078,-71.777,1649.202,382.0750553353719
1218,1686111642.31,-41.992,-196.289,-1.465,-38.086,1649.206,374.5999326769879
1219,1686111642.31,10.742,-86.426,73.242,32.715,1649.209,378.9253570228096
1220,1686111642.32,21.484,-591.797,-294.434,24.902,1649.213,380.56494561001097
1221,1686111642.32,-28.32,-1000.0,-496.094,-50.781,1649.217,372.7925393791042
1222,1686111642.32,-44.922,-155.273,30.762,-78.125,1649.221,380.2246693941929
1223,1686111642.33,-5.371,328.613,206.543,-1.953,1649.225,374.9383987495975
1224,1686111642.35,16.113,164.062,132.812,29.297,1649.245,385.0566788160502
1225,1686111642.35,-21.484,278.809,139.16,-45.41,1649.249,371.4090043959551
1226,1686111642.36,-54.688,346.191,118.652,-86.426,1649.253,378.92703080837754
1227,1686111642.36,-20.508,274.414,138.184,-21.973,1649.257,374.4279537631256
1228,1686111642.36,12.207,219.238,158.691,31.25,1649.26,374.05359877311537
1229,1686111642.37,-15.137,-20.02,27.344,-26.855,1649.264,382.7196530853737
1230,1686111642.37,-60.547,-41.992,16.602,-97.168,1649.268,368.2964215609158
1231,1686111642.37,-40.527,-53.711,-19.043,-47.363,1649.272,382.89089805292235
1232,1686111642.38,-6.348,40.527,104.004,20.996,1649.273,383.6215153009547
1233,1686111642.38,-5.371,-567.383,-123.535,27.832,1649.276,381.525214142978
1234,1686111642.38,2.441,470.215,191.895,13.672,1649.277,371.7898376812385
1235,1686111642.38,-6.348,43.457,135.254,-1.465,1649.28,372.5001448414351
1236,1686111642.38,-52.734,320.801,85.449,-73.242,1649.281,380.90007442762095
1237,1686111642.39,-33.691,375.488,137.695,-65.43,1649.284,380.32963801024096
1238,1686111642.39,-73.73,-160.156,-116.699,-84.961,1649.285,375.0462947954597
1239,1686111642.39,-43.457,-106.445,-25.879,-51.758,1649.288,372.5708074822241
1240,1686111642.39,-31.738,-56.152,10.742,-3.906,1649.289,377.18870321598723
1241,1686111642.4,-12.207,100.586,124.512,14.16,1649.293,380.03410376676777
1242,1686111642.4,-40.527,-250.488,-102.539,-54.688,1649.297,372.29440302977616
1243,1686111642.4,-70.801,-588.867,-274.902,-92.285,1649.3,374.7646064858749
1244,1686111642.41,-37.598,-79.59,34.18,-33.691,1649.304,372.3460222261463
1245,1686111642.41,14.648,459.473,246.582,29.297,1649.308,379.53404421367844
1246,1686111642.41,-0.977,313.965,119.141,-15.625,1649.312,382.3798660359554
1247,1686111642.42,-56.152,-710.938,-350.098,-75.195,1649.316,377.259140045712
1248,1686111642.42,-51.27,-739.258,-173.828,-42.969,1649.332,370.0941737160645
1249,1686111642.43,3.906,267.09,222.168,28.809,1649.335,371.2913507426061
1250,1686111642.43,8.789,27.344,-2.441,15.625,1649.339,369.10160859135453
1251,1686111642.44,-35.645,-413.086,-60.547,-59.082,1649.343,377.2252723220793
1252,1686111642.44,-55.176,36.133,84.961,-62.5,1649.347,379.55459368864217
1253,1686111642.44,-10.742,185.059,125.488,14.648,1649.351,381.77327369900445
1254,1686111642.45,11.23,-129.395,-1.465,25.879,1649.355,374.16496307597544
1255,1686111642.45,-38.086,-651.855,-231.934,-55.176,1649.359,378.39755992726697
1256,1686111642.45,-50.781,-85.938,46.387,-88.379,1649.363,367.3066732065059
1257,1686111642.46,-13.672,451.66,196.777,-11.23,1649.367,384.07203140756326
1258,1686111642.46,6.348,209.473,87.402,28.809,1649.371,372.8949369026858
1259,1686111642.46,-41.992,282.227,144.043,-93.262,1649.376,378.5550369629104
1260,1686111642.47,-19.531,125.0,104.98,-42.969,1649.375,375.98547016895054
1261,1686111642.47,-7.812,322.754,133.789,-27.832,1649.38,375.2757544926808
1262,1686111642.47,19.043,74.219,47.363,34.18,1649.384,377.61300301850173
1263,1686111642.48,-11.719,135.742,101.074,-13.672,1649.388,370.15578696435455
1264,1686111642.48,-58.105,111.816,37.109,-74.707,1649.392,373.5459517269604
1265,1686111642.48,-68.848,-117.676,-9.766,-50.781,1649.396,378.7346022242064
1266,1686111642.49,-29.297,-568.359,-197.754,24.414,1649.399,373.3980032923149
1267,1686111642.49,-13.184,-827.637,-226.074,13.672,1649.403,379.51881516929114
1268,1686111642.5,-47.363,-67.871,103.516,-69.336,1649.407,379.4843538343601
1269,1686111642.5,-56.152,187.988,94.238,-62.988,1649.411,383.6502130335973
1270,1686111642.5,-15.137,-447.754,-178.711,14.16,1649.415,371.87403189709073
1271,1686111642.51,11.719,-36.621,53.711,21.973,1649.419,379.36282156196216
1272,1686111642.52,-17.578,447.754,187.988,-48.828,1649.423,377.5327249492718
1273,1686111642.53,-45.41,53.223,-18.555,-66.406,1649.427,372.6964816555403
1274,1686111642.53,-31.25,-81.055,16.602,-7.324,1649.431,375.01658226875804
1275,1686111642.54,-2.441,278.32,163.086,29.785,1649.435,368.79325038677115
1276,1686111642.54,-27.344,376.953,156.738,-33.691,1649.439,369.316414532649
1277,1686111642.54,-72.266,-196.289,-133.789,-90.82,1649.442,374.48444458909876
1278,1686111642.55,-48.828,-780.762,-316.406,-26.367,1649.446,378.0298917458477
1279,1686111642.55,-0.488,-295.898,4.395,37.109,1649.45,380.48915826626745
1280,1686111642.56,-5.859,291.992,175.293,-4.395,1649.454,377.17761802386553
1281,1686111642.56,-52.734,-65.918,-85.938,-75.684,1649.458,368.46855301165243
1282,1686111642.56,-51.27,-455.078,-98.633,-51.27,1649.462,382.9958644915437
1283,1686111642.57,1.465,197.266,174.316,34.668,1649.466,384.53313776983885
1284,1686111642.57,16.602,449.707,162.109,29.297,1649.467,379.42741569107017
1285,1686111642.57,-39.551,7.812,-50.293,-61.035,1649.471,374.70023742921546
1286,1686111642.58,-63.477,11.719,31.738,-77.637,1649.475,371.031962331846
1287,1686111642.58,-14.648,379.883,200.195,-0.977,1649.479,373.03064564093563
1288,1686111642.59,16.113,326.66,118.652,24.414,1649.483,378.261108478846
1289,1686111642.59,-13.184,-386.719,-193.359,-38.086,1649.487,381.82744103506195
1290,1686111642.59,-51.758,-618.164,-256.348,-70.801,1649.491,382.0571182424102
1291,1686111642.6,-31.25,-178.223,-41.992,-20.996,1649.495,376.42472943689324
1292,1686111642.6,9.766,203.613,132.812,28.32,1649.498,375.14513284805736
1293,1686111642.6,-14.16,-563.477,-276.367,-12.207,1649.502,374.6416406309365
1294,1686111642.61,-67.383,-726.562,-231.445,-75.195,1649.506,381.44561642149154
1295,1686111642.61,-55.176,237.305,197.754,-45.898,1649.51,378.5006195829882
