,timestamps,TP9,AF7,AF8,TP10,Secondary Timestamp,emg_signal
0,1686066544.41,48.34,404.785,166.992,27.832,849.303,325.5748373723633
1,1686066544.41,-63.477,-76.66,-13.672,-33.203,849.307,328.24647982303264
2,1686066544.42,-27.832,-296.875,-5.371,-24.902,849.311,328.4604699011033
3,1686066544.42,71.777,-83.496,103.516,18.066,849.314,322.94544926002146
4,1686066544.42,61.523,95.215,160.156,20.996,849.318,323.1247466305971
5,1686066544.43,-29.785,-502.441,-215.82,0.0,849.322,322.01159302449173
6,1686066544.43,-42.969,-994.629,-379.883,2.93,849.326,320.0901903862519
7,1686066544.43,49.805,-97.168,161.621,36.133,849.33,331.49941329187556
8,1686066544.44,81.543,483.887,218.262,59.57,849.334,330.42717781104045
9,1686066544.44,0.977,-279.785,-57.129,46.387,849.338,318.51173994998527
10,1686066544.45,-41.992,-379.395,18.555,38.086,849.342,330.554085990807
11,1686066544.45,38.574,350.586,224.609,70.312,849.346,330.3032324604523
12,1686066544.45,88.379,307.617,166.504,97.656,849.349,316.8730004013062
13,1686066544.46,17.578,8.789,77.637,69.824,849.353,327.6830421033897
14,1686066544.46,-42.969,59.082,104.004,42.48,849.357,324.10479230373346
15,1686066544.46,20.508,232.91,162.598,78.613,849.361,323.0221329676495
16,1686066544.47,107.422,220.703,128.906,121.582,849.365,334.4579302068914
17,1686066544.47,68.848,-166.016,18.066,109.375,849.369,338.4622499355265
18,1686066544.48,-19.531,-363.77,-43.945,65.918,849.373,313.1788093839159
19,1686066544.48,-0.488,-86.914,79.59,59.082,849.377,347.091116324594
20,1686066544.48,91.309,-28.32,17.578,98.145,849.38,330.46110013445275
21,1686066544.49,78.613,-695.801,-213.867,102.051,849.384,324.0512715505664
22,1686066544.49,-17.09,-370.605,39.551,61.523,849.388,326.44072883936
23,1686066544.5,-26.367,178.711,150.391,47.363,849.392,324.4528501961746
24,1686066544.5,70.312,79.102,137.695,76.66,849.394,324.2997720635605
25,1686066544.5,97.168,186.523,169.434,79.59,849.398,316.0127413088949
26,1686066544.5,3.906,16.113,76.66,33.203,849.402,308.82303098165085
27,1686066544.51,-38.086,-106.934,64.941,9.766,849.406,322.7452900676154
28,1686066544.51,41.016,-380.371,-54.199,37.109,849.41,332.58844114866884
29,1686066544.52,94.727,-577.637,-62.988,58.105,849.414,333.2517660821215
30,1686066544.52,25.391,10.742,171.387,25.391,849.418,332.31530959780963
31,1686066544.52,-46.875,226.562,117.188,0.488,849.422,338.5878970960775
32,1686066544.53,1.465,-501.465,-171.875,38.086,849.425,332.364168290423
33,1686066544.53,88.379,-587.402,-64.941,72.754,849.429,341.4842862614144
34,1686066544.54,57.617,334.473,264.648,42.48,849.433,335.96931605665
35,1686066544.54,-28.32,199.707,78.125,8.301,849.437,329.878592105796
36,1686066544.54,-6.348,-323.73,-63.965,20.996,849.439,324.07583136568627
37,1686066544.55,90.332,34.668,142.09,51.27,849.443,328.63801469859584
38,1686066544.55,93.75,516.113,270.02,52.734,849.447,345.7056964788633
39,1686066544.55,-1.465,111.816,26.855,24.902,849.451,337.5485595336942
40,1686066544.56,-23.438,-193.848,-56.152,21.484,849.454,325.10128424536106
41,1686066544.56,66.895,-41.016,116.699,55.176,849.458,328.5203623848276
42,1686066544.56,98.145,13.672,154.785,68.848,849.462,319.93071902316547
43,1686066544.57,6.348,-267.09,-68.848,30.762,849.466,325.27566641597934
44,1686066544.57,-44.922,-714.844,-270.02,1.465,849.47,321.081872323775
45,1686066544.58,30.273,-49.316,126.953,26.855,849.474,327.74718773265056
46,1686066544.58,95.703,474.609,261.23,47.852,849.478,330.38947895761254
47,1686066544.58,38.574,-163.086,5.859,31.738,849.482,316.95689695231954
48,1686066544.59,-58.105,-351.562,-20.508,-15.625,849.498,322.52338705026483
49,1686066544.59,-46.387,147.461,158.203,-27.832,849.502,332.5151122035575
50,1686066544.6,47.363,205.078,187.5,10.742,849.506,311.94773995423503
51,1686066544.6,33.203,-433.105,-107.422,26.367,849.51,328.0825557979091
52,1686066544.6,-68.848,-726.074,-213.867,-15.137,849.514,320.0824921470802
53,1686066544.61,-65.918,-293.457,42.48,-24.902,849.518,323.0554357193942
54,1686066544.61,27.832,-12.695,134.766,9.277,849.522,312.440489896999
55,1686066544.61,38.574,-390.625,-50.781,14.648,849.526,329.2851533817317
56,1686066544.62,-52.246,-613.77,-126.953,-25.391,849.53,317.77265879463755
57,1686066544.62,-78.613,125.488,170.898,-55.176,849.533,329.4049271697847
58,1686066544.63,12.695,257.324,172.363,-3.906,849.537,326.43967513585915
59,1686066544.63,56.641,170.41,150.391,23.438,849.541,320.90830669053054
60,1686066544.64,-20.996,301.758,171.387,-11.719,849.534,327.2645102628632
61,1686066544.64,-73.73,297.363,139.16,-35.645,849.538,324.8864932413458
62,1686066544.64,0.0,-54.199,75.195,-0.977,849.542,320.64859161836006
63,1686066544.65,78.125,-197.754,115.234,19.531,849.546,323.8493980126703
64,1686066544.65,31.738,156.738,168.945,-14.648,849.55,319.9454372934471
65,1686066544.66,-60.059,-8.789,50.781,-38.086,849.554,338.32757503054876
66,1686066544.66,-31.738,-471.68,-90.82,-15.137,849.558,328.4434671470398
67,1686066544.66,58.594,-395.508,-20.996,17.578,849.562,318.37314376816283
68,1686066544.67,36.621,228.516,187.012,-6.836,849.566,314.5764525335571
69,1686066544.67,-58.594,407.227,191.406,-53.223,849.57,333.66074427003105
70,1686066544.67,-62.988,-241.699,-87.402,-38.086,849.574,323.794698755973
71,1686066544.68,40.527,282.715,259.277,-9.766,849.574,332.5624763023692
72,1686066544.68,25.391,-545.898,-125.977,-2.93,849.577,325.7397874263497
73,1686066544.68,-48.828,407.715,174.316,-39.062,849.578,330.5465415501071
74,1686066544.68,-80.566,-281.25,-71.289,-43.945,849.582,319.8283716575734
75,1686066544.69,7.324,-216.797,52.734,-15.625,849.586,322.9838805436339
76,1686066544.69,43.945,218.262,161.133,0.977,849.59,323.0648143934583
77,1686066544.7,-27.344,0.488,70.312,-17.578,849.594,333.20594431189664
78,1686066544.7,-82.031,-591.797,-211.914,-24.414,849.598,325.2412242005562
79,1686066544.7,-15.137,-968.75,-320.312,0.977,849.602,335.3150246727845
80,1686066544.71,67.383,-33.203,176.758,6.836,849.606,325.08040283511735
81,1686066544.71,32.715,403.32,167.969,-7.812,849.61,321.2069839145878
82,1686066544.72,-45.898,-10.254,27.832,-21.973,849.613,331.61065848858675
83,1686066544.72,-30.762,110.84,153.32,-16.113,849.617,336.21391685804815
84,1686066544.75,67.871,506.348,259.277,8.301,849.649,333.7927808340887
85,1686066544.76,62.012,346.68,137.207,9.277,849.653,322.68020568851944
86,1686066544.76,-39.551,-76.172,10.742,-20.02,849.657,323.1143727767856
87,1686066544.76,-44.434,81.055,145.996,-23.926,849.661,335.0867375429423
88,1686066544.77,40.527,362.793,226.562,16.602,849.665,330.6751332560379
89,1686066544.77,59.57,15.137,46.387,34.668,849.668,332.8549304943803
90,1686066544.78,-24.902,-653.809,-195.801,0.977,849.672,330.152866096345
91,1686066544.78,-68.359,-513.672,-40.527,-23.926,849.676,337.6141930009623
92,1686066544.78,25.879,163.086,223.633,-0.488,849.68,324.4634610874984
93,1686066544.79,88.379,83.008,42.969,31.738,849.684,329.03699374826994
94,1686066544.79,10.742,-247.07,-89.355,3.906,849.688,333.0089684374614
95,1686066544.8,-63.965,99.609,129.883,-40.039,849.692,318.009407188255
96,1686066544.81,-5.859,234.863,131.348,-17.578,849.709,333.93162626634955
97,1686066544.82,80.078,191.406,179.199,22.461,849.713,332.66875340147396
98,1686066544.82,-84.961,219.727,105.469,-36.621,849.719,322.3919434338429
99,1686066544.82,44.434,-72.754,87.402,1.953,849.717,323.5894846343783
100,1686066544.82,-11.23,-627.441,-227.539,0.977,849.723,315.33278177497425
101,1686066544.82,-46.387,-87.891,34.668,-40.039,849.721,331.5916258436443
102,1686066544.83,54.199,-628.906,-113.77,27.832,849.727,327.6484239616367
103,1686066544.83,-34.18,154.785,156.738,-35.645,849.725,330.439334628243
104,1686066544.83,2.441,354.004,247.559,-5.371,849.731,322.3439769096032
105,1686066544.83,48.828,-433.594,-90.82,7.324,849.729,309.6753657626344
106,1686066544.83,-75.684,77.637,9.277,-38.574,849.735,333.82833899561325
107,1686066544.84,45.898,-775.391,-153.809,8.789,849.733,326.6633562115906
108,1686066544.84,-34.18,-349.121,-61.523,-17.09,849.739,337.13796346899414
109,1686066544.84,-71.777,36.133,174.805,-42.48,849.737,325.0439452549078
110,1686066544.84,47.852,7.324,129.395,8.789,849.743,325.4875080045131
111,1686066544.84,-105.469,206.543,114.258,-46.875,849.741,337.2894558364599
112,1686066544.84,13.184,480.957,261.23,-18.066,849.746,319.0745916285701
113,1686066544.85,3.906,-344.238,-54.199,-3.418,849.744,331.2762859666235
114,1686066544.85,-73.73,-59.57,-56.152,-36.133,849.75,312.1623417675895
115,1686066544.85,39.551,-212.891,78.125,4.395,849.748,325.46016340725026
116,1686066544.85,-64.453,-573.73,-203.125,-22.949,849.754,324.0243586178775
117,1686066544.86,-40.527,301.758,208.496,-22.461,849.752,332.9479021818999
118,1686066544.86,20.996,178.223,213.867,0.488,849.758,327.1503559445919
119,1686066544.86,30.273,523.926,227.539,1.953,849.762,325.4399218452984
120,1686066544.87,-48.828,-231.445,-81.055,-17.578,849.769,323.00220325198836
121,1686066544.88,-67.383,-480.957,-101.562,-30.273,849.773,322.8150810668824
122,1686066544.88,24.902,-54.688,111.328,-2.93,849.777,328.53991016929206
123,1686066544.88,75.195,-4.395,116.211,17.09,849.781,325.1980848048616
124,1686066544.89,-10.742,-379.883,-135.254,-10.254,849.785,320.89503078342784
125,1686066544.89,-86.426,-1000.0,-532.227,-18.555,849.789,332.962027434949
126,1686066544.9,-24.414,-898.438,-300.293,-7.812,849.792,328.4208767169829
127,1686066544.9,44.922,-45.898,121.582,-0.488,849.796,327.49427677735906
128,1686066544.9,1.953,259.766,142.578,-18.066,849.8,317.90886035517264
129,1686066544.91,-80.078,112.305,95.703,-52.246,849.804,326.5136361232247
130,1686066544.91,-57.617,265.625,133.301,-30.273,849.808,327.3555751684622
131,1686066544.92,41.016,364.258,160.156,6.836,849.812,322.2332041808026
132,1686066544.92,26.367,213.867,119.141,-9.277,849.814,330.52496570108684
133,1686066544.92,-58.594,214.355,112.305,-43.457,849.818,320.2236823292663
134,1686066544.92,-56.641,204.59,111.328,-44.434,849.822,315.75110525909815
135,1686066544.93,25.391,-23.926,66.406,-7.812,849.826,312.7311227267612
136,1686066544.93,32.715,-237.793,24.414,4.395,849.83,321.80081111532434
137,1686066544.94,-59.082,-271.484,-3.906,-37.109,849.834,326.8595254282419
138,1686066544.94,-93.75,-53.223,90.332,-56.641,849.837,317.5209181204363
139,1686066544.94,-7.812,-52.246,32.715,-19.531,849.841,337.53682971114955
140,1686066544.95,37.109,-462.402,-50.293,2.441,849.845,314.9462036797608
141,1686066544.95,-36.621,10.254,156.25,-39.551,849.849,330.59537623064864
142,1686066544.96,-95.215,282.227,132.812,-67.383,849.853,333.45167186142015
143,1686066544.96,-31.738,-33.203,56.152,-36.621,849.857,319.64282892501274
144,1686066544.96,58.594,116.699,105.469,-4.883,849.859,326.63553531433615
145,1686066544.97,5.859,395.02,181.641,-17.09,849.863,330.69343034521404
146,1686066544.97,-84.961,32.227,36.133,-46.875,849.867,328.77417609486366
147,1686066544.98,-52.246,-640.137,-223.633,-33.691,849.871,323.589675725037
148,1686066544.98,40.527,-468.262,-94.727,7.324,849.874,323.0249077065757
149,1686066544.98,42.48,74.219,136.719,1.953,849.878,321.85496072141007
150,1686066544.99,-43.945,-80.566,0.977,-36.621,849.882,330.2941989415119
151,1686066544.99,-54.199,-690.918,-311.035,-25.391,849.886,319.2978826118882
152,1686066544.99,32.715,-677.734,-156.738,9.277,849.89,331.98154857338665
153,1686066545.0,52.734,333.984,251.465,-3.906,849.894,317.13754114688385
154,1686066545.0,-35.645,295.898,61.523,-27.832,849.898,323.8265027439178
155,1686066545.01,-94.238,-133.789,-27.344,-31.738,849.902,324.80907766473945
156,1686066545.01,-18.555,159.18,145.996,-5.859,849.905,338.16427687009667
157,1686066545.01,47.363,585.449,249.023,6.348,849.909,336.2455435924108
158,1686066545.02,-15.137,237.305,55.664,-19.531,849.913,319.19179484593906
159,1686066545.02,-75.684,-145.508,-52.246,-42.48,849.917,316.8733080030292
160,1686066545.02,-10.254,131.348,103.027,-21.973,849.921,322.1285883310916
161,1686066545.03,74.219,142.578,132.812,25.879,849.925,322.8087370676587
162,1686066545.03,37.109,-160.645,-27.344,22.461,849.929,319.1620113342256
163,1686066545.04,-54.199,-639.648,-249.023,-13.184,849.932,320.07208386528856
164,1686066545.04,-34.668,-459.961,-49.805,-19.531,849.936,321.97950201606454
165,1686066545.04,59.082,291.992,239.746,3.906,849.94,325.44227585448715
166,1686066545.05,62.988,91.309,10.742,11.23,849.944,318.0699139096226
167,1686066545.05,-29.785,-350.098,-162.598,-18.066,849.948,321.40395291943724
168,1686066545.05,-52.246,90.82,122.559,-32.227,849.949,331.37441181338403
169,1686066545.06,38.086,347.656,199.707,-8.789,849.953,321.97758782640074
170,1686066545.06,63.965,26.367,74.219,11.719,849.957,326.1043511649104
171,1686066545.06,-18.066,-180.176,-0.977,-12.695,849.961,325.55332458868503
172,1686066545.07,-57.617,58.105,56.152,-30.762,849.965,328.3686981763107
173,1686066545.07,15.625,33.203,97.656,4.883,849.969,310.93907677198825
174,1686066545.08,74.219,-497.07,-126.465,36.621,849.973,332.4249217055514
175,1686066545.08,12.207,-751.465,-191.895,20.508,849.976,323.8987643302627
176,1686066545.08,-62.988,-0.977,126.953,-16.113,849.98,319.4679117443602
177,1686066545.09,-11.719,189.941,69.336,-4.395,849.984,323.4189663582243
178,1686066545.09,77.148,41.504,58.105,29.785,849.988,316.3269283469358
179,1686066545.1,46.387,84.473,97.656,27.344,849.992,329.4509788268665
180,1686066545.1,-39.062,227.539,127.93,-2.93,849.999,332.55142040009196
181,1686066545.1,-22.461,71.777,32.227,5.859,850.003,328.5499390674408
182,1686066545.11,63.965,-203.125,-6.836,40.039,850.007,325.3160971434979
183,1686066545.11,63.477,97.168,165.039,36.133,850.011,313.15276068367285
184,1686066545.12,-28.809,266.602,124.512,-6.348,850.015,324.5294465371794
185,1686066545.12,-46.387,-266.113,-187.012,-10.742,850.019,312.2429291008501
186,1686066545.12,46.387,-662.109,-225.586,25.391,850.023,335.60838478163487
187,1686066545.13,87.402,-9.766,117.676,25.879,850.027,318.59412910037145
188,1686066545.13,6.836,375.0,166.992,-1.953,850.03,320.11265363495914
189,1686066545.14,-57.129,-71.289,-20.02,-20.996,850.034,315.9380305677198
190,1686066545.14,18.555,-52.734,32.227,2.93,850.038,333.83863576816594
191,1686066545.14,25.391,354.98,138.672,20.02,850.052,324.6666878244675
192,1686066545.14,88.379,418.945,226.074,41.504,850.042,328.99467964853363
193,1686066545.15,-62.012,-187.5,-83.496,-13.672,850.056,326.81258096834915
194,1686066545.15,-34.18,-506.836,-128.418,-1.953,850.06,313.54538721800947
195,1686066545.16,53.711,-41.992,103.027,23.438,850.064,324.1513011605774
196,1686066545.16,25.391,373.535,201.172,8.301,850.068,334.3515064437559
197,1686066545.16,-69.336,-344.727,-218.262,-18.555,850.072,328.1923475474859
198,1686066545.17,-62.988,-1000.0,-549.316,-5.859,850.076,334.826731787316
199,1686066545.17,30.762,-337.891,-40.039,-0.977,850.08,331.9793193901167
200,1686066545.17,48.828,392.09,201.66,-7.812,850.084,326.8340898233641
201,1686066545.18,-42.48,62.012,28.809,-27.832,850.088,319.70321998298954
202,1686066545.18,-73.242,-0.488,63.965,-37.598,850.091,318.31549139168413
203,1686066545.19,16.602,317.383,178.223,-10.742,850.095,327.5807455432899
204,1686066545.2,65.43,395.996,155.273,3.418,850.101,332.23372756741435
205,1686066545.21,-13.672,62.012,5.859,-18.555,850.105,331.3807297596852
206,1686066545.21,-77.148,1.953,26.855,-36.133,850.109,334.69347436206493
207,1686066545.22,-11.719,123.535,95.215,-2.93,850.113,331.92906510462797
208,1686066545.22,64.453,-18.555,29.785,28.32,850.117,336.4996986329675
209,1686066545.22,28.809,-645.508,-203.613,19.043,850.12,337.64765721460543
210,1686066545.23,-47.363,-613.77,-167.48,-7.812,850.124,317.2569515801741
211,1686066545.23,-9.277,120.117,94.727,-2.441,850.128,333.2404854178272
212,1686066545.24,90.332,-5.859,3.418,41.504,850.132,343.4671498581994
213,1686066545.24,61.523,-249.023,-75.684,37.109,850.136,331.7795180759732
214,1686066545.24,-40.527,157.715,108.398,-14.16,850.14,330.75553902821105
215,1686066545.25,-43.945,194.824,78.613,-21.973,850.144,328.81164428495674
216,1686066545.25,47.852,13.672,66.406,15.625,850.144,333.56993772744005
217,1686066545.25,62.988,93.75,123.047,15.625,850.148,336.4709090541516
218,1686066545.26,-40.527,4.883,35.645,-21.484,850.152,347.80807494718874
219,1686066545.26,-92.773,-312.012,-159.668,-41.016,850.156,321.5206565484132
220,1686066545.26,-4.883,-341.309,-104.492,-8.789,850.16,334.22574367650753
221,1686066545.27,58.105,-214.355,31.738,20.02,850.164,339.2078578620592
222,1686066545.27,-12.207,-166.992,2.441,-21.973,850.168,340.1122011656203
223,1686066545.27,-80.566,-208.496,-83.008,-52.734,850.172,346.65206477605363
224,1686066545.28,-28.32,-575.684,-267.09,-20.508,850.176,333.39289357355796
225,1686066545.28,50.781,-1000.0,-318.848,12.207,850.179,337.63922168913257
226,1686066545.29,8.789,-239.746,50.781,-16.113,850.183,347.43026697480354
227,1686066545.29,-78.125,154.785,53.223,-52.246,850.187,343.86649808684257
228,1686066545.29,-42.969,-61.523,8.301,-35.645,850.189,343.6563658611386
229,1686066545.3,47.852,330.566,189.453,-0.977,850.193,336.67824955079476
230,1686066545.3,38.086,591.309,227.051,-8.301,850.197,358.35444149082514
231,1686066545.3,-48.828,145.02,38.574,-37.598,850.201,343.2646055707001
232,1686066545.31,-61.035,-205.078,-64.453,-41.504,850.205,339.11229783747063
233,1686066545.31,30.762,-86.426,62.5,-7.812,850.209,359.12155488179224
234,1686066545.32,63.965,202.637,179.688,11.23,850.212,357.4527073224888
235,1686066545.32,-22.949,40.527,-27.344,-20.996,850.216,356.9396884069867
236,1686066545.32,-78.613,-686.523,-347.168,-35.156,850.22,356.6993397418434
237,1686066545.33,-0.977,-354.492,0.488,-10.742,850.224,348.0541971465396
238,1686066545.33,66.406,424.805,265.137,7.324,850.228,364.0140992777731
239,1686066545.34,6.348,3.906,-56.152,-4.883,850.232,345.2000779374488
240,1686066545.34,-71.289,-416.992,-165.527,-28.809,850.234,353.7259428842802
241,1686066545.34,-27.832,156.25,152.832,-24.414,850.238,357.2678081421098
242,1686066545.34,62.012,262.207,151.855,11.23,850.242,365.2332386666746
243,1686066545.35,25.391,-357.422,-118.652,8.301,850.246,351.37635578202287
244,1686066545.35,-69.336,-556.641,-209.473,-23.926,850.25,363.0042490329089
245,1686066545.36,-51.758,-188.477,-8.789,-23.438,850.254,351.04918809186887
246,1686066545.36,47.363,27.344,117.676,7.324,850.258,363.0144303565909
247,1686066545.36,50.781,-365.234,-99.609,16.113,850.262,346.7504178717458
248,1686066545.37,-55.176,-585.449,-185.059,-24.414,850.266,347.8066610790622
249,1686066545.37,-78.125,198.242,151.367,-48.34,850.269,358.9119204747871
250,1686066545.38,18.555,297.363,121.094,-7.324,850.273,344.47185975791064
251,1686066545.38,59.57,32.715,36.621,11.23,850.277,351.38760269496123
252,1686066545.39,-26.367,4.883,47.852,-20.508,850.289,361.2619513638456
253,1686066545.39,-70.801,217.285,124.512,-34.18,850.293,359.653064374577
254,1686066545.4,5.859,148.438,62.012,-6.348,850.297,361.8738569090472
255,1686066545.4,67.383,-117.676,6.836,21.973,850.301,377.0587643399463
256,1686066545.4,15.137,82.52,103.516,0.488,850.304,357.7377412061995
257,1686066545.41,-62.5,2.93,-47.363,-28.809,850.308,363.24577184555994
258,1686066545.41,-25.391,-383.789,-209.473,-9.766,850.312,370.8196297562411
259,1686066545.42,62.988,-523.926,-135.742,27.344,850.316,349.65748915657974
260,1686066545.42,31.738,4.395,84.473,9.277,850.32,366.9996778741763
261,1686066545.42,-59.082,298.34,103.516,-33.691,850.324,370.3199733911148
262,1686066545.43,-46.387,-82.52,-23.926,-32.715,850.328,365.99962724617956
263,1686066545.43,63.965,423.828,228.027,15.137,850.337,371.28505504115634
264,1686066545.43,55.176,-49.316,30.762,8.301,850.332,366.82417415686797
265,1686066545.43,-31.25,351.562,133.789,-18.066,850.341,368.7297468050847
266,1686066545.44,-55.176,-248.535,-90.332,-20.02,850.345,359.5882220207197
267,1686066545.44,28.32,-387.695,-26.855,12.207,850.349,355.47285784820036
268,1686066545.44,58.105,55.664,106.934,23.438,850.353,360.89979455027185
269,1686066545.45,-24.902,42.48,43.457,-6.836,850.357,362.7646567351607
270,1686066545.45,-83.008,-595.215,-308.105,-28.809,850.361,368.39437965019874
271,1686066545.46,-14.648,-982.91,-381.836,0.0,850.365,371.47301768182064
272,1686066545.46,67.383,-44.922,148.926,15.137,850.369,358.17773511948826
273,1686066545.46,20.508,425.293,148.926,-2.441,850.373,363.90608390465036
274,1686066545.47,-60.059,-8.301,-17.09,-18.066,850.376,366.02423163266775
275,1686066545.47,-10.254,86.426,106.934,-1.953,850.38,374.8444952741289
276,1686066545.47,70.312,464.355,189.941,20.02,850.371,372.9869283208157
277,1686066545.48,39.551,340.82,72.266,6.836,850.375,357.2137794222727
278,1686066545.48,-48.34,-71.777,-51.27,-20.508,850.379,371.34521154019797
279,1686066545.49,-40.039,32.227,63.477,-20.508,850.382,377.11787442030885
280,1686066545.49,62.012,221.191,112.305,23.438,850.386,365.0087974760099
281,1686066545.49,69.824,-61.035,-43.457,39.062,850.39,368.0127811401546
282,1686066545.5,-25.879,-758.301,-300.293,12.695,850.394,366.95988463451016
283,1686066545.5,-66.406,-482.91,-64.453,-15.625,850.398,365.178187850269
284,1686066545.5,19.043,318.848,230.469,4.395,850.402,371.0197137793186
285,1686066545.51,72.266,32.227,-34.668,39.062,850.406,363.6439175983215
286,1686066545.51,4.395,-312.012,-153.32,9.766,850.41,367.76437944524866
287,1686066545.52,-61.035,83.496,99.609,-34.668,850.414,367.5180873950654
288,1686066545.53,-2.93,241.211,119.141,-10.742,850.429,368.7102866192893
289,1686066545.54,65.43,152.832,120.117,33.203,850.433,364.14371259687044
290,1686066545.54,16.602,-73.73,17.578,4.883,850.437,351.3671794466017
291,1686066545.54,-65.43,-142.578,-30.762,-38.086,850.441,354.14920085019713
292,1686066545.55,-38.086,144.531,95.215,-26.855,850.445,381.00719262942397
293,1686066545.55,55.664,-359.375,-143.066,27.344,850.448,357.03508911769535
294,1686066545.56,46.875,-952.148,-306.152,35.645,850.452,366.27702235811915
295,1686066545.56,-44.434,-402.832,-67.383,-17.09,850.456,363.6443578237681
296,1686066545.56,-60.547,-43.945,-15.137,-28.32,850.46,352.6314005480715
297,1686066545.57,26.367,-154.785,-11.23,5.859,850.464,361.39516379961674
298,1686066545.57,53.711,104.004,95.215,9.277,850.468,375.1745961534822
299,1686066545.58,-29.785,392.09,137.695,-26.855,850.472,353.543106471908
300,1686066545.59,-75.684,62.988,-24.414,-40.527,850.503,339.6792372292492
301,1686066545.6,4.395,-30.273,9.277,0.0,850.507,356.1930762378246
302,1686066545.6,67.383,312.5,190.43,22.461,850.511,360.7408479965181
303,1686066545.6,0.0,422.852,185.547,-11.23,850.514,351.75093009030263
304,1686066545.61,-68.359,-16.113,-65.43,-37.109,850.518,352.322158390118
305,1686066545.61,-17.578,-407.715,-206.543,-15.625,850.522,347.8412785392424
306,1686066545.62,65.43,-113.77,69.824,19.531,850.526,337.79363693355896
307,1686066545.62,33.691,334.473,227.539,4.395,850.53,348.85297485380096
308,1686066545.62,-35.645,-199.707,-121.094,-25.391,850.532,349.0437537692622
309,1686066545.62,-61.523,-141.113,-159.668,-32.227,850.534,347.6425084546022
310,1686066545.63,-52.734,-773.438,-390.137,-30.273,850.538,353.3413523396582
311,1686066545.63,-59.082,-500.0,-187.5,-28.809,850.536,354.7872839357331
312,1686066545.63,41.504,-254.883,35.156,3.418,850.542,338.8079449103964
313,1686066545.63,37.598,9.277,89.355,7.812,850.54,343.3676198542524
314,1686066545.64,59.082,339.844,219.727,7.812,850.546,348.2945508516375
315,1686066545.64,59.082,78.613,78.125,21.973,850.544,344.75132481022496
316,1686066545.64,-23.438,-402.344,-172.363,-15.625,850.548,343.6819124350995
317,1686066545.64,-77.637,-782.227,-318.359,-39.062,850.552,333.98655369284893
318,1686066545.65,-7.812,-195.312,21.973,-17.578,850.556,333.04589688603323
319,1686066545.65,63.477,236.816,142.578,8.301,850.56,343.9697996756626
320,1686066545.65,2.441,27.832,-4.395,-15.137,850.564,326.75212739460767
321,1686066545.66,-80.566,-69.336,13.672,-49.805,850.567,329.80349218414335
322,1686066545.66,-31.25,250.977,135.742,-25.879,850.571,330.0076077970145
323,1686066545.67,56.641,338.867,117.188,12.207,850.575,328.6188254640279
324,1686066545.67,18.066,-274.414,-86.426,-2.441,850.564,312.63488990475344
325,1686066545.67,-79.102,-398.926,-97.656,-43.945,850.568,320.1547422634035
326,1686066545.68,-63.965,162.598,104.492,-48.828,850.572,319.45839254185347
327,1686066545.68,34.18,218.262,92.773,0.0,850.576,324.79129656590493
328,1686066545.68,41.992,-466.309,-146.973,19.043,850.58,318.6302478307959
329,1686066545.69,-49.316,-619.629,-181.641,-23.926,850.584,305.71273631334327
330,1686066545.69,-78.613,-229.004,-114.258,-45.898,850.588,311.7785720881119
331,1686066545.7,17.09,-300.781,-149.902,-2.441,850.592,313.0080495992431
332,1686066545.7,64.453,-500.977,-162.109,24.414,850.596,317.25146741036804
333,1686066545.7,-18.066,-60.547,17.578,-21.484,850.599,308.85375778427345
334,1686066545.71,-80.078,246.582,83.008,-42.48,850.603,309.5545858948785
335,1686066545.71,-14.16,-45.41,13.672,-6.836,850.607,305.17405127993794
336,1686066545.71,57.129,100.586,74.707,20.508,850.609,302.0070897292041
337,1686066545.72,11.23,469.727,171.387,-1.465,850.613,306.3631403932841
338,1686066545.72,-70.801,104.492,-4.883,-37.598,850.617,290.9229806414177
339,1686066545.72,-45.898,-660.156,-305.664,-16.602,850.621,305.7005628969228
340,1686066545.73,44.922,-598.145,-181.152,19.043,850.625,297.43333215169366
341,1686066545.73,40.039,-5.371,83.984,7.812,850.628,303.38360011878297
342,1686066545.74,-52.246,9.277,-23.438,-32.227,850.632,297.1606955868406
343,1686066545.74,-57.129,-577.148,-314.453,-27.344,850.636,297.7627151179949
344,1686066545.74,33.691,-617.676,-171.875,3.906,850.64,285.69331777968137
345,1686066545.75,45.41,423.828,256.836,-9.277,850.644,285.65700426795627
346,1686066545.75,-43.457,365.723,68.848,-41.016,850.648,276.9445765164481
347,1686066545.76,-81.543,-48.828,-13.184,-50.781,850.652,271.60191244342144
348,1686066545.76,7.324,213.379,156.738,-18.555,850.655,282.16273927611996
349,1686066545.76,56.152,582.031,240.234,1.465,850.659,282.17924154314284
350,1686066545.77,-16.113,315.43,72.266,-27.344,850.663,278.35214099724374
351,1686066545.77,-83.008,-52.246,-40.527,-52.734,850.667,279.75405828687207
352,1686066545.77,-28.809,149.414,91.309,-35.156,850.671,275.9277736618918
353,1686066545.78,48.828,157.715,103.516,-2.441,850.675,287.2270085505653
354,1686066545.78,-1.953,-162.109,-75.684,-10.254,850.679,275.0002159514411
355,1686066545.78,-86.426,-848.633,-428.711,-29.785,850.682,280.15511378062564
356,1686066545.79,-49.316,-456.055,-134.766,-26.855,850.686,283.638919710014
357,1686066545.79,42.969,447.266,213.867,-1.465,850.69,281.84915860621305
358,1686066545.8,30.273,219.727,50.293,10.254,850.694,274.5495727322795
359,1686066545.8,-62.988,12.207,-12.207,-24.414,850.698,289.1605488707534
360,1686066545.8,-67.871,185.059,79.59,-35.156,850.713,276.2224665839215
361,1686066545.81,28.32,388.184,179.199,-3.418,850.717,277.16229299218196
362,1686066545.81,51.758,29.785,12.207,15.137,850.72,269.69511289001315
363,1686066545.81,-31.738,-250.488,-81.055,-8.301,850.724,285.60992258977626
364,1686066545.82,-74.707,33.691,24.414,-28.32,850.728,269.33691726713636
365,1686066545.82,-0.977,40.527,58.105,1.953,850.732,273.8156569272933
366,1686066545.82,60.547,-463.867,-142.09,26.855,850.736,277.4317004326928
367,1686066545.83,-0.488,-785.156,-299.316,-0.488,850.74,284.0699302273843
368,1686066545.83,-70.801,-307.617,-89.355,-44.434,850.744,277.37079828525117
369,1686066545.84,-15.625,-22.461,-2.441,-21.973,850.748,272.58279064097684
370,1686066545.84,63.477,-96.191,-20.996,18.066,850.752,262.8825898130199
371,1686066545.84,21.973,-28.32,24.414,0.977,850.756,279.02425164432424
372,1686066545.85,-68.848,251.953,117.676,-38.086,850.746,273.0157970965584
373,1686066545.85,-48.34,48.828,-3.418,-22.949,850.75,282.56404111385604
374,1686066545.86,50.781,38.086,31.25,18.066,850.754,281.51238975132253
375,1686066545.86,49.805,369.629,173.828,10.254,850.758,278.1225174271183
376,1686066545.86,-37.598,368.164,123.535,-20.02,850.762,278.05119507307967
377,1686066545.87,-55.176,-220.215,-161.133,-20.02,850.766,281.934411805918
378,1686066545.87,32.227,-510.742,-149.902,17.09,850.77,276.1324338088812
379,1686066545.88,65.918,124.512,154.785,29.785,850.774,272.9310258778429
380,1686066545.88,-17.09,454.102,163.086,-12.695,850.777,279.36992025464025
381,1686066545.88,-76.172,-186.035,-159.668,-34.18,850.781,280.01297106031194
382,1686066545.89,-2.441,-522.949,-235.352,0.0,850.785,270.90355171600726
383,1686066545.89,67.383,29.785,126.953,16.113,850.789,283.7676789265742
384,1686066545.89,3.906,329.59,164.062,-12.207,850.803,291.0041118787345
385,1686066545.9,-67.383,-252.93,-132.812,-32.715,850.807,282.8377298711848
386,1686066545.9,-29.785,-733.887,-308.105,-20.02,850.811,286.4944592940398
387,1686066545.9,59.082,-18.555,41.992,17.09,850.815,285.45843705453694
388,1686066545.91,42.969,396.973,178.711,15.137,850.818,279.38072698533654
389,1686066545.91,-67.871,-405.273,-283.203,-28.32,850.822,288.65369972059494
390,1686066545.92,-77.637,-982.422,-399.414,-23.926,850.826,287.64587010283725
391,1686066545.92,16.113,-86.426,116.699,-10.742,850.83,287.91055973434237
392,1686066545.92,24.414,345.703,116.211,-22.949,850.834,289.07582247487113
393,1686066545.93,-72.266,15.625,-58.105,-51.758,850.838,279.4940028931362
394,1686066545.93,-87.402,16.113,22.949,-56.641,850.842,283.27593517095175
395,1686066545.94,18.066,314.453,152.832,-14.648,850.846,289.8433585565462
396,1686066545.94,63.477,350.586,112.793,10.254,850.847,292.086610953304
397,1686066545.94,-17.578,-152.832,-139.648,-20.996,850.851,287.81837653342694
398,1686066545.95,-71.777,-232.422,-119.629,-38.574,850.855,300.24513787526865
399,1686066545.95,0.977,229.004,134.277,-10.742,850.859,289.96365856991554
400,1686066545.96,73.73,247.559,53.711,21.484,850.863,291.3629150223313
401,1686066545.96,24.902,-583.496,-271.484,18.066,850.867,296.79332365087413
402,1686066545.96,-49.316,-591.309,-163.086,-19.531,850.871,305.33700266555496
403,1686066545.97,-14.648,226.562,172.852,-15.137,850.875,303.3500936081866
404,1686066545.97,69.336,66.895,-12.695,19.043,850.879,283.41669702682486
405,1686066545.98,54.688,-249.023,-151.367,23.926,850.883,297.46394616163957
406,1686066545.98,-38.574,76.66,51.758,-15.137,850.887,296.90753878837114
407,1686066545.98,-36.133,148.926,62.988,-21.484,850.89,292.660027345181
408,1686066546.0,59.082,53.711,83.008,26.367,850.894,294.56023691574535
409,1686066546.0,76.172,155.273,93.75,36.621,850.898,308.54602474783746
410,1686066546.0,-16.113,-41.992,-72.754,3.906,850.901,297.76374615056136
411,1686066546.01,-66.406,-158.203,-125.0,-19.043,850.905,307.23501788136446
412,1686066546.01,15.137,-414.551,-195.801,14.16,850.909,296.4913049106688
413,1686066546.02,70.312,-993.164,-363.77,45.898,850.913,305.2068405733933
414,1686066546.02,3.418,-323.242,0.488,7.812,850.917,300.2978130278194
415,1686066546.02,-59.082,140.625,38.086,-23.438,850.921,300.22412703712354
416,1686066546.03,1.465,-335.938,-173.34,-1.953,850.925,315.0226285017265
417,1686066546.03,81.055,-50.781,83.984,23.926,850.929,307.679774292889
418,1686066546.04,32.715,472.656,176.27,4.883,850.933,309.04338513304776
419,1686066546.04,-56.152,148.926,-32.715,-29.297,850.937,321.96512379720616
420,1686066546.04,-23.438,-101.074,-61.035,-20.508,850.939,308.2513524546966
421,1686066546.05,60.547,233.887,132.324,8.301,850.943,305.6613465824916
422,1686066546.05,45.41,490.723,203.613,5.371,850.947,312.1314540643365
423,1686066546.05,-43.457,147.949,-4.395,-13.672,850.951,313.5180786031201
424,1686066546.06,-50.781,-213.867,-153.32,-18.066,850.955,312.01040202106907
425,1686066546.06,44.434,-181.152,-17.09,14.16,850.959,320.8503128458883
426,1686066546.06,62.012,-69.824,58.594,28.809,850.963,315.46568706292396
427,1686066546.07,-35.156,-269.043,-184.082,-5.859,850.967,302.93774555939825
428,1686066546.07,-74.707,-900.879,-484.863,-15.625,850.971,302.73442084951193
429,1686066546.08,12.207,-330.566,-81.055,2.441,850.975,312.3566255876727
430,1686066546.08,68.848,493.164,197.266,13.184,850.978,300.50522681010574
431,1686066546.08,1.465,87.402,0.488,-7.324,850.982,321.0662483020641
432,1686066546.09,-67.871,-111.816,-23.438,-33.203,850.984,306.9123449283072
433,1686066546.09,-16.113,187.988,112.793,-12.207,850.988,310.5318137425915
434,1686066546.1,63.965,194.824,112.793,20.02,850.992,304.6248789533581
435,1686066546.1,19.531,-440.43,-209.473,9.766,850.996,316.48539553337685
436,1686066546.1,-75.684,-650.879,-257.324,-29.785,851.0,314.9117656212563
437,1686066546.11,-54.199,-245.605,-83.984,-26.855,851.004,315.25900525215184
438,1686066546.11,41.504,-0.488,11.719,7.324,851.007,310.47805734633766
439,1686066546.12,44.922,-397.461,-162.109,17.09,851.011,307.29007469578863
440,1686066546.12,-57.129,-661.133,-281.25,-8.301,851.015,309.4251804643111
441,1686066546.12,-80.566,-137.207,-53.711,-27.832,851.019,310.35346314273016
442,1686066546.13,25.391,48.34,-26.367,4.883,851.023,309.6206535728959
443,1686066546.13,63.477,-42.969,-22.949,14.16,851.027,304.7896364541764
444,1686066546.13,-29.785,-1.953,3.418,-24.414,851.029,327.66862101981195
445,1686066546.14,-77.148,186.523,63.477,-44.434,851.033,319.02967070121406
446,1686066546.14,6.836,61.035,13.672,-13.184,851.037,311.5925413631085
447,1686066546.14,66.406,123.535,60.059,20.508,851.041,319.76721610050106
448,1686066546.15,1.465,270.508,85.938,2.441,851.045,322.19798962776406
449,1686066546.15,-70.801,-40.039,-106.445,-22.461,851.049,316.6307510365373
450,1686066546.16,-21.484,-366.211,-217.285,-8.789,851.052,316.612793664087
451,1686066546.16,62.988,-560.547,-192.871,17.09,851.056,320.409733136872
452,1686066546.16,26.855,-48.34,56.641,-0.488,851.06,313.9307398645891
453,1686066546.17,-69.336,279.297,83.984,-34.668,851.064,317.42746429631444
454,1686066546.17,-58.105,-74.707,-55.664,-29.785,851.068,317.4035841950681
455,1686066546.18,36.133,-118.652,-31.738,5.371,851.072,319.3290405896947
456,1686066546.19,39.062,110.352,76.172,3.418,851.092,321.08951280141815
457,1686066546.2,-58.105,301.27,138.184,-41.504,851.096,329.59959279301233
458,1686066546.2,-77.148,-406.738,-251.465,-33.691,851.1,320.8455143907046
459,1686066546.2,24.414,-760.254,-288.086,11.719,851.104,319.09813800337696
460,1686066546.21,58.594,135.742,137.207,11.23,851.108,313.7445350961449
461,1686066546.21,-16.113,169.434,-12.207,-13.672,851.111,321.71247523685946
462,1686066546.22,-71.777,-641.113,-371.094,-29.297,851.115,321.9707597391162
463,1686066546.22,-13.672,-596.68,-213.379,-8.789,851.119,330.77180589795825
464,1686066546.22,64.941,346.191,190.43,10.254,851.123,323.79798804284667
465,1686066546.23,62.012,428.711,191.406,14.16,851.132,323.56000771328246
466,1686066546.23,16.602,349.609,57.129,-6.836,851.127,321.3317497572197
467,1686066546.23,37.598,252.93,47.852,7.812,851.136,333.3022059130728
468,1686066546.23,-68.848,-29.297,-102.539,-35.645,851.131,320.19122842015145
469,1686066546.23,-58.105,-323.73,-192.871,-26.855,851.14,331.2164597237337
470,1686066546.24,-31.738,84.473,20.996,-20.508,851.135,326.0762601440601
471,1686066546.24,-49.316,-174.316,-31.25,-24.414,851.144,322.6914293912924
472,1686066546.24,53.711,291.016,160.156,12.207,851.148,322.4424476357086
473,1686066546.25,68.848,-28.32,-25.391,26.855,851.152,334.9097294019842
474,1686066546.25,-32.227,-382.812,-175.293,-6.348,851.156,326.9843908437761
475,1686066546.25,-71.289,-67.383,-21.973,-32.227,851.16,339.6601868402868
476,1686066546.26,22.949,332.031,160.156,1.953,851.164,334.45074445485704
477,1686066546.26,70.312,129.883,-2.93,30.273,851.167,335.4094873221747
478,1686066546.26,-13.672,-787.598,-378.418,14.16,851.171,324.9207332067171
479,1686066546.27,-6.348,238.77,116.211,-8.301,851.223,320.9542930910482
480,1686066546.27,-74.219,-533.203,-153.809,-20.996,851.175,328.24519623420895
481,1686066546.27,75.195,220.215,120.605,30.762,851.227,327.8000051014391
482,1686066546.28,45.41,-59.082,-13.672,25.879,851.231,336.9732612227182
483,1686066546.28,-35.156,-91.309,-73.242,-15.137,851.235,319.586007891171
484,1686066546.28,-27.832,209.961,87.402,-35.156,851.239,335.3750497587934
485,1686066546.29,56.641,-289.062,-139.16,3.418,851.243,326.9944942141184
486,1686066546.29,52.246,-1000.0,-374.512,20.996,851.247,322.1776816124993
487,1686066546.29,-40.527,-336.914,-50.781,-20.02,851.25,323.1045862365267
488,1686066546.3,-49.316,160.156,35.645,-27.344,851.254,333.0520650298365
489,1686066546.3,46.875,-157.715,-59.57,10.742,851.258,302.64348187924224
490,1686066546.31,53.711,85.938,74.707,14.648,851.262,324.54544557217537
491,1686066546.31,-40.527,397.461,123.047,-22.461,851.266,320.6324466262289
492,1686066546.33,-62.988,76.66,-30.273,-33.691,851.233,309.8038931862388
493,1686066546.34,27.344,-46.387,-32.715,9.277,851.237,321.3840884175957
494,1686066546.34,82.52,285.645,139.16,29.297,851.241,313.2326944573391
495,1686066546.34,20.02,430.664,156.738,0.0,851.245,321.4146524776695
496,1686066546.35,-51.758,34.668,-50.781,-16.602,851.249,321.6689555969265
497,1686066546.35,-4.883,-420.898,-203.125,13.672,851.253,330.075826132135
498,1686066546.36,70.801,-35.645,47.852,29.297,851.257,323.3449718679416
499,1686066546.36,32.227,228.516,86.426,5.859,851.261,327.21755081646785
500,1686066546.36,-53.711,-387.207,-314.453,-22.461,851.264,335.9886432382987
501,1686066546.37,-32.227,-459.961,-243.652,-23.926,851.268,311.92734806019195
502,1686066546.37,64.941,266.602,176.27,11.719,851.272,328.4075367064162
503,1686066546.37,-42.969,-151.367,-119.141,-7.812,851.269,340.31497077684486
504,1686066546.38,-61.523,-330.566,-110.84,-8.789,851.273,338.7962255895659
505,1686066546.38,61.523,489.746,157.715,19.043,851.276,338.2254602706531
506,1686066546.38,30.762,28.809,68.359,17.578,851.276,339.0146235141072
507,1686066546.38,59.082,20.508,29.297,23.438,851.28,349.68068080146975
508,1686066546.39,-20.996,-338.867,-132.812,-0.488,851.284,361.5933746884994
509,1686066546.39,-67.383,-594.727,-219.238,-19.043,851.288,357.74539257350705
510,1686066546.4,10.254,-214.844,-37.598,-4.395,851.292,352.94205876637335
511,1686066546.4,73.242,245.605,128.906,20.508,851.296,373.9888357702158
512,1686066546.4,10.254,-243.652,-148.438,6.836,851.3,369.18087621548
513,1686066546.41,-64.941,-1000.0,-609.863,-15.625,851.304,369.0393441839131
514,1686066546.41,-13.672,-808.594,-358.398,-1.465,851.308,375.7185587594842
515,1686066546.42,71.777,-8.301,61.523,21.973,851.312,410.6877597432353
516,1686066546.42,35.645,160.645,54.688,8.301,851.314,413.39986631850155
517,1686066546.42,-58.105,148.926,51.758,-26.855,851.317,402.07455253268023
518,1686066546.42,-51.758,321.289,107.422,-26.367,851.321,396.2379719369036
519,1686066546.43,42.969,308.105,110.84,10.742,851.325,425.7793753904612
520,1686066546.43,47.852,194.824,70.312,17.578,851.329,424.90375655828467
521,1686066546.44,-44.922,-66.406,-97.656,-20.02,851.333,421.9173731782259
522,1686066546.44,-59.57,-57.129,-46.387,-29.297,851.337,437.9963501009498
523,1686066546.44,29.785,46.875,20.996,7.812,851.341,420.0504971003076
524,1686066546.45,66.895,-408.203,-179.688,35.645,851.345,441.2074050800066
525,1686066546.45,-11.23,-55.176,20.02,6.348,851.349,428.0598484177192
526,1686066546.46,-64.941,291.504,85.938,-26.367,851.353,452.9331958175842
527,1686066546.46,8.789,69.336,6.836,1.953,851.357,442.4847544166809
528,1686066546.46,74.219,22.949,21.484,34.668,851.361,444.3930949343404
529,1686066546.47,7.812,155.273,52.734,3.906,851.365,446.4430117113271
530,1686066546.47,-75.684,55.176,-46.875,-31.738,851.369,457.3726772225599
531,1686066546.48,-35.156,-583.984,-336.914,-12.207,851.373,463.846113402547
532,1686066546.48,41.016,-692.383,-226.562,16.602,851.377,463.8966706300113
533,1686066546.48,16.113,-95.215,44.434,-6.836,851.381,469.41188726368466
534,1686066546.49,-65.918,-52.246,-102.539,-46.387,851.385,468.0300449482636
535,1686066546.49,-60.547,-637.207,-357.422,-33.691,851.389,473.44603119643347
536,1686066546.49,34.18,-473.145,-153.809,3.906,851.393,488.1652668074439
537,1686066546.5,53.711,474.121,215.82,-4.883,851.396,484.0658906071523
538,1686066546.5,-34.18,328.125,6.836,-31.25,851.4,479.0002224337673
539,1686066546.51,-67.871,-6.836,-42.48,-29.785,851.404,474.5522062251994
540,1686066546.51,18.555,256.348,133.789,-5.371,851.406,477.61761277580246
541,1686066546.51,65.918,595.703,187.5,15.137,851.41,481.77872268257875
542,1686066546.52,-16.113,281.25,20.508,-2.441,851.414,482.4521212116007
543,1686066546.52,-78.613,-316.895,-179.688,-32.227,851.418,480.46098338099875
544,1686066546.52,-9.766,-69.336,-0.977,-14.648,851.422,487.78882463201205
545,1686066546.53,68.848,173.828,96.191,23.926,851.426,486.1676343849389
546,1686066546.53,16.602,-129.883,-97.168,3.906,851.43,493.6629186981539
547,1686066546.54,-65.918,-818.359,-479.004,-22.461,851.433,480.0461636709671
548,1686066546.54,-36.133,-489.746,-182.129,-12.207,851.437,491.76798731177126
549,1686066546.54,44.434,435.547,203.125,5.371,851.441,482.801955684535
550,1686066546.55,33.203,266.113,24.902,4.395,851.445,477.341635706677
551,1686066546.55,-58.594,22.461,-36.621,-29.297,851.449,470.8148935478349
552,1686066546.55,-58.105,174.805,72.754,-33.691,851.449,463.5301520158104
553,1686066546.56,42.969,400.391,155.273,-1.465,851.453,464.54555031557504
554,1686066546.56,58.105,48.34,27.344,8.301,851.457,466.68015622538377
555,1686066546.56,-36.133,-257.324,-46.875,-23.438,851.46,470.65920500337376
556,1686066546.57,-67.871,8.789,8.301,-44.922,851.464,457.64214608571996
557,1686066546.57,20.02,3.906,3.906,-12.695,851.468,451.39160544209517
558,1686066546.58,70.312,-416.016,-169.434,28.809,851.472,464.894228684858
559,1686066546.58,-15.625,-1000.0,-479.492,11.719,851.476,448.52550568609365
560,1686066546.58,-84.961,-492.676,-183.594,-39.551,851.48,449.77393783833367
561,1686066546.59,-14.648,190.918,87.402,-17.578,851.484,446.80276836745355
562,1686066546.59,64.453,145.996,58.594,21.973,851.488,456.44495645505503
563,1686066546.6,26.367,298.828,107.422,-0.977,851.492,450.02761081447795
564,1686066546.6,-56.641,316.895,54.688,-30.762,851.496,446.4804624903068
565,1686066546.6,-40.039,104.004,-3.418,-21.484,851.5,445.41491264802727
566,1686066546.61,49.316,72.754,27.344,10.254,851.504,421.7173567792109
567,1686066546.61,47.363,327.148,152.344,16.113,851.508,426.9781874989144
568,1686066546.62,-46.387,317.871,95.215,-15.625,851.512,426.1419052941794
569,1686066546.62,-53.711,-209.473,-218.75,-28.32,851.516,451.9384875075742
570,1686066546.62,40.039,-681.152,-277.832,8.789,851.519,413.06963297106
571,1686066546.63,65.918,-99.121,63.477,18.555,851.523,421.5079197992545
572,1686066546.63,-16.113,204.102,17.09,-20.508,851.527,430.7737508811016
573,1686066546.63,-64.453,-426.758,-328.125,-31.25,851.531,415.7008625444168
574,1686066546.64,19.531,-395.02,-190.918,7.324,851.535,414.55612541710326
575,1686066546.64,70.801,351.074,174.316,16.602,851.539,408.2685669809147
576,1686066546.66,-1.953,416.504,72.266,-13.184,851.554,405.42884581294106
577,1686066546.66,-68.359,-75.684,-82.52,-29.297,851.558,402.8169178878764
578,1686066546.66,-18.555,-307.617,-121.582,1.953,851.562,397.5721863293771
579,1686066546.67,67.383,28.809,14.16,28.809,851.566,399.9685316657011
580,1686066546.67,42.969,350.098,120.605,10.254,851.57,401.00696203114717
581,1686066546.68,-53.711,-409.18,-325.684,-14.16,851.573,384.7531030136101
582,1686066546.68,-49.805,-1000.0,-453.613,-6.348,851.577,385.52324061528157
583,1686066546.68,49.805,-77.637,87.402,9.277,851.581,393.38645523036996
584,1686066546.69,46.875,394.043,116.699,5.371,851.585,385.2319961742271
585,1686066546.69,65.918,9.766,42.48,15.137,851.598,380.2814993619703
586,1686066546.69,-57.617,17.09,-89.355,-36.621,851.589,378.19705455346144
587,1686066546.69,-16.602,-228.027,-86.426,-12.207,851.601,383.38338649814096
588,1686066546.7,-77.148,-38.574,-49.316,-50.781,851.593,390.8698708036849
589,1686066546.7,-59.082,-155.273,-46.875,-33.691,851.605,383.32004105396703
590,1686066546.7,22.949,11.23,40.039,-6.348,851.597,388.2214350953335
591,1686066546.7,15.137,252.93,109.863,-4.883,851.609,387.17085873306206
592,1686066546.71,73.242,254.395,79.102,18.066,851.613,365.31304331901487
593,1686066546.71,17.09,-173.828,-161.133,1.953,851.617,378.93844673673965
594,1686066546.71,-63.477,-217.773,-116.699,-23.926,851.621,376.3139204724496
595,1686066546.72,-21.484,244.141,116.211,-22.461,851.625,366.0491030378788
596,1686066546.72,66.406,102.051,-49.805,15.625,851.629,366.775419583261
597,1686066546.72,30.273,-490.234,-237.305,18.555,851.633,360.5627128578368
598,1686066546.73,-72.266,-136.23,-12.207,-31.25,851.637,374.5263066268263
599,1686066546.73,-63.477,239.258,87.402,-32.715,851.641,357.20131587106647
600,1686066546.75,39.062,100.586,56.641,3.418,851.647,346.00600040536386
601,1686066546.75,52.246,28.32,12.695,7.812,851.651,354.23577376021336
602,1686066546.76,-44.922,-156.25,-144.043,-26.367,851.655,333.49908326514895
603,1686066546.76,-68.359,-195.801,-178.223,-37.109,851.659,330.9386183646121
604,1686066546.76,25.391,-414.062,-238.281,15.625,851.662,335.9372610901596
605,1686066546.77,64.941,-932.617,-351.562,49.805,851.666,327.598966740102
606,1686066546.77,-20.996,-473.633,-92.773,-3.418,851.67,314.2292109235477
607,1686066546.78,-81.543,123.535,19.043,-35.645,851.674,312.45495055246977
608,1686066546.78,-12.695,-300.293,-133.301,2.441,851.678,321.55781778066296
609,1686066546.78,64.941,-175.781,11.719,23.438,851.682,312.43565723315817
610,1686066546.79,18.066,500.0,178.223,-4.883,851.686,290.3954782811851
611,1686066546.79,-63.965,175.293,-44.922,-36.133,851.69,306.8877600657657
612,1686066546.79,-28.809,-73.73,-54.688,-18.555,851.689,306.3894227810801
613,1686066546.8,61.523,298.34,148.438,16.602,851.693,307.6832944121521
614,1686066546.8,47.363,540.039,187.012,12.695,851.697,283.8415553022266
615,1686066546.8,-45.41,123.535,-51.758,-19.043,851.701,291.4865488392267
616,1686066546.81,-52.734,-344.238,-264.16,-24.902,851.705,291.66012482491936
617,1686066546.81,34.18,-261.23,-115.723,12.695,851.709,282.42438665195345
618,1686066546.82,46.387,112.305,119.141,23.438,851.713,264.02391450845334
619,1686066546.82,-38.574,18.066,-77.637,-13.184,851.717,268.6089231578701
620,1686066546.82,-75.195,-843.75,-514.16,-12.695,851.721,259.786227986912
621,1686066546.83,4.395,-378.906,-99.121,19.043,851.725,264.6670667443079
622,1686066546.83,66.406,528.809,239.258,23.926,851.728,257.45215386749237
623,1686066546.84,-3.418,152.832,4.883,-4.883,851.732,251.1339412379435
624,1686066546.84,-78.613,-138.672,-79.59,-29.785,851.734,249.40726369324702
625,1686066546.84,-18.066,179.199,68.848,-21.484,851.738,235.57440909519102
626,1686066546.84,54.199,270.508,102.539,0.977,851.742,246.14696736773303
627,1686066546.85,-1.953,-423.34,-219.727,-8.789,851.746,242.99498048577757
628,1686066546.85,-85.938,-687.5,-289.062,-41.504,851.75,245.51719365204826
629,1686066546.86,-54.199,-273.926,-147.949,-36.133,851.754,252.26890420809312
630,1686066546.86,41.016,-70.801,-41.992,8.789,851.758,219.1331919970694
631,1686066546.86,37.109,-460.449,-192.383,18.555,851.762,238.3467208692597
632,1686066546.87,-62.012,-817.383,-379.395,-22.461,851.766,224.24112290773502
633,1686066546.87,-70.801,1.953,41.504,-47.852,851.769,206.40848279601752
634,1686066546.88,35.645,327.148,101.074,-6.836,851.773,216.77996549501125
635,1686066546.88,58.594,167.969,65.918,1.953,851.777,227.47262672189876
636,1686066546.88,-39.062,230.469,91.797,-33.691,851.781,224.7101853586719
637,1686066546.89,-85.938,290.527,66.406,-43.457,851.784,211.22424481431165
638,1686066546.89,2.93,201.172,60.059,-6.836,851.788,209.0832958122804
639,1686066546.9,66.895,142.09,62.012,20.02,851.792,204.88077191524977
640,1686066546.9,-0.977,213.379,38.574,-8.789,851.796,203.0783077202835
641,1686066546.9,-77.637,-58.105,-113.281,-30.762,851.8,204.15547032649573
642,1686066546.91,-24.902,-360.84,-236.328,-11.23,851.804,213.5763827562016
643,1686066546.91,62.012,-556.641,-223.633,11.719,851.808,202.00402576772868
644,1686066546.92,34.18,-53.711,52.734,-0.977,851.812,196.47709416039405
645,1686066546.92,-52.246,116.699,-20.508,-34.668,851.816,197.31526490989606
646,1686066546.92,-41.016,-435.059,-304.688,-23.926,851.82,201.16337264764854
647,1686066546.93,48.34,361.328,173.828,-2.441,851.824,203.3160737268695
648,1686066546.93,51.758,-294.922,-155.762,10.742,851.824,201.44827458779838
649,1686066546.93,-44.434,340.82,83.496,-34.668,851.828,188.6053487704985
650,1686066546.94,-57.617,-320.801,-165.527,-33.691,851.832,216.7045735271122
651,1686066546.94,38.086,-276.367,-40.039,3.418,851.836,193.0786649154817
652,1686066546.94,64.453,316.406,152.832,14.648,851.84,191.66129799414222
653,1686066546.95,-29.785,63.965,-27.344,-24.902,851.844,191.83196997198505
654,1686066546.95,-81.055,-673.828,-377.441,-37.109,851.848,184.19525268715748
655,1686066546.95,-6.348,-776.367,-341.797,-2.441,851.852,198.68801814599465
656,1686066546.96,58.594,222.168,151.367,1.953,851.855,198.5023818526295
657,1686066546.96,-6.348,373.535,101.562,-21.484,851.859,188.10506361000373
658,1686066546.97,-71.777,-34.18,-99.121,-37.598,851.863,197.9042051683272
659,1686066546.97,-20.02,-25.879,-67.871,-26.367,851.867,187.31440624232786
660,1686066546.98,50.293,173.828,100.586,0.488,851.875,203.08925935900064
661,1686066546.98,27.344,249.023,84.961,-4.883,851.879,202.5398105489535
662,1686066546.98,-66.406,-261.719,-164.062,-52.734,851.883,208.34735196455375
663,1686066546.99,-64.453,-132.812,-28.32,-57.129,851.887,197.60871184993306
664,1686066546.99,33.691,383.301,162.109,-7.812,851.891,204.79036021745085
665,1686066547.0,38.574,104.98,-2.441,9.766,851.895,210.44123551386414
666,1686066547.0,-46.875,-645.508,-264.16,-8.789,851.899,207.97201087315048
667,1686066547.0,-67.871,-366.699,-58.105,-29.785,851.903,200.0778036693972
668,1686066547.01,10.254,362.305,157.715,-14.648,851.906,202.33048902111716
669,1686066547.01,49.316,110.84,-28.32,7.812,851.91,209.25316303471402
670,1686066547.01,-30.273,-174.316,-138.672,-31.738,851.914,206.6612733470716
671,1686066547.02,-95.215,132.812,52.734,-62.988,851.918,208.81183437759256
672,1686066547.03,-20.02,264.16,109.863,-20.508,851.929,208.64215577950708
673,1686066547.04,52.246,107.91,70.801,7.324,851.933,218.45249079440984
674,1686066547.04,-8.789,-158.203,-67.871,-12.695,851.937,216.47781854508534
675,1686066547.04,-87.402,-320.801,-197.754,-27.344,851.941,216.96601767723484
676,1686066547.05,-39.062,-242.188,-157.227,-15.137,851.945,225.65207720175624
677,1686066547.05,47.852,-448.242,-182.617,16.113,851.949,228.9854282196918
678,1686066547.06,16.113,-1000.0,-449.219,1.465,851.952,228.38464596337087
679,1686066547.06,-78.125,-558.594,-213.379,-47.363,851.956,220.71568308841967
680,1686066547.06,-72.754,101.074,61.523,-38.574,851.96,229.5672893681326
681,1686066547.07,33.691,107.422,58.105,6.836,851.964,225.0152002820498
682,1686066547.07,55.664,349.121,156.25,15.625,851.968,236.2828879257629
683,1686066547.08,-38.086,366.699,89.844,-30.273,851.972,234.23582986751242
684,1686066547.08,-70.312,48.828,-56.152,-39.551,851.974,245.40429693004305
685,1686066547.08,22.949,-27.344,-15.137,13.672,851.978,237.80567744060755
686,1686066547.09,73.242,318.359,163.574,28.32,851.982,237.96511423155533
687,1686066547.09,-2.441,414.551,139.648,-13.184,851.986,237.32353085732987
688,1686066547.09,-68.359,-17.09,-91.797,-39.551,851.99,242.02621356790874
689,1686066547.1,-6.836,-325.195,-201.66,-9.277,851.993,241.00879993508872
690,1686066547.1,69.824,-139.648,-22.461,29.785,851.997,255.939971964783
691,1686066547.1,20.02,129.395,144.531,6.836,852.001,239.69844890062194
692,1686066547.11,-70.312,-82.52,-128.418,-31.738,852.005,242.75327498514892
693,1686066547.11,-40.039,-857.422,-483.398,-4.395,852.009,242.58549114849208
694,1686066547.12,56.641,-354.004,-27.344,31.738,852.013,241.6762366110174
695,1686066547.12,53.223,346.191,172.363,20.996,852.017,255.53406856377282
696,1686066547.12,-42.48,-12.695,-43.457,-17.09,852.019,245.27485816582185
697,1686066547.13,-50.781,-71.777,-12.207,-15.625,852.023,252.37507428941666
698,1686066547.13,54.688,137.695,71.289,30.273,852.027,268.7784252378292
699,1686066547.14,65.43,168.457,79.102,26.855,852.031,251.2516517608994
700,1686066547.14,-26.855,-346.68,-165.039,-5.371,852.035,252.30261128915234
701,1686066547.14,-62.5,-800.293,-340.82,-10.254,852.039,249.9883602700564
702,1686066547.15,20.996,-78.125,12.207,1.465,852.042,274.844489670499
703,1686066547.15,76.66,392.578,169.434,25.391,852.046,262.1785641458333
704,1686066547.15,10.254,-398.438,-235.84,15.625,852.05,279.82363721872133
705,1686066547.16,-64.941,-798.828,-368.164,-17.09,852.054,256.9298719709166
706,1686066547.16,-7.324,143.066,93.75,-23.926,852.058,255.13037068743478
707,1686066547.17,76.66,389.648,118.652,3.906,852.062,263.6747488468943
708,1686066547.17,31.738,114.258,33.203,-0.488,852.066,274.74535662101255
709,1686066547.17,-61.035,145.02,96.68,-44.922,852.07,279.32759183348827
710,1686066547.18,-36.621,312.988,127.441,-34.18,852.074,274.7016084659624
711,1686066547.18,59.57,331.055,121.582,13.184,852.078,270.89010344105907
712,1686066547.18,55.664,160.156,72.266,18.066,852.082,272.59151858824197
713,1686066547.19,-36.621,-54.688,-8.789,-14.648,852.086,273.1489146309361
714,1686066547.19,-54.688,-162.109,-61.523,-23.926,852.09,272.53837203867914
715,1686066547.2,45.898,-149.414,-80.566,13.184,852.094,266.2053873630019
716,1686066547.2,73.73,-374.512,-126.465,27.832,852.097,283.35498417061183
717,1686066547.2,-28.32,-57.129,52.734,-10.742,852.101,282.42874531327806
718,1686066547.21,-73.242,56.152,15.137,-40.039,852.105,267.26380402291716
719,1686066547.21,11.23,-364.746,-197.754,-0.977,852.109,283.8997385161984
720,1686066547.21,67.383,-161.621,-76.66,30.762,852.109,267.6344026893535
721,1686066547.22,0.488,416.992,179.199,-11.23,852.113,289.38618953809345
722,1686066547.22,-73.73,80.566,-44.922,-33.691,852.117,280.97023279541
723,1686066547.22,-23.926,-452.637,-179.688,-7.812,852.121,279.67212917167944
724,1686066547.23,58.594,-75.195,68.848,15.625,852.125,296.93356249758654
725,1686066547.23,21.484,119.629,62.5,-0.488,852.129,293.38771985226015
726,1686066547.24,-60.059,-83.496,-59.57,-36.133,852.132,289.72747813796235
727,1686066547.24,-43.457,-559.57,-298.828,-10.254,852.136,303.9529598783635
728,1686066547.24,38.574,-854.98,-288.574,26.367,852.14,294.31661931605316
729,1686066547.25,39.062,126.465,140.137,9.766,852.144,299.39914113221045
730,1686066547.25,-48.828,345.703,60.547,-24.414,852.148,286.96780219030336
731,1686066547.26,-69.824,-20.996,-9.277,-37.109,852.152,300.4783571368367
732,1686066547.27,30.273,89.844,92.285,-3.906,852.171,302.62079239771026
733,1686066547.28,61.035,286.621,140.625,5.371,852.175,298.2181112063718
734,1686066547.28,-28.32,191.406,41.504,-23.926,852.179,301.49955938287474
735,1686066547.29,-77.148,-280.273,-162.598,-42.969,852.183,307.7936998639459
736,1686066547.29,-2.93,-15.137,17.578,-24.902,852.186,299.82621854604685
737,1686066547.29,67.383,248.047,130.371,8.789,852.19,301.96783299509
738,1686066547.3,9.766,-94.238,-64.941,-7.812,852.194,303.8135629439336
739,1686066547.3,-67.871,-643.555,-269.043,-30.273,852.198,296.60255980751276
740,1686066547.3,-43.945,151.855,60.059,-29.297,852.212,292.96234150033644
741,1686066547.3,-29.297,-184.082,37.109,-19.043,852.202,302.98895532371256
742,1686066547.31,58.594,406.25,160.156,10.254,852.216,300.28571417776334
743,1686066547.31,60.547,493.164,200.195,12.695,852.206,319.7134235628001
744,1686066547.31,62.5,-115.234,-53.223,22.949,852.22,300.5816690449812
745,1686066547.31,40.039,199.707,0.0,10.742,852.21,296.47254747863263
746,1686066547.31,-40.039,-629.395,-289.062,-8.301,852.224,308.9637511661957
747,1686066547.32,-54.688,-35.645,-58.105,-33.203,852.214,303.418386679063
748,1686066547.32,-73.73,-170.898,-81.543,-32.227,852.228,310.5218290278644
749,1686066547.32,19.531,24.414,40.039,2.441,852.231,304.1365081219483
750,1686066547.32,71.289,-387.207,-99.609,31.738,852.235,313.0305841505983
751,1686066547.33,-10.742,-363.281,-67.871,-6.348,852.239,309.0795613694539
752,1686066547.33,-71.777,124.512,82.031,-36.621,852.243,309.25488686449506
753,1686066547.34,-2.93,336.426,117.676,-12.695,852.247,307.01688336140717
754,1686066547.34,66.895,-342.285,-193.359,30.762,852.251,296.6601024167752
755,1686066547.34,6.836,-728.027,-228.027,18.555,852.255,301.32907696069043
756,1686066547.35,-82.031,49.805,97.168,-42.969,852.247,306.59487250794103
757,1686066547.35,-44.922,70.801,-12.695,-35.156,852.251,308.00360202416937
758,1686066547.36,53.711,45.898,38.574,14.16,852.254,306.82202287077627
759,1686066547.36,44.434,323.73,147.949,11.719,852.258,308.3032356713628
760,1686066547.36,-49.805,277.344,78.125,-23.926,852.262,303.57805084314595
761,1686066547.37,-51.27,-176.758,-149.902,-22.461,852.266,317.03798424007334
762,1686066547.37,41.992,-618.652,-252.441,7.324,852.27,318.4976132530107
763,1686066547.38,59.082,-200.684,17.578,9.766,852.274,313.4380164915836
764,1686066547.38,-31.25,346.68,165.527,-32.715,852.278,306.85048262829866
765,1686066547.38,-73.242,-159.18,-174.316,-49.805,852.282,311.51057619099544
766,1686066547.39,8.789,-520.02,-224.121,-8.301,852.286,317.46163555066755
767,1686066547.39,64.941,252.441,203.125,7.812,852.29,323.6547271345058
768,1686066547.39,-4.883,445.801,150.391,-15.137,852.303,312.827802546008
769,1686066547.4,-78.613,-71.289,-41.992,-37.109,852.307,317.5022053397445
770,1686066547.4,-22.461,-370.605,-145.996,-15.137,852.311,319.0938189344062
771,1686066547.4,65.43,26.855,28.809,18.555,852.315,301.0808531465024
772,1686066547.41,30.273,427.734,193.848,7.812,852.319,325.3663657908818
773,1686066547.41,-56.152,-331.543,-221.191,-23.926,852.323,313.9657471930075
774,1686066547.42,-41.016,-1000.0,-470.703,-19.531,852.327,326.74099977528584
775,1686066547.42,49.805,-198.242,45.41,5.371,852.33,315.0293610406108
776,1686066547.42,43.457,310.547,118.652,6.348,852.334,321.62469422343975
777,1686066547.43,-49.316,-310.547,-165.527,-21.484,852.338,328.6300351395829
778,1686066547.43,-63.477,-178.223,0.488,-28.32,852.342,316.00664544495885
779,1686066547.44,28.32,446.777,175.781,-9.766,852.346,321.51779424139204
780,1686066547.45,62.012,398.926,92.285,0.977,852.349,321.79838004412096
781,1686066547.46,-25.879,45.41,6.836,-26.367,852.353,327.62439423733105
782,1686066547.46,-76.172,44.434,36.133,-46.875,852.357,319.1304815347836
783,1686066547.46,3.418,309.57,150.879,-12.207,852.36,319.02286902859305
784,1686066547.47,60.059,282.715,84.473,4.883,852.364,320.01895296379826
785,1686066547.47,-6.836,-242.188,-154.785,-11.23,852.368,323.4210590499369
786,1686066547.48,-78.125,-270.02,-65.918,-30.762,852.372,323.31672205209503
787,1686066547.48,-21.973,227.051,137.207,-16.602,852.376,321.29746370057666
788,1686066547.48,69.336,87.402,-27.832,18.066,852.38,330.0889487674665
789,1686066547.49,30.273,-406.25,-156.25,6.836,852.384,323.34735146744026
790,1686066547.49,-61.035,-108.887,18.066,-37.598,852.388,321.7349364291364
791,1686066547.5,-43.457,-64.941,-76.172,-36.621,852.392,320.3148519236771
792,1686066547.5,55.176,-371.582,-166.992,13.672,852.394,323.5162343028501
793,1686066547.5,52.734,-224.609,-75.195,17.578,852.398,323.1047170704204
794,1686066547.5,-48.828,-121.094,-78.125,-20.02,852.402,317.06781828013135
795,1686066547.51,-61.523,-123.535,-101.562,-30.273,852.406,328.109347404633
796,1686066547.51,33.203,-312.5,-125.488,9.766,852.41,313.8550453757203
797,1686066547.52,65.43,-600.098,-209.473,22.949,852.413,322.1928159846082
798,1686066547.52,-15.137,-69.824,45.41,-20.996,852.417,317.78312371062475
799,1686066547.52,-66.895,214.355,86.426,-34.668,852.421,330.7917817083506
800,1686066547.53,3.418,-487.305,-209.473,-7.324,852.425,324.07403855180746
801,1686066547.53,65.918,-476.562,-132.324,16.602,852.429,318.1256463848896
802,1686066547.54,11.23,407.227,168.945,4.395,852.433,327.24535977954804
803,1686066547.54,-63.965,21.484,-97.656,-20.508,852.437,316.20023275786195
804,1686066547.54,-15.625,-128.906,-78.125,-23.926,852.441,321.7781331121251
805,1686066547.55,73.242,116.211,89.844,-3.906,852.445,324.6050010395001
806,1686066547.55,41.992,175.293,91.309,-1.953,852.449,336.6217659143065
807,1686066547.56,-51.758,59.082,6.836,-37.598,852.453,331.6436625220923
808,1686066547.56,-43.457,-348.633,-187.012,-31.25,852.457,320.1446490443174
809,1686066547.56,58.594,-292.48,-98.145,18.555,852.461,328.5961711243803
810,1686066547.57,72.266,139.648,159.668,18.555,852.465,339.9015085797771
811,1686066547.57,-30.762,26.855,-25.391,-16.602,852.468,323.9330610408699
812,1686066547.57,-67.871,-640.625,-313.477,-21.484,852.472,313.54553054847855
813,1686066547.58,23.926,-75.195,73.242,-0.488,852.476,329.28716480715866
814,1686066547.58,68.848,530.762,192.871,7.812,852.48,324.1803153718989
815,1686066547.59,-11.719,59.57,-21.973,-17.578,852.484,327.53517763424594
816,1686066547.59,-75.195,-153.32,-38.086,-37.109,852.484,329.95746659248186
817,1686066547.59,-3.906,185.547,106.445,-11.23,852.488,321.717721331391
818,1686066547.6,54.688,256.836,133.789,11.23,852.492,329.19695259637484
819,1686066547.6,-1.953,-402.832,-187.5,-1.465,852.496,322.38336022968554
820,1686066547.6,-69.336,-801.758,-342.285,-28.809,852.5,320.44659537492475
821,1686066547.61,-30.762,-335.449,-145.02,-19.531,852.504,332.0884902065847
822,1686066547.61,60.547,54.199,34.668,18.555,852.508,317.8880676449107
823,1686066547.61,45.898,-379.395,-154.785,20.996,852.512,335.7052360688921
824,1686066547.62,-46.387,-828.613,-366.211,-10.742,852.515,338.5797348590053
825,1686066547.62,-47.363,-20.996,39.551,-35.156,852.519,323.0698448821679
826,1686066547.63,53.223,339.355,139.648,0.0,852.523,327.84592386529823
827,1686066547.63,69.824,235.84,84.961,16.602,852.527,325.59417787282524
828,1686066547.63,-31.738,285.156,96.191,-33.203,852.53,326.3766674999494
829,1686066547.64,-77.637,264.16,90.82,-56.152,852.534,319.09869247052507
830,1686066547.64,8.789,163.574,65.43,-18.066,852.538,334.0877395260795
831,1686066547.64,60.547,176.27,113.77,0.488,852.542,318.8945612457831
832,1686066547.65,-10.254,263.672,72.266,-28.809,852.546,328.3075532507131
833,1686066547.65,-74.707,-102.539,-153.32,-46.387,852.55,323.72332176488646
834,1686066547.66,-12.207,-337.891,-161.133,-10.742,852.554,335.9907191947886
835,1686066547.66,74.707,-766.602,-261.719,36.621,852.558,331.64326718373314
836,1686066547.66,26.855,-453.613,-66.406,6.348,852.562,333.7983101580015
837,1686066547.67,-63.477,281.25,128.906,-41.992,852.565,329.31442142642624
838,1686066547.67,-29.785,-54.199,-70.312,-16.113,852.569,331.39608869030894
839,1686066547.68,63.965,-14.16,15.625,19.531,852.573,339.6414492555242
840,1686066547.68,57.129,406.738,182.129,9.277,852.574,315.46111206914924
841,1686066547.68,-40.527,312.012,87.891,-29.785,852.578,332.61141388416735
842,1686066547.68,-48.828,-314.453,-126.465,-23.438,852.582,326.6339958892124
843,1686066547.69,50.781,-300.781,-41.992,14.16,852.586,334.99359241924935
844,1686066547.69,75.684,270.508,124.023,10.742,852.59,342.37137241277884
845,1686066547.7,-19.531,55.664,-43.457,-20.508,852.594,339.27667581648194
846,1686066547.7,-75.195,-657.715,-362.793,-19.043,852.598,340.60679471250734
847,1686066547.7,3.906,-775.879,-321.289,12.207,852.602,322.8563775130757
848,1686066547.71,64.941,163.086,125.0,14.648,852.606,319.0148800939253
849,1686066547.71,-1.953,202.148,22.461,-5.859,852.61,338.16543468675746
850,1686066547.72,-81.543,-324.707,-197.266,-36.621,852.614,330.55701952638634
851,1686066547.72,-28.32,-90.82,5.859,-27.344,852.617,323.149411631341
852,1686066547.72,57.129,435.059,192.871,5.371,852.623,329.08620926229247
853,1686066547.73,20.02,333.984,53.711,-4.395,852.627,327.9946073415574
854,1686066547.73,-71.777,-298.828,-173.828,-34.668,852.631,333.86496001894494
855,1686066547.74,-56.641,-156.738,-15.137,-23.926,852.634,328.75286563057335
856,1686066547.74,46.387,303.711,151.367,15.625,852.638,336.3967035878713
857,1686066547.74,50.781,-13.672,-61.035,16.113,852.642,329.16972872433047
858,1686066547.75,-53.223,-673.828,-296.387,-19.043,852.646,327.29257612665816
859,1686066547.75,-80.078,-342.285,-26.367,-28.809,852.65,333.2546695471023
860,1686066547.76,23.926,359.863,180.664,3.418,852.654,331.10564126988504
861,1686066547.76,62.5,189.941,11.23,19.531,852.658,323.46562911555134
862,1686066547.76,-34.668,-30.762,-48.828,-12.695,852.662,323.219757234213
863,1686066547.77,-80.078,20.02,10.742,-34.18,852.666,323.0966420787941
864,1686066547.77,2.93,-70.312,-39.551,-4.883,852.678,338.76974225197233
865,1686066547.77,72.266,-319.336,-125.0,33.691,852.682,341.26539578466145
866,1686066547.78,14.648,-571.777,-273.926,15.625,852.685,340.0100863355215
867,1686066547.78,-67.383,-281.738,-148.926,-22.949,852.689,331.0104186705372
868,1686066547.78,-21.973,138.672,97.168,-9.277,852.693,331.60170452569395
869,1686066547.79,62.988,-325.195,-152.344,35.645,852.697,335.5279266380826
870,1686066547.79,37.109,-961.914,-374.512,33.691,852.701,342.51352724717367
871,1686066547.8,-59.082,-240.723,10.742,-19.531,852.705,333.28905863778533
872,1686066547.8,-52.734,145.508,37.598,-20.996,852.709,338.3828282581261
873,1686066547.8,54.688,25.879,33.691,24.414,852.713,327.8221728760503
874,1686066547.81,60.547,280.273,155.273,25.879,852.717,341.8217662609975
875,1686066547.81,-37.598,340.82,90.82,-5.859,852.721,317.6206826532254
876,1686066547.83,-59.082,81.055,-15.137,-17.09,852.724,325.18239778825364
877,1686066547.83,38.086,28.32,28.809,17.09,852.728,330.81076264249754
878,1686066547.84,73.242,108.887,77.637,31.738,852.732,335.164069322671
879,1686066547.84,-7.812,95.215,65.918,-1.953,852.735,327.2687917127183
880,1686066547.84,-53.711,-41.016,-80.078,-18.555,852.739,322.72717633618095
881,1686066547.85,14.16,-660.645,-289.551,11.23,852.743,332.00818357930024
882,1686066547.85,81.055,-362.305,-11.23,30.273,852.747,331.2730964658651
883,1686066547.85,24.902,352.051,154.297,-0.488,852.751,339.55485297158356
884,1686066547.86,-62.012,-83.984,-173.34,-29.297,852.755,327.38186141307125
885,1686066547.86,-24.414,-468.75,-246.582,-16.113,852.759,325.94691686643307
886,1686066547.87,72.266,203.613,162.598,16.602,852.763,326.9107161926306
887,1686066547.87,49.805,438.477,149.902,13.184,852.767,327.0428628171477
888,1686066547.87,-42.48,-75.195,-79.102,-18.066,852.769,334.3757734891092
889,1686066547.88,-41.992,-175.293,-50.293,-19.043,852.773,321.8235782544762
890,1686066547.88,51.27,-18.555,40.527,16.113,852.777,327.49778340099914
891,1686066547.88,73.242,98.633,100.586,21.973,852.781,317.51664575471295
892,1686066547.89,-22.461,-350.098,-182.129,-3.906,852.785,338.80030008533777
893,1686066547.89,-72.266,-862.793,-403.32,-17.09,852.789,324.16311529900696
894,1686066547.9,19.531,-324.219,-76.172,-2.93,852.792,336.4204072066131
895,1686066547.9,67.383,85.938,82.031,11.23,852.796,332.6435734391091
896,1686066547.9,-20.508,-433.105,-247.559,-6.348,852.8,329.0423797940128
897,1686066547.91,-85.449,-830.566,-407.715,-35.645,852.804,323.87752786292094
898,1686066547.91,-18.555,80.566,88.867,-28.32,852.808,322.8393901022298
899,1686066547.92,63.477,346.68,94.238,9.277,852.812,332.42681877187675
900,1686066547.92,12.695,50.781,1.953,-5.371,852.814,329.2499988582101
901,1686066547.92,-77.148,88.379,46.875,-45.898,852.818,321.9902944785724
902,1686066547.92,-39.551,225.098,84.961,-29.297,852.822,331.0229038415328
903,1686066547.93,62.5,255.859,90.332,19.531,852.826,331.3386133914626
904,1686066547.93,47.852,108.398,19.531,18.066,852.83,322.99690183332046
905,1686066547.94,-55.664,-198.73,-118.164,-17.578,852.833,325.0603353661718
906,1686066547.94,-61.523,-203.613,-111.328,-27.344,852.837,331.9812356061309
907,1686066547.94,37.598,-28.809,1.465,-0.977,852.841,330.4107178116359
908,1686066547.95,48.828,-741.699,-310.547,17.09,852.845,328.5359722359905
909,1686066547.95,-45.898,-528.809,-172.852,-22.461,852.849,321.34815821781444
910,1686066547.96,-85.449,145.508,66.895,-45.898,852.853,325.13495942016965
911,1686066547.96,-4.395,-142.09,-59.082,-13.672,852.857,336.49822304546797
912,1686066547.96,58.105,35.156,39.551,4.395,852.859,324.57762251304064
913,1686066547.97,-7.324,383.301,138.672,-16.602,852.863,314.48016965045963
914,1686066547.97,-83.496,62.988,-46.387,-29.297,852.867,331.86052058372263
915,1686066547.98,-24.902,-577.148,-305.664,2.441,852.871,328.9511558265658
916,1686066547.98,56.641,-480.469,-167.48,25.391,852.875,332.62283336236555
917,1686066547.98,20.02,-14.16,38.086,7.324,852.879,329.117205980625
918,1686066547.99,-60.547,-89.355,-75.684,-22.949,852.882,319.41907248627336
919,1686066547.99,-42.969,-603.027,-305.176,-20.996,852.886,333.6161550409754
920,1686066547.99,60.547,-547.852,-165.039,7.812,852.89,318.3626910109453
921,1686066548.0,57.129,381.836,203.613,0.0,852.894,328.0175337837432
922,1686066548.0,-45.41,163.086,-53.223,-25.879,852.898,324.48582002747327
923,1686066548.01,-54.199,-441.406,-236.816,-27.344,852.902,329.2247925137802
924,1686066548.01,35.156,-64.453,51.27,-0.977,852.904,323.05085802990715
925,1686066548.01,57.129,515.625,198.242,1.465,852.908,328.37761172166176
926,1686066548.02,-23.438,185.547,-9.766,-16.113,852.912,326.2003265844336
927,1686066548.02,-69.336,-153.809,-87.402,-33.691,852.916,336.9069987954318
928,1686066548.02,4.883,131.836,64.453,-10.254,852.92,332.01676515462134
929,1686066548.03,66.895,151.855,87.891,31.738,852.924,335.189543968581
930,1686066548.03,6.348,-165.527,-81.055,15.137,852.928,330.4220236698918
931,1686066548.03,-73.73,-660.156,-298.34,-17.578,852.931,330.50481279902857
932,1686066548.04,-31.25,-253.906,-2.441,-12.695,852.935,336.9703220846575
933,1686066548.04,64.941,492.676,214.355,12.695,852.939,334.7420033968149
934,1686066548.05,31.738,218.262,19.531,0.488,852.943,327.3848655360792
935,1686066548.05,-65.918,-72.754,-81.055,-37.109,852.947,330.73901568429744
936,1686066548.07,-52.734,80.078,4.883,-36.133,852.966,328.2298292177638
937,1686066548.07,41.504,146.484,103.516,3.906,852.97,325.0719522347335
938,1686066548.08,42.969,-344.238,-143.555,12.207,852.974,333.5141536968055
939,1686066548.08,-47.363,-795.41,-365.234,-18.555,852.978,335.68363224832666
940,1686066548.08,-68.359,-159.668,-6.836,-38.086,852.982,326.71271225155397
941,1686066548.09,19.043,142.578,97.168,1.953,852.986,320.89662959452335
942,1686066548.09,62.5,-451.172,-180.176,38.086,852.99,324.2875143986064
943,1686066548.1,-19.043,-633.301,-218.75,-7.812,852.994,330.77755609099927
944,1686066548.1,-76.172,113.281,109.863,-44.434,852.998,326.9378932527631
945,1686066548.1,-58.105,263.184,89.844,-28.809,852.996,325.08434115428906
946,1686066548.1,6.836,248.047,76.66,-2.441,853.001,332.0425502158268
947,1686066548.1,-17.09,92.285,13.184,-2.93,853.0,326.68113480821415
948,1686066548.11,75.684,145.996,89.355,28.809,853.005,322.00315377238417
949,1686066548.11,80.566,61.035,50.293,45.898,853.004,330.7817127120104
950,1686066548.11,69.336,84.961,66.406,48.34,853.008,331.67146523652093
951,1686066548.11,14.16,257.812,145.02,-1.465,853.009,335.2259535954426
952,1686066548.12,-40.527,1.465,-29.297,-6.836,853.012,326.57623998172227
953,1686066548.12,-52.246,-284.668,-192.871,-11.23,853.015,326.48233590463695
954,1686066548.12,54.688,-312.988,-94.238,45.898,853.019,326.8845283269637
955,1686066548.13,81.055,183.105,123.535,60.059,853.023,325.974750385578
956,1686066548.13,-11.719,293.945,115.234,27.344,853.027,324.8188169198205
957,1686066548.13,-37.109,-123.535,-150.391,28.809,853.031,325.9928893408704
958,1686066548.14,55.664,-856.934,-419.434,78.125,853.035,321.61600150179544
959,1686066548.14,110.84,-274.902,35.645,87.891,853.039,311.4424606510287
960,1686066548.14,31.25,352.539,134.277,51.758,853.069,322.632332852109
961,1686066548.15,-27.832,-119.141,-79.59,37.598,853.072,329.4515975814178
962,1686066548.15,53.223,-353.027,-62.988,68.848,853.076,331.85368373866703
963,1686066548.16,125.488,18.066,59.57,86.914,853.08,326.3612292049962
964,1686066548.16,71.289,348.633,134.277,63.965,853.084,330.26681056938287
965,1686066548.16,-20.996,-367.676,-235.84,51.758,853.088,345.09797641973955
966,1686066548.17,-2.441,-1000.0,-459.961,68.359,853.092,318.7198109475201
967,1686066548.17,88.867,-293.457,37.598,76.66,853.096,326.6854187772922
968,1686066548.17,83.984,361.328,167.48,64.453,853.1,328.45444073782716
969,1686066548.18,-14.648,-82.031,-102.051,33.691,853.104,314.7978684779324
970,1686066548.18,-26.367,-122.559,-15.625,32.227,853.108,334.538831323761
971,1686066548.19,71.289,452.637,201.172,56.152,853.112,339.5634989675557
972,1686066548.2,93.262,459.961,118.164,59.57,853.099,326.4176378368716
973,1686066548.21,-2.93,-124.023,-102.539,29.297,853.103,337.2821847138
974,1686066548.21,-51.27,-126.465,-20.508,7.812,853.107,323.8064536176799
975,1686066548.22,34.18,324.707,135.742,31.738,853.111,322.7568253628645
976,1686066548.22,94.727,286.133,76.66,52.246,853.115,330.8540874590124
977,1686066548.22,14.648,-264.648,-157.715,33.203,853.119,333.9931864020908
978,1686066548.23,-61.035,-295.41,-107.91,0.0,853.122,333.49130881725944
979,1686066548.23,0.0,250.488,138.184,17.09,853.126,316.23899178869965
980,1686066548.23,84.473,91.309,-4.395,65.918,853.13,326.89210530197386
981,1686066548.24,46.875,-191.406,-100.586,49.805,853.134,337.69172975416166
982,1686066548.24,-45.41,94.238,48.34,-8.301,853.138,335.0379384916538
983,1686066548.25,-33.203,278.809,121.094,-2.93,853.142,327.55649520291047
984,1686066548.25,64.941,-101.562,-86.914,52.246,853.144,331.3446020039847
985,1686066548.25,60.059,-685.547,-288.086,50.781,853.147,330.4040337801007
986,1686066548.26,-39.062,-414.062,-121.582,6.836,853.151,329.62169411837647
987,1686066548.26,-39.551,-238.281,-154.297,0.0,853.155,342.6682998409875
988,1686066548.26,51.758,-487.305,-231.445,34.18,853.159,331.3871008485689
989,1686066548.27,71.777,-638.184,-224.609,52.734,853.163,333.0236900737609
990,1686066548.27,-11.719,-135.254,18.066,14.16,853.167,322.1767658230749
991,1686066548.28,-61.035,257.324,114.258,-15.137,853.171,332.17390536721354
992,1686066548.28,22.461,-385.742,-185.059,17.09,853.175,329.06702907774803
993,1686066548.28,78.613,-479.004,-157.715,44.922,853.179,330.2315974283576
994,1686066548.29,8.301,363.77,169.922,11.23,853.183,330.61337449002144
995,1686066548.29,-49.316,37.598,-82.52,-18.066,853.187,324.4006422751973
996,1686066548.29,-2.93,-335.938,-173.828,1.953,853.189,331.3408939945705
997,1686066548.3,75.684,101.074,97.656,22.461,853.193,324.9780087259956
998,1686066548.3,47.363,492.676,197.754,0.488,853.197,321.1618556620101
999,1686066548.3,-52.246,132.324,-33.691,-25.879,853.201,329.8171401312551
1000,1686066548.31,-38.086,-105.469,-93.262,-15.625,853.205,320.9125147048823
1001,1686066548.31,63.477,-27.832,43.945,28.32,853.208,333.9121211210819
1002,1686066548.32,52.246,155.762,122.559,25.879,853.212,328.3885323132367
1003,1686066548.32,-45.41,34.668,-55.664,-12.207,853.216,327.42477938115223
1004,1686066548.32,-61.035,-654.785,-331.055,-11.23,853.22,316.5048680000005
1005,1686066548.33,36.621,-125.977,74.707,4.883,853.224,316.6905062666626
1006,1686066548.33,71.777,551.758,232.91,5.859,853.228,321.9616841476504
1007,1686066548.34,-19.043,104.004,-40.039,-12.695,853.232,334.2505038853537
1008,1686066548.34,-66.406,-142.578,-99.121,-25.879,853.237,331.3309843303459
1009,1686066548.34,13.672,68.359,41.504,-2.441,853.241,324.8824984612663
1010,1686066548.35,69.336,91.797,73.73,19.043,853.244,333.1133863752598
1011,1686066548.35,7.812,-426.758,-190.43,6.348,853.248,332.26474931944637
1012,1686066548.36,-57.129,-817.871,-400.391,-11.23,853.252,322.86897328566647
1013,1686066548.36,-13.672,-369.141,-132.812,0.0,853.256,330.23996326531994
1014,1686066548.36,70.312,35.156,73.73,24.414,853.26,326.61181471652446
1015,1686066548.37,43.945,-393.555,-182.129,22.949,853.264,332.43556839053565
1016,1686066548.37,-56.641,-679.688,-253.906,-16.602,853.268,329.3953020904497
1017,1686066548.37,-53.223,145.02,127.93,-36.621,853.272,333.3686835338024
1018,1686066548.38,44.434,324.219,101.562,5.371,853.276,331.558281118424
1019,1686066548.38,51.758,120.605,69.824,9.277,853.28,321.44995050237503
1020,1686066548.38,-53.711,176.758,107.422,-34.18,853.28,314.9411385393514
1021,1686066548.39,-75.684,249.023,78.613,-39.062,853.284,328.87468573251823
1022,1686066548.39,16.602,165.527,44.922,0.0,853.288,332.49104412092197
1023,1686066548.4,53.223,105.957,61.523,21.484,853.292,335.8998976846975
1024,1686066548.4,-20.508,-32.227,-41.504,-10.742,853.296,333.78624994232
1025,1686066548.4,-83.496,-316.406,-216.309,-41.504,853.3,323.7360543043012
1026,1686066548.41,-19.043,-294.922,-172.852,-13.672,853.304,332.70217163230296
1027,1686066548.41,54.688,-742.188,-307.617,21.973,853.307,328.2131026079248
1028,1686066548.41,-3.418,-554.199,-156.738,-2.93,853.311,325.9224903145115
1029,1686066548.42,-67.871,196.777,88.867,-33.691,853.315,326.82778479721463
1030,1686066548.42,-20.996,-19.043,-31.25,-19.043,853.319,330.2999016419268
1031,1686066548.43,53.223,45.41,55.176,-2.93,853.323,329.48373896784864
1032,1686066548.43,20.996,456.055,198.242,-30.762,853.324,324.713900818669
1033,1686066548.43,-87.891,343.75,109.375,-85.449,853.328,339.7286248720945
1034,1686066548.44,-99.121,-417.48,-195.801,-88.379,853.332,318.52860973484644
1035,1686066548.44,-7.324,-415.527,-122.07,-51.27,853.336,323.12683465492927
1036,1686066548.44,-0.488,309.57,165.039,-70.801,853.34,331.7900403681995
1037,1686066548.45,-105.469,44.434,-19.043,-121.582,853.344,321.45528714442906
1038,1686066548.45,-156.25,-637.695,-349.121,-136.719,853.347,319.9779813112311
1039,1686066548.46,-76.66,-930.664,-355.957,-111.816,853.351,321.72884254572784
1040,1686066548.46,-23.926,-1.465,129.395,-110.352,853.355,325.2215390850583
1041,1686066548.46,-103.516,373.535,98.145,-145.02,853.359,329.1500243021819
1042,1686066548.47,-176.758,-76.172,-133.301,-166.992,853.363,328.40402738833893
1043,1686066548.47,-106.934,64.941,11.23,-153.32,853.367,332.2083488767132
1044,1686066548.47,-19.043,461.426,194.824,-123.535,853.371,323.36802676922247
1045,1686066548.48,-60.547,333.984,63.965,-113.281,853.375,324.3263767142847
1046,1686066548.48,-141.113,-68.359,-77.637,-138.184,853.379,331.57285997706794
1047,1686066548.49,-102.051,24.902,26.855,-131.348,853.383,339.4981571709049
1048,1686066548.49,0.977,333.008,149.414,-82.031,853.386,331.5935873853609
1049,1686066548.49,-10.254,89.355,10.742,-68.848,853.39,328.646948679995
1050,1686066548.5,-101.562,-654.785,-273.438,-88.867,853.394,342.03097604783574
1051,1686066548.5,-89.355,-391.113,-56.152,-87.891,853.398,327.8377537308058
1052,1686066548.5,30.273,336.914,186.523,-46.875,853.402,321.9766227736895
1053,1686066548.51,58.594,78.125,-26.367,-19.531,853.406,331.98787792899367
1054,1686066548.51,-31.738,-250.488,-151.855,-36.621,853.41,327.1961559385417
1055,1686066548.52,-59.57,62.988,69.336,-44.434,853.414,319.18361547854295
1056,1686066548.52,31.25,314.453,138.184,-12.207,853.428,325.95293398688955
1057,1686066548.52,78.613,75.195,36.621,5.371,853.432,321.9806895185482
1058,1686066548.53,11.23,-346.191,-144.043,-7.324,853.436,324.9194282262917
1059,1686066548.53,-53.223,-231.934,-110.84,-14.16,853.44,324.3096502164605
1060,1686066548.53,7.324,172.852,104.004,1.953,853.444,331.7062038679873
1061,1686066548.54,89.844,-296.387,-131.836,36.621,853.448,331.66376622696833
1062,1686066548.54,51.27,-962.891,-368.652,47.363,853.452,320.2958150526378
1063,1686066548.54,-37.109,-256.836,0.0,4.883,853.456,319.75748472396424
1064,1686066548.55,-15.137,188.477,92.773,2.93,853.46,327.17047227539206
1065,1686066548.55,80.078,135.742,108.887,38.574,853.463,324.2943871698544
1066,1686066548.56,70.801,340.82,193.848,30.762,853.467,323.74135049477593
1067,1686066548.56,-21.973,273.926,80.566,-7.324,853.471,321.20694057537315
1068,1686066548.58,-41.016,-119.629,-127.441,-11.23,853.479,321.00840344528086
1069,1686066548.58,48.34,-289.062,-128.906,26.367,853.483,324.9010715219356
1070,1686066548.59,79.102,104.004,106.934,35.645,853.487,314.44262807252437
1071,1686066548.59,-5.859,369.141,142.578,-1.953,853.491,325.5734349651424
1072,1686066548.6,-51.27,-11.719,-84.961,-17.09,853.494,323.88786622748256
1073,1686066548.6,26.855,-365.723,-174.316,23.438,853.498,318.8143092481384
1074,1686066548.6,99.121,-142.578,33.691,47.363,853.502,324.9792950837129
1075,1686066548.61,38.574,284.18,178.223,19.531,853.506,323.33329668422516
1076,1686066548.61,-41.016,-80.566,-157.715,-7.812,853.51,327.35937183369026
1077,1686066548.62,10.742,-566.406,-276.367,17.578,853.514,332.62808297514863
1078,1686066548.62,97.168,128.418,168.945,44.922,853.518,334.99890394561316
1079,1686066548.62,66.895,454.59,156.738,28.32,853.522,325.06499344369814
1080,1686066548.62,-30.273,-39.551,-58.594,0.0,853.519,330.74792466069135
1081,1686066548.63,-19.043,-138.184,-48.34,5.859,853.523,333.90813732586975
1082,1686066548.63,88.379,103.516,55.664,49.805,853.527,337.10175901666827
1083,1686066548.64,84.961,78.613,52.246,53.711,853.531,322.91336208637694
1084,1686066548.64,-16.113,-459.961,-221.68,15.137,853.534,333.4392378880101
1085,1686066548.64,-34.668,-785.645,-345.215,3.906,853.538,341.6369459647317
1086,1686066548.65,57.129,-141.113,7.812,30.273,853.542,332.9739917751392
1087,1686066548.65,90.82,389.16,176.758,40.527,853.546,323.2255430359077
1088,1686066548.65,9.766,-266.602,-207.52,21.484,853.55,322.2070014111531
1089,1686066548.66,-52.246,-1000.0,-455.078,3.418,853.554,323.51193244312964
1090,1686066548.66,9.277,-145.02,65.43,7.324,853.558,322.02927823468735
1091,1686066548.67,73.242,393.555,148.438,25.879,853.562,323.078781357864
1092,1686066548.67,21.973,117.188,32.227,17.09,853.564,322.4464961027747
1093,1686066548.67,-55.176,133.789,87.402,-7.812,853.568,320.97860285943807
1094,1686066548.68,-21.973,304.199,121.582,2.441,853.572,328.08296874002605
1095,1686066548.68,60.059,317.383,121.094,31.738,853.576,330.3065745646692
1096,1686066548.68,47.363,123.047,60.547,28.809,853.58,327.4069788762318
1097,1686066548.69,-48.34,-93.75,-45.41,-2.441,853.584,319.18353209377847
1098,1686066548.69,-42.969,-244.629,-156.25,-1.465,853.587,328.2839596827048
1099,1686066548.69,62.012,-125.488,-60.059,29.297,853.591,328.1338684338892
1100,1686066548.7,51.27,-657.715,-254.883,23.926,853.595,336.81331566819085
1101,1686066548.7,-56.641,-568.359,-161.621,-26.855,853.599,328.16987789344967
1102,1686066548.71,-89.844,202.148,146.484,-53.711,853.603,325.30966797020403
1103,1686066548.71,-3.418,5.859,-14.648,-28.32,853.607,317.1249139859169
1104,1686066548.71,41.504,37.109,-15.137,-13.184,853.609,325.44683053026904
1105,1686066548.72,-40.039,330.078,119.629,-43.457,853.613,316.3932174560811
1106,1686066548.72,-114.746,-20.508,-62.5,-74.219,853.617,330.3688094346219
1107,1686066548.72,-42.969,-623.535,-319.824,-31.738,853.621,323.47412515997115
1108,1686066548.73,41.504,-508.301,-175.293,3.906,853.625,332.16052218855594
1109,1686066548.73,-1.953,-6.836,59.082,-20.996,853.629,321.42442356213314
1110,1686066548.74,-80.078,-83.496,-69.336,-46.387,853.633,325.5248184033259
1111,1686066548.74,-41.504,-603.516,-320.312,-22.949,853.636,335.9850398116228
1112,1686066548.74,56.641,-627.93,-178.711,21.484,853.64,329.5943110747891
1113,1686066548.75,42.48,304.688,203.125,0.488,853.644,335.0370346776818
1114,1686066548.75,-57.617,292.969,24.414,-41.992,853.648,313.5105161232463
1115,1686066548.76,-60.059,-293.945,-180.664,-35.156,853.652,338.5164308390309
1116,1686066548.76,41.016,-44.922,48.34,-9.277,853.655,323.64792461122215
1117,1686066548.76,58.105,544.922,222.656,-6.836,853.659,317.04042664405443
1118,1686066548.77,-33.203,259.766,9.277,-25.391,853.663,328.39565885807866
1119,1686066548.77,-69.336,-64.941,-45.898,-33.691,853.666,317.59673713499427
1120,1686066548.77,12.207,203.613,113.281,-6.836,853.67,311.0720137874516
1121,1686066548.78,66.895,238.77,112.793,13.184,853.674,319.59561021299265
1122,1686066548.78,6.836,-122.559,-75.684,-2.441,853.678,319.40914095972596
1123,1686066548.78,-62.012,-675.781,-276.367,-23.438,853.682,334.22498739088354
1124,1686066548.79,-7.812,-250.0,20.508,-11.719,853.686,338.3526055952279
1125,1686066548.79,64.453,496.582,222.168,9.277,853.69,322.0728556479287
1126,1686066548.8,23.926,60.547,-58.594,1.465,853.694,320.73956412964026
1127,1686066548.8,-59.082,-363.77,-201.66,-26.367,853.698,322.0646108037504
1128,1686066548.8,-46.387,57.617,70.801,-29.785,853.699,336.35047773950464
1129,1686066548.81,51.758,455.078,218.75,12.207,853.703,331.10326159173206
1130,1686066548.81,50.293,-233.398,-130.859,25.879,853.707,324.10095828474556
1131,1686066548.81,-42.48,-731.445,-281.25,-18.066,853.711,329.7744032596311
1132,1686066548.82,-55.176,-92.285,21.484,-31.738,853.714,330.5612515350766
1133,1686066548.82,40.527,67.383,55.664,10.742,853.718,322.1455689768076
1134,1686066548.82,67.871,-483.398,-186.035,29.297,853.722,328.4796393894822
1135,1686066548.83,-23.926,-755.371,-306.641,-5.859,853.726,334.31028286906553
1136,1686066548.83,-77.148,-2.93,51.27,-42.969,853.73,329.15534312527774
1137,1686066548.84,5.371,261.719,119.141,-16.113,853.734,322.78834642877746
1138,1686066548.84,68.848,186.035,105.469,13.184,853.738,327.7290738009225
1139,1686066548.84,0.0,270.508,116.211,-18.555,853.742,324.491178123765
1140,1686066548.85,-76.172,172.363,22.461,-48.828,853.75,326.6322845575359
1141,1686066548.86,-23.438,-120.117,-137.207,-29.297,853.754,332.88111931902927
1142,1686066548.86,65.918,-223.633,-120.117,-4.883,853.758,319.0688275772255
1143,1686066548.86,35.645,96.68,86.914,-28.809,853.762,327.334212770649
1144,1686066548.87,-58.105,203.125,69.336,-62.5,853.766,322.3347778002779
1145,1686066548.87,-52.246,-238.281,-209.961,-40.527,853.769,335.32073833602664
1146,1686066548.87,38.574,-653.809,-235.352,4.395,853.773,341.29636127300944
1147,1686066548.88,55.664,-142.578,85.938,3.906,853.777,323.2222162761796
1148,1686066548.88,-33.691,359.375,146.973,-35.156,853.781,323.8952318606581
1149,1686066548.89,-63.477,-61.035,-87.402,-31.738,853.785,330.89753039232926
1150,1686066548.89,27.832,-84.473,-73.73,9.766,853.789,325.92887035101575
1151,1686066548.89,-32.227,399.414,131.836,-18.066,853.803,320.5226279141919
1152,1686066548.89,57.617,416.992,180.176,16.113,853.793,323.7946137023749
1153,1686066548.9,-74.707,-83.008,-45.898,-36.133,853.807,326.5784422257468
1154,1686066548.9,15.625,-353.516,-135.742,-6.348,853.811,331.5353232694028
1155,1686066548.9,80.078,-173.828,-36.621,21.973,853.815,319.99434664170946
1156,1686066548.91,5.859,50.293,41.992,0.488,853.819,333.8726937729256
1157,1686066548.91,-72.266,-390.137,-272.461,-24.902,853.823,320.16311700769666
1158,1686066548.92,-35.156,-1000.0,-586.914,-4.883,853.827,329.1466185845478
1159,1686066548.92,45.898,-512.207,-178.711,13.184,853.831,330.8579413596216
1160,1686066548.92,20.02,294.434,128.418,-4.883,853.834,336.82999552227255
1161,1686066548.93,-63.477,46.387,-65.43,-37.109,853.838,321.4276588461586
1162,1686066548.93,-51.758,12.207,-25.879,-36.621,853.842,317.9430997367372
1163,1686066548.94,43.945,391.602,162.109,0.488,853.846,321.76251372608766
1164,1686066548.95,57.617,368.164,85.449,5.371,853.862,331.7659435774608
1165,1686066548.96,-40.527,-1.953,-41.504,-26.367,853.866,331.5902589630172
1166,1686066548.96,-77.148,28.32,38.086,-38.086,853.869,322.96794704996233
1167,1686066548.96,14.648,345.703,159.668,-13.184,853.873,329.76921075214375
1168,1686066548.97,52.734,300.781,92.285,2.441,853.877,334.2734530157064
1169,1686066548.97,-28.32,-238.77,-157.227,-18.555,853.881,325.58549260179404
1170,1686066548.98,-80.566,-428.711,-213.379,-40.527,853.885,339.9905981081336
1171,1686066548.98,-15.625,-47.852,11.23,-16.602,853.889,337.39053545127047
1172,1686066548.98,57.617,145.02,38.574,12.695,853.893,323.22534748855503
1173,1686066548.99,5.859,-584.961,-260.742,2.93,853.897,309.5826127975068
1174,1686066548.99,-77.637,-437.012,-79.59,-34.668,853.901,336.6182691731697
1175,1686066549.0,-38.086,203.125,116.699,-24.414,853.905,325.1889183258378
1176,1686066549.0,54.199,117.676,38.086,17.578,853.894,319.6766450967557
1177,1686066549.0,41.504,134.766,41.992,11.23,853.898,319.407401576814
1178,1686066549.01,-50.781,-39.551,-77.637,-19.531,853.902,338.1470161675388
1179,1686066549.01,-56.641,-125.488,-66.895,-23.438,853.906,325.6235742780084
1180,1686066549.01,37.598,-286.621,-108.398,12.207,853.909,324.09713155479665
1181,1686066549.02,60.547,-611.816,-251.465,24.414,853.913,320.6920426318785
1182,1686066549.02,-33.691,-262.207,-73.73,-21.484,853.917,325.2324754415597
1183,1686066549.02,-77.637,47.852,0.0,-46.387,853.921,329.87743674204853
1184,1686066549.03,10.742,-477.539,-193.359,0.0,853.925,330.02974762905905
1185,1686066549.03,60.059,-635.742,-171.875,19.531,853.929,317.82330243161806
1186,1686066549.04,-17.09,280.762,157.227,-33.691,853.933,330.5698069812881
1187,1686066549.04,-77.148,253.906,17.09,-57.617,853.937,322.1177404885904
1188,1686066549.05,-22.461,-410.156,-135.742,-28.809,853.942,329.54357276818206
1189,1686066549.05,45.41,-166.504,42.969,1.465,853.945,329.4871126163738
1190,1686066549.06,2.441,483.887,170.898,-20.508,853.949,329.2457189058378
1191,1686066549.06,-79.102,151.367,-21.973,-50.781,853.953,332.3566067212955
1192,1686066549.06,-53.223,-220.703,-148.926,-30.273,853.957,329.6953256080257
1193,1686066549.07,34.668,-202.637,-54.199,3.906,853.961,325.72854104503296
1194,1686066549.07,28.809,67.383,99.609,-1.465,853.965,335.049187919278
1195,1686066549.07,-53.711,-0.977,-54.199,-30.762,853.969,312.89984183871303
1196,1686066549.08,-64.453,-660.645,-316.406,-24.902,853.973,322.86030141452176
1197,1686066549.08,27.832,-150.879,36.133,8.301,853.977,330.33951606085714
1198,1686066549.09,60.547,542.969,205.566,23.438,853.981,334.39633164409804
1199,1686066549.09,-83.984,-573.73,-253.906,-27.344,853.984,323.5355986210456
1200,1686066549.09,-31.25,-177.734,-180.664,-3.906,853.985,314.24292866681697
1201,1686066549.09,11.23,154.785,109.863,0.977,853.987,329.1294101415901
1202,1686066549.1,78.125,267.09,101.074,29.297,853.991,318.31526834083473
1203,1686066549.1,7.324,-462.891,-221.68,5.371,853.995,319.0813984530485
1204,1686066549.1,-62.5,-728.027,-309.57,-23.926,853.999,319.62118740492826
1205,1686066549.11,0.0,-234.375,-40.039,-11.719,854.003,338.08003411768095
1206,1686066549.11,86.426,90.332,64.941,14.648,854.007,334.0810478974095
1207,1686066549.11,42.969,-368.652,-184.082,-0.488,854.011,331.78343716471716
1208,1686066549.12,-57.617,-722.656,-295.898,-35.645,854.015,330.41586705203827
1209,1686066549.12,-52.734,133.789,115.723,-37.109,854.019,318.91954209637885
1210,1686066549.13,37.598,419.922,157.227,-3.418,854.023,328.806917984985
1211,1686066549.13,37.598,225.586,90.82,0.488,854.027,339.25389318365984
1212,1686066549.13,-48.34,185.059,81.543,-37.598,854.033,326.9670590735338
1213,1686066549.14,-62.012,90.332,-24.902,-42.48,854.037,329.8083337346278
1214,1686066549.14,34.18,-68.359,-33.203,-5.859,854.041,324.11752049764414
1215,1686066549.15,64.453,-88.379,39.551,4.395,854.045,325.6667278523792
1216,1686066549.15,-23.926,52.734,-7.324,-26.367,854.049,334.2234602154471
1217,1686066549.15,-68.359,-110.84,-126.465,-32.715,854.053,333.9060695301056
1218,1686066549.16,11.23,-284.18,-149.414,-0.488,854.057,331.65939394706567
1219,1686066549.16,75.684,-493.164,-156.738,26.855,854.06,330.83774194548084
1220,1686066549.16,10.254,-131.348,41.992,-1.465,854.064,319.8113150664707
1221,1686066549.17,-67.871,346.68,125.488,-41.504,854.068,334.8152991004245
1222,1686066549.17,-16.602,-23.926,-57.617,-14.648,854.072,327.8714044444329
1223,1686066549.18,66.895,5.371,9.277,22.949,854.076,306.0011540119928
1224,1686066549.18,34.18,392.578,155.273,13.672,854.074,336.2129793714006
1225,1686066549.18,-59.082,316.406,83.984,-24.414,854.078,331.8564924215557
1226,1686066549.18,-56.152,-408.203,-213.379,-23.438,854.082,325.5198946802772
1227,1686066549.19,44.922,-479.004,-165.527,11.23,854.086,321.07807239314275
1228,1686066549.19,59.57,88.867,73.242,14.648,854.09,326.45424470893124
1229,1686066549.2,-35.645,-136.23,-115.723,-15.625,854.094,328.7360800298824
1230,1686066549.2,-62.012,-638.184,-372.559,-12.207,854.098,325.2498925856573
1231,1686066549.2,23.438,-937.5,-364.746,22.461,854.101,329.03795844918767
1232,1686066549.21,66.406,-93.75,87.402,26.855,854.105,322.0030314834517
1233,1686066549.21,-4.395,348.633,72.754,-1.953,854.109,331.08060396880126
1234,1686066549.22,-63.477,-77.148,-171.387,-20.02,854.113,323.79447571508314
1235,1686066549.22,3.906,4.395,-27.344,4.883,854.117,334.2469586836101
1236,1686066549.22,68.848,521.484,225.586,13.672,854.121,340.0358339992759
1237,1686066549.23,18.555,376.953,66.406,0.977,854.125,318.641691524098
1238,1686066549.23,-55.664,-213.379,-176.758,-20.02,854.129,319.7310751568349
1239,1686066549.24,-25.391,-17.09,3.906,-15.625,854.133,324.8545519478209
1240,1686066549.24,62.5,399.902,160.645,11.23,854.136,326.1580148793817
1241,1686066549.24,43.945,102.051,4.395,6.348,854.14,321.5962766124703
1242,1686066549.25,-56.152,-644.531,-282.227,-12.695,854.144,327.5776141563712
1243,1686066549.25,-61.035,-562.5,-211.914,-22.461,854.148,325.79988102518104
1244,1686066549.26,42.969,310.059,155.273,2.93,854.152,329.2958412011378
1245,1686066549.26,61.035,207.031,19.531,19.531,854.156,326.35113543989524
1246,1686066549.26,-30.762,-326.66,-183.105,-3.418,854.16,331.1957320020995
1247,1686066549.27,-64.453,-16.113,45.41,-15.137,854.164,336.3524700792334
1248,1686066549.27,27.832,326.66,137.207,19.043,854.178,327.3946574757303
1249,1686066549.27,83.496,237.793,84.961,36.133,854.182,326.02031820098466
1250,1686066549.28,5.371,-164.551,-98.633,13.184,854.186,326.1090463029877
1251,1686066549.28,-65.918,-223.633,-126.953,-14.16,854.19,335.2544132964244
1252,1686066549.28,-3.418,175.293,81.543,-1.953,854.194,325.4336700189974
1253,1686066549.29,75.684,-241.211,-143.066,32.715,854.198,320.44750805886076
1254,1686066549.29,33.203,-943.359,-375.488,19.043,854.202,312.181707516358
1255,1686066549.3,-44.922,-264.648,18.066,-23.926,854.206,330.7544057444079
1256,1686066549.3,-18.555,220.703,86.426,-30.762,854.21,317.3184398742516
1257,1686066549.3,68.848,-16.113,12.207,13.184,854.213,328.0057946532951
1258,1686066549.31,51.758,74.219,100.098,25.879,854.217,330.2304934828794
1259,1686066549.31,-48.828,302.246,116.211,-14.16,854.221,327.8396283274883
1260,1686066549.33,-54.688,148.438,9.277,-27.832,854.224,320.75608411327426
1261,1686066549.33,46.875,-173.828,-77.637,2.441,854.228,326.4117298437199
1262,1686066549.34,70.801,68.848,70.312,15.137,854.231,324.34926605191623
1263,1686066549.34,-28.809,393.066,151.367,-10.254,854.235,325.4759038292906
1264,1686066549.34,-75.684,80.566,-40.527,-28.32,854.239,332.31963609985775
1265,1686066549.35,11.719,-317.871,-127.441,0.488,854.243,332.09996004582297
1266,1686066549.35,68.848,-84.473,31.738,18.555,854.247,325.20333504130224
1267,1686066549.35,-2.93,350.586,146.973,-15.625,854.251,326.44228215775877
1268,1686066549.36,-67.383,-56.641,-121.582,-35.645,854.255,328.63875673981727
1269,1686066549.36,-11.23,-532.227,-268.555,-8.301,854.259,327.4726916782885
1270,1686066549.37,65.918,103.516,105.957,21.484,854.263,330.14179610595824
1271,1686066549.37,25.879,449.219,150.879,-12.207,854.267,327.8113317128211
1272,1686066549.37,-64.453,-310.547,-219.727,-42.48,854.269,323.14327782942644
1273,1686066549.38,-43.945,-516.113,-225.586,-14.16,854.273,329.79605690645406
1274,1686066549.38,49.805,-26.855,57.129,21.484,854.276,329.32443017140866
1275,1686066549.38,40.527,149.902,101.074,5.371,854.28,331.53799954602414
1276,1686066549.39,-56.641,-310.547,-158.691,-30.273,854.284,321.243576504409
1277,1686066549.39,-66.406,-882.324,-413.574,-15.625,854.288,327.4830368482993
1278,1686066549.4,28.32,-201.66,-11.719,6.836,854.292,311.25197395157556
1279,1686066549.4,50.293,426.758,195.312,2.441,854.296,332.5634921576071
1280,1686066549.4,-39.062,-309.57,-220.215,-21.973,854.3,328.13260366923987
1281,1686066549.41,-88.379,-736.816,-310.547,-39.551,854.304,318.9020983826683
1282,1686066549.41,-9.277,193.359,149.902,-26.367,854.308,326.8186652539607
1283,1686066549.42,54.199,409.668,120.117,-1.465,854.312,330.976048066015
1284,1686066549.42,-6.836,140.137,22.949,-25.391,854.327,322.52256196316125
1285,1686066549.42,-83.984,131.348,53.223,-51.758,854.331,326.5495802947662
1286,1686066549.42,-37.109,102.051,20.02,-20.02,854.334,328.3308333941073
1287,1686066549.43,44.434,13.672,15.625,18.066,854.338,331.24042066691356
1288,1686066549.43,17.578,-164.062,-18.066,2.441,854.342,326.3382726803764
1289,1686066549.44,-67.383,-326.66,-142.09,-34.18,854.346,316.5592187994923
1290,1686066549.44,-57.617,-257.324,-152.832,-28.32,854.35,341.07320252495407
1291,1686066549.44,42.48,-182.129,-80.078,12.207,854.354,318.67508298672567
1292,1686066549.45,48.34,-472.656,-144.531,20.508,854.358,328.36767098309167
1293,1686066549.45,-42.48,-204.102,11.719,-18.066,854.362,333.5640236189758
1294,1686066549.46,-70.312,280.762,122.559,-42.48,854.366,333.0972255613287
1295,1686066549.46,22.949,60.059,12.207,-6.836,854.37,326.6748894626002
