,timestamps,TP9,AF7,AF8,TP10,Secondary Timestamp,emg_signal
0,1686714597.51,-3.418,217.773,85.449,-42.48,677.401,391.63766360672975
1,1686714597.51,-69.824,-192.383,-46.875,-157.227,677.405,390.2041486378762
2,1686714597.51,-63.477,-149.414,84.961,-98.145,677.409,391.53506718629006
3,1686714597.52,17.578,160.645,164.551,41.016,677.413,394.809417534781
4,1686714597.52,25.879,144.043,70.801,21.973,677.417,389.7963936066317
5,1686714597.53,-62.5,-431.152,-109.863,-109.863,677.421,385.46163776991534
6,1686714597.53,-98.145,-585.449,67.383,-121.582,677.425,388.8975168805932
7,1686714597.53,-27.832,-19.531,215.82,15.137,677.428,389.4246573258302
8,1686714597.54,15.625,28.809,28.809,51.758,677.432,391.31906824901745
9,1686714597.54,-62.5,-714.355,-207.031,-82.031,677.436,382.0219892256319
10,1686714597.54,-128.906,-727.539,42.969,-151.367,677.44,377.76543890198076
11,1686714597.55,-68.359,29.297,234.863,-36.133,677.444,384.62642059790187
12,1686714597.55,1.953,-186.035,-91.309,57.129,677.446,384.0551416563674
13,1686714597.56,-47.852,-661.621,-75.195,-57.129,677.45,397.5404959015502
14,1686714597.56,-126.953,-341.309,162.109,-174.316,677.454,377.38993438061556
15,1686714597.56,-86.914,137.695,207.031,-82.52,677.458,397.8398145853683
16,1686714597.57,-6.836,12.695,10.254,44.434,677.462,383.3492361630828
17,1686714597.57,-14.16,-437.988,-179.688,-22.461,677.466,394.2093238966421
18,1686714597.58,-90.332,-516.113,-51.27,-154.297,677.47,391.19353229989
19,1686714597.58,-106.445,-53.223,177.246,-124.512,677.474,391.4156818631174
20,1686714597.58,-28.809,-249.512,-52.734,21.484,677.478,405.05400232320886
21,1686714597.59,-0.977,-711.914,-98.633,22.461,677.482,387.4961686001846
22,1686714597.59,-70.312,-210.449,237.793,-131.348,677.486,378.91751139454635
23,1686714597.59,-112.305,-190.918,25.391,-151.855,677.489,383.0743654798181
24,1686714597.6,-43.457,-638.184,-72.266,-12.207,677.504,397.06875394169896
25,1686714597.6,-3.418,-452.148,130.859,22.949,677.508,390.6660977745016
26,1686714597.6,-58.105,50.781,151.855,-112.305,677.512,386.7077221323549
27,1686714597.61,-105.957,-41.016,21.973,-165.527,677.516,388.87291375727443
28,1686714597.61,-72.754,-211.914,0.977,-45.898,677.52,396.29494793627913
29,1686714597.62,-10.742,-337.891,-50.781,41.016,677.524,387.0453226851479
30,1686714597.62,-32.227,-221.191,62.012,-65.918,677.528,374.66642148345846
31,1686714597.62,-92.773,-51.27,89.355,-169.922,677.532,380.43940346432953
32,1686714597.63,-83.984,-680.176,-165.527,-72.266,677.536,380.0434954587842
33,1686714597.63,-7.812,-643.066,79.102,47.852,677.539,387.53045173230294
34,1686714597.63,7.324,149.902,251.953,-19.531,677.543,394.668504861775
35,1686714597.64,-79.102,-66.406,-32.715,-157.715,677.547,386.04277285827914
36,1686714597.64,-99.609,-516.602,-39.551,-117.676,677.538,382.8778682464974
37,1686714597.64,-10.254,-324.219,93.75,30.273,677.542,377.52394905026546
38,1686714597.65,9.766,-26.855,123.047,11.719,677.546,382.6994636294916
39,1686714597.65,-60.059,-205.078,-34.18,-125.977,677.55,383.38829260462137
40,1686714597.66,-115.234,-762.207,-148.438,-147.949,677.554,380.004126249581
41,1686714597.66,-61.035,-672.363,156.25,-18.066,677.558,383.46018384443624
42,1686714597.66,13.184,-98.633,233.887,38.086,677.562,386.5480170724579
43,1686714597.67,-26.367,-293.457,-71.777,-74.219,677.565,386.6003326126173
44,1686714597.67,-95.703,-673.34,-114.746,-151.367,677.569,381.243468165161
45,1686714597.68,-64.941,-44.434,229.004,-56.641,677.573,392.9546237569576
46,1686714597.68,20.996,270.996,124.512,49.805,677.577,391.45461566260394
47,1686714597.68,2.441,-335.449,-97.656,-30.762,677.581,389.7023517323678
48,1686714597.68,-84.961,-560.059,28.32,-157.715,677.581,396.13142536388926
49,1686714597.69,-75.684,30.762,197.754,-102.051,677.585,389.97885610831617
50,1686714597.69,-3.906,159.668,108.398,40.039,677.589,383.4956613452948
51,1686714597.7,-7.324,-98.145,-16.602,1.465,677.592,379.6176566050713
52,1686714597.7,-82.52,-398.438,-69.336,-138.184,677.596,389.7893056502637
53,1686714597.7,-102.539,-487.793,-15.137,-114.258,677.6,392.56100600339164
54,1686714597.71,-26.855,-293.945,134.766,27.344,677.604,381.48956411420613
55,1686714597.71,4.883,-620.117,-38.086,49.316,677.608,369.9640602742374
56,1686714597.72,-63.965,-829.102,-11.719,-90.82,677.612,378.10886395055275
57,1686714597.72,-95.703,-116.211,257.812,-153.32,677.616,368.6951517966845
58,1686714597.72,-35.645,64.941,129.395,-13.184,677.62,378.96777229064304
59,1686714597.73,29.297,-99.609,11.23,67.383,677.624,394.48004277070174
60,1686714597.78,-17.09,-294.922,-48.828,-52.246,677.671,382.9628907316523
61,1686714597.78,-100.098,-208.496,106.934,-154.785,677.675,383.06925415165693
62,1686714597.78,25.879,129.883,187.5,34.668,677.68,370.19076607588534
63,1686714597.78,-59.082,-138.672,62.5,-57.617,677.679,384.4070724237967
64,1686714597.78,-31.25,111.328,24.902,-93.262,677.684,395.8272833013064
65,1686714597.79,7.324,-506.836,32.227,69.336,677.683,374.29965271419996
66,1686714597.79,-99.609,-260.254,-76.66,-153.32,677.688,375.5759096903722
67,1686714597.79,-18.555,-246.094,153.32,-11.719,677.687,378.853423954473
68,1686714597.79,-49.805,-158.203,107.422,-36.621,677.691,389.2235965687437
69,1686714597.8,-91.309,-231.445,-44.922,-141.602,677.69,386.99534510940134
70,1686714597.8,2.441,67.383,107.422,44.434,677.695,372.217068610911
71,1686714597.8,-91.309,-655.273,-173.828,-82.031,677.694,377.0625935750273
72,1686714597.8,-56.641,-250.488,-102.051,-57.617,677.699,378.9177428102093
73,1686714597.8,-13.184,-927.246,-136.23,63.965,677.698,385.9436101474328
74,1686714597.8,-111.328,-574.707,-75.684,-158.203,677.703,367.62231733447635
75,1686714597.81,11.23,-372.559,189.941,29.785,677.702,385.1570832689879
76,1686714597.81,-59.57,-284.18,157.227,-62.5,677.707,377.99820659422073
77,1686714597.81,-53.223,136.23,166.504,-125.977,677.706,389.22603072997384
78,1686714597.81,20.996,129.395,165.527,69.336,677.711,380.80969273103716
79,1686714597.81,-93.75,-260.254,-15.137,-131.348,677.71,393.96018384669617
80,1686714597.82,8.301,-87.891,-71.289,12.695,677.715,380.6200591211868
81,1686714597.82,-29.785,-320.801,75.684,5.859,677.714,384.0390644744695
82,1686714597.82,-65.918,-517.578,-7.812,-115.723,677.719,396.5309333932648
83,1686714597.82,-12.207,-182.617,98.145,41.016,677.729,384.83921452214827
84,1686714597.82,-83.984,-335.449,162.598,-94.238,677.723,378.08458501699414
85,1686714597.83,20.996,-452.637,-49.316,32.715,677.733,366.1483270274006
86,1686714597.83,-55.176,-590.82,-30.762,-105.957,677.737,370.31060474239126
87,1686714597.83,-91.309,-225.586,194.336,-130.859,677.741,379.63128720875653
88,1686714597.84,-17.09,65.43,157.227,13.672,677.745,370.7163241300978
89,1686714597.84,13.672,-323.73,-105.957,62.012,677.749,379.5951904910753
90,1686714597.85,-55.176,-922.363,-310.059,-65.43,677.753,381.44737052541984
91,1686714597.85,-117.188,-1000.0,-115.723,-132.324,677.757,382.4614662839723
92,1686714597.85,-85.449,-576.66,190.918,-30.762,677.76,380.0080628610563
93,1686714597.86,-8.301,-116.211,166.504,55.664,677.764,391.87110043926384
94,1686714597.86,-21.973,-95.703,96.191,-45.41,677.768,373.0985211534565
95,1686714597.86,-94.238,54.688,80.078,-166.016,677.772,377.5033382028023
96,1686714597.87,-88.867,-191.406,-81.543,-86.426,677.774,377.07207197193225
97,1686714597.87,-8.789,-258.301,-39.062,48.828,677.778,383.26029816858636
98,1686714597.88,5.859,-14.648,126.465,-6.836,677.782,367.0507007403341
99,1686714597.88,-74.219,50.293,76.172,-145.996,677.786,379.0156531061713
100,1686714597.88,-95.703,68.848,30.273,-119.629,677.79,385.1381807641557
101,1686714597.89,-35.645,-538.086,-163.086,29.297,677.794,375.2489182435804
102,1686714597.89,-5.859,-756.348,-38.086,28.809,677.798,396.5445685583858
103,1686714597.89,-53.711,-15.625,222.656,-122.559,677.802,384.6244915777002
104,1686714597.9,-101.074,-52.734,39.551,-144.043,677.806,380.28447931556394
105,1686714597.9,-56.152,-288.574,57.617,-5.371,677.81,378.6282857262589
106,1686714597.91,6.348,-15.625,178.223,44.922,677.814,373.20883415939625
107,1686714597.91,-34.18,136.23,70.312,-82.52,677.817,371.9819826119249
108,1686714597.93,-103.027,-270.02,-128.906,-158.203,677.821,400.8786836570231
109,1686714597.93,-83.008,-660.156,-35.156,-45.41,677.825,382.2435734430482
110,1686714597.93,-15.137,-408.203,151.367,63.965,677.829,385.0471442703667
111,1686714597.94,-23.438,-89.844,157.227,-29.785,677.832,395.2252037754357
112,1686714597.94,-97.656,-287.109,-73.242,-157.227,677.836,378.5387830847076
113,1686714597.95,-88.867,-863.281,-186.523,-85.449,677.84,389.1487442328634
114,1686714597.95,-8.301,-495.117,176.27,41.016,677.844,367.87057259852884
115,1686714597.95,-2.441,171.387,209.961,-5.371,677.848,390.7266098946179
116,1686714597.96,-70.801,-338.379,-95.215,-128.418,677.852,392.4814075949657
117,1686714597.96,-94.727,-679.688,-80.566,-107.422,677.856,364.5141303189715
118,1686714597.96,-29.785,40.039,217.285,23.438,677.86,381.0465881090787
119,1686714597.97,8.789,189.453,78.613,36.133,677.864,381.6847569470573
120,1686714597.97,-61.523,-219.238,-57.617,-106.445,677.866,383.4719088407476
121,1686714597.97,-106.934,-253.418,92.773,-161.621,677.87,380.8274071132399
122,1686714597.98,-38.574,55.176,167.48,-35.156,677.874,391.5565770162403
123,1686714597.98,19.531,107.91,82.52,51.758,677.877,379.20917031279305
124,1686714597.99,-29.297,-204.59,-61.523,-53.711,677.881,397.7017596028445
125,1686714597.99,-104.004,-503.906,-57.617,-145.996,677.885,371.87669206060775
126,1686714597.99,-70.801,-490.234,83.496,-46.387,677.889,374.62226000708023
127,1686714598.0,1.953,-327.148,140.137,59.082,677.893,390.9203167457464
128,1686714598.0,-22.461,-699.707,-129.395,-7.324,677.897,389.0092843817475
129,1686714598.0,-107.422,-824.707,-34.668,-138.184,677.901,383.38972946708026
130,1686714598.01,-99.121,-124.512,269.043,-105.469,677.905,383.4143704868905
131,1686714598.01,-14.16,7.812,91.797,39.062,677.909,373.6700685618704
132,1686714598.02,-5.859,-388.184,-41.504,15.625,677.911,377.05178869518477
133,1686714598.02,-83.984,-426.758,20.508,-131.348,677.915,375.3359798588044
134,1686714598.02,-111.816,-73.73,195.801,-140.137,677.919,383.9338903360878
135,1686714598.03,-43.457,-132.324,41.504,10.742,677.923,382.91340009904644
136,1686714598.03,-5.859,-565.918,-33.691,52.246,677.927,385.5453685989945
137,1686714598.04,-64.453,-608.887,124.512,-88.867,677.931,385.0614036061626
138,1686714598.04,-108.887,-275.879,157.715,-163.574,677.935,388.1325940331434
139,1686714598.04,-58.594,-332.52,-0.488,-39.062,677.939,387.4191481329936
140,1686714598.05,15.137,-888.672,-152.344,82.52,677.943,377.1778988249812
141,1686714598.05,-3.906,-390.137,194.336,-30.762,677.946,373.75793495619416
142,1686714598.05,-88.867,63.477,187.012,-164.062,677.95,378.01108925382704
143,1686714598.06,-90.332,-236.328,39.551,-76.172,677.954,390.0119366495434
144,1686714598.06,-21.973,-155.273,125.0,45.41,677.956,384.624050802542
145,1686714598.06,-16.602,153.32,169.434,-20.02,677.96,365.8772354011308
146,1686714598.07,-90.332,-4.883,-42.48,-149.902,677.964,392.3164652162674
147,1686714598.07,-112.793,-307.617,-86.426,-126.953,677.968,373.44771181786166
148,1686714598.08,-39.062,-197.754,96.68,14.16,677.971,380.3757952005516
149,1686714598.08,-9.766,-190.918,37.598,30.273,677.975,376.8784468221229
150,1686714598.08,-74.707,-408.691,-87.891,-101.562,677.979,371.36361199171716
151,1686714598.09,-120.117,-784.18,-118.652,-109.863,677.983,390.15249664833766
152,1686714598.09,-59.57,-571.289,119.629,34.668,677.987,372.496760050207
153,1686714598.1,1.953,106.934,202.637,79.59,677.991,379.5220328000669
154,1686714598.1,-41.992,-161.133,-59.082,-36.621,677.995,386.7424538249425
155,1686714598.1,-105.469,-615.234,4.395,-103.516,677.999,383.3599322509047
156,1686714598.12,-62.988,-549.805,196.777,6.836,678.009,389.1427638153364
157,1686714598.12,19.043,-24.414,197.266,95.703,678.013,376.84074683551654
158,1686714598.12,-10.254,-100.098,-47.852,5.371,678.017,387.12760977001153
159,1686714598.13,-76.66,-671.875,-42.48,-99.609,678.021,376.3701648917226
160,1686714598.13,-43.457,-336.914,186.523,-28.32,678.025,372.5118633096759
161,1686714598.14,34.18,-135.254,104.004,107.422,678.029,390.0466355264479
162,1686714598.14,20.02,-520.996,-42.48,64.941,678.033,384.6432921856787
163,1686714598.14,-74.707,-814.941,-33.691,-73.73,678.037,383.9416355251799
164,1686714598.15,-77.637,-302.246,245.117,-67.871,678.041,382.5608539144543
165,1686714598.15,12.695,191.895,172.363,73.73,678.045,383.9795743950943
166,1686714598.15,-89.355,-80.078,148.926,-105.957,678.051,378.33669044488676
167,1686714598.15,30.273,-81.543,30.762,88.867,678.049,373.7446201082305
168,1686714598.16,-52.246,-215.332,16.113,15.625,678.055,369.9423873239055
169,1686714598.16,-39.062,-217.773,81.543,-54.199,678.052,384.80080094983623
170,1686714598.16,0.0,-561.523,-70.312,86.914,678.059,378.81022963292605
171,1686714598.16,-32.227,-463.867,127.441,-30.273,678.063,381.38526579238567
172,1686714598.17,-78.613,-59.082,132.324,-126.953,678.067,378.0676641233555
173,1686714598.17,-48.828,-210.449,-61.035,-14.16,678.071,379.73685191943133
174,1686714598.18,-1.953,-705.078,-139.648,104.492,678.075,397.76347653867606
175,1686714598.18,-5.859,-639.648,61.523,8.789,678.079,386.6400945821427
176,1686714598.18,-71.289,-39.551,198.242,-132.324,678.083,379.06540546921207
177,1686714598.19,-85.449,-118.652,47.363,-76.172,678.087,376.6408287304207
178,1686714598.19,-17.09,-325.195,16.602,54.688,678.091,386.09477911437756
179,1686714598.2,-65.43,-254.395,-30.762,-117.676,678.105,384.5516161368041
180,1686714598.2,0.0,-157.227,109.375,15.625,678.094,376.3363638652973
181,1686714598.2,-85.938,-598.633,-161.133,-119.629,678.109,368.5125777243045
182,1686714598.2,-19.531,-588.867,27.832,16.113,678.113,375.7182656026139
183,1686714598.21,18.066,-353.027,146.484,43.945,678.117,373.2664841275014
184,1686714598.21,-42.48,-266.602,34.668,-80.078,678.12,382.8504042830489
185,1686714598.22,-97.168,-520.508,-130.371,-125.977,678.124,378.2062867591672
186,1686714598.22,-42.969,-1000.0,-275.391,-2.441,678.128,379.04672990344636
187,1686714598.22,16.602,-786.621,84.473,75.684,678.132,364.49782528496206
188,1686714598.23,-24.902,-41.504,237.305,-47.363,678.136,380.0122240634288
189,1686714598.23,-85.938,-203.613,5.859,-153.809,678.14,383.4396002541786
190,1686714598.23,-68.359,-268.555,71.777,-62.988,678.144,378.44815279376587
191,1686714598.24,-2.93,176.27,173.828,60.059,678.148,382.65051076709506
192,1686714598.26,-2.93,110.352,-19.531,-5.371,678.154,387.09320955311756
193,1686714598.26,-75.684,-315.918,-133.789,-129.883,678.157,386.2686535418048
194,1686714598.27,-87.891,-273.926,84.961,-89.844,678.161,388.4306815280715
195,1686714598.27,-14.16,90.332,171.875,45.898,678.165,397.66885856147627
196,1686714598.28,-0.977,82.031,21.973,38.574,678.169,380.7084016840673
197,1686714598.28,-74.707,-450.195,-125.488,-100.098,678.173,375.42102884621266
198,1686714598.28,-95.215,-707.52,31.738,-120.605,678.177,377.4028157590054
199,1686714598.29,-26.855,-303.223,175.293,11.719,678.181,390.32830306810905
200,1686714598.29,19.043,50.293,113.281,48.828,678.185,377.5839479827984
201,1686714598.29,-42.969,-596.68,-218.262,-71.777,678.189,383.682528484688
202,1686714598.3,-112.305,-834.961,-52.246,-141.602,678.193,378.94061147056453
203,1686714598.3,-9.766,-111.816,-22.461,44.922,678.196,380.77830432544283
204,1686714598.3,-62.988,-32.715,257.324,-48.828,678.196,376.3873762385728
205,1686714598.3,-43.945,-667.48,-117.188,-54.688,678.2,383.33865437945747
206,1686714598.31,-101.562,-428.711,97.168,-174.805,678.203,373.5380203280978
207,1686714598.31,-86.426,-7.812,152.344,-92.285,678.207,378.06831764495234
208,1686714598.32,0.977,-98.145,-0.977,49.805,678.211,378.20301675097727
209,1686714598.32,-6.348,-478.027,-177.246,6.836,678.215,373.115797101212
210,1686714598.32,-86.426,-426.758,18.555,-134.766,678.219,371.72657488229333
211,1686714598.33,-89.355,-3.418,169.434,-126.465,678.223,384.00206635838964
212,1686714598.33,-22.461,-369.629,-121.094,13.672,678.227,382.1016656659566
213,1686714598.34,-0.977,-838.379,-104.98,25.879,678.231,384.45919754333335
214,1686714598.34,-65.918,-282.715,215.82,-122.559,678.235,377.6361787745556
215,1686714598.34,-93.75,63.965,139.16,-161.133,678.239,384.9868485785821
216,1686714598.36,-43.457,-459.473,-64.941,-18.066,678.257,376.5788467637231
217,1686714598.36,-15.625,-576.66,16.113,39.551,678.261,382.30005816078847
218,1686714598.37,-47.363,-43.945,137.207,-81.543,678.265,386.0661476238309
219,1686714598.37,-93.75,-83.984,-19.531,-154.785,678.269,374.2077594344478
220,1686714598.38,-64.941,-239.258,-55.176,-55.664,678.273,380.6174215081149
221,1686714598.38,-4.395,-410.645,-96.68,39.551,678.276,384.5258890989814
222,1686714598.38,-23.926,-395.508,-56.152,-49.805,678.28,382.4186470886537
223,1686714598.39,-84.473,-185.059,0.0,-164.551,678.284,380.29354939384785
224,1686714598.39,-95.703,-803.711,-111.816,-124.023,678.299,371.48598716544143
225,1686714598.39,-82.031,-659.668,-132.324,-94.727,678.288,383.3068947226087
226,1686714598.39,-29.785,-427.734,152.344,6.348,678.303,371.6795438309949
227,1686714598.4,-24.414,-535.156,119.629,38.086,678.292,376.9952699713853
228,1686714598.4,16.602,187.988,168.457,16.602,678.306,375.45741991430833
229,1686714598.4,-13.184,90.332,122.559,-2.93,678.296,372.0825684112103
230,1686714598.4,-38.086,-229.492,-162.598,-117.676,678.31,389.05209092034426
231,1686714598.4,-75.195,-270.02,-175.293,-138.184,678.3,373.816637366853
232,1686714598.41,-98.145,-637.695,-129.395,-169.922,678.314,384.05965155870723
233,1686714598.41,-55.664,-406.25,116.211,-46.875,678.318,383.96544442638196
234,1686714598.41,-5.859,-327.148,64.453,31.25,678.322,380.61069724258044
235,1686714598.42,-43.457,-625.0,-174.316,-80.566,678.326,376.9571541184157
236,1686714598.42,-109.863,-696.777,-95.215,-178.711,678.33,389.23653181952346
237,1686714598.42,-81.055,-168.457,184.082,-89.844,678.334,378.17111451023675
238,1686714598.43,-8.301,137.207,139.648,30.273,678.338,384.2708903492868
239,1686714598.43,-34.18,-394.531,-160.156,-24.414,678.342,388.1795755832216
240,1686714598.44,-101.562,-972.168,-194.824,-142.09,678.332,382.0655738284858
241,1686714598.44,-92.285,-459.473,183.105,-110.352,678.336,389.5519609661531
242,1686714598.44,-8.301,-202.148,131.348,26.855,678.34,401.50570005979364
243,1686714598.45,-4.395,-549.316,29.297,7.324,678.344,391.82889392136013
244,1686714598.45,-83.008,-487.793,93.75,-142.578,678.348,394.2039371107716
245,1686714598.46,-109.375,-371.582,2.441,-145.508,678.352,392.297478638288
246,1686714598.46,-45.41,-383.301,5.371,1.465,678.356,392.3589900829909
247,1686714598.46,-8.301,-626.953,-47.852,50.781,678.359,399.7396863476804
248,1686714598.47,-62.5,-652.832,26.855,-77.148,678.363,398.66811947525724
249,1686714598.47,-100.098,-69.824,181.641,-154.785,678.367,396.2711933058427
250,1686714598.48,-52.734,-132.324,30.273,-40.039,678.371,397.75797499505995
251,1686714598.48,5.371,-241.699,60.547,55.664,678.375,411.22871781021394
252,1686714598.48,-32.227,-309.082,20.02,-47.852,678.375,413.67767027517334
253,1686714598.48,-109.375,-284.18,31.738,-158.691,678.379,407.9543709398971
254,1686714598.49,-84.961,-204.59,37.598,-74.707,678.383,407.93834298924844
255,1686714598.49,-6.348,-519.531,5.859,53.223,678.387,412.1333693263392
256,1686714598.5,-10.742,-404.785,100.586,-7.812,678.391,419.426990714063
257,1686714598.5,-79.59,-376.953,-46.387,-128.418,678.395,412.0087801837042
258,1686714598.5,-94.727,-620.605,-101.562,-87.402,678.399,422.90323530905744
259,1686714598.51,-43.945,-899.902,-122.07,45.898,678.403,419.18625512941924
260,1686714598.51,-5.371,-404.785,149.902,28.32,678.407,427.8482247758596
261,1686714598.52,-54.199,89.844,152.344,-117.188,678.411,425.488485394595
262,1686714598.52,-91.797,-245.605,6.348,-145.996,678.415,409.1410776625191
263,1686714598.52,-36.621,-186.523,87.891,-22.461,678.418,432.70174651303034
264,1686714598.52,3.418,214.355,143.066,37.109,678.42,421.85220611179534
265,1686714598.53,-42.48,89.844,-31.25,-76.172,678.424,426.0885355320818
266,1686714598.53,-96.68,-303.711,-115.234,-149.414,678.428,415.92044163082437
267,1686714598.54,-62.012,-171.875,126.465,-31.25,678.432,443.18355150643714
268,1686714598.54,1.465,110.352,99.609,68.848,678.436,441.3571265921946
269,1686714598.54,-26.855,-177.734,-110.84,-25.879,678.44,419.33806370619214
270,1686714598.55,-88.379,-785.645,-225.586,-135.254,678.444,433.7493866858712
271,1686714598.55,-70.312,-826.66,38.574,-69.336,678.448,440.87136562082844
272,1686714598.56,5.371,-58.594,288.574,41.504,678.452,426.69242556373564
273,1686714598.56,-3.418,48.34,7.324,0.977,678.456,443.44776336744616
274,1686714598.56,-91.797,-549.316,-130.859,-126.465,678.46,447.8199860926922
275,1686714598.57,-92.773,-422.852,127.441,-117.676,678.463,442.3691706261609
276,1686714598.57,-11.719,-161.133,147.461,27.832,678.48,433.69526811196744
277,1686714598.57,6.348,-405.273,-55.664,41.992,678.484,439.5214277864457
278,1686714598.58,-61.035,-667.48,-65.43,-103.027,678.488,424.39234233091383
279,1686714598.58,-106.445,-367.676,141.113,-155.762,678.492,442.15311713914247
280,1686714598.59,-41.016,63.965,150.391,-28.32,678.496,444.04216250844513
281,1686714598.59,9.277,-318.359,-146.484,56.641,678.499,442.1206580741737
282,1686714598.59,-45.898,-796.387,-156.738,-49.805,678.503,441.4695362523493
283,1686714598.6,-100.586,-321.777,191.895,-149.902,678.507,432.2560374895939
284,1686714598.6,-65.918,109.375,135.742,-57.129,678.511,430.59828764891387
285,1686714598.6,-6.348,-262.695,-56.152,49.805,678.515,441.898462859731
286,1686714598.61,-36.621,-493.652,-77.148,-36.621,678.519,442.2922797435457
287,1686714598.61,-109.375,-214.355,41.992,-169.434,678.523,441.930187559045
288,1686714598.62,-97.656,-11.719,128.906,-120.605,678.525,434.7792015902906
289,1686714598.62,-26.855,-233.398,51.758,22.949,678.529,442.6851394647595
290,1686714598.62,-11.23,-286.621,54.688,1.465,678.533,449.2352742723135
291,1686714598.63,-71.777,-48.34,101.074,-139.648,678.537,431.45192957815243
292,1686714598.63,-101.562,-58.105,59.082,-135.254,678.541,432.63709908334766
293,1686714598.64,-34.18,-363.281,-36.133,13.184,678.544,434.59129997305826
294,1686714598.64,-0.488,-471.191,44.922,40.527,678.548,428.74071474514125
295,1686714598.64,-53.223,-126.953,158.203,-95.703,678.552,436.0630940753797
296,1686714598.65,-82.52,-128.418,28.32,-153.809,678.556,429.7244797600629
297,1686714598.65,-31.25,-586.914,-66.406,-15.137,678.56,420.23583521595043
298,1686714598.66,19.531,-372.559,172.363,62.988,678.564,428.1904259958908
299,1686714598.66,-29.297,16.113,86.914,-63.965,678.568,433.8504022307906
300,1686714598.68,-102.051,-418.945,-163.086,-163.086,678.571,428.9816676932944
301,1686714598.68,-73.242,-829.59,-71.777,-69.336,678.574,426.14171551461965
302,1686714598.68,-6.836,-397.461,169.434,48.828,678.578,417.184126274627
303,1686714598.69,-7.812,130.371,168.457,-17.09,678.582,426.1295377777703
304,1686714598.69,-65.43,-278.32,-134.277,-135.742,678.586,421.3451954735261
305,1686714598.7,-80.566,-859.863,-114.746,-90.82,678.59,426.01127752899123
306,1686714598.7,-8.789,-444.336,205.078,37.598,678.594,402.2411328088035
307,1686714598.7,3.906,158.691,179.199,19.043,678.598,399.13454599468787
308,1686714598.71,-78.125,-365.234,-171.875,-115.234,678.602,415.0539983082997
309,1686714598.71,-111.328,-786.133,-124.023,-127.441,678.606,426.848860633633
310,1686714598.71,-50.293,-75.684,247.559,-1.953,678.61,415.4507455248213
311,1686714598.72,-2.441,178.711,79.102,38.574,678.614,410.2286735407321
312,1686714598.72,-53.711,-281.25,-72.266,-98.633,678.616,411.48751820162175
313,1686714598.72,-108.398,-363.77,66.895,-168.457,678.619,411.2181488672871
314,1686714598.73,-65.918,-172.363,93.262,-39.551,678.623,406.2195207985633
315,1686714598.73,-6.836,-253.418,-1.465,48.828,678.627,403.7428627539612
316,1686714598.74,-49.805,-532.715,-24.414,-46.875,678.631,413.55086179667177
317,1686714598.74,-124.512,-790.039,27.832,-160.645,678.635,387.9278402933795
318,1686714598.74,-83.496,-450.684,162.109,-93.262,678.639,396.07275862788555
319,1686714598.75,5.859,5.859,120.117,35.645,678.643,391.43492007614395
320,1686714598.75,0.0,-520.508,-154.297,-1.953,678.647,389.39105730950405
321,1686714598.76,-75.195,-705.078,34.668,-135.742,678.651,391.9467781906082
322,1686714598.76,-78.613,-57.617,221.191,-121.582,678.655,401.8184741848309
323,1686714598.76,-5.859,-61.523,40.039,27.344,678.659,391.6123999081636
324,1686714598.76,20.02,-408.203,-48.34,42.969,678.661,406.8435187665922
325,1686714598.77,-44.922,-439.941,44.434,-99.609,678.665,393.0244012610539
326,1686714598.77,-85.449,-97.168,160.645,-140.137,678.668,405.24739193459504
327,1686714598.78,-27.832,-125.0,-21.484,7.812,678.672,391.0705101111861
328,1686714598.78,8.301,-624.023,-105.957,57.617,678.676,371.7514090520644
329,1686714598.78,-41.504,-691.406,45.898,-75.684,678.68,392.6742002946228
330,1686714598.79,-95.215,-568.848,56.641,-148.438,678.684,389.0526932118942
331,1686714598.79,-64.453,-667.969,-5.859,-44.922,678.688,380.9732884967048
332,1686714598.8,2.441,-913.086,-95.703,70.312,678.692,378.1393051389334
333,1686714598.8,-29.297,-474.121,155.762,-27.344,678.696,380.16433491617113
334,1686714598.8,-97.168,-69.336,140.625,-159.18,678.7,387.1866865975469
335,1686714598.81,-86.426,-287.109,28.32,-92.773,678.704,370.58370821353606
336,1686714598.81,-12.207,-158.203,102.051,39.551,678.706,374.26644477679775
337,1686714598.81,-2.93,108.398,109.375,-4.395,678.71,369.90586699980634
338,1686714598.82,-100.098,-63.965,-54.199,-141.602,678.714,366.22787958266
339,1686714598.82,-119.629,-326.172,-90.332,-134.766,678.718,361.5623129391884
340,1686714598.83,-21.484,-168.945,89.355,9.277,678.721,363.5362858770347
341,1686714598.83,3.418,-176.27,-7.812,32.227,678.725,372.9678007930333
342,1686714598.83,-54.199,-460.449,-111.816,-111.328,678.729,375.1387121038847
343,1686714598.84,-101.074,-815.918,-136.23,-144.531,678.733,352.4336362738614
344,1686714598.84,-54.688,-708.984,82.52,-10.742,678.737,367.03340261424387
345,1686714598.84,-2.441,53.223,252.93,41.504,678.741,363.62645540070145
346,1686714598.85,-49.316,16.113,-23.926,-76.172,678.745,358.86911074885387
347,1686714598.85,-111.328,-520.996,-133.789,-167.48,678.749,354.89535970675763
348,1686714598.86,-78.125,-552.734,64.941,-70.801,678.751,362.1978317116978
349,1686714598.86,-8.301,-121.582,193.848,42.48,678.755,355.23318019452546
350,1686714598.86,-16.602,-125.977,-35.156,-31.738,678.759,360.140797055285
351,1686714598.87,-96.191,-615.234,-132.812,-160.645,678.762,349.9808733273903
352,1686714598.87,-84.961,-363.77,90.332,-104.492,678.766,354.71717495903505
353,1686714598.88,-14.648,-141.113,3.418,45.898,678.77,349.05709452610154
354,1686714598.88,-16.113,-473.633,-220.703,24.902,678.774,341.35942107272376
355,1686714598.88,-70.312,-787.598,-153.809,-109.863,678.778,351.862214082441
356,1686714598.89,-102.051,-290.527,214.844,-124.023,678.782,347.4812557486513
357,1686714598.89,-50.293,203.613,146.973,6.348,678.786,351.25358796993663
358,1686714598.89,-2.441,-230.957,-75.684,44.434,678.79,348.8038242614733
359,1686714598.9,-62.5,-435.547,4.883,-88.867,678.794,333.8334327795192
360,1686714598.92,-108.398,-44.922,151.367,-155.273,678.824,326.35379727556955
361,1686714598.92,-60.547,74.219,75.684,-39.062,678.828,333.4949398083105
362,1686714598.92,0.488,-238.77,-23.438,58.105,678.832,335.36969385425846
363,1686714598.93,-10.742,-291.504,49.805,-30.762,678.836,329.1196058255023
364,1686714598.93,-90.82,-74.219,50.781,-155.762,678.84,338.9289603018545
365,1686714598.94,-85.938,-255.859,-58.594,-94.727,678.844,314.49296684463866
366,1686714598.94,-17.09,-705.566,-165.039,43.457,678.848,318.08169044423863
367,1686714598.94,-26.367,-715.82,-40.527,-19.043,678.852,325.4329912002354
368,1686714598.95,-100.098,-136.719,170.898,-167.969,678.856,321.2757872380738
369,1686714598.95,-74.707,-267.578,-82.031,-138.184,678.854,329.2982360504951
370,1686714598.95,-113.77,-585.938,-132.324,-158.203,678.858,317.79255680732484
371,1686714598.95,-100.098,-148.926,31.25,-121.582,678.86,324.71623950704065
372,1686714598.95,-52.734,-851.562,-121.094,-17.09,678.862,316.1691598547047
373,1686714598.95,-27.832,-229.98,62.5,12.695,678.863,318.49536895203437
374,1686714598.96,-9.766,-9.766,113.77,0.0,678.867,318.192004246508
375,1686714598.96,-8.789,-489.746,110.84,31.738,678.866,334.04102008260594
376,1686714598.96,-62.012,52.734,148.926,-97.656,678.87,329.3176579455066
377,1686714598.97,-118.164,-558.105,-190.918,-151.367,678.874,318.2579424522446
378,1686714598.97,-59.57,-686.035,-65.43,-36.133,678.878,315.4898508717986
379,1686714598.97,22.949,-5.859,184.57,49.805,678.882,312.02382130737175
380,1686714598.98,-13.184,202.637,97.656,-43.457,678.886,321.84835960848125
381,1686714598.98,-91.309,-396.484,-206.543,-155.762,678.889,309.0237725760556
382,1686714598.98,-94.727,-842.285,-128.906,-76.66,678.893,331.559572245474
383,1686714598.99,-36.621,-114.258,253.906,44.434,678.897,319.2965650894486
384,1686714598.99,-20.996,229.98,59.082,-9.766,678.902,320.6998015240624
385,1686714599.0,-97.168,-446.289,-147.949,-137.207,678.906,319.00509507707864
386,1686714599.0,-104.492,-561.035,32.227,-115.234,678.91,298.50510330878706
387,1686714599.0,-17.578,-68.359,128.906,20.02,678.914,307.6428911278517
388,1686714599.01,-6.348,-174.316,-55.176,20.508,678.917,320.4190051648131
389,1686714599.01,-74.707,-708.984,-250.977,-100.098,678.921,329.58008777336056
390,1686714599.02,-113.77,-769.531,-50.293,-128.418,678.925,327.7704828180451
391,1686714599.02,-37.598,-11.23,243.652,-24.414,678.929,333.6243848257844
392,1686714599.02,19.043,104.004,45.41,45.898,678.933,316.7601365828826
393,1686714599.03,-44.922,-239.258,-90.82,-63.477,678.937,324.30731205863856
394,1686714599.03,-99.609,-257.324,19.531,-163.574,678.941,333.1341399649325
395,1686714599.04,-67.871,-36.621,119.141,-62.988,678.945,329.43291412533705
396,1686714599.05,-8.301,-198.242,-25.879,53.711,678.946,333.70931607173594
397,1686714599.06,-25.879,-516.113,-30.273,-27.832,678.95,338.9395652062341
398,1686714599.06,-90.332,-265.625,111.328,-156.738,678.954,337.73376209052043
399,1686714599.06,-87.402,44.922,119.141,-98.633,678.958,327.3867502718914
400,1686714599.07,-18.555,-97.656,-53.711,42.969,678.962,325.76071356460915
401,1686714599.07,-6.348,-741.699,-213.867,23.438,678.965,325.93283006517646
402,1686714599.08,-62.012,-789.062,92.773,-128.906,678.969,352.0587522337396
403,1686714599.08,-91.309,-223.145,219.238,-145.996,678.973,333.4856587327399
404,1686714599.08,-57.129,-290.039,-57.617,6.836,678.977,339.41560817970634
405,1686714599.09,-10.254,-700.195,-96.191,42.969,678.981,344.7156493137497
406,1686714599.09,-57.129,-238.77,189.941,-105.957,678.985,342.5088359765245
407,1686714599.09,-105.469,10.254,87.402,-164.062,678.989,339.2506142863533
408,1686714599.1,-51.758,-170.898,36.133,-30.273,678.991,330.91251723454997
409,1686714599.1,-7.324,-74.707,89.844,42.969,678.994,339.30329573319466
410,1686714599.1,-43.945,84.961,37.598,-66.406,678.998,344.9423660898533
411,1686714599.11,-91.309,-81.055,-127.93,-148.926,679.002,347.1577008951792
412,1686714599.11,-60.547,-275.879,-108.887,-55.664,679.006,333.7414392587175
413,1686714599.12,1.953,-426.27,-90.82,53.711,679.01,342.336861803831
414,1686714599.12,-23.926,-320.312,-15.625,-32.715,679.014,330.9492057861368
415,1686714599.12,-88.867,-134.766,54.688,-167.48,679.018,341.4180297628416
416,1686714599.13,-113.77,-708.984,-239.258,-101.074,679.022,355.718915560676
417,1686714599.13,-58.105,-755.371,-43.945,25.879,679.026,345.53824161608856
418,1686714599.13,-13.672,8.301,222.656,-21.973,679.03,339.2262736120795
419,1686714599.14,-75.684,-92.285,-89.355,-160.645,679.034,363.08600660087353
420,1686714599.14,-116.699,-643.066,-121.094,-163.086,679.036,349.7188526550339
421,1686714599.14,-47.363,-427.734,128.906,-16.113,679.04,341.95755728536295
422,1686714599.15,-11.23,150.879,155.273,23.438,679.044,349.24187127197
423,1686714599.15,-70.312,-132.812,-141.113,-103.027,679.048,344.6349751564258
424,1686714599.16,-101.562,-694.824,-132.812,-161.133,679.052,356.38568602802707
425,1686714599.16,-61.523,-662.109,117.188,-40.527,679.056,346.81220021414015
426,1686714599.16,-5.371,-195.801,164.062,43.945,679.059,340.93362482165253
427,1686714599.17,-39.062,-289.551,-125.977,-60.059,679.063,342.2230973931826
428,1686714599.17,-111.328,-803.711,-166.992,-165.039,679.067,347.9890387085999
429,1686714599.18,-96.191,-266.113,226.562,-99.121,679.071,356.3970128927211
430,1686714599.18,-14.16,167.48,96.68,26.367,679.075,356.6758103209194
431,1686714599.18,-8.301,-314.453,-70.801,-14.648,679.079,357.0734428066782
432,1686714599.18,-101.562,-472.656,36.133,-157.227,679.081,362.09409052170537
433,1686714599.19,-110.352,-4.395,150.879,-138.184,679.085,354.25084927457834
434,1686714599.19,-9.277,123.535,33.203,5.371,679.089,348.5855944534217
435,1686714599.2,-3.906,-245.117,-85.449,-0.977,679.093,361.51680482563773
436,1686714599.2,-72.754,-355.469,18.555,-134.766,679.097,353.43536813095
437,1686714599.2,-100.098,-370.117,-59.57,-146.973,679.1,346.25584081436267
438,1686714599.21,-41.016,-392.578,-81.055,-11.23,679.104,361.7906889817525
439,1686714599.21,16.113,-638.184,-146.973,46.875,679.108,352.00456197111754
440,1686714599.22,-36.133,-718.262,-24.414,-75.684,679.112,366.64231032711234
441,1686714599.22,-88.379,-117.676,181.641,-160.156,679.116,362.1912285859639
442,1686714599.22,-55.176,-114.258,12.207,-45.898,679.12,363.6595115742215
443,1686714599.23,8.301,-246.582,2.441,57.617,679.124,365.04056798077517
444,1686714599.23,-12.695,-356.934,-8.789,-37.598,679.127,355.15593950536
445,1686714599.24,-68.359,-459.473,-91.309,-154.785,679.131,357.7699898538655
446,1686714599.24,-62.988,-454.59,-128.418,-80.078,679.135,361.5303787490989
447,1686714599.24,-0.488,-792.48,-134.277,54.688,679.139,355.9671732102301
448,1686714599.25,-4.883,-554.199,79.102,2.93,679.143,373.00696085282647
449,1686714599.25,-82.031,-339.844,-9.277,-135.254,679.147,362.65686276956245
450,1686714599.26,-89.355,-751.465,-150.879,-105.469,679.15,365.4684632265486
451,1686714599.26,-22.949,-792.48,26.367,29.297,679.154,359.25297706542756
452,1686714599.26,5.371,-160.645,215.82,33.691,679.158,367.0897813312522
453,1686714599.27,-51.758,133.301,83.496,-89.355,679.162,371.191238066161
454,1686714599.27,-83.984,-300.781,-27.344,-123.535,679.166,373.0469985076976
455,1686714599.27,-27.344,-232.91,79.59,4.395,679.17,367.8035486662904
456,1686714599.28,20.508,225.098,144.531,64.453,679.17,368.61971053914675
457,1686714599.28,-17.578,141.113,10.742,-51.27,679.174,372.14208258354995
458,1686714599.28,-65.43,-270.508,-100.586,-143.555,679.178,367.1417763331663
459,1686714599.29,-33.203,-196.289,87.402,-43.945,679.182,359.52822680026986
460,1686714599.29,23.438,-24.902,60.547,67.871,679.186,363.9840473424401
461,1686714599.3,-21.484,-317.383,-111.328,-22.461,679.19,360.35292800612876
462,1686714599.3,-82.52,-780.762,-225.098,-130.371,679.194,367.37513975314926
463,1686714599.3,-64.941,-788.086,-16.602,-68.848,679.198,361.480166892955
464,1686714599.31,9.277,-15.625,282.715,43.457,679.202,370.50360320714503
465,1686714599.31,23.438,64.941,22.461,9.766,679.206,363.6083908065457
466,1686714599.31,-59.57,-258.789,-48.828,-124.512,679.21,375.4229895694225
467,1686714599.32,-87.402,-111.816,122.07,-125.488,679.213,366.25246468890265
468,1686714599.32,-36.621,-96.191,51.758,14.648,679.231,357.4211213026909
469,1686714599.32,-10.742,-355.957,-128.418,47.363,679.234,370.0425089372282
470,1686714599.33,-61.523,-662.109,-120.605,-91.309,679.238,375.1125475406446
471,1686714599.33,-97.168,-379.883,115.234,-154.785,679.242,366.7596116332663
472,1686714599.34,-35.645,61.523,147.461,-34.18,679.246,366.65256774989723
473,1686714599.34,5.859,-301.758,-150.391,57.617,679.25,374.397302567831
474,1686714599.34,-51.758,-837.402,-225.098,-45.898,679.254,374.4892065206337
475,1686714599.35,-116.211,-645.02,124.512,-155.762,679.258,354.13110565790765
476,1686714599.35,-76.66,-25.879,238.77,-64.453,679.262,377.8177853635372
477,1686714599.36,11.23,-197.754,-72.266,67.871,679.266,377.82172354877383
478,1686714599.36,-1.953,-519.531,-139.648,-6.836,679.27,374.8917114358122
479,1686714599.36,-77.637,-105.469,120.117,-150.391,679.273,369.58463477211035
480,1686714599.38,-98.145,26.367,89.844,-109.375,679.276,369.97352817375304
481,1686714599.38,-37.109,-127.93,20.02,27.832,679.28,369.663177347499
482,1686714599.39,-4.395,-85.938,57.129,12.207,679.284,373.4082525975832
483,1686714599.39,-62.5,63.477,62.988,-124.512,679.288,368.5027642919376
484,1686714599.4,-97.168,-78.125,-71.289,-133.789,679.292,370.48274329168765
485,1686714599.4,-46.875,-446.289,-115.234,5.371,679.296,386.72077955438624
486,1686714599.4,-8.789,-445.801,65.43,42.969,679.299,390.6350127891227
487,1686714599.41,-41.016,-85.938,113.281,-85.449,679.303,369.9513354867692
488,1686714599.41,-95.703,-130.371,-15.625,-148.926,679.307,381.3958259618587
489,1686714599.42,-63.477,-633.789,-89.355,-25.391,679.311,406.79355351617625
490,1686714599.42,8.301,-513.184,109.375,61.523,679.315,391.26939474591677
491,1686714599.42,-4.883,12.207,134.766,-45.898,679.319,398.0004112623659
492,1686714599.42,-76.66,-282.715,-96.191,-149.902,679.321,406.49979722820547
493,1686714599.43,-72.754,-877.441,-170.41,-58.105,679.325,407.8269893603929
494,1686714599.43,-17.578,-557.129,86.426,52.734,679.329,409.42007655333066
495,1686714599.44,-20.508,141.113,202.148,-12.695,679.333,413.67138513080624
496,1686714599.44,-73.242,-174.805,-94.727,-134.766,679.337,430.05672926940605
497,1686714599.44,-92.285,-617.188,-131.836,-103.516,679.341,450.16732759877584
498,1686714599.45,-18.066,-351.562,109.375,37.109,679.345,447.2735661050375
499,1686714599.45,22.461,104.98,142.578,32.227,679.348,443.586675169387
500,1686714599.46,-45.898,-351.074,-168.457,-97.656,679.352,446.70932148335265
501,1686714599.46,-96.191,-811.523,-148.438,-122.559,679.356,478.08379150450963
502,1686714599.46,-37.109,-218.262,214.355,0.488,679.36,469.03019010642413
503,1686714599.47,9.766,-0.488,44.922,56.152,679.364,476.14857278472607
504,1686714599.47,-41.504,-421.387,-72.754,-58.105,679.366,489.1437850596805
505,1686714599.47,-89.355,-462.402,72.754,-139.648,679.37,481.9169511921225
506,1686714599.48,-51.758,41.992,149.414,-59.57,679.374,486.8742623529436
507,1686714599.48,11.23,161.621,35.645,49.316,679.378,512.1687035485519
508,1686714599.49,-12.207,-285.156,-86.914,-23.926,679.382,500.6589402889977
509,1686714599.49,-80.566,-655.762,-111.328,-147.461,679.386,497.25178500617477
510,1686714599.49,-76.66,-412.598,54.688,-87.891,679.39,527.3733156804094
511,1686714599.5,-5.371,2.93,137.695,37.109,679.394,534.6902335723378
512,1686714599.5,-9.277,-525.879,-188.965,-3.418,679.398,529.4629874584531
513,1686714599.5,-93.75,-758.789,-37.109,-154.297,679.401,527.5449136374957
514,1686714599.51,-117.676,-88.379,208.984,-152.344,679.405,533.0564086069886
515,1686714599.51,-40.039,-2.441,41.992,0.488,679.409,525.9502981216931
516,1686714599.52,7.812,-376.465,-123.047,25.391,679.417,535.8773960174907
517,1686714599.52,-51.758,-380.371,-30.762,-107.91,679.421,542.6642844392524
518,1686714599.52,-104.004,-207.52,39.551,-150.391,679.424,528.3231245262326
519,1686714599.53,-46.387,-349.121,-52.734,-17.09,679.428,551.9192717623548
520,1686714599.53,6.348,-748.047,-120.117,63.965,679.432,547.2176359383595
521,1686714599.54,-43.457,-812.988,45.898,-54.688,679.436,535.5210864456552
522,1686714599.54,-98.633,-318.359,170.898,-161.133,679.44,544.1048224542798
523,1686714599.54,-87.402,-348.633,-23.438,-62.988,679.444,555.7651209416164
524,1686714599.55,-28.32,-680.176,-14.648,50.293,679.448,564.4384646955261
525,1686714599.55,-29.785,-177.246,199.707,-41.992,679.452,556.571152035822
526,1686714599.55,-100.098,60.059,52.246,-170.41,679.456,551.3134405675362
527,1686714599.56,-104.492,-295.41,-22.461,-114.746,679.46,549.7724601428279
528,1686714599.56,-27.832,-178.223,96.191,28.809,679.456,553.8501085150249
529,1686714599.56,-12.207,158.203,106.445,14.648,679.46,543.0033245415884
530,1686714599.57,-80.078,-18.066,-104.004,-123.535,679.464,553.9994357066594
531,1686714599.57,-102.539,-302.246,-109.863,-138.672,679.468,550.9284994907702
532,1686714599.58,-39.551,-185.059,68.848,-3.906,679.472,552.1262697437593
533,1686714599.58,-19.043,-191.895,-44.434,30.762,679.475,545.3842840360917
534,1686714599.58,-82.031,-407.715,-120.117,-101.562,679.479,536.7498965324456
535,1686714599.59,-119.141,-804.199,-221.68,-158.203,679.483,551.9442932036296
536,1686714599.59,-67.871,-760.254,-10.254,-39.551,679.487,542.6632718720143
537,1686714599.6,-14.648,-18.066,240.723,37.109,679.491,535.1504902063992
538,1686714599.6,-51.758,-27.832,-18.066,-74.219,679.495,535.3784729987485
539,1686714599.6,-108.398,-299.805,-42.969,-174.316,679.499,543.553584734836
540,1686714599.6,-80.566,-336.914,79.59,-83.496,679.501,542.4772615051478
541,1686714599.61,-11.23,-73.242,124.512,33.203,679.505,535.5696723055105
542,1686714599.61,-26.855,-87.402,-69.336,-28.809,679.509,536.5893830575046
543,1686714599.62,-95.215,-650.391,-165.039,-145.996,679.512,538.5065665560141
544,1686714599.62,-98.145,-405.273,84.473,-116.211,679.516,508.97145518546347
545,1686714599.62,-30.273,-158.691,91.797,21.484,679.52,517.1733077421918
546,1686714599.63,-18.066,-458.008,-110.352,21.484,679.524,511.9443166133483
547,1686714599.63,-92.773,-784.668,-187.988,-133.789,679.528,503.19807995849425
548,1686714599.64,-116.211,-607.422,136.23,-161.133,679.532,505.34216387721744
549,1686714599.64,-49.316,-20.02,223.633,-13.184,679.536,511.687993959928
550,1686714599.64,-11.23,-262.695,-86.914,52.246,679.54,505.39835303991566
551,1686714599.65,-56.641,-645.02,-134.766,-72.266,679.544,499.6839026065519
552,1686714599.65,-107.91,-154.297,149.414,-155.273,679.546,484.60907878831847
553,1686714599.66,-77.148,53.711,98.633,-40.039,679.55,489.0009970803509
554,1686714599.66,-11.719,-128.906,-25.391,55.176,679.554,488.4948427323344
555,1686714599.66,-34.18,-155.273,53.223,-51.758,679.558,481.2404668134229
556,1686714599.67,-99.609,-133.789,16.602,-160.156,679.562,469.55657540716965
557,1686714599.67,-87.891,-363.281,-82.52,-86.914,679.565,462.99760580923015
558,1686714599.68,-31.738,-742.188,-147.461,32.227,679.569,475.79339198502845
559,1686714599.68,-27.832,-677.734,-28.809,-13.672,679.573,465.0680185352499
560,1686714599.68,-100.098,-48.34,175.293,-149.902,679.577,449.0380211162824
561,1686714599.69,-117.676,-87.891,18.555,-125.488,679.581,467.8480339606919
562,1686714599.69,-42.48,-416.016,-97.656,18.066,679.585,443.67246761670776
563,1686714599.69,-4.883,-247.07,19.043,16.113,679.589,436.41710976937395
564,1686714599.7,-62.5,-253.906,-20.508,-122.559,679.604,439.71892544245355
565,1686714599.7,-116.211,-463.379,-123.047,-149.902,679.608,431.34896485753063
566,1686714599.7,-68.848,-781.25,-145.02,-7.324,679.612,409.0639942667138
567,1686714599.71,-11.23,-507.812,88.867,55.664,679.616,412.4454776730517
568,1686714599.71,-41.992,119.141,132.324,-76.172,679.62,401.7765955485283
569,1686714599.72,-98.145,-450.195,-229.004,-151.855,679.624,410.3695143395674
570,1686714599.72,-75.195,-864.746,-130.859,-44.434,679.628,386.4954152432779
571,1686714599.72,-25.879,-227.539,203.125,51.758,679.632,381.58970510734554
572,1686714599.73,-62.012,151.855,96.191,-36.133,679.636,388.36292002439956
573,1686714599.73,-103.027,-255.371,-69.824,-162.598,679.64,359.3890936778763
574,1686714599.74,-80.078,-327.148,44.434,-102.539,679.644,359.79857710446686
575,1686714599.74,-20.996,111.816,155.273,32.227,679.647,360.2822717804149
576,1686714599.74,-16.602,95.703,-59.082,-11.23,679.65,356.26033332462845
577,1686714599.74,-84.473,-468.262,-150.391,-150.391,679.654,325.77374479019034
578,1686714599.75,-106.934,-450.684,94.238,-145.02,679.657,310.19425625653565
579,1686714599.75,-26.367,81.543,151.367,3.906,679.661,322.74535379791934
580,1686714599.76,11.719,144.531,0.977,23.438,679.665,324.6428495474723
581,1686714599.76,-62.5,-538.574,-250.977,-114.746,679.669,305.04462964684615
582,1686714599.76,-114.746,-744.629,-17.578,-162.598,679.673,300.53345960228876
583,1686714599.77,-46.387,-37.598,252.93,-47.852,679.677,317.9635445691247
584,1686714599.77,0.0,71.777,9.277,29.785,679.681,277.1652577045339
585,1686714599.78,-57.617,-456.055,-152.832,-78.613,679.685,282.82086351658415
586,1686714599.78,-104.492,-469.238,88.379,-178.223,679.689,281.56859498193285
587,1686714599.78,-62.988,-23.926,171.875,-85.449,679.693,267.8117605101622
588,1686714599.8,-4.395,-159.668,-71.289,38.086,679.696,255.72175180528674
589,1686714599.8,-38.086,-650.879,-127.93,-35.645,679.7,256.35477941298745
590,1686714599.81,-113.281,-454.102,63.477,-156.25,679.703,258.7425180807883
591,1686714599.81,-105.469,-146.973,59.082,-109.375,679.707,232.42257186641456
592,1686714599.82,-41.992,-383.789,-138.184,21.973,679.711,230.412561477548
593,1686714599.82,-26.367,-826.172,-193.848,16.113,679.715,247.29094318340407
594,1686714599.82,-72.266,-655.273,89.355,-132.812,679.719,249.29996669910878
595,1686714599.83,-94.238,-57.617,166.992,-154.785,679.723,235.56869314563235
596,1686714599.83,-32.227,-317.871,-88.867,-9.277,679.727,237.45365569989897
597,1686714599.84,11.23,-541.504,-112.793,32.715,679.731,248.1288388412508
598,1686714599.84,-44.434,-64.941,135.742,-98.633,679.735,227.78897230734165
599,1686714599.84,-103.516,8.789,36.621,-152.344,679.739,229.89404281033995
600,1686714599.84,-65.43,-280.273,-27.832,-29.297,679.741,238.02708433652685
601,1686714599.85,-3.906,-213.867,77.637,54.688,679.745,243.46850471234552
602,1686714599.85,-27.832,41.016,59.57,-53.711,679.748,218.30803714218752
603,1686714599.86,-93.262,-86.426,-90.332,-162.109,679.752,233.97627156732804
604,1686714599.86,-67.383,-327.637,-137.695,-81.055,679.756,231.26672700361507
605,1686714599.86,7.324,-462.402,-71.777,46.875,679.76,240.8082818248369
606,1686714599.87,-1.953,-480.469,-46.387,-9.277,679.764,241.5715867842825
607,1686714599.87,-80.078,-456.055,-64.941,-150.391,679.768,236.461561288152
608,1686714599.88,-106.445,-784.18,-183.594,-119.141,679.772,235.68823532903278
609,1686714599.88,-34.668,-744.141,-0.977,25.391,679.776,239.85091970024115
610,1686714599.88,3.418,-34.668,225.586,19.531,679.78,235.5819958932354
611,1686714599.89,-61.035,-216.309,-87.891,-118.652,679.784,239.37459732883266
612,1686714599.89,-107.422,-671.387,-91.797,-138.672,679.786,245.89520566201926
613,1686714599.89,-49.805,-290.527,152.344,-4.395,679.79,238.0082356712463
614,1686714599.9,1.953,200.195,126.465,46.387,679.794,246.55074606722803
615,1686714599.9,-59.082,-147.949,-128.418,-88.867,679.798,244.1062984399676
616,1686714599.91,-119.141,-577.148,-141.113,-172.852,679.801,242.62215017963888
617,1686714599.91,-67.383,-457.031,80.566,-57.617,679.805,243.25264538597614
618,1686714599.91,-11.719,-87.402,161.621,43.457,679.809,257.336408121804
619,1686714599.92,-47.852,-210.449,-116.211,-45.898,679.813,263.1011026014167
620,1686714599.92,-98.633,-842.773,-254.883,-152.344,679.817,258.925325400488
621,1686714599.92,-89.844,-520.02,132.812,-87.402,679.821,251.99841595080787
622,1686714599.93,-23.438,172.852,174.805,30.273,679.825,256.67503080671213
623,1686714599.93,-16.113,-259.277,-120.605,-13.672,679.829,259.7205313543886
624,1686714599.94,-82.52,-660.645,-135.742,-144.043,679.831,260.2406025429527
625,1686714599.94,-106.934,-90.332,159.668,-130.859,679.835,264.8453962324074
626,1686714599.94,-40.039,89.844,79.102,5.371,679.839,264.8385618782842
627,1686714599.95,3.906,-137.695,-55.176,15.625,679.843,266.618185060243
628,1686714599.95,-50.293,-231.445,-7.812,-115.723,679.847,268.13705596728056
629,1686714599.96,-94.238,-420.898,-102.051,-146.484,679.851,284.6677482908774
630,1686714599.96,-41.016,-402.832,20.996,-18.555,679.854,275.50816294755816
631,1686714599.96,3.418,-609.863,-46.875,43.945,679.858,263.42578318569684
632,1686714599.97,-44.922,-691.895,-44.922,-77.637,679.862,279.74653536930526
633,1686714599.97,-98.633,-74.219,146.484,-157.227,679.866,287.2943996965666
634,1686714599.97,-56.152,-58.105,46.387,-48.34,679.87,275.7011279476472
635,1686714599.98,7.324,-315.918,-27.832,59.082,679.874,284.7920316705084
636,1686714599.98,-20.02,-478.516,-88.867,-20.996,679.877,282.17085287245294
637,1686714599.98,-84.473,-334.473,15.137,-146.973,679.88,285.33540333431165
638,1686714599.99,-79.102,-151.855,51.27,-94.238,679.884,289.85588997596983
639,1686714599.99,-19.531,-676.27,-123.535,51.758,679.888,287.18436444092873
640,1686714600.0,-24.414,-549.316,34.668,19.043,679.892,297.1821480012116
641,1686714600.0,-81.543,-245.605,20.02,-123.535,679.896,299.4612142403741
642,1686714600.0,-85.449,-603.516,-122.559,-122.07,679.9,297.3945732789197
643,1686714600.01,-32.227,-707.52,17.09,5.371,679.904,297.562960687834
644,1686714600.01,-14.16,-187.988,186.523,20.02,679.908,294.5727957481802
645,1686714600.02,-66.895,84.473,63.477,-114.746,679.912,288.43033563207007
646,1686714600.02,-115.234,-265.625,-35.156,-179.688,679.916,303.6034030331715
647,1686714600.02,-63.477,-203.125,74.219,-58.594,679.919,300.42643572821146
648,1686714600.03,-1.953,165.527,133.789,22.949,679.924,304.95269905424783
649,1686714600.03,-27.344,60.547,-87.891,-87.891,679.928,302.40598116151494
650,1686714600.03,-99.609,-566.406,-227.539,-171.875,679.932,309.1401576062568
651,1686714600.04,-84.473,-527.344,77.148,-82.031,679.936,314.4717414725124
652,1686714600.04,3.906,37.109,136.23,35.156,679.94,316.66320003087253
653,1686714600.05,-14.16,-186.523,-118.652,-23.438,679.944,309.07521326857835
654,1686714600.05,-99.609,-791.992,-252.441,-137.695,679.947,323.2606389676191
655,1686714600.05,-97.168,-682.617,-17.09,-102.539,679.951,311.5062413322359
656,1686714600.06,-15.137,105.957,236.328,18.555,679.955,322.1984693824551
657,1686714600.06,-2.441,74.219,-3.906,12.207,679.959,310.1259753033414
658,1686714600.06,-71.777,-311.035,-67.383,-123.535,679.963,316.94153506111024
659,1686714600.07,-93.262,-228.516,74.219,-142.578,679.967,314.1175368704846
660,1686714600.07,-38.086,-173.828,70.801,-5.371,679.979,322.1624427342905
661,1686714600.07,-0.488,-338.867,-20.996,41.016,679.983,313.76338362602075
662,1686714600.08,-61.035,-631.348,-84.473,-91.309,679.987,313.75258705376683
663,1686714600.08,-109.863,-423.828,71.289,-163.574,679.991,340.45880551980434
664,1686714600.09,-54.688,-105.957,131.348,-38.086,679.995,320.49572411588053
665,1686714600.09,-0.977,-356.934,-29.785,51.758,679.999,319.0047030233631
666,1686714600.09,-48.828,-916.016,-248.047,-52.246,680.003,335.7799649486341
667,1686714600.1,-95.703,-668.945,63.965,-166.016,680.007,332.9272817278366
668,1686714600.1,-61.523,7.812,205.078,-98.633,680.011,327.47050965136435
669,1686714600.1,1.465,-144.043,9.766,28.809,680.014,338.3734299077354
670,1686714600.11,1.465,-216.309,45.898,-24.414,680.018,320.5393678305503
671,1686714600.11,-75.684,-34.668,64.453,-169.922,680.022,327.1411633631011
672,1686714600.13,-95.215,-17.09,25.879,-150.879,680.025,341.7508110478962
673,1686714600.13,-21.484,-201.172,10.742,-3.418,680.029,335.8204113051495
674,1686714600.14,9.277,-185.059,59.082,8.301,680.033,337.9251133623247
675,1686714600.14,-47.363,-32.715,57.129,-122.07,680.037,349.36887916602177
676,1686714600.15,-84.961,-116.699,-28.809,-145.996,680.041,348.56468244508574
677,1686714600.15,-29.297,-418.457,-75.195,-4.395,680.045,340.2822432467577
678,1686714600.15,17.09,-433.594,50.781,56.641,680.049,343.25000486268954
679,1686714600.16,-30.273,-323.242,58.105,-77.148,680.052,352.46222947803005
680,1686714600.16,-91.797,-258.301,46.387,-166.016,680.056,346.3085541240476
681,1686714600.16,-70.801,-659.668,-101.074,-45.41,680.06,355.0997752298955
682,1686714600.17,-10.742,-721.191,-22.461,55.176,680.064,348.287709416382
683,1686714600.17,-23.926,-39.551,162.109,-42.969,680.068,339.433728998628
684,1686714600.18,-91.309,-321.777,-118.164,-145.02,680.07,336.8317644580256
685,1686714600.18,-88.867,-755.371,-102.051,-75.684,680.074,356.03845961501133
686,1686714600.18,-25.391,-295.41,157.715,39.062,680.078,343.14365053713294
687,1686714600.19,-8.301,193.359,130.859,-10.742,680.082,350.9993486496033
688,1686714600.19,-82.52,-209.473,-144.531,-147.461,680.086,339.5663722037333
689,1686714600.2,-115.723,-625.0,-108.887,-132.812,680.09,364.8758765738086
690,1686714600.2,-34.18,-281.738,143.066,7.812,680.094,367.99709413648117
691,1686714600.2,2.441,186.523,167.969,19.043,680.097,351.54942036161225
692,1686714600.21,-59.082,-263.672,-187.5,-107.91,680.101,346.0134262185991
693,1686714600.21,-100.098,-884.277,-204.59,-145.02,680.105,356.5393605497267
694,1686714600.21,-52.734,-436.035,240.723,-23.438,680.109,360.83485220353367
695,1686714600.22,-5.371,143.066,167.969,48.828,680.113,343.95312884937175
696,1686714600.22,-33.203,-365.723,-139.16,-61.523,680.115,356.6741376446314
697,1686714600.22,-89.844,-714.844,-109.375,-149.902,680.119,358.6252800540046
698,1686714600.23,-67.871,-95.703,174.805,-62.5,680.123,361.0869183695577
699,1686714600.23,-1.953,138.184,93.75,47.852,680.127,357.7848840741079
700,1686714600.24,-15.137,-168.945,-124.512,-20.02,680.131,358.3103878475733
701,1686714600.24,-74.219,-566.406,-154.785,-127.93,680.135,343.3350989640842
702,1686714600.24,-71.777,-409.668,48.34,-66.406,680.138,364.5422912656606
703,1686714600.25,7.812,41.016,103.027,61.035,680.142,361.44959350654415
704,1686714600.25,13.184,-477.051,-169.434,32.227,680.146,358.1245840998856
705,1686714600.26,-67.871,-715.332,-23.926,-110.84,680.15,360.0909223298
706,1686714600.26,-82.52,-63.477,189.941,-117.676,680.154,361.16738670433665
707,1686714600.26,-15.625,-67.871,34.18,33.203,680.158,354.4946590175969
708,1686714600.26,21.484,-441.895,-59.082,73.73,680.16,372.937784165334
709,1686714600.27,-39.551,-588.867,23.926,-59.57,680.164,362.08664443881315
710,1686714600.27,-94.238,-326.172,112.793,-120.117,680.168,367.66086242649806
711,1686714600.28,-38.574,-146.484,48.34,-0.977,680.172,355.33370552861356
712,1686714600.28,14.648,-645.02,-118.164,73.242,680.176,364.9614908625302
713,1686714600.28,-16.113,-767.578,21.973,-40.039,680.18,373.02796671625737
714,1686714600.29,-75.684,-341.797,149.414,-136.23,680.184,358.35729693275584
715,1686714600.29,-59.57,-364.258,4.883,-52.246,680.187,361.4031069135802
716,1686714600.3,0.977,-704.102,-36.133,70.312,680.191,363.877190061377
717,1686714600.3,-19.043,-214.355,200.684,-5.859,680.195,363.2725487578282
718,1686714600.3,-75.684,-1.953,50.781,-132.324,680.199,359.8549087729609
719,1686714600.31,-70.801,-359.375,-55.664,-78.613,680.203,364.26290422455054
720,1686714600.31,-7.324,-179.688,83.984,56.152,680.205,370.8005364547128
721,1686714600.31,7.324,116.699,120.605,34.668,680.209,357.72802233899085
722,1686714600.32,-62.988,-88.379,-69.336,-109.863,680.213,383.94572652533964
723,1686714600.32,-109.375,-623.535,-174.805,-133.301,680.217,371.5312577027259
724,1686714600.33,-54.688,-484.375,63.965,-3.906,680.22,380.4941272338455
725,1686714600.33,5.371,-226.562,68.359,37.109,680.224,376.2944209823886
726,1686714600.33,-44.922,-405.273,-61.035,-90.82,680.228,372.779740665943
727,1686714600.34,-108.887,-774.902,-177.734,-147.461,680.232,375.46740247006176
728,1686714600.34,-61.035,-625.0,46.387,-27.832,680.236,365.6986263092313
729,1686714600.34,5.371,130.371,206.055,52.246,680.24,382.70495102151506
730,1686714600.35,-23.438,8.789,-23.438,-43.457,680.244,365.75644795109883
731,1686714600.35,-84.473,-349.609,-46.387,-140.137,680.248,380.18471367945375
732,1686714600.36,-62.988,-439.453,23.438,-52.246,680.25,358.0291040430716
733,1686714600.36,1.465,-168.945,107.91,67.383,680.254,378.49412641726747
734,1686714600.36,-7.812,-118.164,-36.621,4.395,680.258,359.40588198155643
735,1686714600.37,-82.031,-642.09,-172.852,-133.301,680.262,367.037930775713
736,1686714600.37,-100.098,-489.258,68.848,-113.77,680.266,376.3808787725243
737,1686714600.38,-30.762,-237.793,100.098,36.621,680.27,369.6264250651463
738,1686714600.38,6.348,-442.871,-54.688,41.504,680.273,371.99442106430706
739,1686714600.38,-68.359,-927.246,-230.469,-102.539,680.277,363.21429468919274
740,1686714600.39,-108.398,-552.734,104.98,-152.832,680.281,364.0659141760432
741,1686714600.39,-29.297,117.676,193.848,-28.32,680.285,373.82097019269696
742,1686714600.39,6.348,-95.703,-3.418,39.551,680.289,375.64599497286997
743,1686714600.4,-48.34,-246.582,-17.09,-79.59,680.293,372.2666548402185
744,1686714600.4,-100.098,-69.336,72.754,-166.016,680.31,375.0613636565057
745,1686714600.4,-59.082,54.688,109.863,-53.223,680.313,374.27162521836726
746,1686714600.41,8.789,-139.16,3.418,62.5,680.317,396.92761997014435
747,1686714600.41,-20.02,-170.898,32.715,-24.902,680.321,361.06115139455585
748,1686714600.42,-82.031,-57.617,28.32,-136.719,680.325,365.4746712337114
749,1686714600.42,-65.43,-272.949,-62.5,-62.988,680.329,365.7491032642873
750,1686714600.42,-5.859,-695.801,-133.301,67.871,680.333,378.5728633870048
751,1686714600.43,-8.301,-751.465,-69.824,8.301,680.337,387.7268629359898
752,1686714600.43,-80.078,-360.352,148.926,-143.555,680.341,368.58034264846674
753,1686714600.44,-98.633,-253.906,62.988,-131.836,680.345,378.5265866043672
754,1686714600.44,-35.645,-376.953,-9.277,7.324,680.349,368.83955650088836
755,1686714600.44,-7.324,-199.219,79.102,26.367,680.353,373.4495907335185
756,1686714600.44,-78.613,-190.918,-16.602,-107.422,680.355,366.14687214343144
757,1686714600.45,-125.977,-454.102,-90.82,-145.508,680.359,372.92279820516455
758,1686714600.45,-63.477,-594.238,-48.34,-20.508,680.363,366.30692128457224
759,1686714600.46,-15.625,-221.191,120.117,36.133,680.367,387.09487970320765
760,1686714600.46,-63.477,153.809,101.562,-74.707,680.371,365.5119354911335
761,1686714600.46,-110.352,-405.762,-198.242,-159.18,680.375,373.0046393390381
762,1686714600.47,-71.289,-694.824,-89.355,-61.035,680.379,368.11167908139663
763,1686714600.47,-4.395,-106.934,210.938,47.363,680.382,372.4096757564524
764,1686714600.48,-13.184,183.105,83.984,-34.18,680.386,376.5387845434869
765,1686714600.48,-103.516,-381.348,-204.59,-156.25,680.39,372.89381038089084
766,1686714600.48,-104.004,-822.266,-200.684,-106.934,680.394,370.43045216505686
767,1686714600.49,-17.578,-257.812,139.16,17.578,680.398,390.1771950853072
768,1686714600.51,-1.465,166.992,129.395,-2.441,680.403,374.9308685172052
769,1686714600.51,-79.59,-409.668,-147.949,-130.859,680.407,380.14932974009645
770,1686714600.52,-109.863,-648.438,-86.426,-130.859,680.411,385.64967625088167
771,1686714600.52,-33.203,-2.93,176.27,1.953,680.415,381.9900311647702
772,1686714600.52,4.883,126.465,64.941,30.762,680.419,375.52469297702703
773,1686714600.53,-60.547,-445.801,-173.828,-95.703,680.423,378.0701376401199
774,1686714600.53,-105.469,-705.566,-66.895,-160.645,680.427,375.34025802469927
775,1686714600.53,-54.688,-183.594,147.949,-48.34,680.431,392.4749773630907
776,1686714600.54,1.953,68.848,20.996,36.621,680.434,375.4129912492889
777,1686714600.54,-32.715,-491.211,-145.508,-63.477,680.438,367.3984479970408
778,1686714600.55,-97.168,-549.316,85.938,-170.898,680.442,375.16500823414464
779,1686714600.55,-68.359,-39.551,173.828,-86.426,680.446,381.8111130551871
780,1686714600.56,2.93,-206.055,-41.016,53.711,680.46,387.57863947018126
781,1686714600.57,-11.719,-722.168,-123.535,0.488,680.464,389.98477641564523
782,1686714600.57,-84.473,-559.57,66.895,-145.996,680.468,391.2351121413041
783,1686714600.58,-83.008,-24.414,157.715,-109.375,680.472,376.7546362583506
784,1686714600.58,-13.672,-122.07,7.324,48.34,680.476,382.3287959201636
785,1686714600.58,7.324,-603.516,-153.32,40.039,680.48,375.1529901470211
786,1686714600.59,-55.664,-599.121,12.207,-106.934,680.484,383.7265273084068
787,1686714600.59,-88.379,-147.949,181.152,-132.812,680.487,380.4171156323312
788,1686714600.6,-33.691,-151.367,43.457,-28.809,680.49,380.97873851302086
789,1686714600.6,-31.25,-172.852,-10.742,0.977,680.491,390.49761264139414
790,1686714600.6,31.738,-104.004,88.379,67.383,680.494,377.796369970201
791,1686714600.6,8.789,-944.824,-348.145,57.129,680.495,379.56578509233316
792,1686714600.6,-5.859,104.492,101.074,-36.133,680.498,375.1808048900758
793,1686714600.6,-36.133,-791.992,-24.414,-83.496,680.499,374.9681930768017
794,1686714600.61,-84.961,-30.273,-94.238,-152.344,680.502,380.0683943247372
795,1686714600.61,-83.496,-74.219,201.66,-159.18,680.503,379.00189082409577
796,1686714600.61,-65.918,-513.184,-168.457,-78.125,680.506,370.44261232545404
797,1686714600.62,-8.301,-664.551,38.086,52.246,680.509,372.20624551274904
798,1686714600.62,-13.672,-198.73,141.113,-1.953,680.513,376.2302371474698
799,1686714600.62,-66.406,-115.234,18.555,-135.254,680.517,376.122206210306
800,1686714600.63,-90.82,-490.234,-89.844,-106.445,680.521,372.3566942203709
801,1686714600.63,-27.832,-238.77,104.004,32.715,680.525,385.5775392344557
802,1686714600.63,1.953,137.695,127.93,40.527,680.529,379.15914049587263
803,1686714600.64,-58.105,-53.711,-73.242,-113.77,680.533,363.4969801922587
804,1686714600.64,-108.398,-758.789,-313.965,-135.742,680.564,364.15572916052884
805,1686714600.64,-62.012,-782.227,-28.809,1.953,680.568,371.62550266414365
806,1686714600.65,9.277,68.359,311.523,46.387,680.572,373.55575765602725
807,1686714600.65,-42.969,-48.34,-47.852,-60.059,680.576,371.28196906620343
808,1686714600.66,-113.281,-361.328,-135.254,-155.762,680.58,371.76353210767513
809,1686714600.66,-73.242,-307.129,58.594,-51.27,680.584,369.6868515797847
810,1686714600.66,-1.953,-285.156,61.035,53.711,680.588,389.49456125026074
811,1686714600.67,-13.672,-474.609,-166.992,-38.574,680.592,373.1186301573164
812,1686714600.67,-83.984,-958.008,-295.898,-141.113,680.596,372.94985059238604
813,1686714600.68,-81.055,-476.074,151.855,-97.656,680.599,380.37317875297066
814,1686714600.68,-6.348,169.434,188.965,31.25,680.603,386.17744958401136
815,1686714600.68,-8.301,-124.023,-28.809,-5.371,680.607,372.7652074314117
816,1686714600.68,-84.473,-251.953,37.109,-149.414,680.581,380.17027599810456
817,1686714600.69,-98.633,2.441,112.793,-132.812,680.585,385.9400878663765
818,1686714600.69,-28.809,97.168,41.016,12.207,680.589,380.18918539777167
819,1686714600.7,-3.906,-113.77,-39.062,37.598,680.593,382.19446616677163
820,1686714600.7,-62.988,-257.324,-18.555,-95.215,680.597,377.69902299246485
821,1686714600.7,-110.352,-398.438,-93.262,-134.277,680.6,366.3941063780668
822,1686714600.71,-57.129,-385.254,16.113,-7.812,680.604,370.0231937771211
823,1686714600.71,1.953,-577.637,-48.34,62.988,680.608,378.36460772969576
824,1686714600.72,-50.781,-680.176,-40.527,-64.941,680.612,375.31247382406605
825,1686714600.72,-125.0,-350.098,117.676,-166.992,680.616,365.2305095062166
826,1686714600.72,-104.004,-213.379,62.012,-72.266,680.62,380.3882801408774
827,1686714600.73,-22.949,-233.887,4.883,43.457,680.624,388.51978063190586
828,1686714600.73,-29.297,-405.273,-49.316,-43.457,680.626,370.0745393677562
829,1686714600.73,-104.98,-334.961,15.137,-187.5,680.629,378.51837943726514
830,1686714600.74,-111.816,-125.488,86.426,-133.789,680.633,384.3094905796552
831,1686714600.74,-35.156,-731.934,-210.449,16.113,680.637,377.27931022115854
832,1686714600.75,-34.18,-777.832,-70.801,-10.742,680.641,384.2689491465501
833,1686714600.75,-108.887,-283.203,153.32,-157.715,680.645,370.9399132616829
834,1686714600.75,-128.418,-587.891,-55.176,-154.297,680.649,367.12849847926
835,1686714600.76,-63.477,-736.816,-25.391,-16.602,680.653,375.6908822459068
836,1686714600.76,-25.879,-139.16,180.176,0.488,680.657,375.60218553672695
837,1686714600.76,-79.59,201.172,94.727,-130.859,680.661,380.55109169337453
838,1686714600.77,-119.629,-288.574,-124.023,-173.34,680.665,369.7479003677046
839,1686714600.77,-73.242,-504.395,-80.566,-53.223,680.668,381.3436274385665
840,1686714600.78,-17.578,-72.754,131.348,21.484,680.671,385.0428501745322
841,1686714600.78,-46.875,161.133,42.48,-84.961,680.675,370.5632080781111
842,1686714600.78,-115.234,-459.961,-201.172,-174.316,680.679,376.70159736620184
843,1686714600.79,-100.098,-558.594,15.625,-84.473,680.683,380.88737109057615
844,1686714600.79,-25.879,39.062,134.277,30.273,680.687,378.9016003886433
845,1686714600.8,-30.762,-137.207,-93.75,-41.504,680.691,372.2414670434159
846,1686714600.8,-107.91,-737.305,-262.695,-173.34,680.695,374.74983519958386
847,1686714600.8,-116.699,-720.215,-67.383,-134.766,680.699,377.83582307219746
848,1686714600.81,-36.133,32.227,230.957,-5.859,680.703,386.53340339221796
849,1686714600.81,-9.766,84.961,2.441,0.0,680.707,373.1430430387096
850,1686714600.82,-75.684,-247.07,-125.0,-128.906,680.71,372.4066748334691
851,1686714600.82,-107.422,-195.801,29.297,-158.203,680.714,390.8517441798246
852,1686714600.82,-45.898,-158.691,32.715,-26.855,680.73,379.8180437960285
853,1686714600.83,-4.883,-267.578,-63.477,18.066,680.734,376.3779882711673
854,1686714600.83,-55.664,-714.844,-155.273,-104.98,680.738,380.8167414171963
855,1686714600.83,-101.562,-578.613,83.496,-179.688,680.742,366.16844134861987
856,1686714600.84,-60.059,77.148,195.312,-71.289,680.746,375.4331275117103
857,1686714600.84,-2.441,-170.898,-131.348,46.387,680.75,385.1665186469204
858,1686714600.85,-21.484,-817.383,-222.656,-29.297,680.754,380.81518657969565
859,1686714600.85,-85.938,-439.941,163.574,-149.902,680.758,372.6703840714101
860,1686714600.85,-75.684,57.129,137.695,-83.496,680.762,368.60923501204775
861,1686714600.86,-14.648,-268.066,-72.266,45.41,680.765,378.9271976480787
862,1686714600.86,-10.742,-270.508,-49.805,-0.488,680.769,375.04514767607947
863,1686714600.86,-71.289,-22.461,54.199,-134.277,680.773,379.93961719631733
864,1686714600.88,-91.309,20.996,81.543,-114.746,680.776,388.6438306001674
865,1686714600.88,-26.367,-110.84,21.484,23.926,680.78,374.04444101890715
866,1686714600.89,2.93,-95.703,54.199,45.41,680.784,375.02652745487586
867,1686714600.89,-53.223,29.785,48.828,-94.238,680.788,385.52503896331916
868,1686714600.9,-95.703,-143.555,-84.961,-141.113,680.792,379.1106942270518
869,1686714600.9,-44.922,-639.648,-170.41,-5.859,680.796,382.1996061153043
870,1686714600.9,-1.953,-757.324,-20.508,46.387,680.799,369.9099808169912
871,1686714600.91,-39.062,-164.062,161.621,-80.566,680.803,387.8787459792179
872,1686714600.91,-87.402,-67.871,16.602,-157.715,680.807,373.0960690275638
873,1686714600.92,-67.871,-568.359,-87.891,-55.664,680.811,363.67603551424696
874,1686714600.92,-11.23,-363.77,118.164,46.387,680.815,384.2976740106385
875,1686714600.92,-31.738,65.43,66.406,-37.109,680.819,374.26488651426274
876,1686714600.93,-85.938,-351.562,-167.48,-154.785,680.824,371.2776247217599
877,1686714600.93,-75.195,-756.348,-104.98,-94.727,680.828,384.0544771972345
878,1686714600.94,-17.578,-320.312,147.949,35.645,680.832,374.8554944219467
879,1686714600.94,-2.441,183.105,143.555,6.348,680.836,383.4241042971022
880,1686714600.95,-66.406,-154.297,-109.375,-121.582,680.839,378.52506835776063
881,1686714600.95,-94.238,-614.258,-194.824,-116.211,680.843,374.52042148078647
882,1686714600.95,-28.809,-495.117,35.156,21.973,680.847,370.7578456304945
883,1686714600.96,2.441,-280.273,121.582,46.387,680.851,376.1058952513953
884,1686714600.96,-57.129,-534.18,-129.395,-91.309,680.855,369.0946826022228
885,1686714600.96,-111.328,-963.867,-222.656,-126.953,680.859,372.13291007786324
886,1686714600.97,-64.453,-410.156,171.387,-4.883,680.863,380.22004828478316
887,1686714600.97,-30.273,-175.781,-21.973,-51.27,680.866,359.8062495650132
888,1686714600.97,0.488,192.871,175.293,58.105,680.867,387.8266027694897
889,1686714600.98,-86.426,-288.086,31.25,-151.367,680.87,375.1525161016532
890,1686714600.98,-59.57,59.082,125.977,-67.871,680.874,377.03091873262355
891,1686714600.98,6.836,153.32,76.172,47.852,680.878,382.083265050179
892,1686714600.99,-6.348,-194.336,-89.844,-17.578,680.882,368.73648190943885
893,1686714600.99,-80.566,-587.891,-165.039,-138.184,680.886,381.9521163675302
894,1686714601.0,-81.543,-432.617,12.695,-87.891,680.89,379.48126545751524
895,1686714601.0,-9.766,19.531,138.184,40.527,680.894,367.8412325319349
896,1686714601.0,5.371,-464.844,-169.922,29.785,680.898,375.06303369224963
897,1686714601.01,-55.664,-837.891,-141.113,-103.027,680.901,373.84572122593124
898,1686714601.01,-93.262,-384.277,186.523,-127.93,680.905,367.7762724470871
899,1686714601.01,-38.086,-108.398,92.285,7.324,680.909,371.5953190300942
900,1686714601.02,6.348,-556.152,-135.742,63.477,680.911,367.77008457700884
901,1686714601.02,-44.434,-577.148,34.18,-69.824,680.915,366.9916278457102
902,1686714601.02,-94.727,-32.715,170.41,-150.391,680.919,377.4499883043096
903,1686714601.03,-58.594,-101.074,33.691,-32.227,680.922,388.01829284479095
904,1686714601.03,-2.93,-227.051,-35.645,57.129,680.926,374.3368172269761
905,1686714601.04,-43.945,-320.801,-72.266,-48.828,680.93,363.7842925572064
906,1686714601.04,-103.027,-351.562,-25.391,-159.668,680.934,364.36537395717806
907,1686714601.04,-74.219,-389.16,0.977,-71.777,680.938,374.1709943344857
908,1686714601.05,-9.766,-796.875,-117.188,61.035,680.942,381.11774340473926
909,1686714601.05,-20.02,-357.422,130.371,-4.883,680.946,369.8963262416883
910,1686714601.05,-75.195,75.684,137.695,-143.066,680.95,377.6735356495596
911,1686714601.06,-81.055,-225.586,15.137,-112.793,680.954,378.0452809355786
912,1686714601.06,-21.484,-333.984,16.602,30.762,680.956,370.5640539195535
913,1686714601.06,0.977,-105.469,86.426,20.996,680.96,381.93663704347574
914,1686714601.07,-52.734,32.227,57.617,-118.652,680.964,369.20476831774397
915,1686714601.07,-91.309,-467.285,-127.93,-132.812,680.968,365.0827523838834
916,1686714601.08,-36.133,-511.719,-2.441,4.395,680.972,392.12130201939584
917,1686714601.08,12.207,-209.473,64.453,60.059,680.975,381.00082940422163
918,1686714601.08,-40.039,-348.145,-78.125,-69.824,680.979,380.702717794206
919,1686714601.09,-91.309,-745.605,-232.422,-150.391,680.983,370.79428717025286
920,1686714601.09,-54.688,-646.484,-38.086,-40.039,680.987,377.1066077404657
921,1686714601.1,2.441,82.031,206.543,66.895,680.991,367.04204037565296
922,1686714601.1,-21.973,16.602,-11.719,-23.438,680.995,374.4143632433248
923,1686714601.1,-85.938,-339.844,-90.82,-142.578,680.999,372.2567909762776
924,1686714601.1,-72.266,-493.164,-12.695,-72.754,681.001,372.5870204949491
925,1686714601.11,1.465,-115.234,133.301,46.875,681.005,375.2449471753112
926,1686714601.11,5.371,39.551,-22.949,8.301,681.009,377.2269053264326
927,1686714601.12,-70.312,-729.492,-268.066,-118.164,681.013,372.84727309527057
928,1686714601.12,-90.332,-616.699,46.875,-113.281,681.016,366.2321833746331
929,1686714601.12,-25.391,-127.93,176.758,23.926,681.02,368.5430022428473
930,1686714601.13,3.418,-401.855,-70.312,41.504,681.024,380.63211581060244
931,1686714601.13,-63.965,-770.996,-176.758,-91.797,681.028,378.68098159049623
932,1686714601.14,-108.887,-378.418,130.371,-139.16,681.032,372.64090781135315
933,1686714601.14,-45.41,134.277,152.344,-6.836,681.036,369.5995042805118
934,1686714601.14,-7.324,-116.699,-60.547,66.406,681.04,367.9005354800941
935,1686714601.15,-44.434,-360.84,-84.473,-59.082,681.044,373.1162331762422
936,1686714601.15,-81.055,-136.23,75.684,-150.879,681.046,378.5123457574412
937,1686714601.15,-49.805,11.719,87.402,-56.152,681.05,372.30812445058865
938,1686714601.16,0.977,-172.363,-14.16,50.781,681.054,384.3421106022452
939,1686714601.16,-13.184,-143.066,67.871,-16.113,681.058,372.73433605530556
940,1686714601.17,-74.707,-72.266,10.254,-139.16,681.062,382.6428344868299
941,1686714601.17,-79.102,-325.684,-118.652,-83.008,681.065,358.5262204081265
942,1686714601.17,-2.93,-726.074,-216.309,71.777,681.069,371.37536857835494
943,1686714601.18,8.789,-779.785,-94.727,33.691,681.073,378.44125727338064
944,1686714601.18,-58.105,-141.602,211.914,-119.141,681.077,372.01803551308666
945,1686714601.18,-83.984,-145.02,41.504,-116.211,681.081,374.0381101606501
946,1686714601.19,-18.066,-319.824,62.012,25.391,681.085,369.5474796416943
947,1686714601.19,12.695,-33.691,94.727,49.316,681.089,377.18369624535336
948,1686714601.2,-66.406,-214.844,-138.672,-91.309,681.119,367.3238025107985
949,1686714601.2,-107.422,-504.395,-159.668,-144.531,681.123,366.5062065812786
950,1686714601.2,-39.551,-663.574,-62.988,-15.625,681.126,366.2018525083305
951,1686714601.21,22.949,-293.945,131.836,61.035,681.13,375.2162197439321
952,1686714601.21,-19.531,112.793,104.492,-59.57,681.134,364.76801528397505
953,1686714601.22,-100.586,-419.434,-184.57,-146.484,681.138,376.3747212120325
954,1686714601.22,-82.031,-839.844,-153.32,-43.457,681.142,373.707969653847
955,1686714601.22,8.301,-248.535,177.734,64.453,681.146,382.5903566542042
956,1686714601.23,1.465,-16.113,53.223,-7.324,681.15,373.4720605159554
957,1686714601.23,-71.289,-650.391,-272.461,-133.301,681.154,379.8663897615422
958,1686714601.23,-75.684,-666.504,-106.445,-104.98,681.158,380.64351337309245
959,1686714601.24,-15.625,50.781,176.27,27.832,681.162,362.15970356474463
960,1686714601.26,-0.488,178.711,40.527,22.949,681.151,374.69282519908455
961,1686714601.26,-52.734,-241.699,-63.965,-116.699,681.155,376.3930107682361
962,1686714601.26,-76.172,-293.945,46.875,-129.395,681.158,367.4068874568554
963,1686714601.27,-11.719,116.211,167.969,12.207,681.162,369.13697348588266
964,1686714601.27,23.438,143.555,13.672,50.293,681.166,377.6171005033188
965,1686714601.28,-32.227,-541.504,-204.102,-71.777,681.17,378.3555005118725
966,1686714601.28,-83.008,-687.988,37.109,-126.953,681.174,372.5366986720173
967,1686714601.28,-38.574,-59.082,223.633,-22.949,681.178,385.44056456793277
968,1686714601.29,26.855,73.73,59.082,66.406,681.182,374.6997959833134
969,1686714601.29,-10.254,-312.012,-113.77,-33.203,681.186,377.1987596351962
970,1686714601.29,-76.172,-477.539,-50.293,-148.926,681.19,372.43891326984715
971,1686714601.3,-52.734,-314.941,53.711,-68.359,681.194,366.65428833209654
972,1686714601.3,-4.395,-219.238,79.102,48.34,681.196,369.1784460141197
973,1686714601.3,-17.578,-728.516,-190.43,0.977,681.2,372.7057140141752
974,1686714601.31,-75.195,-832.031,-111.328,-135.254,681.204,376.37613815148734
975,1686714601.31,-84.961,-129.883,215.332,-132.812,681.208,369.16375630904537
976,1686714601.32,-17.09,-38.574,66.406,11.719,681.211,384.17854111516465
977,1686714601.32,1.953,-424.805,-155.762,23.926,681.215,373.89043007951653
978,1686714601.32,-61.035,-433.594,-27.832,-116.211,681.219,388.64587183675184
979,1686714601.33,-97.656,-75.195,149.902,-146.973,681.223,385.3002907241452
980,1686714601.33,-39.551,-269.043,-87.402,-10.742,681.227,373.0753411258447
981,1686714601.34,3.418,-708.496,-123.047,47.852,681.231,364.1822243836359
982,1686714601.34,-47.852,-268.066,146.484,-78.613,681.235,388.09998410890023
983,1686714601.34,-94.727,28.32,97.656,-163.086,681.239,370.7593887954411
984,1686714601.34,-59.082,-242.676,19.043,-55.176,681.241,369.4197473474756
985,1686714601.35,0.977,-410.156,0.0,47.363,681.245,377.96732332717795
986,1686714601.35,-26.367,-176.27,65.43,-44.434,681.248,367.77846566238145
987,1686714601.36,-97.168,-10.742,28.809,-165.527,681.252,361.7004399144835
988,1686714601.36,-80.078,-496.094,-127.441,-90.332,681.256,371.33475563684016
989,1686714601.36,-10.254,-728.027,-1.953,46.387,681.26,373.9750395253956
990,1686714601.37,-10.742,-388.184,117.188,-0.488,681.264,370.4310216725915
991,1686714601.37,-80.078,-152.344,48.34,-137.207,681.268,380.5180437468678
992,1686714601.38,-105.957,-597.656,-168.457,-119.629,681.272,381.84401347015427
993,1686714601.38,-41.992,-616.211,-22.949,20.508,681.276,379.66685436244796
994,1686714601.38,-1.953,116.211,185.059,24.902,681.28,385.5671120085971
995,1686714601.39,-67.871,-67.383,-47.363,-116.211,681.284,373.48462488235145
996,1686714601.39,-117.676,-589.355,-166.016,-166.992,681.285,374.03837945612867
997,1686714601.39,-68.359,-333.984,59.082,-38.086,681.289,384.16595884151195
998,1686714601.4,-7.812,182.129,148.926,45.41,681.293,371.8974126758929
999,1686714601.4,-39.062,-87.402,-130.859,-62.012,681.297,382.2790513692398
1000,1686714601.41,-105.469,-732.91,-240.234,-147.461,681.301,380.249559902832
1001,1686714601.41,-77.637,-698.73,80.566,-60.059,681.305,375.8087458081559
1002,1686714601.41,6.836,-105.957,208.984,49.805,681.309,369.7904115716869
1003,1686714601.42,-0.977,-204.59,-103.027,-19.043,681.313,360.9505791113547
1004,1686714601.42,-86.914,-785.645,-246.094,-151.367,681.317,382.2622756629148
1005,1686714601.42,-86.914,-285.645,152.832,-108.887,681.32,379.1612951492708
1006,1686714601.43,-2.93,249.023,132.324,38.086,681.324,377.93516733584016
1007,1686714601.43,6.348,-56.641,-31.738,20.02,681.328,369.960233978049
1008,1686714601.44,-71.289,-290.039,-34.668,-119.141,681.331,371.0502184616296
1009,1686714601.44,-97.168,-85.938,56.152,-128.418,681.335,384.63006653355257
1010,1686714601.44,-31.25,59.082,92.773,6.348,681.338,378.8690130729951
1011,1686714601.45,0.488,-120.605,-13.672,38.574,681.342,382.19539372797567
1012,1686714601.45,-58.594,-248.535,-15.625,-92.773,681.346,377.0597579732279
1013,1686714601.46,-102.051,-458.496,-122.07,-145.996,681.35,376.2227101447423
1014,1686714601.46,-51.27,-481.445,-13.672,-26.367,681.354,372.2831556486817
1015,1686714601.46,-8.789,-655.273,-91.309,66.895,681.358,376.53574845250796
1016,1686714601.47,-48.828,-819.336,-92.285,-36.621,681.362,364.95988726398474
1017,1686714601.47,-103.027,-184.082,192.871,-149.902,681.366,378.8529663951925
1018,1686714601.47,-76.66,-82.52,42.969,-64.453,681.37,372.77621236926336
1019,1686714601.48,-0.488,-205.566,43.457,56.641,681.374,391.6430447112632
1020,1686714601.48,-10.742,-351.074,-32.227,-9.277,681.375,388.93907954468585
1021,1686714601.48,-86.914,-246.094,28.809,-143.555,681.379,385.70661034712833
1022,1686714601.49,-90.82,-99.121,16.113,-112.305,681.383,380.5815291877999
1023,1686714601.49,-16.113,-543.945,-90.82,35.645,681.387,376.19467108765207
1024,1686714601.5,5.859,-320.801,51.27,22.461,681.391,370.0437646217815
1025,1686714601.5,-54.199,-225.098,-74.707,-118.652,681.395,378.7109068817138
1026,1686714601.5,-83.984,-609.375,-166.504,-124.023,681.399,384.40875346459666
1027,1686714601.51,-20.996,-729.492,-45.898,11.719,681.403,375.62954138318446
1028,1686714601.51,11.719,-266.602,140.137,49.805,681.407,373.38936359096897
1029,1686714601.52,-44.922,-166.992,17.578,-83.984,681.411,371.8366335457829
1030,1686714601.52,-101.074,-674.316,-154.785,-155.273,681.414,369.462162712778
1031,1686714601.52,-75.195,-568.848,-60.059,-40.527,681.418,376.27105748446326
1032,1686714601.52,-16.602,108.887,175.293,47.852,681.421,367.0770988418508
1033,1686714601.53,-37.109,116.699,12.207,-55.664,681.425,379.64804972306996
1034,1686714601.53,-91.309,-316.406,-121.582,-168.945,681.429,380.73231030539387
1035,1686714601.54,-74.219,-245.605,67.871,-89.355,681.433,392.7863662875032
1036,1686714601.54,-8.789,65.43,77.637,37.598,681.436,368.43506281396446
1037,1686714601.54,-9.766,-187.988,-110.352,-16.602,681.44,384.2151368530856
1038,1686714601.55,-79.102,-786.133,-277.344,-139.648,681.444,383.2522165590382
1039,1686714601.55,-95.215,-727.539,-86.426,-116.211,681.448,373.74552062084706
1040,1686714601.56,-20.996,59.57,224.121,24.414,681.452,371.38134014425174
1041,1686714601.56,10.742,145.02,67.383,44.434,681.456,397.6019366197275
1042,1686714601.56,-62.012,-331.055,-165.527,-103.516,681.46,379.84846767811723
1043,1686714601.57,-97.656,-501.465,-111.816,-142.578,681.464,382.8429660470822
1044,1686714601.57,-30.762,-315.918,86.426,-8.789,681.478,385.2243968994775
1045,1686714601.58,9.277,-250.0,44.922,50.781,681.482,372.63296325045246
1046,1686714601.58,-49.316,-739.258,-170.41,-66.895,681.486,388.3285527750615
1047,1686714601.58,-110.352,-682.129,14.16,-150.879,681.49,382.5980759245676
1048,1686714601.59,-69.824,7.812,207.031,-50.781,681.494,364.1116389644985
1049,1686714601.59,1.465,-210.938,-52.734,62.5,681.498,378.21690974908245
1050,1686714601.6,-24.902,-768.066,-157.227,-23.926,681.502,376.1532661963319
1051,1686714601.6,-98.145,-398.926,116.699,-159.18,681.506,374.6597363468609
1052,1686714601.6,-81.543,97.168,152.344,-96.68,681.51,376.1816405326636
1053,1686714601.61,-1.953,-102.539,-31.25,43.457,681.514,371.6706176954402
1054,1686714601.61,0.0,-155.273,-30.762,1.465,681.518,380.9477062631046
1055,1686714601.61,-70.801,-3.418,37.109,-138.184,681.521,382.76362429977513
1056,1686714601.63,-87.402,19.531,38.086,-124.023,681.526,383.2552826403238
1057,1686714601.64,-22.949,-118.164,34.668,21.973,681.53,386.0121321164309
1058,1686714601.64,10.742,-307.129,-13.672,43.945,681.534,373.7618970507194
1059,1686714601.64,-49.316,-159.18,40.039,-100.098,681.538,385.5533942257947
1060,1686714601.65,-112.793,-12.695,59.57,-154.297,681.542,372.54206136518593
1061,1686714601.65,-65.918,-583.496,-211.914,-17.09,681.546,367.7905470687506
1062,1686714601.66,-9.277,-791.992,-100.586,62.5,681.55,385.73414506859916
1063,1686714601.66,-48.828,-67.383,198.242,-63.477,681.554,376.6846885401429
1064,1686714601.66,-107.422,-38.574,10.742,-165.039,681.558,379.2611026876711
1065,1686714601.67,-79.59,-287.598,-56.152,-69.824,681.561,385.6667682068103
1066,1686714601.67,-7.812,-30.273,89.355,47.852,681.565,366.5896165368971
1067,1686714601.67,-19.531,82.031,-24.414,-29.785,681.569,376.5798177941686
1068,1686714601.68,-78.613,-374.023,-222.656,-149.414,681.571,389.1215579899016
1069,1686714601.68,-80.078,-754.395,-106.934,-92.285,681.575,375.05720999505996
1070,1686714601.68,-13.672,-304.199,131.836,36.133,681.579,381.16596223609065
1071,1686714601.69,1.465,164.551,126.953,8.789,681.583,379.52181359808947
1072,1686714601.69,-72.266,-238.281,-141.113,-131.348,681.587,377.44641983788
1073,1686714601.7,-98.633,-685.059,-152.832,-135.742,681.59,379.01362709881556
1074,1686714601.7,-28.809,-521.973,93.75,4.395,681.594,387.0794766600486
1075,1686714601.7,19.043,-42.48,163.574,39.062,681.598,375.6520945332947
1076,1686714601.71,-34.668,-239.258,-161.621,-80.566,681.602,388.6364216886224
1077,1686714601.71,-97.656,-903.32,-295.41,-137.207,681.606,382.3168433169519
1078,1686714601.71,-46.387,-313.477,178.223,-40.527,681.61,375.35471306776236
1079,1686714601.72,26.855,227.051,145.996,42.969,681.614,370.9984854180799
1080,1686714601.72,-12.207,-174.805,-44.434,-54.199,681.63,379.94442652485844
1081,1686714601.72,-83.496,-350.098,-14.16,-160.156,681.634,394.815290539263
1082,1686714601.73,-63.477,-59.082,72.266,-72.266,681.638,377.1833275599219
1083,1686714601.73,5.371,129.395,70.312,52.246,681.642,386.59581705640727
1084,1686714601.74,-5.859,-155.273,-141.113,-6.836,681.645,376.42607948433294
1085,1686714601.74,-80.078,-614.258,-189.453,-132.324,681.649,384.9140955561269
1086,1686714601.74,-85.449,-463.379,31.738,-107.422,681.653,381.1225220679034
1087,1686714601.75,-12.695,-149.902,114.258,21.484,681.657,378.2514082805839
1088,1686714601.75,0.977,-614.746,-169.434,39.062,681.661,373.856725655544
1089,1686714601.76,-72.266,-872.559,-143.066,-103.516,681.665,382.51872580617896
1090,1686714601.76,-99.121,-204.59,215.82,-145.996,681.669,390.8028223629867
1091,1686714601.76,-32.227,10.254,92.285,5.371,681.673,375.7560255930964
1092,1686714601.76,-3.906,-355.469,-38.086,57.129,681.661,391.02496188688764
1093,1686714601.77,-55.664,-385.742,22.949,-78.613,681.665,398.5230827291987
1094,1686714601.77,-104.98,-71.777,97.656,-150.879,681.669,369.5152648525367
1095,1686714601.78,-62.988,-123.047,16.113,-34.18,681.673,386.2123265209496
1096,1686714601.78,-13.184,-564.941,-111.328,61.035,681.677,381.4829860538915
1097,1686714601.78,-46.387,-615.234,-3.906,-41.992,681.681,386.0725318354461
1098,1686714601.79,-104.492,-472.656,14.16,-158.203,681.684,390.8418729806322
1099,1686714601.79,-94.238,-604.004,-60.547,-92.285,681.688,380.0042488496096
1100,1686714601.8,-25.391,-436.523,29.297,29.785,681.692,375.14451007807367
1101,1686714601.8,-20.508,-40.527,103.516,-12.695,681.696,374.90001022097584
1102,1686714601.8,-84.961,-220.215,-74.219,-142.578,681.7,385.98210209431534
1103,1686714601.81,-95.703,-654.297,-234.375,-117.188,681.704,382.16297917223346
1104,1686714601.81,-32.715,-831.543,-134.277,23.438,681.706,390.430334399658
1105,1686714601.81,-7.324,-163.086,182.617,28.809,681.709,386.2435318424988
1106,1686714601.82,-62.988,44.922,30.762,-111.816,681.713,379.9476285241539
1107,1686714601.82,-107.422,-328.125,-74.219,-157.227,681.717,376.12037274790157
1108,1686714601.83,-57.129,-205.566,67.383,-17.09,681.721,389.3342571176588
1109,1686714601.83,-8.789,-162.598,-4.395,52.246,681.725,380.01902259115064
1110,1686714601.83,-47.363,-342.773,-108.398,-70.801,681.729,374.88110825308934
1111,1686714601.84,-100.098,-746.582,-226.562,-148.926,681.733,381.66581559626724
1112,1686714601.84,-76.172,-670.41,-33.691,-46.387,681.737,390.66208162861085
1113,1686714601.84,-10.254,143.066,237.793,54.199,681.741,384.34014064021613
1114,1686714601.85,-33.203,99.121,-19.043,-29.785,681.745,374.1117930038209
1115,1686714601.85,-104.98,-370.117,-175.293,-150.879,681.749,376.341228866824
1116,1686714601.86,-99.609,-461.426,-58.594,-83.984,681.754,382.02558619740614
1117,1686714601.86,-22.461,-318.848,71.289,50.781,681.758,387.18996683883734
1118,1686714601.86,-2.441,-297.852,-5.859,16.113,681.762,375.8145044991205
1119,1686714601.87,-70.801,-739.258,-195.801,-112.793,681.766,374.4029859943617
1120,1686714601.87,-100.098,-675.293,12.207,-108.398,681.77,389.4967062170895
1121,1686714601.88,-40.527,-193.359,168.945,25.391,681.774,377.27136181090054
1122,1686714601.88,-9.277,-342.285,-31.738,59.57,681.778,367.7422526801452
1123,1686714601.88,-71.289,-759.766,-157.227,-75.195,681.781,384.34631477145484
1124,1686714601.89,-121.582,-397.949,114.746,-151.855,681.785,379.7100586162346
1125,1686714601.89,-71.777,154.297,181.152,-40.039,681.789,378.41366021984066
1126,1686714601.9,-12.695,-17.578,-9.766,44.434,681.793,370.14586171648324
1127,1686714601.9,-48.828,-153.809,-20.996,-71.289,681.797,381.63477052653207
1128,1686714601.9,-106.934,11.719,69.336,-171.875,681.796,374.22272337797233
1129,1686714601.9,-78.613,86.914,54.199,-80.078,681.8,387.504787889096
1130,1686714601.91,-11.719,-157.227,-50.781,36.621,681.804,392.22821761437103
1131,1686714601.91,-21.973,-379.395,-63.477,-37.598,681.808,384.0579200943516
1132,1686714601.92,-92.773,-203.613,6.348,-165.039,681.811,383.78794447080173
1133,1686714601.92,-105.957,-229.492,-36.621,-113.281,681.815,384.65343207075574
1134,1686714601.92,-42.48,-679.199,-232.91,32.227,681.819,379.5920695458411
1135,1686714601.93,-27.832,-915.527,-168.457,14.16,681.823,372.2716677324492
1136,1686714601.93,-82.031,-263.184,186.035,-133.301,681.827,381.1551112114514
1137,1686714601.94,-96.191,-23.438,62.012,-140.137,681.831,375.49786152788977
1138,1686714601.94,-58.594,-145.996,64.941,-7.812,681.835,376.4530519401218
1139,1686714601.94,-29.785,54.199,97.168,20.508,681.839,375.6546060721481
1140,1686714601.94,-66.895,-176.758,-137.207,-101.562,681.855,374.1757304042365
1141,1686714601.95,-108.887,-473.633,-178.711,-152.832,681.859,385.3673559103375
1142,1686714601.95,-66.406,-646.973,-72.754,-42.48,681.863,384.138389037931
1143,1686714601.96,-16.113,-251.953,136.719,41.992,681.867,376.3926553549274
1144,1686714601.96,-40.039,94.238,73.73,-55.664,681.871,366.7748390458996
1145,1686714601.96,-101.074,-455.078,-229.004,-159.18,681.875,371.99506776734995
1146,1686714601.97,-91.309,-871.094,-176.27,-71.289,681.879,382.1631423338395
1147,1686714601.97,-17.578,-392.09,143.555,50.293,681.883,379.7750084595108
1148,1686714601.98,-8.301,233.887,160.645,-15.625,681.887,385.67016295205167
1149,1686714601.98,-81.055,-288.086,-205.078,-140.625,681.891,378.27893192386495
1150,1686714601.98,-97.656,-720.703,-216.309,-104.98,681.894,384.894580913304
1151,1686714601.99,-22.949,-88.867,175.781,21.484,681.898,385.98856619047814
1152,1686714601.99,7.324,205.078,71.289,20.508,681.9,382.1237371055287
1153,1686714601.99,-70.801,-222.656,-114.258,-112.305,681.904,380.98526926241897
1154,1686714602.0,-108.887,-321.777,0.488,-146.484,681.908,379.1136252351678
1155,1686714602.0,-49.805,65.43,111.816,-17.578,681.912,379.40200320208334
1156,1686714602.01,-11.23,185.547,53.711,34.668,681.916,376.88870793439736
1157,1686714602.01,-51.27,-348.633,-166.992,-82.031,681.919,383.7850229550559
1158,1686714602.01,-112.793,-614.258,-121.094,-165.039,681.923,383.9506467386479
1159,1686714602.02,-83.008,-138.672,107.422,-63.965,681.927,373.15709518629603
1160,1686714602.02,-11.23,-57.617,66.406,49.316,681.931,377.40473932582626
1161,1686714602.02,-36.621,-663.086,-260.254,-31.738,681.935,384.13406084620243
1162,1686714602.03,-110.352,-808.105,-130.859,-151.367,681.939,372.81254122632845
1163,1686714602.03,-93.75,-113.77,233.398,-97.168,681.943,372.983937416624
1164,1686714602.05,-20.02,-147.461,27.832,31.25,681.946,375.5973526256957
1165,1686714602.05,-17.578,-660.156,-108.398,-3.418,681.95,369.35142971202043
1166,1686714602.06,-87.891,-455.566,79.59,-139.16,681.954,377.0743059901867
1167,1686714602.06,-101.562,10.742,143.066,-123.535,681.958,382.5193458934354
1168,1686714602.07,-28.32,-55.176,-15.625,26.367,681.961,387.7132724467374
1169,1686714602.07,0.488,-481.445,-154.297,47.363,681.965,371.8979432590011
1170,1686714602.07,-63.965,-425.293,20.996,-94.727,681.969,372.3106617477959
1171,1686714602.08,-94.727,-11.719,160.645,-141.113,681.973,375.42625848903316
1172,1686714602.08,-41.504,-218.75,-74.219,-4.395,681.977,379.36542601780945
1173,1686714602.08,-10.742,-560.059,-129.883,57.129,681.981,382.12435070042085
1174,1686714602.09,-56.152,-302.246,38.086,-78.613,681.985,386.7689315120116
1175,1686714602.09,-96.68,-341.309,-99.609,-162.598,681.989,381.60365560065713
1176,1686714602.1,-61.035,-675.781,-143.555,-59.57,681.991,387.6631985899167
1177,1686714602.1,2.441,-528.32,-34.668,51.758,681.995,362.24768177214423
1178,1686714602.1,-9.766,20.02,96.68,-30.762,681.999,369.49744362938185
1179,1686714602.11,-86.914,-51.27,-23.926,-151.855,682.003,377.05127185438266
1180,1686714602.11,-94.727,-267.578,-66.406,-103.516,682.007,390.8984652856552
1181,1686714602.12,-20.508,-368.652,-1.953,25.391,682.011,383.4847427557474
1182,1686714602.12,-13.184,-287.598,62.988,-10.742,682.014,385.76914544723627
1183,1686714602.12,-88.867,-90.82,46.387,-144.531,682.018,372.7601269217247
1184,1686714602.13,-115.234,-638.672,-227.539,-131.836,682.022,384.0730276786081
1185,1686714602.13,-54.688,-645.02,-44.922,3.418,682.026,376.9614938571693
1186,1686714602.13,-9.766,145.996,202.148,30.273,682.03,381.6204022110792
1187,1686714602.14,-62.988,-9.277,-57.129,-93.262,682.034,367.55580587901846
1188,1686714602.14,-109.863,-545.898,-188.965,-150.391,682.038,376.35695101561566
1189,1686714602.14,-57.617,-594.727,-44.434,-38.574,682.042,377.21147421322013
1190,1686714602.15,0.488,-124.512,135.742,38.086,682.046,391.0140761273275
1191,1686714602.15,-28.809,-46.875,-26.855,-74.219,682.05,393.9004419780584
1192,1686714602.16,-95.703,-744.629,-285.156,-155.762,682.054,385.5193202131045
1193,1686714602.16,-75.195,-863.77,-8.789,-59.57,682.058,377.3579391665617
1194,1686714602.16,0.0,-152.832,217.773,46.875,682.062,378.17763510320555
1195,1686714602.17,-5.371,-123.535,-73.242,-20.508,682.065,378.6867483645069
1196,1686714602.17,-86.914,-764.648,-242.676,-150.879,682.069,383.19993168705827
1197,1686714602.18,-87.402,-324.219,120.117,-117.676,682.073,385.714432151197
1198,1686714602.18,-9.766,201.66,144.531,26.367,682.077,368.5645489865624
1199,1686714602.18,-3.906,-100.098,-43.457,13.184,682.081,382.2772630478543
1200,1686714602.18,-70.312,-253.906,-29.297,-132.324,682.081,379.70824954655257
1201,1686714602.19,-96.68,-21.973,91.309,-145.02,682.085,386.46678679889015
1202,1686714602.19,-33.203,127.441,61.035,-6.836,682.089,378.271752031766
1203,1686714602.2,3.906,-172.852,-58.594,42.48,682.093,382.4756639444203
1204,1686714602.2,-52.734,-524.414,-143.555,-82.52,682.097,394.1701484021401
1205,1686714602.2,-110.352,-562.012,-146.973,-150.879,682.1,386.97859705656276
1206,1686714602.21,-72.266,-394.531,73.73,-38.086,682.104,372.1541828334658
1207,1686714602.21,-5.859,-619.141,-104.004,54.199,682.108,383.267076961764
1208,1686714602.22,-41.016,-837.891,-130.859,-47.363,682.112,385.0728749681976
1209,1686714602.22,-102.539,-187.5,240.723,-166.016,682.116,385.8174354879011
1210,1686714602.22,-83.496,13.184,92.773,-82.52,682.12,378.56294734264156
1211,1686714602.23,-21.973,-68.359,44.434,39.551,682.124,369.65457951079503
1212,1686714602.23,-25.391,-250.977,-37.598,-12.695,682.126,379.5347686091378
1213,1686714602.23,-94.727,-336.426,-40.039,-140.625,682.13,386.0381364902261
1214,1686714602.24,-107.91,-185.059,32.227,-115.723,682.134,377.9633755669035
1215,1686714602.24,-46.387,-538.574,-62.012,24.414,682.138,387.3397816447476
1216,1686714602.25,-28.32,-320.801,48.34,19.531,682.142,384.1517063451425
1217,1686714602.25,-91.309,-245.605,-70.312,-122.559,682.145,378.4136858833574
1218,1686714602.25,-124.023,-601.562,-159.668,-145.02,682.149,390.1035282539732
1219,1686714602.26,-72.266,-924.805,-190.43,-9.766,682.153,389.5595292078455
1220,1686714602.26,-28.809,-500.977,106.445,22.461,682.157,393.7717242552569
1221,1686714602.26,-63.965,165.527,181.152,-108.887,682.161,393.1243440374015
1222,1686714602.27,-112.305,-252.93,-85.449,-176.758,682.165,379.15021744225237
1223,1686714602.27,-76.172,-290.039,11.719,-63.477,682.169,382.2296970769479
1224,1686714602.28,-10.742,191.895,140.625,45.41,682.171,387.1082866094589
1225,1686714602.28,-35.156,172.363,-4.395,-40.527,682.175,377.95576621169164
1226,1686714602.28,-104.004,-261.719,-121.094,-166.992,682.179,388.7145129696232
1227,1686714602.29,-99.609,-283.691,44.434,-109.863,682.183,384.009550436829
1228,1686714602.29,-34.18,64.453,78.613,15.625,682.187,392.3171697943723
1229,1686714602.3,-36.621,-117.676,-103.027,-35.156,682.191,385.32142553729835
1230,1686714602.3,-112.305,-756.348,-301.27,-158.203,682.194,393.38306975150886
1231,1686714602.3,-127.93,-741.699,-105.957,-140.625,682.198,388.9803328518777
1232,1686714602.31,-49.805,-37.109,196.777,-14.648,682.202,388.1208002766984
1233,1686714602.31,-10.254,-142.09,-47.363,6.836,682.206,380.96641435981445
1234,1686714602.31,-75.684,-609.375,-128.418,-125.0,682.21,372.56493709300105
1235,1686714602.32,-125.488,-404.785,63.965,-175.293,682.214,392.95016879794775
1236,1686714602.32,-71.289,-178.711,71.289,-38.086,682.233,397.7537919863263
1237,1686714602.32,-23.926,-370.117,-33.203,35.156,682.237,387.8198679122702
1238,1686714602.33,-70.801,-682.129,-106.445,-87.891,682.24,382.4211857079005
1239,1686714602.33,-126.465,-420.898,84.961,-176.758,682.244,384.308777577864
1240,1686714602.34,-97.656,78.613,122.07,-78.125,682.248,378.27901956369925
1241,1686714602.34,-37.109,-257.324,-162.109,34.18,682.252,386.09971404804395
1242,1686714602.34,-56.152,-786.133,-203.613,-41.992,682.256,368.8739508386683
1243,1686714602.35,-126.953,-413.086,112.793,-170.898,682.26,391.3197755528725
1244,1686714602.35,-116.211,116.699,141.602,-109.863,682.264,373.525037713586
1245,1686714602.36,-31.738,-63.477,-3.418,42.969,682.268,374.1975706209908
1246,1686714602.36,-20.996,-179.688,-31.25,2.441,682.272,374.95372552879115
1247,1686714602.36,-89.355,-188.965,-127.93,-146.484,682.276,377.72360016134127
1248,1686714602.37,-109.375,-300.293,-131.836,-135.254,682.274,387.5093490773403
1249,1686714602.37,-45.41,-563.965,-104.492,2.93,682.278,387.1063670743115
1250,1686714602.37,-8.301,-493.164,-40.527,28.32,682.282,375.7206426266992
1251,1686714602.38,-57.617,-26.367,81.055,-110.84,682.286,398.55245351210647
1252,1686714602.38,-105.469,-98.633,-51.27,-171.875,682.289,391.96477173709394
1253,1686714602.39,-64.941,-468.262,-99.609,-53.223,682.293,392.40708725857945
1254,1686714602.39,2.93,-467.773,4.395,30.762,682.297,386.4197306636427
1255,1686714602.39,-32.715,-31.25,147.461,-83.496,682.301,377.4576014791556
1256,1686714602.4,-111.328,-94.238,-18.066,-182.617,682.305,383.25291091530073
1257,1686714602.4,-88.867,-592.285,-172.852,-83.984,682.309,389.63864810451634
1258,1686714602.4,-23.926,-448.242,41.016,36.621,682.313,392.48470060825076
1259,1686714602.41,-29.785,-20.508,104.98,-37.109,682.317,387.9700632240057
1260,1686714602.43,-98.633,-287.598,-93.262,-168.457,682.324,371.82643152643533
1261,1686714602.43,-118.652,-693.359,-136.23,-126.953,682.328,386.2275444395013
1262,1686714602.44,-51.27,-524.902,78.613,8.301,682.331,383.75279299206187
1263,1686714602.44,-20.02,-22.461,162.109,-4.395,682.335,400.4779808756744
1264,1686714602.44,-87.402,-81.543,-78.613,-136.719,682.339,374.266689765251
1265,1686714602.45,-136.719,-762.207,-255.371,-151.367,682.343,381.4244558227425
1266,1686714602.45,-72.754,-573.73,98.145,-26.855,682.347,379.768104753828
1267,1686714602.45,-15.137,130.859,201.172,19.043,682.351,375.9458845154121
1268,1686714602.46,-62.988,-236.328,-169.922,-98.633,682.355,373.5860121892467
1269,1686714602.46,-120.117,-660.645,-195.801,-166.504,682.359,372.7779274470735
1270,1686714602.47,-75.684,-97.168,170.898,-54.199,682.363,394.7155694748899
1271,1686714602.47,-13.184,159.668,114.258,40.039,682.367,383.0796666994867
1272,1686714602.47,-50.293,-191.406,-47.363,-63.965,682.366,384.65601049117356
1273,1686714602.47,-115.723,-331.543,-12.695,-181.641,682.37,375.9644206712526
1274,1686714602.48,-92.285,-16.602,120.605,-103.027,682.374,386.4894012671137
1275,1686714602.48,-20.02,129.395,42.48,25.391,682.377,370.6966432933011
1276,1686714602.49,-24.902,-246.094,-170.41,-23.926,682.381,379.54535619461865
1277,1686714602.49,-96.68,-633.301,-196.777,-160.645,682.385,382.1449070972178
1278,1686714602.49,-112.305,-598.145,-55.176,-131.836,682.389,384.68532148977187
1279,1686714602.5,-38.086,-349.609,112.793,24.414,682.393,384.12178431364197
1280,1686714602.5,-3.418,-599.609,-142.578,42.48,682.397,371.12283958331085
1281,1686714602.5,-74.707,-858.887,-160.645,-115.234,682.401,374.7690973130213
1282,1686714602.51,-111.328,-213.379,215.82,-171.875,682.405,389.16833391413144
1283,1686714602.51,-43.945,30.762,79.59,-24.414,682.409,377.0943083868366
1284,1686714602.52,-2.93,-354.492,-100.098,29.785,682.41,380.7063198701913
1285,1686714602.52,-50.781,-384.766,-70.312,-98.633,682.414,385.8282871277177
1286,1686714602.52,-95.703,-69.336,57.129,-176.758,682.418,378.6241739162293
1287,1686714602.53,-68.359,-91.309,11.719,-75.684,682.422,380.8756252442712
1288,1686714602.53,-24.414,-540.527,-126.953,34.18,682.426,378.89512306621157
1289,1686714602.54,-42.969,-663.086,-48.34,-43.457,682.43,377.4686288533047
1290,1686714602.54,-96.191,-355.469,59.57,-158.203,682.434,384.49196193693246
1291,1686714602.54,-95.215,-372.559,-26.855,-90.82,682.438,386.1730508399998
1292,1686714602.55,-34.18,-911.133,-234.863,49.316,682.442,386.2236974030771
1293,1686714602.55,-22.461,-531.738,78.613,4.883,682.446,385.1155374135398
1294,1686714602.55,-83.008,87.891,168.457,-147.461,682.449,385.9681575109669
1295,1686714602.56,-108.887,-257.324,-52.734,-145.996,682.453,374.44376791346457
