,timestamps,TP9,AF7,AF8,TP10,Secondary Timestamp,emg_signal
0,1686275278.93,-32.227,-335.449,49.316,-22.949,1984.841,354.3221050995455
1,1686275278.94,19.531,-448.242,-28.809,2.93,1984.845,349.7599846250684
2,1686275278.94,-17.578,-875.977,-324.219,-43.945,1984.849,356.08119529042347
3,1686275278.94,-71.289,-585.938,-113.281,-94.238,1984.853,361.2584036536784
4,1686275278.95,-48.34,-52.734,137.695,-61.035,1984.857,356.6403322703177
5,1686275278.95,15.625,-366.699,-71.289,4.883,1984.861,342.3060217408728
6,1686275278.96,2.441,-859.863,-321.289,-8.789,1984.865,358.8374257694776
7,1686275278.96,-56.152,-375.0,-41.016,-79.59,1984.869,355.71255348066967
8,1686275278.96,-58.594,3.418,101.074,-57.129,1984.873,350.36139744882576
9,1686275278.97,3.418,-209.961,-17.578,10.254,1984.877,345.95509495083365
10,1686275278.97,20.508,-188.965,58.594,-5.859,1984.88,351.219277049668
11,1686275278.98,-32.227,-46.875,68.848,-66.895,1984.884,362.85604785960766
12,1686275279.0,-70.801,-44.434,61.523,-71.777,1984.895,361.5355331298264
13,1686275279.0,-34.18,-437.988,-47.852,-18.555,1984.899,366.2227423308399
14,1686275279.0,9.766,-645.508,-63.477,-3.906,1984.903,362.02147336087023
15,1686275279.01,-24.902,-196.289,62.988,-55.664,1984.906,352.54452679811607
16,1686275279.01,-71.289,-42.48,63.477,-74.707,1984.91,356.2063176535432
17,1686275279.02,-43.457,-688.477,-240.723,-11.23,1984.914,353.9132203682478
18,1686275279.02,2.93,-857.91,-229.98,20.996,1984.918,347.7155948934541
19,1686275279.02,-5.859,-158.691,87.402,-39.062,1984.922,359.11747393214614
20,1686275279.03,-49.805,-173.828,5.371,-71.289,1984.926,353.1765765922881
21,1686275279.03,-49.805,-582.52,-135.254,-19.043,1984.93,363.3322647319429
22,1686275279.04,1.953,-249.512,34.18,24.902,1984.934,362.80976159161577
23,1686275279.04,-68.359,-239.746,-44.434,-70.801,1984.933,348.69481690510554
24,1686275279.04,-1.953,41.504,98.145,-14.648,1984.938,348.31864850377383
25,1686275279.04,-82.031,-734.375,-158.691,-50.781,1984.937,356.470205485611
26,1686275279.04,-12.695,-427.734,-2.93,1.465,1984.941,353.29349139320135
27,1686275279.05,19.043,-30.762,85.938,-10.742,1984.945,364.60198484308694
28,1686275279.05,-29.297,-335.938,-67.383,-75.195,1984.949,354.8348598648903
29,1686275279.06,-67.871,-827.148,-224.609,-68.848,1984.953,352.63095697903685
30,1686275279.06,-23.926,-679.199,-83.984,-1.953,1984.957,353.19006147641244
31,1686275279.06,20.996,-174.316,104.492,5.859,1984.961,352.4838763703869
32,1686275279.07,-20.508,-309.57,-75.684,-47.363,1984.965,363.3410903909144
33,1686275279.07,-82.031,-982.91,-460.449,-60.547,1984.969,361.35037468198277
34,1686275279.08,-48.828,-793.945,-202.637,-15.625,1984.972,358.40288668136793
35,1686275279.08,20.508,-92.285,128.418,14.16,1984.976,367.03323732974076
36,1686275279.08,0.488,-295.41,-65.918,-27.832,1984.979,351.92720030223444
37,1686275279.09,-47.852,-497.07,-60.059,-68.848,1984.983,355.0952279829398
38,1686275279.09,-30.273,-227.539,29.785,-32.227,1984.987,353.67056688555596
39,1686275279.09,30.273,-68.848,64.453,18.555,1984.991,341.78837260145696
40,1686275279.1,25.879,-312.988,-58.594,-5.859,1984.994,360.10803404310565
41,1686275279.1,-34.668,-572.266,-127.441,-63.477,1984.998,350.02504489641603
42,1686275279.11,-43.945,-479.004,-65.918,-55.664,1985.002,364.6543121992817
43,1686275279.11,9.766,-365.723,-23.926,-5.371,1985.006,351.227858855622
44,1686275279.11,24.414,-800.293,-312.012,9.277,1985.01,361.9457476447398
45,1686275279.12,-32.715,-820.312,-225.586,-39.551,1985.014,366.689759637256
46,1686275279.12,-57.617,-162.109,92.285,-66.406,1985.018,362.26201090772753
47,1686275279.12,-11.23,-84.961,36.621,-11.719,1985.022,353.82312648466785
48,1686275279.13,24.414,-384.277,-22.949,12.207,1985.024,357.0222877047497
49,1686275279.13,-12.207,-482.91,-60.059,-37.109,1985.028,354.1081449226641
50,1686275279.14,-62.012,-184.082,38.086,-76.172,1985.032,360.9276961466231
51,1686275279.14,-35.156,-213.867,1.465,-25.879,1985.035,361.8210226051039
52,1686275279.14,19.531,-744.141,-210.449,33.203,1985.039,353.6150904094456
53,1686275279.15,10.742,-649.902,-94.238,-0.488,1985.043,359.94988065718417
54,1686275279.15,-41.992,-329.59,22.949,-56.641,1985.047,363.5784179079773
55,1686275279.15,-57.617,-393.555,-82.031,-40.039,1985.051,359.18684577754095
56,1686275279.16,-2.93,-769.043,-236.816,18.555,1985.055,350.88536247335963
57,1686275279.16,26.367,-370.117,-13.184,-14.648,1985.059,364.15234522944576
58,1686275279.17,-26.855,-281.738,9.277,-83.496,1985.063,356.6273330140983
59,1686275279.17,-62.988,-594.238,-109.863,-65.43,1985.067,360.24490604737457
60,1686275279.17,-15.137,-449.707,-14.16,-0.977,1985.068,350.96712038999897
61,1686275279.18,22.949,-43.457,90.82,-4.883,1985.072,356.13633467256017
62,1686275279.18,-18.555,-80.078,42.48,-58.105,1985.076,360.82692558529635
63,1686275279.18,-68.359,-407.227,-87.402,-75.684,1985.08,353.4091267764221
64,1686275279.19,-33.691,-265.625,17.09,-28.32,1985.084,363.9141205885857
65,1686275279.19,16.602,-282.227,19.531,1.465,1985.088,357.66601144099116
66,1686275279.2,-9.766,-498.047,-52.246,-48.828,1985.092,354.9803518552067
67,1686275279.2,-64.453,-807.617,-253.906,-81.543,1985.096,368.0027280551171
68,1686275279.2,-59.082,-655.762,-164.551,-48.34,1985.1,356.2459727997871
69,1686275279.21,2.93,-41.992,125.977,-2.441,1985.104,356.4228584509331
70,1686275279.21,4.883,-113.281,32.715,-21.484,1985.108,351.33467772322405
71,1686275279.22,-57.617,-444.824,-62.5,-75.195,1985.111,356.2103329160976
72,1686275279.22,-63.965,-454.59,-57.129,-63.965,1985.116,363.29298929225354
73,1686275279.22,-0.977,-448.73,-30.273,-9.277,1985.12,354.43012420971013
74,1686275279.23,15.625,-470.215,-29.297,-17.578,1985.124,353.3366183978626
75,1686275279.23,-48.34,-853.027,-315.918,-77.148,1985.128,347.59658924457796
76,1686275279.24,-82.52,-664.062,-190.918,-89.844,1985.132,366.42657569673753
77,1686275279.24,-25.879,-255.371,70.312,-18.555,1985.136,352.77865913457396
78,1686275279.24,6.348,-484.863,-69.336,7.324,1985.14,353.091605943169
79,1686275279.25,-47.363,-828.125,-255.859,-57.129,1985.144,350.26484222733995
80,1686275279.25,-84.961,-359.375,-12.207,-98.633,1985.147,357.20460354900354
81,1686275279.25,-46.875,41.992,107.91,-46.387,1985.151,355.9629805827219
82,1686275279.26,2.93,-149.414,-2.441,-16.113,1985.155,359.0877293187194
83,1686275279.26,-11.719,-181.152,34.668,-61.523,1985.159,357.92603996554993
84,1686275279.26,-62.5,-65.918,68.359,-88.867,1985.172,354.0244006106814
85,1686275279.27,-60.059,-59.57,69.824,-60.059,1985.176,347.6963828021524
86,1686275279.27,-7.324,-412.109,-56.152,-11.23,1985.18,349.4228039573671
87,1686275279.27,-2.93,-535.156,-71.777,-32.227,1985.184,353.22478943212343
88,1686275279.28,-55.176,-274.414,29.297,-92.773,1985.188,357.85636082098205
89,1686275279.28,-69.336,-431.641,-37.109,-79.102,1985.192,360.26956340303246
90,1686275279.29,-21.973,-844.238,-282.715,3.418,1985.196,355.0253959229721
91,1686275279.29,-9.766,-975.098,-400.879,11.23,1985.2,359.0438497297702
92,1686275279.29,-51.27,-427.246,-70.801,-71.289,1985.204,351.7200007289662
93,1686275279.3,-73.73,-200.195,30.273,-78.125,1985.207,360.055043246065
94,1686275279.3,-30.762,-392.09,-42.969,-14.16,1985.211,355.5530163833592
95,1686275279.3,17.09,-114.258,67.383,-0.488,1985.215,349.2893478993093
96,1686275279.31,-10.254,-60.059,73.242,-43.945,1985.219,355.6530536694666
97,1686275279.31,-64.453,-524.902,-105.469,-64.941,1985.223,361.5386935036141
98,1686275279.32,-47.363,-858.887,-269.043,-22.949,1985.226,348.9271305444334
99,1686275279.32,4.395,-317.871,13.672,2.441,1985.23,362.5855427429697
100,1686275279.32,-16.113,46.875,120.117,-40.527,1985.234,351.7988803576521
101,1686275279.33,-77.637,-397.949,-80.566,-74.219,1985.238,359.944940280531
102,1686275279.33,-76.66,-783.691,-149.414,-43.945,1985.242,350.1391487349636
103,1686275279.34,-8.301,-460.938,-1.465,-1.953,1985.246,366.22694435091006
104,1686275279.34,6.348,43.457,104.98,-21.973,1985.25,350.18584744731396
105,1686275279.34,-54.688,-290.527,-102.539,-66.406,1985.254,350.9096165404712
106,1686275279.35,-70.312,-801.758,-221.191,-44.434,1985.258,358.3421983991115
107,1686275279.35,-7.812,-215.332,79.102,-7.812,1985.262,357.9582987353799
108,1686275279.35,13.672,86.426,107.91,-26.367,1985.262,355.18445462310683
109,1686275279.36,-36.621,-334.961,-103.027,-60.547,1985.266,351.8339749512213
110,1686275279.36,-73.242,-358.398,-54.688,-67.871,1985.27,360.8486096589794
111,1686275279.37,-36.133,-62.012,89.844,-21.484,1985.274,355.8279649105711
112,1686275279.37,11.719,-7.812,95.703,-1.465,1985.278,353.2266728908528
113,1686275279.37,-21.484,-589.844,-186.523,-43.457,1985.282,356.2592522190083
114,1686275279.38,-74.707,-668.945,-147.461,-78.613,1985.285,354.0372691211417
115,1686275279.38,-48.34,-208.496,73.242,-47.852,1985.289,359.38673618648625
116,1686275279.38,11.23,-346.68,-12.207,7.812,1985.293,354.3300264659294
117,1686275279.39,-9.766,-864.258,-311.523,-16.113,1985.297,355.0112946090076
118,1686275279.39,-70.801,-785.645,-209.473,-78.125,1985.301,354.55350059651187
119,1686275279.4,-69.336,-125.0,99.121,-50.293,1985.305,354.0737009945927
120,1686275279.41,-4.395,-199.707,10.254,3.418,1985.308,350.0485499492212
121,1686275279.42,4.395,-722.656,-129.395,-19.043,1985.312,357.288050892446
122,1686275279.42,-46.875,-428.711,-15.625,-74.707,1985.316,353.44942940294277
123,1686275279.42,-67.383,-39.062,89.844,-73.73,1985.32,358.2374984751821
124,1686275279.43,-24.414,-250.977,-26.855,-14.16,1985.323,350.9640067727479
125,1686275279.43,-2.441,-872.559,-353.027,12.695,1985.327,351.074018614288
126,1686275279.44,-44.922,-702.148,-167.48,-59.57,1985.331,362.9804054422831
127,1686275279.44,-82.031,-118.652,82.52,-95.215,1985.335,349.1621451891259
128,1686275279.44,-41.992,-323.73,-72.754,-31.738,1985.339,352.1060181960473
129,1686275279.45,16.113,-499.023,-69.824,13.672,1985.343,352.615038260677
130,1686275279.45,-14.16,-273.926,23.438,-42.969,1985.347,354.993096112874
131,1686275279.46,-78.125,-313.477,-30.273,-96.68,1985.351,366.75086500677327
132,1686275279.46,-67.383,-440.918,-45.898,-49.805,1985.36,360.8231307740823
133,1686275279.47,-4.395,-431.152,15.625,19.531,1985.364,359.9170245342079
134,1686275279.47,3.418,-74.219,83.984,-12.207,1985.368,358.3031556893392
135,1686275279.48,-37.109,-100.586,45.41,-60.059,1985.372,349.04804332015493
136,1686275279.48,-60.059,-464.844,-77.637,-35.156,1985.376,353.8434802755386
137,1686275279.48,-33.691,-609.375,-108.398,-4.395,1985.38,365.48297900131683
138,1686275279.49,-2.441,-367.188,12.695,-17.09,1985.383,364.5957527310269
139,1686275279.49,-49.316,-181.641,54.199,-71.289,1985.387,357.389731485135
140,1686275279.5,-105.469,-767.09,-305.176,-74.707,1985.391,357.7015502956987
141,1686275279.5,-46.875,-651.367,-179.199,-20.508,1985.395,346.35434290724123
142,1686275279.5,5.859,-16.602,123.535,-13.672,1985.399,357.6429030816558
143,1686275279.5,-89.844,-542.48,-107.91,-73.73,1985.4,353.3774203525585
144,1686275279.51,-41.992,-159.18,1.465,-54.688,1985.403,354.6084197433502
145,1686275279.51,-61.523,-566.406,-71.289,-36.621,1985.404,361.570551071764
146,1686275279.51,-5.859,-469.238,-34.668,12.695,1985.408,356.87630833069744
147,1686275279.52,-22.461,-525.879,-73.242,-15.625,1985.412,357.848369284364
148,1686275279.52,-75.195,-637.695,-86.914,-54.688,1985.416,354.51640156829154
149,1686275279.52,-60.547,-620.117,-62.988,-7.812,1985.42,360.8921413615808
150,1686275279.53,9.277,-399.414,-17.578,41.992,1985.424,356.04761427238003
151,1686275279.53,15.137,-271.484,-30.762,20.996,1985.428,343.32745846681706
152,1686275279.54,-49.316,-910.156,-400.391,-5.371,1985.432,358.6385855715734
153,1686275279.54,-60.059,-858.887,-250.977,7.812,1985.436,349.916154294421
154,1686275279.54,14.16,-171.387,66.406,47.363,1985.439,351.20214744403114
155,1686275279.55,43.457,-228.027,-35.645,34.668,1985.443,358.6109692358026
156,1686275279.55,-13.672,-229.98,7.324,-21.973,1985.444,356.6456087317982
157,1686275279.55,-47.852,8.301,70.312,-34.18,1985.448,361.73296723481417
158,1686275279.56,-3.906,12.207,69.336,25.879,1985.451,351.4106456109595
159,1686275279.56,29.785,-385.254,-73.73,52.734,1985.455,360.8564691825644
160,1686275279.56,-7.324,-499.512,-64.941,0.0,1985.459,349.35194846013883
161,1686275279.57,-48.828,-414.062,-26.367,-34.668,1985.463,347.6483601633751
162,1686275279.57,-16.113,-415.527,-23.926,8.301,1985.467,354.36931556327335
163,1686275279.57,40.039,-721.68,-235.84,65.43,1985.471,358.00923228472885
164,1686275279.58,9.277,-829.59,-235.84,31.25,1985.475,360.6019720840197
165,1686275279.58,-41.992,-116.699,91.797,-38.574,1985.479,350.035295755542
166,1686275279.59,-37.109,-27.344,75.195,-16.113,1985.483,360.66798446376083
167,1686275279.59,14.16,-256.836,14.648,37.598,1985.487,351.3255532253159
168,1686275279.59,20.996,-123.047,44.922,11.719,1985.489,356.89774259785656
169,1686275279.6,-38.574,-290.039,-22.949,-46.387,1985.493,360.7167522674187
170,1686275279.6,-61.035,-490.723,-87.891,-37.598,1985.496,350.97078114733955
171,1686275279.6,-7.324,-737.305,-199.707,31.25,1985.5,350.0988710736526
172,1686275279.61,32.227,-296.875,-16.113,24.902,1985.504,345.267459919631
173,1686275279.61,-21.484,-267.578,6.836,-42.969,1985.508,357.8693761362318
174,1686275279.62,-72.754,-653.809,-154.785,-48.34,1985.512,363.63008796747124
175,1686275279.62,-44.434,-895.996,-302.246,20.02,1985.516,356.3639317424527
176,1686275279.62,12.207,-427.734,7.812,21.484,1985.52,352.8365808482337
177,1686275279.63,-1.953,71.777,114.258,-41.504,1985.524,349.37298859165196
178,1686275279.63,-57.129,-279.297,-76.172,-71.777,1985.528,349.25512359059564
179,1686275279.64,-39.062,-306.641,27.344,-31.738,1985.532,362.8906765177116
180,1686275279.64,17.09,30.273,111.816,9.766,1985.533,339.8708547036835
181,1686275279.64,12.207,18.555,46.387,-15.137,1985.537,354.0398030268326
182,1686275279.64,-54.199,-374.512,-118.164,-49.805,1985.541,356.60580542190786
183,1686275279.65,-67.871,-377.93,-59.082,-31.25,1985.545,355.9081040813109
184,1686275279.65,-3.906,-78.125,96.191,18.555,1985.549,363.6081339357405
185,1686275279.66,10.254,-298.34,-29.297,1.953,1985.553,363.3902455463164
186,1686275279.66,-48.828,-840.332,-317.383,-49.316,1985.557,349.7675715552488
187,1686275279.66,-69.824,-681.152,-185.547,-45.898,1985.561,358.1486279711744
188,1686275279.67,-12.207,-140.625,72.754,-4.395,1985.565,353.7068513508156
189,1686275279.67,18.066,-342.773,-58.105,4.883,1985.569,360.22945628881183
190,1686275279.68,-38.086,-815.43,-256.348,-47.852,1985.572,348.1265811443583
191,1686275279.68,-80.078,-407.227,-60.547,-65.43,1985.576,362.96633344447673
192,1686275279.68,-28.809,-85.449,72.754,-10.742,1985.593,355.7425767554133
193,1686275279.69,22.949,-554.688,-123.047,30.273,1985.597,362.85499359372864
194,1686275279.69,-9.277,-880.371,-313.477,-11.23,1985.601,364.3187091653737
195,1686275279.69,-60.059,-428.711,-88.867,-67.383,1985.604,353.56100424815577
196,1686275279.7,-43.945,-50.293,102.051,-36.133,1985.608,366.0316315366626
197,1686275279.7,10.254,-398.438,-76.172,18.555,1985.612,368.2933645410072
198,1686275279.71,-4.883,-880.371,-323.242,-14.648,1985.616,364.70842377658636
199,1686275279.71,-60.547,-401.367,-55.176,-86.426,1985.62,370.6387566029041
200,1686275279.71,-64.453,-107.422,58.105,-69.824,1985.624,376.7315019934385
201,1686275279.72,-9.277,-404.297,-65.918,-11.23,1985.628,367.0355587160011
202,1686275279.72,8.789,-244.141,22.949,-25.879,1985.632,379.5114384996695
203,1686275279.72,-40.039,-270.02,-35.156,-80.566,1985.636,371.08068739775075
204,1686275279.73,-66.406,-377.93,-68.848,-75.684,1985.636,367.9067777184929
205,1686275279.73,-13.184,-429.688,-49.805,-7.324,1985.64,373.9092500827671
206,1686275279.74,27.832,-437.012,-3.906,0.488,1985.644,376.88404627086294
207,1686275279.74,-21.973,-96.191,76.66,-67.383,1985.648,368.3414751724477
208,1686275279.75,-74.707,-106.934,23.926,-80.566,1985.652,378.595493445173
209,1686275279.75,-46.387,-612.305,-177.246,-25.391,1985.656,374.11592326101834
210,1686275279.75,3.418,-623.535,-109.863,7.324,1985.66,382.7335041241245
211,1686275279.76,-16.602,-89.355,94.727,-36.133,1985.664,376.99452270774583
212,1686275279.76,-71.777,-140.137,2.93,-81.543,1985.668,383.55947437416154
213,1686275279.76,-68.359,-748.535,-292.48,-38.574,1985.672,377.8914934170321
214,1686275279.77,-11.23,-491.699,-78.613,4.395,1985.676,390.5135728831897
215,1686275279.77,-0.488,25.391,129.395,-37.109,1985.679,385.53613266512434
216,1686275279.8,-56.641,-203.125,-30.273,-89.355,1985.712,382.87179330927813
217,1686275279.81,-81.055,-743.652,-173.34,-60.547,1985.716,385.0118708337043
218,1686275279.81,-20.996,-690.43,-108.887,-10.742,1985.72,394.4656866014949
219,1686275279.81,10.742,-212.402,55.664,-30.762,1985.724,390.01970885269714
220,1686275279.82,-40.039,-244.629,-24.414,-87.891,1985.728,387.41335139715255
221,1686275279.82,-85.938,-923.828,-422.363,-70.801,1985.732,393.01282523572746
222,1686275279.83,-44.922,-810.059,-233.887,-12.695,1985.736,382.8886321213364
223,1686275279.83,2.93,-95.703,111.816,-3.906,1985.74,388.0336942449332
224,1686275279.83,-33.203,-203.613,-67.383,-46.387,1985.744,390.3889524038614
225,1686275279.83,-9.766,-296.387,-72.754,-30.762,1985.728,391.0834345508328
226,1686275279.84,-85.938,-403.809,-108.887,-84.961,1985.748,383.1890563595894
227,1686275279.84,-70.801,-324.219,-3.906,-83.984,1985.732,388.9545621586513
228,1686275279.84,-52.734,-112.305,57.617,-41.016,1985.751,390.46195535502915
229,1686275279.84,-65.43,-96.191,64.453,-55.664,1985.736,391.85295613341907
230,1686275279.84,-0.488,-64.453,47.852,-6.348,1985.74,386.1035319221185
231,1686275279.84,12.207,-23.926,49.316,12.207,1985.755,381.38791667308635
232,1686275279.85,4.395,-453.125,-99.121,-24.414,1985.744,386.8541208010269
233,1686275279.85,-57.617,-709.961,-221.191,-75.195,1985.748,388.2098250545867
234,1686275279.86,-75.684,-601.074,-170.41,-70.312,1985.751,393.51077912330635
235,1686275279.86,-21.484,-318.359,17.578,-22.461,1985.755,389.93394107183843
236,1686275279.86,9.766,-672.852,-229.492,-5.859,1985.759,400.62966810905743
237,1686275279.87,-32.227,-722.168,-226.074,-59.57,1985.763,379.2238936108887
238,1686275279.87,-70.312,-133.789,66.895,-83.496,1985.767,397.82575328709504
239,1686275279.88,-33.691,-142.578,20.02,-21.484,1985.771,389.8849979899107
240,1686275279.88,12.695,-770.02,-274.902,19.531,1985.773,389.90721708072925
241,1686275279.88,-16.113,-805.176,-265.625,-29.297,1985.777,385.12073494201786
242,1686275279.88,-60.547,-258.789,23.438,-73.73,1985.781,395.4947238176057
243,1686275279.89,-38.574,-243.164,-15.625,-36.621,1985.785,392.55146949433185
244,1686275279.89,19.531,-840.332,-312.5,20.02,1985.789,390.73951315107786
245,1686275279.9,0.488,-813.477,-203.613,-25.391,1985.792,394.3421358987819
246,1686275279.9,-60.059,-414.551,-43.457,-101.074,1985.796,386.39649000490857
247,1686275279.9,-70.312,-501.465,-145.02,-72.266,1985.8,389.88366835997147
248,1686275279.91,-23.926,-899.414,-341.797,6.348,1985.804,394.17496678489596
249,1686275279.91,-0.488,-409.18,-57.129,-16.113,1985.808,393.8729772694056
250,1686275279.92,-45.898,22.949,87.891,-88.379,1985.812,395.44461494502934
251,1686275279.92,-75.684,-416.504,-129.883,-74.707,1985.816,386.7411871751451
252,1686275279.92,-27.832,-515.625,-90.332,-8.789,1985.819,384.2787138345704
253,1686275279.93,22.949,3.906,96.68,-6.348,1985.823,382.9430296390035
254,1686275279.93,-20.02,-57.617,16.602,-60.547,1985.827,389.87352268667274
255,1686275279.93,-81.055,-451.66,-134.766,-80.566,1985.831,395.88859337957047
256,1686275279.94,-56.641,-300.293,-41.504,-33.691,1985.835,386.36145069360344
257,1686275279.94,-1.953,-284.668,8.301,8.301,1985.838,378.06735544054925
258,1686275279.95,-18.066,-460.938,-79.102,-25.879,1985.842,378.2832734502699
259,1686275279.95,-64.453,-802.734,-316.895,-60.059,1985.846,379.1487621024532
260,1686275279.95,-49.316,-638.184,-172.363,-22.461,1985.85,383.8938100286196
261,1686275279.96,5.859,-78.613,86.914,17.578,1985.854,382.5566569795321
262,1686275279.96,-9.277,-349.121,-57.129,-23.926,1985.858,386.9629331408154
263,1686275279.96,-68.359,-684.082,-178.711,-85.938,1985.862,379.12739525378123
264,1686275279.97,-66.406,-404.785,-52.246,-58.594,1985.864,389.6152350185469
265,1686275279.97,-6.836,-304.688,3.906,14.16,1985.868,381.9869144671631
266,1686275279.98,21.973,-340.332,-44.434,12.695,1985.872,371.4436053405366
267,1686275279.98,-31.25,-798.34,-296.875,-33.203,1985.875,379.0696754776157
268,1686275279.98,-65.918,-603.516,-137.695,-48.828,1985.879,376.5345819778821
269,1686275279.99,-14.648,-256.348,41.992,0.0,1985.883,370.6964434594349
270,1686275279.99,21.973,-489.746,-107.422,23.438,1985.887,377.67568528760506
271,1686275279.99,-24.414,-823.73,-293.945,-20.02,1985.891,362.1536710781058
272,1686275280.0,-62.012,-359.863,-27.344,-56.152,1985.895,357.86285448448336
273,1686275280.0,-24.414,60.547,99.609,-7.812,1985.899,372.11830341901504
274,1686275280.01,25.391,-162.598,-27.832,36.133,1985.903,369.0172301019505
275,1686275280.01,-4.883,-185.547,-5.371,-16.113,1985.907,344.9684360691712
276,1686275280.02,-63.965,-223.145,-19.531,-63.965,1985.913,362.1124550832841
277,1686275280.02,-52.246,-239.258,21.484,-24.902,1985.917,353.75398561644636
278,1686275280.02,2.441,-361.816,-61.035,38.086,1985.921,351.5799491170614
279,1686275280.03,7.812,-408.203,-29.297,17.09,1985.925,357.1314883770861
280,1686275280.03,-40.039,-141.602,43.457,-41.992,1985.929,348.92556355709695
281,1686275280.04,-55.664,-390.137,-117.188,-29.785,1985.933,343.3325967752417
282,1686275280.04,-6.836,-833.496,-314.941,30.273,1985.936,344.156874916558
283,1686275280.04,12.207,-628.906,-139.16,19.531,1985.94,338.5246438600309
284,1686275280.05,-33.691,-76.172,75.195,-47.852,1985.944,342.0273978588807
285,1686275280.05,-59.57,-148.926,-16.602,-53.711,1985.948,340.92901852294744
286,1686275280.05,-16.113,-397.461,-57.129,5.371,1985.952,340.12364151444245
287,1686275280.06,-16.113,-57.129,44.922,-25.391,1985.968,338.2826781789504
288,1686275280.06,28.809,-123.535,58.105,28.809,1985.956,338.69731381097745
289,1686275280.06,-68.359,-489.746,-147.949,-52.734,1985.972,338.7362369257883
290,1686275280.06,-41.992,-737.793,-155.762,-11.23,1985.976,328.38879038158893
291,1686275280.07,12.695,-502.93,-27.832,22.461,1985.98,330.1451325288398
292,1686275280.07,5.859,-165.527,67.871,-26.367,1985.984,326.5285278263415
293,1686275280.08,-47.852,-357.422,-54.688,-65.918,1985.987,327.7184496845048
294,1686275280.08,-71.289,-966.309,-419.922,-19.043,1985.991,322.7416195237049
295,1686275280.08,-26.367,-895.996,-304.688,26.855,1985.995,322.28297714100034
296,1686275280.09,3.906,-162.109,56.152,-8.789,1985.999,331.9460911889682
297,1686275280.09,-41.504,-138.672,-16.602,-65.918,1986.003,332.13339834182256
298,1686275280.1,-67.383,-264.16,2.441,-63.477,1986.007,325.7038962362767
299,1686275280.1,-20.02,35.156,118.164,-3.418,1986.011,325.3602511847088
300,1686275280.1,9.766,13.672,50.293,7.812,1986.012,319.4808204900348
301,1686275280.11,-40.039,-318.848,-90.332,-48.828,1986.016,313.3606806380902
302,1686275280.11,-79.59,-310.059,-38.574,-61.523,1986.02,320.2618728075913
303,1686275280.12,-35.156,-22.461,63.477,-12.695,1986.024,317.9834346973272
304,1686275280.12,19.043,-11.719,60.059,10.254,1986.028,322.2670147838806
305,1686275280.12,-12.207,-560.547,-214.844,-25.391,1986.032,319.47435333642056
306,1686275280.13,-66.895,-770.508,-213.379,-66.406,1986.036,320.90722960368606
307,1686275280.13,-50.293,-393.066,30.273,-37.598,1986.04,324.65010243417356
308,1686275280.14,7.324,-155.762,52.734,5.859,1986.044,322.59046165355005
309,1686275280.14,-10.742,-764.16,-311.035,-20.02,1986.048,315.25856979114695
310,1686275280.14,-69.336,-802.734,-225.098,-60.059,1986.052,317.7790429003752
311,1686275280.15,-65.43,-58.105,112.793,-47.852,1986.055,323.3821362015071
312,1686275280.16,-6.348,-53.223,29.785,2.441,1986.058,326.16003537861684
313,1686275280.17,14.16,-560.547,-90.332,-6.836,1986.062,328.3773037265165
314,1686275280.17,-34.668,-385.254,-14.16,-75.684,1986.066,325.9470961147648
315,1686275280.17,-63.965,-69.824,45.898,-88.867,1986.07,321.7926237332002
316,1686275280.18,-14.648,-245.117,-43.457,-15.625,1986.074,317.7640229852452
317,1686275280.18,11.23,-809.082,-254.395,18.066,1986.078,325.6044077578092
318,1686275280.19,-37.598,-619.629,-111.816,-48.828,1986.082,323.4191970495011
319,1686275280.19,-79.59,-130.859,44.434,-79.59,1986.086,322.1866847835567
320,1686275280.19,-36.133,-415.527,-115.723,-1.465,1986.089,326.4607242782795
321,1686275280.2,16.602,-908.691,-317.871,53.223,1986.093,328.49057788034133
322,1686275280.2,-20.996,-380.859,-21.973,-39.062,1986.097,318.3969992548528
323,1686275280.2,-79.59,23.438,81.055,-105.469,1986.101,327.2737370476918
324,1686275280.21,-63.477,-345.215,-82.52,-49.316,1986.133,324.7263175413017
325,1686275280.21,-6.836,-257.812,21.484,4.395,1986.137,315.2840058014474
326,1686275280.22,-18.555,8.789,74.707,-38.574,1986.141,328.2440991105584
327,1686275280.22,-70.312,-70.801,42.969,-104.492,1986.144,323.6782315540527
328,1686275280.22,-71.289,-432.617,-137.207,-79.102,1986.148,323.9178463760917
329,1686275280.23,-18.066,-666.504,-201.66,-6.836,1986.152,338.62918631305973
330,1686275280.23,5.859,-424.316,-31.25,-11.23,1986.156,342.5774764746128
331,1686275280.23,-41.016,-191.895,25.391,-74.219,1986.16,331.1687236860192
332,1686275280.24,-82.52,-724.609,-302.734,-64.941,1986.164,330.7585959540776
333,1686275280.24,-31.738,-630.371,-193.359,-6.836,1986.168,328.3909232282044
334,1686275280.25,18.555,-154.785,59.57,-4.883,1986.172,338.4278858609393
335,1686275280.25,-27.344,-482.422,-154.785,-51.27,1986.176,326.47820852412525
336,1686275280.27,-81.055,-867.676,-319.824,-74.219,1986.163,328.4079648088276
337,1686275280.27,-52.246,-721.191,-170.41,-32.227,1986.167,324.9964632437806
338,1686275280.28,7.324,-195.801,53.711,10.254,1986.171,335.80603138377785
339,1686275280.28,-13.672,-241.211,-29.297,-22.949,1986.175,333.9915751666463
340,1686275280.28,-73.73,-804.688,-294.922,-51.758,1986.179,336.2076375655959
341,1686275280.29,-64.453,-724.121,-200.684,-30.762,1986.183,339.62759841249726
342,1686275280.29,6.348,-287.109,37.598,-0.977,1986.187,334.1546118843097
343,1686275280.29,10.742,-294.434,-72.754,-22.461,1986.191,328.9872386550268
344,1686275280.3,-56.641,-631.836,-151.855,-73.242,1986.194,334.69079189503833
345,1686275280.3,-24.902,-464.844,-52.246,-53.711,1986.195,337.24235999057396
346,1686275280.3,-68.359,-250.0,43.945,-68.848,1986.198,346.4463425791783
347,1686275280.3,-75.684,-370.605,-49.316,-73.242,1986.199,342.0171095435087
348,1686275280.31,-5.371,48.34,65.918,-11.23,1986.202,340.52470688457646
349,1686275280.31,-32.227,-188.477,58.594,-31.25,1986.203,343.23000508249174
350,1686275280.31,24.902,-265.625,-41.016,-1.953,1986.206,335.9161976381706
351,1686275280.31,7.324,-462.402,-126.465,-0.977,1986.207,339.76364149428736
352,1686275280.31,-34.18,-827.637,-244.141,-28.32,1986.21,347.3772211381772
353,1686275280.32,-73.73,-563.965,-89.844,-64.453,1986.214,340.37794127925866
354,1686275280.32,-51.758,-556.641,-136.23,-26.855,1986.218,341.08563670986115
355,1686275280.32,6.836,-691.895,-203.125,21.484,1986.222,344.4531380518548
356,1686275280.33,-1.465,-319.336,-43.945,-27.832,1986.226,328.1280284539738
357,1686275280.33,-62.5,33.691,80.566,-91.797,1986.23,339.2980398018059
358,1686275280.34,-71.289,-148.926,-20.02,-64.941,1986.234,354.2909759622101
359,1686275280.34,-16.113,-733.398,-255.859,0.488,1986.238,351.5798200490133
360,1686275280.34,-3.418,-583.008,-96.68,-16.113,1986.239,344.42670094425745
361,1686275280.35,-55.664,-363.281,-18.066,-65.918,1986.242,345.9277486175177
362,1686275280.35,-82.031,-578.125,-151.367,-54.199,1986.246,346.24952071052815
363,1686275280.35,-26.855,-827.637,-279.785,11.23,1986.25,353.13789817075656
364,1686275280.36,20.508,-601.562,-120.117,16.113,1986.254,339.7394294116926
365,1686275280.36,-32.227,-365.723,4.883,-55.176,1986.258,353.7694286219237
366,1686275280.37,-82.031,-507.324,-115.723,-77.637,1986.262,356.3852098370349
367,1686275280.37,-55.176,-886.719,-332.52,-16.602,1986.266,344.1539621463956
368,1686275280.37,0.0,-483.887,-72.266,18.066,1986.27,350.69499716416203
369,1686275280.38,-9.766,76.172,120.605,-34.18,1986.274,350.54655189740356
370,1686275280.38,-68.848,-208.496,-42.969,-71.289,1986.278,344.1006650038401
371,1686275280.38,-55.176,-220.703,22.461,-35.156,1986.281,353.3243942487831
372,1686275280.39,5.859,93.262,106.934,-2.441,1986.284,347.7051947481007
373,1686275280.39,0.977,34.18,67.383,-37.109,1986.288,349.9973172429442
374,1686275280.4,-61.035,-351.562,-86.426,-86.914,1986.292,348.20747393997067
375,1686275280.4,-78.613,-267.09,-4.395,-55.664,1986.295,348.10121102478814
376,1686275280.4,-14.648,13.184,100.586,-1.953,1986.299,346.4041772651689
377,1686275280.41,15.625,-281.738,-49.316,-21.973,1986.303,350.90149686911894
378,1686275280.41,-44.434,-847.168,-348.633,-62.5,1986.307,360.68178774962087
379,1686275280.42,-83.496,-776.855,-223.145,-64.941,1986.311,364.9075935284651
380,1686275280.42,-22.949,-99.609,118.164,-16.602,1986.315,360.10962934999094
381,1686275280.42,19.531,-30.762,45.898,-2.441,1986.319,364.79419577145956
382,1686275280.43,-35.156,-505.371,-169.922,-61.523,1986.323,361.45150669187495
383,1686275280.43,-89.355,-313.965,-52.246,-91.309,1986.327,361.77751903747617
384,1686275280.43,-49.805,-46.387,95.215,-35.156,1986.343,360.97046343795853
385,1686275280.44,12.695,-428.711,-74.219,19.043,1986.347,363.8644008696299
386,1686275280.44,-23.438,-853.516,-322.754,-15.625,1986.351,366.9915393979473
387,1686275280.44,-79.102,-487.793,-109.375,-69.336,1986.354,366.3645129328519
388,1686275280.45,-56.152,-85.938,89.844,-45.41,1986.358,373.57472337677206
389,1686275280.45,-3.906,-397.949,-91.309,13.184,1986.362,363.25060129138546
390,1686275280.46,-8.789,-880.371,-335.938,-11.23,1986.366,374.02193452462706
391,1686275280.46,-56.152,-466.309,-70.801,-85.938,1986.37,358.4949070465216
392,1686275280.46,-66.406,-79.102,63.965,-70.312,1986.374,375.0309413755155
393,1686275280.47,-7.324,-455.078,-112.305,-3.418,1986.378,372.2664101928384
394,1686275280.47,12.695,-569.824,-82.52,-6.348,1986.382,371.48553858822174
395,1686275280.48,-43.457,-134.766,55.176,-67.871,1986.386,379.65405778221213
396,1686275280.49,-75.195,-57.129,25.391,-87.891,1986.389,385.66880811809835
397,1686275280.5,-28.32,-375.977,-79.102,-29.785,1986.393,371.86366403068985
398,1686275280.5,18.066,-284.668,0.977,-9.766,1986.397,376.67268824440504
399,1686275280.5,-17.09,-60.059,49.316,-68.848,1986.401,370.97492080778096
400,1686275280.51,-73.73,-99.609,20.508,-99.121,1986.405,369.4975395114377
401,1686275280.51,-46.875,-575.195,-155.762,-37.598,1986.408,379.0792134189156
402,1686275280.52,17.578,-662.109,-129.395,3.418,1986.412,370.4408374939094
403,1686275280.52,15.137,-143.066,66.406,-31.738,1986.416,383.97394047744183
404,1686275280.52,-32.227,-142.09,1.465,-59.082,1986.42,384.58906319722394
405,1686275280.53,-50.293,-754.395,-290.527,-18.066,1986.424,381.0043808730366
406,1686275280.53,-6.348,-513.672,-101.074,15.137,1986.428,377.892412887797
407,1686275280.54,9.766,-147.949,44.922,-26.367,1986.432,369.7551423722948
408,1686275280.54,-43.945,-527.832,-176.27,-70.801,1986.434,368.4367262008365
409,1686275280.54,-61.035,-916.992,-393.066,-40.039,1986.438,385.4637076802074
410,1686275280.54,-3.906,-583.496,-174.805,1.953,1986.441,388.4073408375256
411,1686275280.55,31.25,-31.25,102.539,-0.977,1986.445,377.8272591606399
412,1686275280.55,-11.719,-202.148,-35.156,-42.969,1986.449,384.15584806729345
413,1686275280.56,-58.105,-632.812,-193.848,-54.199,1986.453,374.05607705380396
414,1686275280.56,-16.113,-509.766,-117.676,-1.953,1986.457,368.0697706191843
415,1686275280.56,36.133,-33.691,63.965,15.625,1986.461,360.6249904751494
416,1686275280.57,-0.977,-293.457,-103.027,-24.414,1986.465,371.04393409916963
417,1686275280.57,-66.895,-846.191,-326.66,-42.48,1986.469,373.2859969490583
418,1686275280.58,-42.969,-338.867,-27.832,-15.625,1986.473,379.83712218319556
419,1686275280.58,20.508,24.902,78.125,11.23,1986.477,378.22620030076644
420,1686275280.58,-1.465,-346.191,-104.492,-20.508,1986.481,373.8884888390614
421,1686275280.59,-61.035,-398.926,-78.125,-69.336,1986.484,350.6218105264006
422,1686275280.59,-60.547,-338.379,-62.988,-55.664,1986.488,374.8592462799748
423,1686275280.6,0.488,-237.793,4.883,1.465,1986.492,363.3306377205711
424,1686275280.6,13.184,-452.637,-133.789,-3.906,1986.496,362.87916172470807
425,1686275280.6,-48.828,-799.805,-268.066,-62.5,1986.5,355.7265674497679
426,1686275280.61,-76.172,-518.555,-97.656,-61.035,1986.504,360.17495008728514
427,1686275280.61,-24.414,-158.203,55.664,-1.953,1986.508,359.1410195459371
428,1686275280.61,2.93,-637.207,-260.254,5.371,1986.512,357.2588651857649
429,1686275280.62,-43.457,-680.176,-199.219,-63.965,1986.516,341.2740259739911
430,1686275280.62,-80.078,-115.723,68.359,-90.82,1986.52,346.09115296310694
431,1686275280.63,-38.086,-188.965,-16.113,-20.508,1986.524,345.91083042409105
432,1686275280.63,7.324,-519.531,-82.52,9.277,1986.537,346.0832334962003
433,1686275280.63,-17.578,-582.52,-125.488,-37.109,1986.541,338.31982654202153
434,1686275280.64,-59.082,-241.699,-2.441,-67.871,1986.545,343.3324299311816
435,1686275280.64,-56.152,-229.004,-17.09,-27.832,1986.549,328.1923538345671
436,1686275280.64,-1.465,-781.25,-284.18,27.344,1986.553,334.6298025332404
437,1686275280.65,3.418,-716.797,-206.543,-3.418,1986.557,337.25217944067566
438,1686275280.65,-48.828,-502.441,-133.789,-62.988,1986.561,335.8792770242119
439,1686275280.66,-54.688,-579.59,-204.102,-39.062,1986.564,338.91294959076646
440,1686275280.66,-9.277,-891.602,-322.266,33.691,1986.568,340.1592398794964
441,1686275280.66,15.137,-495.605,-58.594,6.836,1986.572,350.8739167826955
442,1686275280.67,-23.438,-2.441,73.73,-69.336,1986.576,347.7889198148635
443,1686275280.67,-48.828,-271.973,-94.238,-58.594,1986.58,357.05177458154577
444,1686275280.67,-8.789,-260.254,7.324,-6.836,1986.568,369.1193434511953
445,1686275280.68,26.855,28.809,86.426,0.977,1986.572,363.5426117830507
446,1686275280.68,-8.789,-50.293,26.367,-39.551,1986.576,387.2290193573489
447,1686275280.68,-63.965,-412.109,-131.348,-66.406,1986.58,369.7227338313881
448,1686275280.69,-38.086,-347.656,-56.641,-24.902,1986.584,375.034823101029
449,1686275280.69,21.484,-301.758,11.719,16.113,1986.588,375.63453555884075
450,1686275280.7,5.371,-494.141,-116.211,-21.484,1986.592,377.7916386204402
451,1686275280.7,-62.012,-816.895,-377.441,-63.477,1986.596,392.300344533433
452,1686275280.7,-59.082,-602.051,-199.219,-25.879,1986.6,393.11873015947367
453,1686275280.71,16.113,-10.254,107.422,24.414,1986.604,392.54276611837065
454,1686275280.71,18.555,-74.707,21.973,0.977,1986.607,403.0011717412491
455,1686275280.72,-52.246,-732.91,-299.316,-49.805,1986.611,412.0523523523202
456,1686275280.72,-69.824,-707.031,-177.246,-37.598,1986.614,414.7658311976888
457,1686275280.72,-8.789,-332.52,35.156,14.648,1986.618,429.66089897024915
458,1686275280.73,20.02,-296.875,-33.203,14.648,1986.622,423.3508757113325
459,1686275280.73,-33.203,-741.211,-272.461,-31.738,1986.626,423.06163508455995
460,1686275280.73,-67.383,-485.84,-112.793,-48.828,1986.63,424.1958434541801
461,1686275280.74,-18.555,-239.258,9.766,-2.93,1986.634,435.78920412127746
462,1686275280.74,19.043,-527.832,-119.629,19.043,1986.638,446.31088307744096
463,1686275280.74,-29.785,-830.078,-297.363,-29.297,1986.641,430.0866823997834
464,1686275280.75,-71.777,-408.691,-66.895,-65.43,1986.645,451.9185424538558
465,1686275280.75,-31.25,-34.668,70.801,-16.602,1986.649,453.744893377978
466,1686275280.76,8.789,-401.367,-92.285,13.672,1986.653,444.845745576638
467,1686275280.76,-16.113,-548.828,-108.398,-28.809,1986.657,455.6757959189578
468,1686275280.76,-70.801,-163.574,20.508,-82.031,1986.672,454.4197696292136
469,1686275280.77,-73.242,-55.176,38.574,-53.223,1986.676,446.6549275701445
470,1686275280.77,-11.719,-344.238,-74.707,18.066,1986.679,463.94773496176674
471,1686275280.77,1.465,-217.773,-10.254,-18.555,1986.683,468.04853726109246
472,1686275280.78,-53.223,-31.25,60.059,-82.031,1986.687,459.5545816624619
473,1686275280.78,-70.312,-362.793,-92.285,-65.918,1986.691,464.01394526861736
474,1686275280.79,-20.996,-790.039,-312.5,-10.254,1986.695,463.973146143207
475,1686275280.79,2.93,-706.055,-191.406,-10.742,1986.699,467.05364818614663
476,1686275280.79,-34.18,-125.977,50.293,-68.848,1986.703,466.46575660012536
477,1686275280.8,-70.801,-126.953,-15.137,-73.73,1986.707,466.1373374542073
478,1686275280.8,-42.48,-427.734,-91.309,-21.973,1986.711,458.50144778264456
479,1686275280.8,7.812,-196.777,20.508,-1.465,1986.715,466.60989915759455
480,1686275280.82,-19.043,-185.547,-14.16,-52.734,1986.721,454.30650532987
481,1686275280.83,-75.195,-559.57,-194.824,-86.426,1986.725,468.42934480755787
482,1686275280.83,-59.57,-919.922,-380.859,-18.066,1986.728,464.5544217635826
483,1686275280.84,2.441,-538.574,-132.812,21.973,1986.732,453.4502291760586
484,1686275280.84,2.441,-53.223,60.547,-20.996,1986.736,449.2848156011055
485,1686275280.84,-62.988,-485.84,-216.797,-56.152,1986.74,449.8126100371122
486,1686275280.85,-67.871,-803.223,-298.828,-21.973,1986.744,446.59334796447524
487,1686275280.85,-5.371,-237.793,7.812,12.695,1986.748,443.7574428101178
488,1686275280.85,6.836,32.715,56.641,-20.02,1986.752,447.3990925766378
489,1686275280.86,-0.488,-10.742,36.133,6.348,1986.807,442.9674696098504
490,1686275280.86,-49.316,-357.422,-131.348,-70.801,1986.756,445.2216099706692
491,1686275280.86,-42.48,-328.125,-105.957,-53.223,1986.811,449.7020443851123
492,1686275280.86,-84.473,-467.285,-111.328,-58.105,1986.76,429.42181562312163
493,1686275280.86,-86.426,-407.227,-93.262,-77.637,1986.815,436.289998568141
494,1686275280.87,-37.598,-85.449,50.781,-0.488,1986.764,417.47897953293835
495,1686275280.87,-41.992,-373.047,-65.43,-21.973,1986.819,445.2123165132224
496,1686275280.87,16.602,-222.168,5.859,15.137,1986.823,438.2269121244308
497,1686275280.88,-11.23,-576.66,-213.867,-27.832,1986.827,414.8317516449566
498,1686275280.88,-66.895,-734.375,-214.844,-59.57,1986.83,422.22036286130424
499,1686275280.88,-53.711,-204.59,38.574,-25.879,1986.834,426.96536825409805
500,1686275280.89,11.719,-44.434,46.387,15.625,1986.838,417.6074691733146
501,1686275280.89,9.277,-713.867,-347.168,-0.977,1986.842,404.3915048649615
502,1686275280.9,-61.035,-874.512,-288.574,-57.129,1986.846,414.2149708235843
503,1686275280.9,-65.918,-181.641,70.801,-61.523,1986.85,395.95304408400636
504,1686275280.92,-3.418,-170.41,-11.719,-0.977,1986.813,369.4496667234722
505,1686275280.92,13.184,-610.84,-121.094,1.465,1986.817,375.13238791616124
506,1686275280.92,-44.922,-393.066,-43.945,-63.965,1986.821,374.15334834649565
507,1686275280.93,-83.008,-54.688,60.547,-81.055,1986.825,376.955869152912
508,1686275280.93,-49.316,-195.312,-8.301,-18.066,1986.828,351.62778444092527
509,1686275280.94,-15.625,-818.848,-335.938,12.695,1986.832,348.44685525514785
510,1686275280.94,-42.48,-799.316,-267.578,-51.27,1986.836,351.6214493670663
511,1686275280.94,-86.426,-361.816,-54.199,-91.309,1986.84,331.2779817549012
512,1686275280.95,-55.664,-361.328,-90.332,-41.016,1986.844,331.8664423322733
513,1686275280.95,4.395,-453.125,-97.656,-1.465,1986.848,317.08240698403813
514,1686275280.95,-14.16,-178.223,36.621,-40.039,1986.852,337.12973052875424
515,1686275280.96,-69.336,-321.777,-97.168,-55.176,1986.854,328.74244551046263
516,1686275280.96,-72.266,-32.715,35.645,-84.473,1986.856,326.6791220703275
517,1686275280.96,-8.789,-399.414,-27.344,-2.93,1986.857,311.79899803883325
518,1686275280.96,-0.977,-118.164,39.551,-30.762,1986.861,316.33292162604886
519,1686275280.97,-61.523,-122.07,-21.484,-84.961,1986.865,309.1429336997439
520,1686275280.97,-87.891,-518.066,-171.875,-61.523,1986.869,294.80239256672513
521,1686275280.98,-36.621,-726.074,-159.18,-3.906,1986.873,295.02772998639904
522,1686275280.98,2.93,-474.609,-46.875,-10.254,1986.877,291.19950647371365
523,1686275280.98,-39.062,-275.391,-20.02,-66.406,1986.881,292.4744890171384
524,1686275280.99,-76.66,-726.562,-324.707,-63.477,1986.885,282.58919549157235
525,1686275280.99,-40.527,-1000.0,-494.629,1.953,1986.889,287.278243559362
526,1686275281.0,11.719,-560.059,-120.117,12.207,1986.893,283.1781812250655
527,1686275281.0,-11.719,-150.879,37.598,-49.316,1986.896,282.5730144793934
528,1686275281.0,-62.012,-473.633,-114.258,-79.59,1986.898,274.70792248469223
529,1686275281.01,-39.062,-540.527,-104.004,-30.273,1986.902,268.3310624250561
530,1686275281.01,18.066,-148.438,41.504,10.254,1986.906,282.5501704297926
531,1686275281.01,0.0,-143.066,-27.344,-32.715,1986.91,283.47422052169543
532,1686275281.02,-62.012,-773.926,-309.082,-71.289,1986.914,265.438108684141
533,1686275281.02,-65.43,-793.457,-226.074,-42.969,1986.918,275.35950010658644
534,1686275281.03,-10.254,-299.805,9.766,-4.395,1986.922,262.0121312016376
535,1686275281.03,9.277,-235.352,-55.176,-19.531,1986.926,264.2556259885974
536,1686275281.03,-54.199,-789.551,-298.34,-70.312,1986.93,260.694904970495
537,1686275281.04,-79.102,-362.793,-25.879,-75.195,1986.934,272.8081393981302
538,1686275281.04,-22.949,74.707,98.633,-29.297,1986.937,273.1798378424641
539,1686275281.04,7.812,-363.77,-71.289,-18.066,1986.941,260.91996112807664
540,1686275281.05,-42.969,-527.344,-89.355,-70.312,1986.949,264.3679567820474
541,1686275281.06,-82.031,-99.609,35.645,-92.773,1986.953,266.55003641682845
542,1686275281.06,-39.551,14.16,49.316,-42.969,1986.957,261.80124069597656
543,1686275281.06,10.254,-309.082,-83.008,-12.207,1986.961,266.21013701843214
544,1686275281.07,-21.484,-259.277,-27.832,-60.059,1986.965,256.4138073888968
545,1686275281.07,-83.496,-364.258,-88.379,-96.68,1986.969,263.9374309892114
546,1686275281.08,-64.453,-562.012,-208.984,-47.852,1986.973,257.152677316053
547,1686275281.08,-3.418,-780.273,-348.633,1.953,1986.977,267.26739629708555
548,1686275281.08,-17.578,-690.918,-205.566,-38.086,1986.98,264.3963040732444
549,1686275281.09,-76.66,-108.398,62.5,-100.098,1986.984,261.13989293665077
550,1686275281.09,-83.008,-129.395,-6.348,-79.102,1986.988,276.2911574729922
551,1686275281.09,-1.953,-207.031,-1.953,-19.531,1986.991,273.30501305610505
552,1686275281.09,-16.113,-323.242,-33.691,-9.277,1986.992,266.182311783572
553,1686275281.1,-62.012,-415.039,-125.488,-82.52,1986.995,271.2599050978338
554,1686275281.1,-88.867,-693.359,-230.469,-75.684,1986.998,278.58759178683323
555,1686275281.1,-32.227,-652.344,-124.023,-14.16,1987.002,268.6026376718226
556,1686275281.11,14.648,-231.934,21.484,0.977,1987.006,263.922023170853
557,1686275281.11,-23.438,-383.789,-116.699,-49.316,1987.01,279.8063828171188
558,1686275281.12,-65.918,-624.023,-165.527,-66.895,1987.014,275.08358850627076
559,1686275281.12,-45.898,-929.688,-402.344,0.488,1987.018,262.8317190172653
560,1686275281.12,2.93,-890.137,-328.613,28.32,1987.022,271.3497778719293
561,1686275281.13,-7.324,-183.594,46.875,-41.992,1987.026,282.7641868283427
562,1686275281.13,-67.383,-247.559,-59.57,-85.449,1987.03,290.8037988521997
563,1686275281.14,-64.941,-341.309,-29.297,-45.898,1987.034,282.44851368205985
564,1686275281.14,-0.488,47.852,112.793,1.465,1987.035,269.39857225568056
565,1686275281.14,-1.465,86.426,67.383,-25.391,1987.039,283.7882924184109
566,1686275281.15,-61.523,-299.805,-104.492,-76.66,1987.043,288.1484155385382
567,1686275281.15,-73.242,-341.309,-55.176,-59.082,1987.047,290.9859219981314
568,1686275281.16,-7.812,-315.918,-17.09,-5.859,1987.051,287.7219064416515
569,1686275281.16,18.555,-437.5,-103.027,-19.043,1987.055,283.0281992980116
570,1686275281.16,-43.457,-757.324,-302.246,-59.082,1987.059,283.0441318607321
571,1686275281.17,-84.961,-919.922,-355.957,-60.547,1987.063,279.3773749870238
572,1686275281.17,-25.391,-245.117,-12.695,-18.066,1987.067,290.72471156736066
573,1686275281.17,30.273,20.02,61.523,3.418,1987.071,285.19467440186855
574,1686275281.18,-6.836,-361.816,-101.074,-44.922,1987.075,291.61473342309466
575,1686275281.18,-24.414,-65.918,34.18,-36.621,1987.092,296.10482930445977
576,1686275281.18,-47.363,-206.543,-18.066,-69.824,1987.078,299.0615010024717
577,1686275281.19,17.09,-495.117,-98.633,-1.953,1987.096,286.56059117949957
578,1686275281.19,-10.742,-767.09,-176.758,-28.32,1987.1,295.2550225022756
579,1686275281.19,-65.918,-369.629,-36.133,-81.543,1987.104,301.7080980070862
580,1686275281.2,-57.129,-111.328,40.527,-56.152,1987.108,302.767061872215
581,1686275281.2,-7.812,-406.25,-79.102,0.977,1987.112,296.73513063218616
582,1686275281.21,-8.301,-941.406,-427.246,-3.418,1987.116,292.9668507354857
583,1686275281.21,-67.871,-941.406,-398.438,-63.965,1987.12,307.3694961216776
584,1686275281.21,-78.125,-281.738,10.254,-74.219,1987.124,307.4681347780906
585,1686275281.22,-15.137,-177.734,4.395,-21.484,1987.128,309.9053035987003
586,1686275281.22,13.184,-234.375,2.441,-14.16,1987.131,309.9862709427113
587,1686275281.22,-33.691,-45.898,53.223,-63.965,1987.135,314.3434250694744
588,1686275281.23,-69.336,-46.387,20.996,-85.449,1987.136,309.3067530659682
589,1686275281.23,-31.738,-241.211,-40.039,-28.32,1987.14,312.4643116067073
590,1686275281.24,15.137,-178.223,14.16,1.465,1987.144,314.7247711946881
591,1686275281.24,-17.578,-20.02,48.34,-56.152,1987.148,312.4768057523139
592,1686275281.24,-69.824,-94.238,27.832,-93.75,1987.152,316.1592753757052
593,1686275281.25,-51.758,-561.523,-164.062,-44.434,1987.156,320.8056921352424
594,1686275281.25,4.883,-588.867,-145.508,-5.859,1987.16,318.1661815734038
595,1686275281.26,0.977,-39.062,75.195,-40.039,1987.164,316.84853588203055
596,1686275281.26,-62.988,-65.43,17.578,-82.031,1987.168,316.0173115116528
597,1686275281.26,-77.637,-791.504,-338.379,-40.039,1987.171,319.9839197134776
598,1686275281.27,-22.949,-765.625,-198.242,11.719,1987.175,320.1593758421973
599,1686275281.27,6.348,-5.859,119.141,-30.762,1987.179,321.0287998295507
600,1686275281.29,-43.945,-148.926,-41.016,-83.984,1987.184,321.9565716409271
601,1686275281.29,-78.125,-732.422,-176.758,-61.035,1987.188,324.55452009505024
602,1686275281.3,-27.832,-357.422,-16.113,-9.277,1987.192,324.9859114927919
603,1686275281.3,9.277,61.035,89.355,-16.602,1987.195,325.0825124534317
604,1686275281.3,-29.785,-187.012,-29.297,-71.777,1987.199,335.4425452868965
605,1686275281.31,-79.102,-885.742,-384.277,-67.871,1987.203,324.560036991549
606,1686275281.31,-45.898,-724.609,-202.148,-19.531,1987.207,329.5667092653888
607,1686275281.31,21.973,-8.301,103.516,-4.883,1987.211,327.86551896679015
608,1686275281.32,-2.441,-151.855,-57.617,-45.41,1987.215,322.96811578770604
609,1686275281.32,-64.453,-363.77,-93.262,-77.637,1987.219,337.9478121265982
610,1686275281.33,-41.992,-79.102,35.156,-38.086,1987.223,326.34725383853583
611,1686275281.33,30.762,-51.27,32.715,12.695,1987.227,323.7032406968444
612,1686275281.33,24.902,-494.629,-127.441,-20.996,1987.229,335.96885158068045
613,1686275281.34,-38.086,-587.402,-130.371,-77.148,1987.232,330.5772063561614
614,1686275281.34,-41.504,-153.809,35.645,-58.105,1987.236,328.29201887133803
615,1686275281.34,21.973,-27.344,65.918,0.0,1987.24,332.9845281845033
616,1686275281.35,30.762,-394.531,-116.699,-4.395,1987.244,326.00099143135094
617,1686275281.35,-33.203,-681.641,-259.277,-55.664,1987.248,331.64334619064897
618,1686275281.36,-54.688,-479.004,-101.562,-62.988,1987.252,332.576486043178
619,1686275281.36,-1.953,-139.648,50.781,-15.137,1987.256,331.9287679998647
620,1686275281.36,24.902,-633.301,-256.348,19.531,1987.26,333.4857759019304
621,1686275281.37,-24.414,-717.285,-216.797,-38.574,1987.264,326.5316225675905
622,1686275281.37,-62.988,-157.227,45.41,-81.055,1987.268,334.2650151872499
623,1686275281.38,-40.527,-152.344,6.836,-34.18,1987.271,336.188106643941
624,1686275281.39,8.789,-516.113,-133.301,4.883,1987.289,329.4085147217361
625,1686275281.4,-5.859,-613.281,-207.52,-30.762,1987.293,331.32958333279095
626,1686275281.4,-61.035,-475.098,-134.766,-66.406,1987.297,339.35979355062517
627,1686275281.4,-49.805,-543.457,-187.012,-27.832,1987.301,334.4425051271314
628,1686275281.41,2.93,-878.906,-370.605,34.18,1987.305,333.44367172084486
629,1686275281.41,0.0,-900.879,-309.082,3.906,1987.309,343.07898603106713
630,1686275281.42,-42.969,-451.172,-79.102,-67.383,1987.313,331.3488885238597
631,1686275281.42,-59.082,-345.703,-75.195,-52.246,1987.317,334.3784193323462
632,1686275281.42,-16.113,-263.184,10.254,-19.531,1987.319,335.5543245692568
633,1686275281.42,-17.09,-817.871,-306.152,8.789,1987.32,335.57734050163685
634,1686275281.43,28.32,47.363,74.219,5.371,1987.323,341.338160433057
635,1686275281.43,14.648,-367.188,-51.758,-7.324,1987.324,339.78356613557173
636,1686275281.43,-13.672,-0.977,25.391,-43.945,1987.327,340.2127019987287
637,1686275281.43,-30.273,28.809,56.641,-71.777,1987.328,340.63467694005783
638,1686275281.44,-65.918,-394.043,-134.766,-69.336,1987.331,345.70094629853384
639,1686275281.44,-64.941,-316.406,-90.332,-78.125,1987.332,342.3495897518506
640,1686275281.44,-45.41,-390.137,-81.055,-21.484,1987.335,342.55242551237757
641,1686275281.44,11.23,-288.574,-1.465,7.324,1987.339,354.9994636085411
642,1686275281.45,-2.441,-475.098,-108.398,-31.738,1987.343,348.7679770275866
643,1686275281.45,-68.848,-755.859,-294.434,-72.754,1987.347,346.3850954882391
644,1686275281.45,-53.711,-471.191,-97.168,-46.387,1987.35,352.10487884181475
645,1686275281.46,11.719,-51.27,65.918,-0.488,1987.354,341.2094979376693
646,1686275281.46,8.789,-125.0,-2.441,-32.227,1987.358,350.3281778302402
647,1686275281.47,-58.594,-753.906,-326.66,-73.242,1987.362,345.2357176427492
648,1686275281.47,-78.125,-852.051,-268.066,-53.711,1987.364,345.15064960605287
649,1686275281.47,-12.207,-396.973,18.555,-4.883,1987.368,344.0645389318172
650,1686275281.48,17.578,-318.848,-42.969,1.465,1987.372,336.4795717801948
651,1686275281.48,-35.645,-764.16,-291.992,-43.945,1987.376,347.40615350927135
652,1686275281.48,-64.453,-471.191,-102.539,-64.941,1987.38,345.51955405349025
653,1686275281.49,-15.137,-234.375,39.551,-16.113,1987.384,344.42824680338975
654,1686275281.49,32.715,-523.438,-101.074,22.949,1987.387,351.61154072784444
655,1686275281.49,-15.137,-889.16,-375.977,-21.484,1987.391,339.8714298294955
656,1686275281.5,-72.266,-607.422,-187.012,-66.406,1987.395,353.3784781883589
657,1686275281.5,-40.039,-53.711,75.195,-26.367,1987.399,346.4724069349535
658,1686275281.51,17.578,-236.328,-81.543,21.973,1987.403,348.7031770752068
659,1686275281.51,2.93,-425.781,-110.84,-15.137,1987.407,354.4324433656501
660,1686275281.51,-48.828,-187.012,32.715,-77.148,1987.409,346.83333472198024
661,1686275281.52,-44.434,-41.992,36.621,-51.758,1987.413,345.80076853329047
662,1686275281.52,10.742,-356.445,-76.172,6.348,1987.417,357.7481768576156
663,1686275281.52,22.461,-420.41,-0.977,-1.465,1987.421,344.9974933277792
664,1686275281.53,-35.156,-147.461,14.16,-59.57,1987.424,344.3742881027605
665,1686275281.53,-66.895,-348.633,-76.66,-61.035,1987.428,351.5421305969749
666,1686275281.54,-20.508,-780.273,-246.094,2.441,1987.432,349.0082124442294
667,1686275281.54,2.441,-712.891,-190.43,-4.395,1987.436,352.65985793898074
668,1686275281.54,-41.504,-106.445,59.57,-71.777,1987.44,349.48231631977615
669,1686275281.55,-71.777,-171.875,-29.785,-77.148,1987.444,354.83876294619233
670,1686275281.55,-45.41,-670.898,-223.633,-20.996,1987.448,345.4633899898024
671,1686275281.56,-0.977,-309.57,-16.113,-3.906,1987.452,345.3471577776023
672,1686275281.56,-20.02,-55.664,66.895,-59.082,1987.468,346.92339404260514
673,1686275281.56,-89.844,-527.344,-209.473,-95.703,1987.472,351.9517819395209
674,1686275281.56,-89.844,-905.762,-392.09,-28.809,1987.476,349.98039820151433
675,1686275281.57,-13.672,-412.598,-61.035,16.113,1987.48,344.68134479214666
676,1686275281.57,-15.625,29.297,105.469,-38.086,1987.484,346.0903455818732
677,1686275281.58,-78.125,-419.434,-149.414,-87.402,1987.488,349.4197646016856
678,1686275281.58,-85.449,-907.715,-357.422,-52.734,1987.492,349.10557633133294
679,1686275281.58,-20.996,-417.48,-66.406,0.977,1987.496,359.57625187947184
680,1686275281.59,4.395,89.355,93.262,-11.719,1987.5,349.4742574429769
681,1686275281.59,-50.293,-301.758,-127.441,-65.43,1987.503,346.3092271031334
682,1686275281.6,-86.914,-509.766,-123.535,-75.684,1987.507,362.9404443015534
683,1686275281.6,-32.715,-112.793,48.828,-22.949,1987.511,350.8995672691747
684,1686275281.6,12.695,-109.375,35.156,-2.93,1987.512,351.60744126462504
685,1686275281.61,-40.039,-546.875,-181.152,-48.34,1987.516,356.6321915648163
686,1686275281.61,-93.262,-679.199,-227.539,-67.383,1987.52,352.71609131608733
687,1686275281.62,-51.27,-208.984,16.602,-19.531,1987.523,351.49575511937974
688,1686275281.62,14.648,1.465,81.055,11.23,1987.527,357.92180763491587
689,1686275281.62,-2.93,-544.434,-197.754,-27.344,1987.531,355.47617672024813
690,1686275281.63,-57.617,-722.168,-230.469,-78.125,1987.535,356.0227051837447
691,1686275281.63,-49.805,-244.141,4.883,-44.434,1987.539,358.2392493219558
692,1686275281.64,8.789,-97.656,10.254,14.648,1987.543,353.7782569532547
693,1686275281.64,9.277,-655.762,-273.438,-9.277,1987.547,353.5998366664857
694,1686275281.64,-46.875,-580.566,-112.793,-67.383,1987.551,352.07793111867085
695,1686275281.65,-68.359,-66.406,83.008,-65.918,1987.555,359.1495337293455
696,1686275281.66,-21.484,-145.996,-9.766,-6.836,1987.573,364.7188770270183
697,1686275281.67,1.953,-598.145,-126.465,1.465,1987.577,356.34264470826224
698,1686275281.67,-42.48,-450.684,-68.848,-62.988,1987.581,361.5959518660266
699,1686275281.68,-77.637,-379.395,-87.891,-73.242,1987.585,346.897232509604
700,1686275281.68,-35.156,-569.336,-183.594,-5.371,1987.589,349.64430053735344
701,1686275281.68,14.648,-915.039,-397.461,33.691,1987.593,347.807271454265
702,1686275281.69,-19.043,-795.41,-241.211,-28.809,1987.596,346.13755788631266
703,1686275281.69,-73.242,-226.074,22.461,-73.73,1987.6,347.5165790230269
704,1686275281.69,-53.223,-262.207,-54.199,-28.32,1987.604,355.81086975898575
705,1686275281.7,7.812,-321.777,-41.992,5.371,1987.608,346.5437522554811
706,1686275281.7,-3.906,-83.984,36.133,-37.598,1987.612,352.41431161303205
707,1686275281.71,-56.641,-71.777,16.602,-82.031,1987.616,356.18405368701207
708,1686275281.71,-51.27,-368.164,-89.355,-44.922,1987.605,350.68796333076347
709,1686275281.71,6.836,-302.734,11.719,10.254,1987.608,365.6771708991815
710,1686275281.72,17.09,-27.344,79.59,-7.812,1987.612,351.52104232443594
711,1686275281.72,-39.062,-102.539,4.395,-73.73,1987.616,354.7534836754036
712,1686275281.72,-66.895,-438.477,-135.742,-63.965,1987.62,350.92481722796185
713,1686275281.73,-22.949,-591.309,-174.805,0.488,1987.624,357.61050811246264
714,1686275281.73,6.836,-527.344,-141.113,-6.348,1987.628,351.6200463059967
715,1686275281.74,-38.574,-567.871,-214.355,-66.895,1987.632,353.9746814485238
716,1686275281.74,-81.055,-857.91,-381.836,-68.848,1987.636,356.24293198450476
717,1686275281.74,-42.48,-691.895,-199.707,-5.371,1987.64,365.9820075259491
718,1686275281.75,7.324,-122.559,71.289,24.414,1987.644,362.82292189802627
719,1686275281.75,-18.066,-121.582,9.766,-22.949,1987.647,357.9660594186654
720,1686275281.75,-82.031,-786.133,-326.66,-58.594,1987.649,357.25035012527525
721,1686275281.76,-70.312,-812.988,-260.254,-26.855,1987.653,346.9236764064671
722,1686275281.76,2.441,-171.875,65.43,6.836,1987.656,350.2632147677561
723,1686275281.76,-4.395,-200.684,-22.461,-29.785,1987.66,352.91498527477916
724,1686275281.77,-67.383,-811.523,-322.754,-76.172,1987.664,347.9616397470768
725,1686275281.77,-70.312,-758.301,-235.84,-49.805,1987.668,344.23973675905256
726,1686275281.78,-2.93,-308.594,21.484,-3.906,1987.672,353.775185042236
727,1686275281.78,15.137,-284.18,-65.43,-11.719,1987.676,360.3198868627241
728,1686275281.78,-52.734,-875.977,-397.949,-45.898,1987.68,347.50531039584286
729,1686275281.79,-80.078,-562.5,-107.91,-55.664,1987.684,358.3374189493517
730,1686275281.79,-21.484,47.852,134.766,-10.742,1987.688,349.88248643799375
731,1686275281.8,19.043,-139.648,-33.691,5.859,1987.692,352.97847077674396
732,1686275281.8,-28.32,-314.941,-34.668,-43.457,1987.694,351.6095108779566
733,1686275281.8,-66.895,-88.379,59.082,-65.43,1987.698,353.9569223947252
734,1686275281.8,-22.949,-5.371,70.312,-9.277,1987.702,346.3441933216847
735,1686275281.81,18.555,-272.461,-56.152,17.578,1987.706,348.49626864180067
736,1686275281.81,-13.672,-252.93,-8.789,-35.156,1987.71,354.6066603674435
737,1686275281.82,-64.453,-400.879,-89.355,-62.012,1987.714,347.33033982851225
738,1686275281.82,-49.805,-502.93,-137.695,-25.879,1987.718,345.9238786975541
739,1686275281.82,6.836,-661.133,-222.656,21.973,1987.721,346.6859425485773
740,1686275281.83,10.254,-755.371,-193.848,-0.977,1987.725,353.2024570858153
741,1686275281.83,-47.852,-164.062,68.359,-71.289,1987.729,353.2715243495234
742,1686275281.84,-72.754,-144.531,-22.461,-64.453,1987.733,356.5335814176211
743,1686275281.84,-15.137,-565.43,-144.043,0.0,1987.737,352.2525279555141
744,1686275281.84,13.184,-332.031,-22.949,-10.742,1987.739,343.1539721876228
745,1686275281.85,-41.992,-310.547,-47.363,-68.848,1987.743,351.351077210476
746,1686275281.85,-81.055,-403.809,-78.125,-68.848,1987.747,352.32265152325584
747,1686275281.86,-45.41,-770.02,-284.18,-13.672,1987.751,344.76853123441924
748,1686275281.86,-2.441,-485.352,-104.004,-11.719,1987.755,342.2968643779033
749,1686275281.86,-27.832,-248.535,5.859,-57.617,1987.759,340.89612702430964
750,1686275281.87,-70.801,-553.223,-186.523,-74.219,1987.762,347.33321291529245
751,1686275281.87,-47.852,-847.168,-329.102,-20.02,1987.766,344.2076338162783
752,1686275281.87,17.09,-368.652,-16.602,2.93,1987.77,348.35427138963286
753,1686275281.88,0.977,72.266,112.793,-53.223,1987.774,349.8082761293476
754,1686275281.88,-66.406,-262.695,-87.891,-81.543,1987.778,345.33090627875424
755,1686275281.89,-61.035,-333.496,-19.531,-47.363,1987.782,349.743719294721
756,1686275281.9,4.883,-51.758,84.473,-7.324,1987.802,345.4602107656558
757,1686275281.91,9.277,-110.352,3.906,-29.785,1987.806,345.1176375572407
758,1686275281.91,-57.129,-570.312,-208.496,-85.449,1987.809,345.07023709117385
759,1686275281.92,-69.336,-534.18,-136.23,-81.055,1987.813,340.21766354933385
760,1686275281.92,-8.301,-74.707,88.379,-16.113,1987.817,350.1815349628485
761,1686275281.92,17.09,-292.969,-50.293,-14.16,1987.821,350.7901363118857
762,1686275281.93,-42.48,-835.938,-344.238,-71.289,1987.825,348.88823865562273
763,1686275281.93,-76.66,-744.629,-204.59,-82.031,1987.829,351.14879781817837
764,1686275281.94,-12.695,-120.117,101.562,-25.879,1987.833,352.96771320154795
765,1686275281.94,34.18,-19.531,55.664,-0.488,1987.837,354.53398026925265
766,1686275281.94,-10.254,-419.434,-120.605,-48.34,1987.841,347.5622765088007
767,1686275281.95,-28.809,-73.242,79.59,-25.879,1987.858,337.5932757963125
768,1686275281.95,-57.129,-298.34,-43.457,-74.219,1987.845,337.7094528033619
769,1686275281.95,24.902,-424.805,-67.383,17.09,1987.862,342.87404701397014
770,1686275281.96,5.859,-837.891,-307.617,-20.508,1987.866,344.06444911410256
771,1686275281.96,-53.223,-494.141,-115.723,-72.754,1987.869,348.791606739654
772,1686275281.96,-59.082,-302.246,-14.16,-48.828,1987.873,343.44372051363115
773,1686275281.97,-3.418,-588.867,-130.859,5.371,1987.877,357.8202453601386
774,1686275281.97,5.371,-625.0,-86.426,-10.742,1987.881,345.5014299125459
775,1686275281.97,-46.387,-251.953,7.324,-72.266,1987.885,345.98333184542946
776,1686275281.98,-64.941,-67.871,51.27,-84.961,1987.887,347.6619888191309
777,1686275281.98,-69.336,-73.73,24.414,-72.754,1987.889,343.08826352600465
778,1686275281.98,-30.273,-364.746,-80.566,-14.16,1987.891,346.5141497276159
779,1686275281.98,-19.531,-277.344,-71.777,-22.949,1987.893,345.3537025314463
780,1686275281.98,13.672,-256.836,38.574,7.812,1987.895,348.6461321291691
781,1686275281.99,13.184,-852.539,-321.777,-2.441,1987.897,345.5540981289468
782,1686275281.99,-16.602,-20.508,57.617,-51.27,1987.899,344.5068495890762
783,1686275281.99,-25.879,-480.957,-65.918,-65.43,1987.901,347.76892178450464
784,1686275281.99,-67.871,-72.754,13.184,-93.262,1987.903,345.1018317204338
785,1686275282.0,-56.152,-571.777,-173.828,-39.062,1987.907,344.2451745994222
786,1686275282.0,-1.465,-780.762,-188.477,5.371,1987.911,356.6974945927265
787,1686275282.0,-1.953,-400.391,-5.859,-34.668,1987.915,350.66428743425337
788,1686275282.01,-63.477,-190.918,1.465,-81.055,1987.919,347.51113885953134
789,1686275282.01,-80.566,-678.711,-257.812,-43.945,1987.923,343.94552883134946
790,1686275282.02,-20.996,-605.957,-111.328,7.812,1987.926,342.96751927717895
791,1686275282.02,12.207,-71.289,97.168,-17.09,1987.93,348.0165462469904
792,1686275282.04,-44.434,-182.617,-4.883,-71.289,1987.933,345.1076862222659
793,1686275282.04,-88.379,-861.816,-386.719,-60.547,1987.937,352.58130060547336
794,1686275282.04,-38.086,-1000.0,-422.852,1.953,1987.941,344.4349141505013
795,1686275282.05,11.23,-246.582,34.668,-10.742,1987.945,343.9051883100211
796,1686275282.05,-34.668,-127.93,9.766,-64.941,1987.949,344.37060395801626
797,1686275282.06,-83.496,-666.992,-173.34,-69.336,1987.953,342.2483951395769
798,1686275282.06,-48.34,-431.152,-4.395,-29.297,1987.957,349.1262086521181
799,1686275282.06,10.742,103.516,137.695,-13.184,1987.961,342.37182196219044
800,1686275282.07,-14.16,-229.004,-67.383,-46.875,1987.965,338.75946175130514
801,1686275282.07,-76.66,-794.434,-222.168,-72.754,1987.969,339.42322846508176
802,1686275282.08,-64.941,-346.191,20.996,-48.34,1987.973,343.90825789766984
803,1686275282.08,0.0,131.836,125.977,1.465,1987.976,345.4937398208284
804,1686275282.1,5.371,-202.148,-51.27,-17.09,1987.994,338.27215709199083
805,1686275282.1,-55.664,-524.414,-123.047,-68.848,1987.998,344.74226320570625
806,1686275282.11,-68.848,-145.508,45.41,-65.918,1988.002,347.833405508335
807,1686275282.11,-17.09,28.809,76.66,-20.996,1988.006,340.68059943220135
808,1686275282.11,3.906,-334.473,-104.004,-12.695,1988.01,351.0047945471699
809,1686275282.12,-53.223,-637.695,-229.492,-60.059,1988.014,344.88020255199956
810,1686275282.12,-87.402,-508.301,-105.957,-66.895,1988.018,341.52097290049176
811,1686275282.12,-32.227,-129.395,59.57,-17.09,1988.021,345.4440909059032
812,1686275282.13,9.766,-671.875,-154.785,23.438,1988.024,352.932525308534
813,1686275282.13,5.371,-579.59,-235.84,0.977,1988.025,338.41212147348205
814,1686275282.13,-11.23,-661.621,-138.184,-22.461,1988.028,342.29532809553876
815,1686275282.13,-40.527,-705.566,-188.477,-44.922,1988.029,343.0066093505328
816,1686275282.14,-67.383,-215.332,33.691,-68.359,1988.032,348.7587215865818
817,1686275282.14,-83.496,-125.977,73.242,-70.801,1988.033,349.8563469706033
818,1686275282.14,-61.523,-206.055,9.766,-34.18,1988.035,348.72830772383355
819,1686275282.14,-49.316,-194.824,-18.066,-21.484,1988.037,339.3616290544386
820,1686275282.14,-8.789,-812.012,-296.387,20.996,1988.039,346.19104219649336
821,1686275282.15,-2.441,-727.051,-166.504,-7.812,1988.043,346.06820180734604
822,1686275282.15,-55.176,-376.953,1.465,-77.637,1988.047,336.21851810818737
823,1686275282.16,-76.172,-353.516,-44.922,-79.102,1988.051,344.9051703171482
824,1686275282.16,-20.996,-424.805,-42.969,-23.438,1988.055,338.9916578171868
825,1686275282.16,7.812,-160.156,40.039,-18.555,1988.059,340.0902100409303
826,1686275282.17,-31.738,20.02,69.336,-74.707,1988.063,345.65202840035715
827,1686275282.17,-68.848,-363.281,-110.84,-77.637,1988.067,352.20954349191857
828,1686275282.17,-47.363,-759.277,-213.379,-20.02,1988.069,346.01443986556313
829,1686275282.18,7.812,-211.426,43.457,-1.953,1988.073,336.4561160519579
830,1686275282.18,-7.812,-107.422,18.555,-51.27,1988.077,351.9445569131547
831,1686275282.18,-72.754,-590.332,-161.133,-80.078,1988.081,346.3337475153902
832,1686275282.19,-50.293,-501.465,-32.715,-42.48,1988.085,341.3179840636249
833,1686275282.19,18.555,-369.629,-0.488,-2.441,1988.088,346.58413128236725
834,1686275282.2,7.812,-464.355,-67.871,-34.18,1988.092,344.5307278537152
835,1686275282.2,-59.082,-773.926,-261.23,-80.078,1988.096,335.35917311913755
836,1686275282.2,-63.965,-676.27,-166.016,-60.059,1988.1,341.4631761696477
837,1686275282.21,-0.488,-3.418,128.906,-17.578,1988.104,361.05347996402475
838,1686275282.21,20.508,7.324,37.598,-21.484,1988.108,345.05388760942736
839,1686275282.22,-40.039,-387.207,-90.82,-82.031,1988.112,342.568866423006
840,1686275282.22,-69.824,-283.691,-0.488,-76.172,1988.113,349.2619597048617
841,1686275282.22,-20.02,-236.816,25.879,-17.578,1988.117,338.0271189124923
842,1686275282.22,16.602,-423.34,-59.082,-11.719,1988.121,338.55768619733976
843,1686275282.23,-25.879,-791.992,-291.504,-57.129,1988.125,350.40522093285784
844,1686275282.23,-62.5,-526.855,-104.004,-80.078,1988.129,353.503494829101
845,1686275282.24,-24.902,-293.945,47.363,-36.621,1988.133,344.3889772228713
846,1686275282.24,13.672,-496.094,-73.73,1.953,1988.137,346.58009495599305
847,1686275282.24,-26.367,-876.465,-349.609,-26.367,1988.141,353.0334760647705
848,1686275282.25,-82.031,-701.66,-225.586,-75.195,1988.145,345.0673847186092
849,1686275282.25,-64.453,-151.367,42.48,-56.152,1988.149,338.16720357389784
850,1686275282.26,6.836,-164.062,-0.977,-3.418,1988.152,337.89801681836906
851,1686275282.26,2.441,-192.871,48.828,-31.738,1988.156,340.9796451108329
852,1686275282.28,-58.105,-51.758,63.965,-90.332,1988.173,353.77573304198097
853,1686275282.28,-61.523,-74.219,42.48,-66.895,1988.177,348.46086751019936
854,1686275282.28,-9.277,-313.477,-7.324,-4.395,1988.181,348.2730280248947
855,1686275282.29,14.16,-222.656,21.484,-8.789,1988.185,341.9228403610218
856,1686275282.29,-36.621,-70.312,47.363,-78.125,1988.189,339.7838956998657
857,1686275282.3,-72.754,-357.422,-24.902,-82.52,1988.193,340.44892460016047
858,1686275282.3,-28.32,-721.68,-168.945,-11.23,1988.197,344.0018594882612
859,1686275282.3,12.695,-831.543,-188.965,0.0,1988.201,346.5095317557483
860,1686275282.31,-14.16,-372.07,28.809,-61.035,1988.205,357.80135989124074
861,1686275282.31,-64.941,-125.0,43.457,-89.355,1988.208,342.3977526568695
862,1686275282.32,-45.898,-651.855,-225.098,-32.227,1988.212,340.20911482787585
863,1686275282.32,13.184,-401.367,-42.48,-1.953,1988.216,338.22277288719516
864,1686275282.34,1.953,-30.273,125.488,-50.781,1988.234,355.20490137987406
865,1686275282.34,-66.895,-500.488,-131.836,-80.078,1988.237,343.2539121209989
866,1686275282.34,-73.242,-897.949,-328.125,-35.156,1988.241,343.874870221949
867,1686275282.35,-2.441,-382.324,-31.25,7.324,1988.245,352.90817895370276
868,1686275282.35,9.766,32.715,108.887,-21.484,1988.249,345.11153047140994
869,1686275282.36,-53.223,-482.91,-159.668,-71.289,1988.253,354.0495700400256
870,1686275282.36,-58.105,-737.305,-161.621,-53.711,1988.257,341.2053702606945
871,1686275282.36,11.23,-196.289,53.223,9.766,1988.261,350.2786049185217
872,1686275282.37,27.344,71.777,101.562,-9.277,1988.265,340.47639391179473
873,1686275282.37,12.695,31.738,115.723,-0.977,1988.265,343.14834265305063
874,1686275282.37,-35.645,-324.707,-94.727,-64.453,1988.269,343.2942042248039
875,1686275282.37,-25.879,-320.801,-82.52,-51.27,1988.269,339.5999395466114
876,1686275282.38,-87.402,-896.973,-383.301,-50.781,1988.273,343.3289321591777
877,1686275282.38,-73.73,-405.762,-43.945,-81.055,1988.272,340.3050158019786
878,1686275282.38,-43.457,-68.359,73.73,-32.715,1988.276,338.9022743915429
879,1686275282.38,-35.645,-427.246,-41.504,-5.371,1988.277,341.10467112040135
880,1686275282.38,2.441,-36.621,47.363,0.488,1988.28,346.7113979673789
881,1686275282.39,-36.621,-85.449,36.621,-25.879,1988.284,351.1986838208359
882,1686275282.39,-14.16,-154.785,25.879,-3.418,1988.288,335.7782269201268
883,1686275282.4,0.0,-645.508,-201.66,-25.391,1988.292,348.3298146872649
884,1686275282.4,-53.711,-454.102,-70.801,-87.891,1988.296,340.82277462126916
885,1686275282.4,-68.848,-81.543,95.215,-77.148,1988.3,347.6397135213421
886,1686275282.41,-14.16,-196.777,34.18,-18.555,1988.304,352.103698901976
887,1686275282.41,9.277,-819.824,-333.008,-1.953,1988.308,334.0306012643298
888,1686275282.41,-41.016,-1000.0,-445.312,-48.828,1988.31,353.23978720311425
889,1686275282.42,-73.242,-287.598,3.418,-74.219,1988.314,357.05224340740523
890,1686275282.42,-27.344,-152.832,30.273,-15.137,1988.318,351.99164731479163
891,1686275282.43,21.484,-434.57,-66.895,13.672,1988.322,351.3410453675992
892,1686275282.43,-9.277,-163.086,32.227,-42.969,1988.326,348.15158357317233
893,1686275282.43,-69.336,-278.32,-28.809,-83.496,1988.33,343.2023456564642
894,1686275282.44,-58.105,-583.496,-134.766,-41.016,1988.334,343.6668371048794
895,1686275282.44,-14.16,-880.859,-320.801,16.602,1988.338,348.9720273815869
896,1686275282.44,-16.602,-481.934,-63.477,-22.949,1988.341,343.2262217350426
897,1686275282.45,-56.641,-55.176,71.777,-90.82,1988.345,345.63889502463906
898,1686275282.45,-67.383,-305.664,-75.195,-60.547,1988.349,355.32939507294367
899,1686275282.46,-7.812,-262.695,42.48,7.812,1988.353,346.6623107395132
900,1686275282.46,12.207,-46.387,74.219,-8.789,1988.368,345.57936119102436
901,1686275282.46,-46.875,-211.914,-55.664,-68.359,1988.372,351.83905084081033
902,1686275282.47,-74.219,-645.508,-159.668,-65.43,1988.376,342.1210819664826
903,1686275282.47,-21.484,-513.672,-32.227,-9.277,1988.38,340.9537834311015
904,1686275282.47,20.02,-75.684,74.707,-6.836,1988.384,349.4753971967159
905,1686275282.48,-28.32,-348.145,-47.363,-67.871,1988.388,350.54339372112526
906,1686275282.48,-83.496,-888.672,-343.75,-70.801,1988.392,343.79083969677265
907,1686275282.48,-44.922,-845.703,-267.578,-9.766,1988.395,357.2949963591868
908,1686275282.49,22.461,-105.469,101.074,3.906,1988.399,348.3980748459137
909,1686275282.49,-1.465,-21.973,44.434,-56.641,1988.403,353.9645682058427
910,1686275282.5,-61.035,-503.906,-96.68,-85.938,1988.407,354.54626740860533
911,1686275282.5,-47.852,-525.391,-62.988,-37.598,1988.411,351.4991978300334
912,1686275282.5,23.438,-111.816,101.562,2.93,1988.413,344.7251587267902
913,1686275282.51,20.996,-105.469,43.457,-23.926,1988.417,348.5180889095138
914,1686275282.51,-55.664,-756.348,-266.113,-65.43,1988.421,345.7224632351422
915,1686275282.51,-68.359,-481.445,-90.332,-54.199,1988.425,352.3286953129188
916,1686275282.52,-11.23,-243.652,48.34,5.859,1988.428,344.6409449956799
917,1686275282.52,21.973,-576.172,-123.047,16.113,1988.432,351.5012690134226
918,1686275282.53,-34.18,-888.672,-362.305,-33.203,1988.436,349.89341125238474
919,1686275282.53,-59.57,-513.672,-75.684,-44.922,1988.44,351.4168942282843
920,1686275282.53,-2.441,14.16,117.188,-1.953,1988.444,342.91624415268575
921,1686275282.54,27.832,-260.254,-84.961,15.625,1988.448,344.8749391447182
922,1686275282.54,-10.742,-634.766,-113.77,-27.832,1988.452,347.9999094738471
923,1686275282.54,-52.246,-174.316,67.383,-62.5,1988.456,346.85876274059143
924,1686275282.56,-25.879,45.41,92.773,-20.02,1988.459,346.58521271601205
925,1686275282.57,24.902,-275.391,-42.969,6.348,1988.463,343.4990966450871
926,1686275282.57,4.883,-270.508,-21.973,-42.969,1988.466,343.49714131948815
927,1686275282.57,-55.176,-67.871,83.496,-84.961,1988.47,346.43611124315953
928,1686275282.58,-42.48,-57.129,68.848,-49.316,1988.474,352.14177636898603
929,1686275282.58,8.301,-492.676,-135.742,8.301,1988.478,347.00693160329894
930,1686275282.59,0.488,-688.477,-125.977,-23.438,1988.482,350.4174021316013
931,1686275282.59,-52.734,-405.762,-9.277,-90.82,1988.486,353.76068840746893
932,1686275282.59,-65.43,-203.125,7.812,-82.52,1988.49,347.811052736918
933,1686275282.6,-12.207,-727.051,-271.484,-7.812,1988.494,349.74443471344244
934,1686275282.6,2.93,-844.727,-230.469,-7.812,1988.498,350.46964852873845
935,1686275282.6,-38.086,-476.562,-15.137,-77.637,1988.502,345.32500978844513
936,1686275282.61,-66.406,-557.617,-138.184,-64.941,1988.504,350.6449094453396
937,1686275282.61,-34.668,-839.844,-294.434,-1.465,1988.508,345.00966380656064
938,1686275282.62,12.207,-380.371,-19.043,1.465,1988.512,351.05439636531133
939,1686275282.62,-15.137,52.246,111.328,-43.945,1988.516,359.28944845875566
940,1686275282.62,-66.895,-192.871,-28.809,-72.266,1988.52,358.44320674755767
941,1686275282.63,-42.969,-548.828,-118.652,-24.414,1988.524,349.144438846851
942,1686275282.63,19.043,-424.805,-35.156,19.531,1988.528,352.5737906103831
943,1686275282.64,4.883,-6.836,92.285,-26.855,1988.531,354.7108610133915
944,1686275282.64,-58.594,-286.621,-80.566,-69.336,1988.535,348.3250126545253
945,1686275282.64,-68.359,-908.203,-344.727,-20.996,1988.539,349.1417596299119
946,1686275282.65,-1.953,-356.934,0.977,10.742,1988.543,350.82579909017363
947,1686275282.65,18.066,94.238,113.77,-18.555,1988.547,352.8148605018712
948,1686275282.65,-44.922,-347.656,-104.004,-64.453,1988.562,347.8648172895821
949,1686275282.66,-75.195,-412.109,-25.391,-59.57,1988.565,356.8645884729929
950,1686275282.66,-17.09,-62.5,90.332,-21.973,1988.569,352.31008584680893
951,1686275282.66,20.02,27.344,84.473,-18.555,1988.573,351.41353399362254
952,1686275282.67,-34.668,-428.223,-145.508,-65.43,1988.577,344.43474238055893
953,1686275282.67,-88.867,-768.555,-263.184,-65.918,1988.581,352.4038943898997
954,1686275282.68,-50.781,-464.844,-67.383,-4.395,1988.585,361.62293747526707
955,1686275282.68,9.766,-93.75,64.453,10.254,1988.589,358.41170954353856
956,1686275282.68,-18.555,-681.641,-299.805,-22.461,1988.593,350.6288464141678
957,1686275282.69,-74.707,-660.645,-202.637,-64.453,1988.597,350.56014388037596
958,1686275282.69,-50.293,-157.715,90.82,-36.621,1988.601,355.4503333238702
959,1686275282.7,5.371,-453.125,-54.688,16.113,1988.605,352.8240123806533
960,1686275282.7,-10.254,-867.188,-304.688,-8.301,1988.594,349.6808093641611
961,1686275282.7,-65.43,-567.383,-106.934,-67.871,1988.598,363.38199890175594
962,1686275282.71,-66.406,-16.602,109.375,-47.363,1988.602,366.8021216979756
963,1686275282.71,4.883,-122.07,14.16,20.996,1988.606,352.96800577617773
964,1686275282.71,21.484,-469.238,-47.363,-3.418,1988.609,357.0388520093552
965,1686275282.72,-44.434,-531.25,-82.52,-79.102,1988.613,355.3707882215476
966,1686275282.72,-73.242,-349.609,-8.301,-82.52,1988.617,366.94529847405295
967,1686275282.72,-23.438,-274.902,-27.344,-15.137,1988.621,351.69180325033403
968,1686275282.73,2.441,-857.422,-338.867,15.137,1988.625,355.9904819025964
969,1686275282.73,-39.062,-522.461,-72.266,-38.574,1988.629,359.09787596672265
970,1686275282.74,-70.312,26.855,110.84,-70.801,1988.633,361.3537689795043
971,1686275282.74,-35.645,-246.094,-40.527,-9.277,1988.637,359.70096780607
972,1686275282.74,5.371,-230.957,49.316,24.414,1988.641,351.56023993844207
973,1686275282.75,-19.043,-2.93,77.637,-31.25,1988.645,355.1912222841039
974,1686275282.75,-73.242,-281.25,-53.223,-68.359,1988.648,354.69386549243626
975,1686275282.76,-61.523,-621.582,-124.023,-23.926,1988.652,358.3291993770286
976,1686275282.76,4.395,-393.555,19.531,12.695,1988.656,352.49410060729923
977,1686275282.76,-3.418,-281.25,31.25,-28.32,1988.66,364.6986521999943
978,1686275282.77,-65.43,-548.34,-108.887,-81.055,1988.664,358.99850569301793
979,1686275282.77,-74.219,-841.309,-306.641,-51.27,1988.668,351.5753016944623
980,1686275282.78,-9.766,-601.074,-140.625,9.277,1988.672,366.53702277563303
981,1686275282.78,14.648,26.855,135.742,-7.812,1988.676,360.41149664583304
982,1686275282.78,-41.992,-138.672,-10.742,-62.988,1988.68,359.4581318863154
983,1686275282.79,-83.008,-768.555,-269.531,-55.176,1988.684,351.4075633097707
984,1686275282.8,-32.227,-354.98,-22.949,-7.812,1988.698,360.62193576480536
985,1686275282.81,17.578,131.348,152.832,5.371,1988.702,351.6182854570921
986,1686275282.81,-23.438,-143.066,-5.859,-40.527,1988.706,358.34704922433855
987,1686275282.81,-76.172,-441.406,-73.73,-60.547,1988.71,355.2324739857314
988,1686275282.82,-41.016,-259.277,0.977,-3.418,1988.714,364.34387367623503
989,1686275282.82,15.137,-293.457,12.207,25.879,1988.718,362.82560014992544
990,1686275282.83,-8.301,-563.477,-150.879,-25.879,1988.722,351.85037833512877
991,1686275282.83,-71.289,-905.273,-384.277,-57.617,1988.726,361.2773603452009
992,1686275282.83,-47.852,-28.809,69.824,-46.387,1988.741,350.17723500682513
993,1686275282.83,-54.199,-511.719,-51.27,-28.32,1988.73,355.00561959078516
994,1686275282.84,4.395,-14.16,44.922,7.812,1988.745,359.85225461775633
995,1686275282.84,20.996,0.488,116.699,23.438,1988.733,365.98290393941426
996,1686275282.84,28.809,-340.82,-76.66,-1.953,1988.749,356.69777886469706
997,1686275282.84,20.996,-193.848,-51.758,1.465,1988.737,361.0877966289001
998,1686275282.84,-25.391,-304.688,-26.855,-59.57,1988.753,364.4579888356108
999,1686275282.84,-40.039,-249.023,14.16,-63.477,1988.741,353.0139469651556
1000,1686275282.85,-73.242,-89.844,44.434,-73.73,1988.757,360.59646715506125
1001,1686275282.85,-33.203,-395.996,-55.664,-20.996,1988.761,356.3583991028855
1002,1686275282.86,13.184,-612.305,-129.395,7.324,1988.764,353.342553343324
1003,1686275282.86,-20.02,-478.516,-85.449,-39.062,1988.768,363.6094460695172
1004,1686275282.86,-69.824,-342.285,11.23,-62.988,1988.772,361.2743182204543
1005,1686275282.87,-41.016,-188.477,53.711,-11.23,1988.776,357.710409998744
1006,1686275282.87,5.371,-757.812,-321.289,42.48,1988.78,355.1228307156312
1007,1686275282.88,-24.902,-1000.0,-500.488,6.348,1988.784,369.61973873415786
1008,1686275282.88,-76.172,-405.273,-27.832,-66.895,1988.788,349.34728241593535
1009,1686275282.88,-67.871,-159.668,70.801,-48.828,1988.792,352.93031871785814
1010,1686275282.88,-18.066,-447.266,-96.68,1.953,1988.795,369.38370380552766
1011,1686275282.89,-9.766,-200.195,41.016,-16.602,1988.799,365.7701154714822
1012,1686275282.89,-56.641,-47.363,70.801,-70.801,1988.803,364.1763486432725
1013,1686275282.9,-78.125,-493.164,-83.496,-60.059,1988.807,364.098274230772
1014,1686275282.9,-26.367,-756.836,-174.805,-6.836,1988.811,355.74551168288036
1015,1686275282.9,10.742,-238.281,37.598,-8.789,1988.815,366.3159891647337
1016,1686275282.91,-33.691,35.645,69.824,-57.129,1988.819,367.38767747107573
1017,1686275282.91,-63.965,-341.797,-101.562,-69.824,1988.823,361.77304587047286
1018,1686275282.92,-27.832,-580.566,-122.559,-24.902,1988.827,352.8491334970285
1019,1686275282.92,18.555,-129.395,69.824,-10.742,1988.831,358.0085061329601
1020,1686275282.94,-5.371,57.129,80.078,-60.059,1988.833,361.0915651138401
1021,1686275282.94,-74.707,-412.598,-124.023,-86.914,1988.837,368.148707588359
1022,1686275282.94,-65.918,-544.922,-115.723,-35.156,1988.841,367.884425658932
1023,1686275282.95,7.812,-79.59,77.637,14.16,1988.845,358.2192958777257
1024,1686275282.95,7.324,-27.344,55.176,-25.391,1988.849,363.69273471120954
1025,1686275282.96,-53.711,-641.113,-226.074,-72.266,1988.853,364.6840792018561
1026,1686275282.96,-56.641,-731.934,-189.941,-41.992,1988.857,350.750063259941
1027,1686275282.96,2.93,-185.059,84.473,4.883,1988.861,371.4944533688299
1028,1686275282.97,20.508,-120.605,40.039,-10.742,1988.864,360.8002549802323
1029,1686275282.97,-42.48,-710.449,-291.016,-57.617,1988.868,360.00878987698445
1030,1686275282.98,-70.312,-596.191,-152.344,-56.641,1988.872,363.0824752652554
1031,1686275282.98,-15.625,-388.672,-1.953,-11.23,1988.876,359.39968044879436
1032,1686275283.0,6.348,-625.0,-105.469,-8.789,1988.895,362.3367310958378
1033,1686275283.0,-56.152,-906.738,-357.91,-52.734,1988.899,354.60027549987007
1034,1686275283.01,-89.844,-630.859,-185.059,-74.219,1988.903,358.5125299817886
1035,1686275283.01,-31.25,-71.777,106.934,-33.203,1988.907,360.9938687824302
1036,1686275283.02,19.531,-141.602,5.371,4.395,1988.911,358.744205504036
1037,1686275283.02,-15.625,-565.918,-114.258,-35.645,1988.915,365.9624569768719
1038,1686275283.02,-66.895,-548.34,-56.152,-83.496,1988.919,358.4426833608177
1039,1686275283.03,-44.434,-104.492,81.543,-52.734,1988.923,365.6818964396002
1040,1686275283.03,-8.301,-311.035,-38.086,0.488,1988.923,350.33958291160263
1041,1686275283.03,14.16,-270.02,-80.566,4.395,1988.927,366.097584021046
1042,1686275283.03,10.254,-227.539,37.109,-12.695,1988.927,367.48630992530383
1043,1686275283.03,1.953,-825.684,-267.578,-7.812,1988.93,347.91498578614556
1044,1686275283.04,-36.621,-109.863,34.18,-61.523,1988.931,351.7010493507523
1045,1686275283.04,-52.246,-387.695,-10.254,-68.848,1988.934,366.06125301823516
1046,1686275283.04,-81.543,-385.742,-63.477,-71.777,1988.935,358.87813704579196
1047,1686275283.04,-56.152,-51.27,59.57,-51.27,1988.938,356.9099646452575
1048,1686275283.04,-44.922,-648.926,-153.809,-10.742,1988.939,351.90967073069936
1049,1686275283.05,4.883,-733.398,-144.043,11.23,1988.943,356.2951597473319
1050,1686275283.05,-30.762,-455.078,-21.973,-54.199,1988.947,356.78881667721623
1051,1686275283.05,-76.172,-248.047,-9.277,-81.055,1988.951,355.2779319382759
1052,1686275283.06,-51.27,-637.695,-230.469,-30.273,1988.955,354.7008851442008
1053,1686275283.06,16.113,-326.172,-38.086,2.93,1988.958,363.2495390761525
1054,1686275283.07,3.906,-16.113,89.355,-36.133,1988.962,363.59679566469487
1055,1686275283.07,-67.871,-457.031,-114.746,-84.473,1988.966,370.4164641309976
1056,1686275283.07,-66.406,-917.969,-394.043,-32.715,1988.998,360.511540141
1057,1686275283.08,-12.695,-1000.0,-406.25,31.738,1989.002,357.8404442110578
1058,1686275283.08,0.977,-340.82,7.812,-15.625,1989.005,362.13855161968553
1059,1686275283.08,-41.504,-101.562,35.156,-62.012,1989.009,359.74588516980657
1060,1686275283.09,-60.059,-357.91,-80.566,-34.18,1989.013,363.55986449306914
1061,1686275283.09,-6.348,-415.527,-47.852,22.461,1989.017,369.1857430923247
1062,1686275283.1,29.785,-341.309,6.348,24.414,1989.021,359.7884998591704
1063,1686275283.1,-15.137,-440.918,-81.543,-39.062,1989.025,359.1564190964346
1064,1686275283.1,-65.43,-885.742,-354.004,-44.922,1989.029,354.70632318604095
1065,1686275283.11,-17.09,-431.152,-39.062,7.324,1989.033,361.05644988216113
1066,1686275283.11,31.25,91.309,133.301,10.742,1989.037,360.4951203271568
1067,1686275283.12,-14.648,-203.125,-46.387,-44.922,1989.041,365.9997549158941
1068,1686275283.12,-68.848,-287.109,14.16,-77.148,1989.013,360.8255514282652
1069,1686275283.12,-41.016,3.418,105.469,-27.344,1989.017,361.7492995390606
1070,1686275283.12,20.996,30.762,75.684,21.973,1989.021,353.71655065314116
1071,1686275283.13,5.859,-300.781,-66.895,-19.531,1989.025,358.8649006883826
1072,1686275283.13,-58.105,-301.27,-26.855,-72.266,1989.029,359.5849569012051
1073,1686275283.14,-62.012,-370.117,-33.203,-39.062,1989.033,365.87490725433156
1074,1686275283.14,12.695,-470.215,-77.637,7.324,1989.037,365.8515412285995
1075,1686275283.14,29.297,-681.641,-225.586,-18.555,1989.041,362.1922295571103
1076,1686275283.15,-36.621,-697.266,-168.945,-64.941,1989.045,361.63196690318324
1077,1686275283.15,-49.316,-211.914,69.824,-52.246,1989.049,364.47229066592195
1078,1686275283.16,6.348,-100.586,59.082,5.371,1989.052,364.7655681780472
1079,1686275283.16,31.25,-651.855,-158.203,15.137,1989.056,356.97719708789964
1080,1686275283.18,-16.602,-444.336,-52.246,-54.199,1989.074,361.3300867700543
1081,1686275283.18,-67.871,-9.766,99.609,-76.66,1989.078,360.846835840568
1082,1686275283.19,-32.715,-126.465,39.062,-18.555,1989.082,366.5204951240788
1083,1686275283.19,16.602,-827.148,-299.316,19.043,1989.086,360.82809078586376
1084,1686275283.19,-14.648,-926.27,-300.293,-25.879,1989.09,354.7922414322425
1085,1686275283.2,-63.965,-480.469,-61.523,-83.984,1989.094,365.2500359384965
1086,1686275283.2,-48.828,-545.898,-118.652,-37.598,1989.097,368.18772905210517
1087,1686275283.2,8.789,-818.359,-266.602,28.32,1989.101,364.6175795667098
1088,1686275283.21,9.766,-67.871,66.406,-13.184,1989.117,361.6538079949312
1089,1686275283.21,1.953,-285.156,-20.02,-12.695,1989.105,364.6859976105173
1090,1686275283.21,-39.062,39.062,69.336,-66.895,1989.12,368.85191116197785
1091,1686275283.21,-59.57,104.004,95.703,-74.707,1989.109,361.90432682860086
1092,1686275283.22,-75.195,-426.758,-126.465,-57.617,1989.124,361.5150010323487
1093,1686275283.22,-71.777,-315.918,-83.496,-48.828,1989.113,367.70699094813415
1094,1686275283.22,-27.832,-545.41,-119.629,-12.207,1989.128,365.22366858118266
1095,1686275283.22,-15.625,-455.566,-60.547,5.859,1989.117,364.4529328928512
1096,1686275283.22,15.625,-34.18,91.309,-6.348,1989.132,363.1798432998806
1097,1686275283.23,-35.156,-319.336,-74.219,-52.734,1989.136,357.1306869543689
1098,1686275283.23,-75.684,-799.316,-282.227,-73.242,1989.14,374.09833792790823
1099,1686275283.23,-32.227,-413.086,-48.34,-30.762,1989.144,363.2370768586222
1100,1686275283.24,13.672,-7.812,110.352,-1.953,1989.148,372.2107133976376
1101,1686275283.24,-14.648,-78.613,35.645,-39.062,1989.152,367.03689642920915
1102,1686275283.25,-78.613,-774.414,-340.82,-62.012,1989.156,367.5285444999877
1103,1686275283.25,-76.66,-932.129,-307.617,-27.344,1989.16,368.32521708847986
1104,1686275283.27,-4.395,-161.133,95.703,0.0,1989.164,362.8964473491509
1105,1686275283.27,3.418,-178.711,-11.719,-22.949,1989.167,356.40909046011564
1106,1686275283.28,-61.035,-863.281,-334.473,-63.477,1989.171,357.36428017403756
1107,1686275283.28,-62.012,-467.773,-68.848,-57.617,1989.175,360.4452332321456
1108,1686275283.28,13.184,118.164,158.691,-12.695,1989.179,361.47083482614744
1109,1686275283.29,22.949,-354.98,-109.863,-22.461,1989.183,363.614878953096
1110,1686275283.29,-42.48,-788.574,-266.113,-68.848,1989.187,362.6051727782505
1111,1686275283.29,-71.777,-265.625,9.766,-80.566,1989.191,369.4106488744654
1112,1686275283.3,-20.996,97.168,116.699,-31.25,1989.195,368.8371058260349
1113,1686275283.3,15.137,-124.512,-14.648,-9.766,1989.199,371.1173698242358
1114,1686275283.31,-29.785,-305.176,-2.93,-56.152,1989.203,366.6513745449007
1115,1686275283.31,-77.637,-102.051,58.105,-89.844,1989.206,361.52800148033714
1116,1686275283.31,-50.293,-30.762,54.688,-47.852,1989.208,366.76506367722925
1117,1686275283.32,4.395,-279.785,-49.316,3.418,1989.212,355.44278936575995
1118,1686275283.32,-13.672,-382.324,-61.523,-37.109,1989.216,370.9275409708965
1119,1686275283.32,-65.43,-244.629,-4.883,-82.52,1989.22,367.3195171729003
1120,1686275283.33,-65.918,-340.82,-44.922,-49.805,1989.224,356.3561466399891
1121,1686275283.33,-18.066,-742.188,-207.52,2.441,1989.228,364.88209549733494
1122,1686275283.34,-11.719,-679.199,-154.785,-24.414,1989.232,366.7768522882802
1123,1686275283.34,-58.105,-160.645,64.453,-80.078,1989.236,363.3158273132863
1124,1686275283.34,-78.613,-169.434,-15.137,-65.43,1989.24,361.7122700749779
1125,1686275283.35,-33.691,-713.379,-269.531,-10.254,1989.244,362.2856317916923
1126,1686275283.35,-2.441,-682.617,-129.883,-18.066,1989.247,361.7301913822445
1127,1686275283.36,-44.434,-376.465,16.602,-83.496,1989.251,360.7569029387672
1128,1686275283.36,-76.66,-336.914,-25.879,-93.75,1989.253,369.6400835593858
1129,1686275283.36,-38.086,-754.395,-250.488,-25.391,1989.257,372.94544159772846
1130,1686275283.36,14.16,-394.043,-40.039,-5.371,1989.261,361.64200813842916
1131,1686275283.37,-14.16,84.961,130.371,-46.875,1989.265,364.9895601441855
1132,1686275283.37,-71.289,-232.422,-50.293,-69.336,1989.269,362.2296361125317
1133,1686275283.38,-55.176,-544.434,-119.141,-35.156,1989.273,354.3977338815524
1134,1686275283.38,5.859,-517.578,-54.199,10.742,1989.277,361.046188669585
1135,1686275283.38,-1.953,-286.133,23.926,-30.273,1989.281,368.7940132170516
1136,1686275283.39,-57.129,-326.66,-79.102,-79.102,1989.285,369.43747935882277
1137,1686275283.39,-68.359,-875.977,-363.281,-37.109,1989.289,354.47525069769233
1138,1686275283.4,-12.207,-452.148,-37.598,3.906,1989.292,364.99980470337186
1139,1686275283.4,14.16,26.855,127.441,-19.043,1989.296,364.6267481306348
1140,1686275283.4,-39.062,-292.969,-82.52,-63.965,1989.299,358.5102056279592
1141,1686275283.41,-69.336,-275.879,6.836,-66.895,1989.303,370.0385705167404
1142,1686275283.41,-13.672,11.719,90.332,-12.695,1989.307,356.8180354514461
1143,1686275283.42,13.672,5.859,40.527,-5.859,1989.311,366.93995750741317
1144,1686275283.42,-32.715,-371.094,-115.723,-62.988,1989.315,357.13729725899304
1145,1686275283.42,-76.172,-622.559,-197.266,-80.078,1989.319,368.93317468239223
1146,1686275283.43,-39.551,-505.859,-134.277,-26.855,1989.323,356.1683606578263
1147,1686275283.43,20.508,-176.27,23.926,-0.977,1989.327,361.96121599005704
1148,1686275283.43,-17.09,-672.363,-289.551,-47.852,1989.331,374.7196370552545
1149,1686275283.44,-79.59,-892.09,-300.293,-95.703,1989.335,365.70498145442565
1150,1686275283.44,-55.176,-369.141,23.926,-69.824,1989.338,364.4243903107201
1151,1686275283.45,7.812,-403.32,-35.645,-6.836,1989.342,365.90742176435595
1152,1686275283.45,-0.488,-874.023,-320.312,-11.719,1989.344,363.91163244679285
1153,1686275283.45,-51.27,-687.012,-206.543,-77.148,1989.348,367.53786329984683
1154,1686275283.46,-54.199,-97.656,85.449,-65.918,1989.352,363.6825931857046
1155,1686275283.46,4.883,-93.75,27.832,-2.441,1989.356,366.27408349731695
1156,1686275283.46,27.832,-230.469,-41.992,-10.742,1989.36,361.4519698179494
1157,1686275283.47,-39.062,-422.363,-63.965,-72.266,1989.364,372.0899780853592
1158,1686275283.47,-83.008,-393.555,-20.508,-76.172,1989.368,354.8432662380533
1159,1686275283.48,-36.621,-274.902,-45.41,-13.672,1989.371,364.06372188210787
1160,1686275283.48,-1.465,-759.766,-266.602,5.371,1989.375,377.51576705802967
1161,1686275283.48,-30.273,-363.281,-21.484,-54.688,1989.379,359.49524880198436
1162,1686275283.49,-72.754,21.484,101.074,-82.52,1989.383,366.79508792325623
1163,1686275283.49,-40.039,-360.352,-68.359,-23.438,1989.387,359.02116926872765
1164,1686275283.49,20.996,-444.336,-38.574,19.043,1989.403,357.1650530187463
1165,1686275283.5,0.488,-91.797,57.129,-32.715,1989.407,366.67090740908435
1166,1686275283.5,-57.129,-56.152,24.902,-80.566,1989.411,359.64108659535196
1167,1686275283.5,-45.41,-479.98,-121.094,-36.133,1989.415,367.08077433727044
1168,1686275283.51,1.953,-490.234,-46.875,15.625,1989.419,363.4931040865699
1169,1686275283.51,-4.395,-347.656,-39.551,-9.766,1989.423,366.1441564235822
1170,1686275283.52,-42.969,-540.527,-189.941,-65.918,1989.426,371.31237732811223
1171,1686275283.52,-60.059,-824.707,-371.094,-49.316,1989.43,371.03587682464035
1172,1686275283.52,-15.137,-768.555,-241.211,9.277,1989.434,360.8519015307899
1173,1686275283.53,15.625,-166.016,73.242,-9.766,1989.438,366.732714053432
1174,1686275283.53,-36.621,-187.012,-34.18,-59.082,1989.442,359.28357796584106
1175,1686275283.54,-88.379,-796.875,-293.945,-47.852,1989.446,359.7160199085108
1176,1686275283.55,-34.668,-396.973,-29.297,-4.395,1989.461,372.21624075015745
1177,1686275283.56,25.391,104.98,153.809,11.719,1989.465,359.47073819985155
1178,1686275283.56,-14.648,-300.293,-112.793,-36.621,1989.469,364.02205312477747
1179,1686275283.57,-82.52,-828.125,-322.754,-60.547,1989.473,357.61532620863835
1180,1686275283.57,-46.875,-390.625,-34.668,-18.555,1989.477,364.7651693580656
1181,1686275283.57,22.461,-225.586,36.133,18.555,1989.481,362.89301125195084
1182,1686275283.58,1.465,-562.012,-116.699,-14.16,1989.485,361.42285199227786
1183,1686275283.58,-58.105,-560.059,-92.773,-67.383,1989.489,374.01706660463486
1184,1686275283.58,-55.176,-199.219,40.527,-43.945,1989.493,356.08037965395357
1185,1686275283.59,3.906,41.016,80.078,14.16,1989.497,371.0025246903744
1186,1686275283.59,0.977,-291.016,-104.004,3.906,1989.501,356.2431406844279
1187,1686275283.6,-62.5,-727.051,-189.941,-44.434,1989.504,364.25964016809354
1188,1686275283.6,-74.219,-319.336,20.996,-44.434,1989.494,364.42179933825287
1189,1686275283.6,-17.09,-46.875,75.684,3.906,1989.497,363.949176287648
1190,1686275283.6,10.742,-333.008,-63.477,8.301,1989.501,369.3159821497251
1191,1686275283.61,-41.016,-318.359,-38.574,-46.387,1989.505,370.1173759912194
1192,1686275283.61,-66.406,-201.172,3.418,-55.176,1989.509,366.2771322067877
1193,1686275283.62,-24.902,-430.664,-68.359,-9.277,1989.513,362.36747053391383
1194,1686275283.62,3.418,-683.594,-174.316,-1.953,1989.517,352.9650608631742
1195,1686275283.62,-34.668,-499.512,-125.488,-59.57,1989.521,368.3038762249405
1196,1686275283.63,-76.172,-160.156,14.648,-87.891,1989.525,353.1831253567184
1197,1686275283.63,-43.945,-188.477,6.836,-35.156,1989.529,354.8272375946212
1198,1686275283.64,-0.977,-785.645,-335.938,14.16,1989.533,367.3149066107349
1199,1686275283.64,-28.809,-974.609,-336.914,-25.879,1989.537,360.94678774648287
1200,1686275283.66,-71.289,-291.992,50.781,-86.426,1989.553,361.7492220156707
1201,1686275283.66,-60.059,-204.59,-9.277,-55.176,1989.557,358.17833483344737
1202,1686275283.66,-10.742,-843.262,-310.059,5.859,1989.561,361.65026070679176
1203,1686275283.67,-1.465,-434.082,-53.711,-20.508,1989.565,364.62329307394145
1204,1686275283.67,8.789,12.695,81.055,-50.293,1989.599,365.3795578405024
1205,1686275283.67,-47.852,13.184,83.496,-80.078,1989.569,366.30546593873464
1206,1686275283.68,-58.105,-331.055,-86.914,-78.125,1989.603,364.60133410905223
1207,1686275283.68,-63.965,-488.281,-140.625,-61.035,1989.573,356.39998054809814
1208,1686275283.68,-45.898,-292.48,5.371,-37.109,1989.607,364.3476902400261
1209,1686275283.68,-5.371,-605.469,-72.266,-1.465,1989.577,366.41627991693065
1210,1686275283.68,28.32,-292.48,33.691,-9.277,1989.581,375.28902126560314
1211,1686275283.68,24.902,-12.207,89.844,0.488,1989.61,352.958548419158
1212,1686275283.69,-17.09,-176.27,53.711,-75.195,1989.585,357.4343513480007
1213,1686275283.69,21.484,-25.879,24.414,-26.855,1989.614,367.18461186034835
1214,1686275283.69,-62.012,-332.031,-99.121,-80.566,1989.589,369.302872046349
1215,1686275283.69,-40.039,-493.164,-191.406,-69.336,1989.618,363.21032298802345
1216,1686275283.7,-27.344,-876.953,-354.004,3.418,1989.592,372.71964268604074
1217,1686275283.7,-50.293,-612.793,-181.641,-46.875,1989.622,361.94455821209
1218,1686275283.7,9.766,-92.285,87.891,1.465,1989.626,354.4776847562473
1219,1686275283.7,37.598,-409.668,-45.898,18.066,1989.596,361.1506053216387
1220,1686275283.7,25.879,-27.344,44.434,-13.184,1989.63,351.72078580015113
1221,1686275283.71,-38.574,-693.359,-276.367,-61.523,1989.634,360.2702911910507
1222,1686275283.71,-75.684,-759.277,-245.605,-62.988,1989.638,368.61128217508065
1223,1686275283.72,-25.879,-505.859,-119.141,-8.301,1989.642,353.5408578579552
1224,1686275283.73,13.672,-478.516,-64.941,-3.418,1989.629,355.44270445250584
1225,1686275283.74,-38.086,-852.051,-355.469,-48.34,1989.633,355.19480240347514
1226,1686275283.74,-91.309,-1000.0,-506.836,-65.918,1989.637,361.4357637190424
1227,1686275283.74,-46.387,-298.34,4.395,-36.621,1989.641,367.7848728485196
1228,1686275283.75,22.461,-36.133,66.895,-6.348,1989.644,362.50797557173024
1229,1686275283.75,0.977,-552.734,-139.16,-41.504,1989.648,360.4542283440184
1230,1686275283.76,-51.27,-426.27,-15.625,-83.984,1989.652,360.31762523562685
1231,1686275283.76,-40.527,-20.02,70.801,-46.387,1989.656,355.73359974911654
1232,1686275283.76,12.695,-129.883,2.93,8.301,1989.66,362.17928190915154
1233,1686275283.77,13.184,-310.547,-45.41,-19.531,1989.664,371.62441263703954
1234,1686275283.77,-47.852,-72.266,48.828,-75.195,1989.668,361.062362646421
1235,1686275283.78,-63.965,43.457,86.426,-59.082,1989.672,361.52681974078274
1236,1686275283.78,-20.996,-345.703,-92.773,-0.977,1989.674,364.81096352844025
1237,1686275283.78,-2.93,-922.852,-346.68,13.672,1989.678,360.1192802991332
1238,1686275283.79,-38.574,-461.426,-65.918,-55.664,1989.682,361.2843940539198
1239,1686275283.79,-61.035,-28.32,69.824,-72.754,1989.686,367.35635652594533
1240,1686275283.79,-18.555,-333.984,-126.465,-8.789,1989.69,356.0918786350646
1241,1686275283.8,17.578,-541.992,-148.438,4.883,1989.694,359.7157637068404
1242,1686275283.8,-11.23,-356.445,-14.16,-47.363,1989.697,364.5077880160615
1243,1686275283.8,-62.5,-95.215,48.34,-72.754,1989.701,360.59893959782147
1244,1686275283.81,-50.293,-643.555,-255.859,-17.578,1989.705,363.792640007296
1245,1686275283.81,9.766,-611.328,-160.645,17.578,1989.709,365.5636170941892
1246,1686275283.82,1.953,-82.031,83.496,-40.527,1989.713,368.5401801441368
1247,1686275283.82,-52.246,-453.125,-152.832,-86.914,1989.717,367.78207581066596
1248,1686275283.82,-56.641,-879.883,-334.961,-41.016,1989.719,370.1245696126518
1249,1686275283.83,-0.488,-388.184,-15.137,3.418,1989.723,364.81708817077157
1250,1686275283.83,7.812,22.949,90.82,-20.02,1989.726,363.6352013616718
1251,1686275283.83,-48.828,-401.367,-121.094,-62.988,1989.73,368.6449126806588
1252,1686275283.84,-72.754,-662.598,-106.445,-45.41,1989.734,360.70699961806037
1253,1686275283.84,-21.484,-462.891,-31.738,3.906,1989.738,363.3395130196279
1254,1686275283.85,17.09,-241.699,20.508,-10.742,1989.742,361.8274053946992
1255,1686275283.85,-31.738,-302.246,-74.707,-63.965,1989.746,362.2955848152029
1256,1686275283.85,-75.195,-805.176,-296.875,-58.594,1989.75,360.03465363680556
1257,1686275283.86,-27.832,-304.199,11.23,-17.09,1989.754,357.3716358558119
1258,1686275283.86,21.484,167.48,140.137,7.812,1989.758,362.0723130789201
1259,1686275283.86,-13.672,-188.965,-46.875,-28.809,1989.762,363.9059072150646
1260,1686275283.87,-70.312,-337.891,-32.227,-65.918,1989.764,354.0917965908157
1261,1686275283.87,-47.852,-59.082,66.406,-34.18,1989.768,367.479086474349
1262,1686275283.88,10.254,-11.719,50.293,-2.93,1989.772,365.4344091694534
1263,1686275283.88,-8.301,-330.566,-73.242,-47.852,1989.776,359.0535687818284
1264,1686275283.88,-63.477,-363.77,-56.152,-102.539,1989.779,362.0130084497946
1265,1686275283.89,-60.547,-482.422,-120.605,-61.523,1989.783,363.23015369349605
1266,1686275283.89,-12.695,-536.133,-90.332,-5.371,1989.787,368.49179525379566
1267,1686275283.89,-8.301,-802.246,-276.855,-19.531,1989.791,357.6912425681216
1268,1686275283.9,-60.547,-899.414,-308.105,-68.359,1989.795,358.81652663702477
1269,1686275283.9,-69.824,-200.195,57.617,-75.195,1989.799,363.3095420849586
1270,1686275283.91,0.488,-130.859,32.227,-13.672,1989.803,358.9358746626405
1271,1686275283.91,24.902,-640.137,-146.484,-6.348,1989.807,354.7256032524543
1272,1686275283.93,-27.344,-391.113,-37.109,-72.754,1989.824,365.40294585627237
1273,1686275283.93,-73.242,16.113,77.637,-86.914,1989.828,371.52281794314854
1274,1686275283.94,-44.434,-190.918,-8.789,-36.621,1989.832,355.8904357406878
1275,1686275283.94,13.184,-624.023,-121.094,-5.371,1989.836,360.7108693433886
1276,1686275283.94,-7.812,-302.246,0.488,-43.457,1989.84,358.77633406241813
1277,1686275283.95,-69.824,-317.383,-67.383,-81.543,1989.844,358.5306096540415
1278,1686275283.95,-52.246,-641.113,-214.355,-33.691,1989.847,357.1952439200162
1279,1686275283.96,10.742,-817.871,-305.176,26.367,1989.851,345.7786089759173
1280,1686275283.96,18.555,-107.91,61.523,-8.789,1989.853,366.45711635670295
1281,1686275283.96,16.113,-578.613,-115.723,-14.16,1989.855,367.1239515990079
1282,1686275283.96,-41.992,-11.719,41.016,-77.637,1989.857,365.4932330975927
1283,1686275283.96,-34.668,-336.914,-31.738,-64.453,1989.859,361.94785672200896
1284,1686275283.97,-81.543,-391.602,-125.488,-76.66,1989.861,356.0496316480577
1285,1686275283.97,-58.105,-426.27,-116.699,-45.898,1989.863,362.5328486094169
1286,1686275283.97,-24.414,-284.18,-16.602,-0.488,1989.865,363.3931477633535
1287,1686275283.97,-6.836,-513.184,-77.637,2.93,1989.867,360.17333663430685
1288,1686275283.97,22.461,-14.16,90.332,22.949,1989.869,363.31970012932635
1289,1686275283.98,-23.926,-453.125,-142.09,-47.363,1989.873,358.9479517084698
1290,1686275283.98,-78.125,-734.863,-239.746,-83.496,1989.877,362.7999829880717
1291,1686275283.98,-37.598,-311.523,-10.742,-32.715,1989.881,352.5918367396021
1292,1686275283.99,39.551,-11.23,83.008,3.906,1989.885,364.9431113033587
1293,1686275283.99,22.949,-106.934,33.691,-29.297,1989.889,358.6798558569849
1294,1686275284.0,-51.758,-755.371,-334.473,-50.781,1989.892,356.38648870273335
1295,1686275284.0,-47.363,-951.172,-334.961,-6.348,1989.896,359.3583354239418
