,timestamps,TP9,AF7,AF8,TP10,Secondary Timestamp,emg_signal
0,1685506803.079,27.344,244.141,97.168,-19.043,1529.976,335
1,1685506803.083,27.344,69.336,-2.93,-25.879,1529.98,335
2,1685506803.087,-16.602,151.367,36.621,-38.574,1529.984,335
3,1685506803.091,-43.945,96.68,6.348,-33.691,1529.987,335
4,1685506803.095,-13.184,-209.473,-122.559,-15.625,1529.991,334
5,1685506803.099,25.879,-735.352,-290.527,-4.883,1529.995,334
6,1685506803.103,-3.906,-477.539,-32.715,-16.113,1529.999,334
7,1685506803.106,-46.875,164.062,142.578,-26.855,1530.003,330
8,1685506803.11,-24.414,-59.082,-20.02,-26.855,1530.007,330
9,1685506803.114,18.555,-284.668,1.953,-19.043,1530.011,330
10,1685506803.118,-1.953,161.621,114.746,-25.879,1530.015,328
11,1685506803.122,-44.922,321.289,93.75,-39.551,1530.019,328
12,1685506803.125,-42.969,-203.613,-191.406,-43.945,1530.022,328
13,1685506803.129,7.812,-498.047,-146.973,-30.273,1530.026,328
14,1685506803.133,44.434,-158.691,107.91,-23.926,1530.03,331
15,1685506803.136,1.465,-95.215,14.648,-39.062,1530.034,331
16,1685506803.14,-39.062,-413.086,-148.438,-35.156,1530.038,331
17,1685506803.144,-8.301,-128.418,61.523,-8.301,1530.041,331
18,1685506803.148,18.555,364.258,185.547,3.418,1530.045,335
19,1685506803.152,-14.648,353.516,64.453,-15.137,1530.049,335
20,1685506803.154,-59.57,-511.719,-359.375,-19.043,1530.051,335
21,1685506803.158,-49.316,-777.832,-208.496,-13.672,1530.055,337
22,1685506803.162,4.395,231.445,265.137,-13.184,1530.059,337
23,1685506803.166,-4.883,333.984,71.777,-21.484,1530.063,337
24,1685506803.17,-53.711,-114.746,-59.57,-45.41,1530.067,337
25,1685506803.174,-41.504,-250.0,-23.926,-24.414,1530.07,335
26,1685506803.178,-1.953,23.926,116.699,-8.301,1530.074,335
27,1685506803.181,2.93,213.867,74.707,-26.855,1530.078,335
28,1685506803.185,-41.992,-695.801,-328.613,-33.691,1530.082,335
29,1685506803.189,-63.965,-600.098,-82.031,-29.785,1530.086,331
30,1685506803.193,-9.766,270.02,229.492,-21.973,1530.09,331
31,1685506803.197,26.855,258.789,38.086,-27.832,1530.094,331
32,1685506803.199,-20.02,-266.113,-107.422,-35.156,1530.11,331
33,1685506803.203,-61.523,-350.098,-94.727,-28.32,1530.114,330
34,1685506803.207,-33.203,159.18,97.656,-24.414,1530.118,330
35,1685506803.211,3.418,92.773,20.508,-14.648,1530.122,330
36,1685506803.215,-15.625,-328.613,-83.008,-14.648,1530.126,334
37,1685506803.219,-54.688,-243.652,-14.648,-20.508,1530.129,334
38,1685506803.223,-43.945,-191.895,-53.223,-17.09,1530.133,334
39,1685506803.226,-4.395,-367.188,-60.547,-4.883,1530.137,334
40,1685506803.23,-19.043,-459.961,-24.902,-5.859,1530.141,339
41,1685506803.234,-72.266,165.039,152.344,-30.762,1530.145,339
42,1685506803.238,-70.801,225.098,66.895,-24.902,1530.149,339
43,1685506803.242,-15.625,-163.086,-35.156,0.977,1530.153,339
44,1685506803.244,-2.441,107.91,85.938,-3.906,1530.14,339
45,1685506803.248,-46.875,416.992,137.207,-25.879,1530.144,339
46,1685506803.252,-58.105,170.898,12.695,-11.23,1530.148,339
47,1685506803.256,-19.531,-441.895,-251.953,9.277,1530.152,336
48,1685506803.26,10.742,-84.961,23.926,-0.488,1530.155,336
49,1685506803.264,-20.508,143.066,90.82,-25.391,1530.159,336
50,1685506803.268,-62.012,-340.82,-195.801,-31.25,1530.163,333
51,1685506803.271,-27.344,-343.75,-78.613,-15.625,1530.167,333
52,1685506803.275,25.391,166.504,149.414,-18.555,1530.171,333
53,1685506803.279,-6.836,459.961,142.578,-37.109,1530.175,333
54,1685506803.283,-59.57,19.043,-102.051,-45.41,1530.179,333
55,1685506803.287,-42.969,-527.344,-145.996,-32.227,1530.183,333
56,1685506803.29,14.16,-32.715,93.75,-19.043,1530.186,333
57,1685506803.294,14.648,88.867,57.129,-19.043,1530.19,333
58,1685506803.298,-48.34,-373.535,-160.645,-29.785,1530.194,337
59,1685506803.302,-72.754,-791.504,-269.531,-27.832,1530.198,337
60,1685506803.306,-25.879,-78.613,130.859,-19.531,1530.202,337
61,1685506803.31,-8.789,283.691,171.875,-27.832,1530.206,341
62,1685506803.314,-44.434,-409.18,-148.438,-35.156,1530.21,341
63,1685506803.317,-52.734,-628.906,-104.492,-33.203,1530.214,341
64,1685506803.321,-20.996,158.203,203.613,-31.25,1530.218,341
65,1685506803.325,-2.93,481.445,178.223,-24.414,1530.222,340
66,1685506803.329,-21.973,47.363,-42.969,-25.391,1530.226,340
67,1685506803.333,-52.246,5.371,-20.02,-32.715,1530.229,340
68,1685506803.334,-28.32,331.543,127.441,-27.344,1530.259,340
69,1685506803.338,13.184,379.395,84.473,-23.926,1530.263,335
70,1685506803.342,-9.766,20.02,-53.223,-35.156,1530.267,335
71,1685506803.346,-59.082,52.734,-5.371,-35.645,1530.271,335
72,1685506803.35,-45.898,107.91,19.531,-24.414,1530.275,332
73,1685506803.354,0.488,-133.301,-51.758,-11.719,1530.279,332
74,1685506803.358,-15.137,-775.879,-312.988,-15.137,1530.283,332
75,1685506803.361,-54.688,-629.883,-132.812,-31.25,1530.287,332
76,1685506803.365,-43.945,87.891,136.23,-32.715,1530.291,332
77,1685506803.369,0.0,83.496,85.449,-16.113,1530.295,333
78,1685506803.373,9.277,58.594,135.254,-9.277,1530.298,333
79,1685506803.377,-27.344,254.395,111.328,-23.926,1530.302,333
80,1685506803.379,-48.34,208.008,34.668,-37.109,1530.305,337
81,1685506803.383,-23.438,-261.719,-124.023,-20.508,1530.309,337
82,1685506803.387,5.371,-474.609,-60.059,-12.207,1530.313,337
83,1685506803.391,-5.859,129.883,135.254,-16.113,1530.316,337
84,1685506803.395,-44.434,263.672,31.738,-19.043,1530.32,339
85,1685506803.399,-27.344,-266.602,-164.062,-19.531,1530.324,339
86,1685506803.403,5.371,-364.746,-20.996,-14.16,1530.328,339
87,1685506803.406,-23.926,-20.996,65.918,-24.902,1530.332,339
88,1685506803.41,-56.641,49.805,17.09,-34.18,1530.336,338
89,1685506803.414,-50.781,-254.883,-121.094,-28.32,1530.34,338
90,1685506803.418,-14.16,-90.82,15.137,-27.344,1530.344,338
91,1685506803.422,-2.93,358.887,168.457,-37.109,1530.348,333
92,1685506803.439,-45.41,211.914,-9.766,-46.875,1530.336,331
93,1685506803.443,-78.613,-588.379,-330.566,-45.898,1530.34,331
94,1685506803.447,-31.25,-414.551,-6.348,-33.203,1530.344,331
95,1685506803.451,5.859,410.156,245.605,-31.738,1530.347,333
96,1685506803.455,-33.691,184.082,-22.461,-43.457,1530.351,333
97,1685506803.459,-60.059,-480.469,-196.289,-40.039,1530.355,333
98,1685506803.463,-21.973,-270.508,6.348,-26.367,1530.359,337
99,1685506803.466,25.879,355.469,193.848,-18.066,1530.363,337
100,1685506803.47,0.0,179.688,-1.465,-20.508,1530.367,337
101,1685506803.474,-44.922,-401.855,-173.34,-27.344,1530.371,337
102,1685506803.478,-15.625,-308.594,-47.852,-12.695,1530.375,339
103,1685506803.482,28.809,261.719,166.016,-5.371,1530.379,339
104,1685506803.484,6.348,164.551,-5.371,-27.832,1530.393,339
105,1685506803.488,-53.223,-872.07,-448.242,-26.367,1530.397,339
106,1685506803.492,-53.711,-733.398,-133.789,-23.438,1530.401,336
107,1685506803.496,5.371,216.309,240.723,-33.691,1530.405,336
108,1685506803.5,19.043,185.059,61.035,-22.949,1530.409,336
109,1685506803.504,-27.344,-211.426,-32.227,-24.902,1530.413,332
110,1685506803.508,-48.828,-190.43,9.766,-37.598,1530.417,332
111,1685506803.511,-2.441,267.09,156.738,-20.508,1530.421,332
112,1685506803.515,12.207,-61.523,-69.336,-18.066,1530.425,332
113,1685506803.519,-20.02,-465.82,-118.164,-30.273,1530.429,331
114,1685506803.523,-42.48,111.328,133.789,-38.574,1530.432,331
115,1685506803.527,-24.902,224.609,64.941,-31.25,1530.436,331
116,1685506803.544,10.742,-104.98,-41.504,-11.719,1530.441,335
117,1685506803.548,-14.648,51.27,62.5,-17.578,1530.445,339
118,1685506803.552,-62.012,267.09,96.191,-28.809,1530.448,339
119,1685506803.556,-43.945,131.836,19.531,-24.414,1530.452,339
120,1685506803.56,11.719,-229.004,-90.332,-8.789,1530.456,340
121,1685506803.564,3.418,-249.023,-26.855,-17.09,1530.46,340
122,1685506803.568,-49.316,-49.316,41.504,-28.32,1530.464,340
123,1685506803.571,-51.758,-30.762,-13.184,-20.508,1530.468,336
124,1685506803.574,-20.02,-51.27,-20.02,-10.254,1530.47,336
125,1685506803.575,0.488,-647.949,-220.703,-8.789,1530.472,336
126,1685506803.578,14.648,13.672,45.898,-4.395,1530.474,336
127,1685506803.579,12.695,-169.434,40.039,-14.16,1530.476,336
128,1685506803.582,-23.926,166.016,79.59,-11.23,1530.478,336
129,1685506803.583,-38.086,382.324,163.574,-27.344,1530.48,336
130,1685506803.586,-62.012,-227.051,-171.387,-13.184,1530.482,336
131,1685506803.587,-68.848,41.992,-38.574,-25.391,1530.484,336
132,1685506803.59,-35.645,-800.293,-240.723,-0.488,1530.486,333
133,1685506803.594,1.465,-288.086,114.258,-1.953,1530.49,333
134,1685506803.598,-7.812,47.852,76.172,-12.207,1530.494,333
135,1685506803.601,-59.57,-367.676,-100.586,-23.438,1530.498,332
136,1685506803.605,-62.012,-300.293,68.359,-19.531,1530.502,332
137,1685506803.609,-5.371,341.309,234.863,-8.789,1530.506,332
138,1685506803.613,0.488,482.422,140.137,-13.672,1530.51,335
139,1685506803.617,-50.781,-332.031,-277.344,-21.973,1530.513,335
140,1685506803.636,-59.082,-564.941,-182.129,-22.949,1530.533,338
141,1685506803.64,10.254,311.035,237.305,-8.301,1530.536,338
142,1685506803.644,30.762,416.992,109.863,-1.953,1530.54,337
143,1685506803.648,-24.902,7.324,-24.902,-22.461,1530.544,337
144,1685506803.652,-47.363,38.086,13.184,-32.227,1530.548,337
145,1685506803.656,-14.648,18.066,32.227,-20.996,1530.552,332
146,1685506803.66,17.578,-133.789,-10.742,-18.555,1530.556,332
147,1685506803.663,-15.137,-775.391,-299.805,-16.113,1530.56,332
148,1685506803.664,-68.848,179.688,52.734,-57.129,1530.59,332
149,1685506803.667,-60.547,-578.613,-122.559,-21.973,1530.564,332
150,1685506803.668,-69.336,-62.988,-91.797,-51.27,1530.593,332
151,1685506803.671,-30.273,202.148,177.734,-27.832,1530.568,328
152,1685506803.672,-15.625,-187.988,-16.602,-41.016,1530.597,328
153,1685506803.675,9.277,200.195,105.957,-32.227,1530.572,328
154,1685506803.676,-5.859,-28.809,134.766,-40.039,1530.601,328
155,1685506803.679,-16.113,182.129,129.883,-45.898,1530.575,328
156,1685506803.68,-53.711,233.887,74.707,-56.152,1530.605,328
157,1685506803.684,-63.965,-71.777,-147.949,-56.152,1530.609,328
158,1685506803.688,-18.066,-322.754,-123.535,-34.18,1530.613,328
159,1685506803.691,-0.977,-19.531,69.824,-34.668,1530.617,328
160,1685506803.695,-46.875,15.625,29.297,-47.363,1530.621,328
161,1685506803.699,-67.383,83.008,79.59,-52.246,1530.625,331
162,1685506803.703,-23.438,-314.941,-170.41,-34.18,1530.629,331
163,1685506803.707,5.859,-1000.0,-368.164,-17.578,1530.632,331
164,1685506803.709,-27.344,-330.566,80.078,-41.504,1530.62,331
165,1685506803.713,-66.895,162.598,122.07,-48.34,1530.624,334
166,1685506803.717,-48.34,-90.82,-0.977,-35.645,1530.628,334
167,1685506803.721,0.0,271.973,154.785,-28.32,1530.632,334
168,1685506803.725,-11.23,482.91,135.254,-36.621,1530.636,331
169,1685506803.729,-62.5,-162.109,-207.031,-49.805,1530.64,331
170,1685506803.733,-63.477,-828.613,-370.605,-42.969,1530.644,331
171,1685506803.736,-7.812,-158.203,74.707,-29.785,1530.647,331
172,1685506803.74,8.789,534.18,217.773,-29.785,1530.651,326
173,1685506803.744,-44.922,191.895,-73.73,-45.41,1530.655,326
174,1685506803.748,-53.223,-388.184,-160.645,-48.34,1530.659,326
175,1685506803.752,2.93,-162.109,64.941,-26.855,1530.663,324
176,1685506803.77,23.926,331.055,162.598,-26.855,1530.668,327
177,1685506803.774,-37.109,-104.98,-114.746,-41.016,1530.672,327
178,1685506803.778,-81.055,-914.551,-378.418,-34.668,1530.676,327
179,1685506803.782,-37.598,-401.855,89.844,-27.832,1530.68,331
180,1685506803.786,9.766,452.148,269.531,-22.461,1530.683,331
181,1685506803.79,-13.184,4.395,-36.621,-34.18,1530.687,331
182,1685506803.794,-56.641,-300.781,-16.113,-54.688,1530.691,334
183,1685506803.797,-34.18,212.402,166.504,-38.086,1530.695,334
184,1685506803.801,14.16,479.98,152.832,-20.02,1530.699,334
185,1685506803.802,-3.418,294.434,42.48,-16.602,1530.71,334
186,1685506803.805,-4.395,-31.738,-111.328,-24.902,1530.703,332
187,1685506803.806,25.879,-43.945,-66.895,-3.906,1530.713,332
188,1685506803.809,-41.016,-258.789,-44.434,-33.691,1530.707,332
189,1685506803.81,5.859,53.223,41.016,6.836,1530.717,332
190,1685506803.813,-35.156,267.09,155.273,-26.367,1530.711,332
191,1685506803.814,-41.016,268.066,91.797,-14.648,1530.721,332
192,1685506803.818,-26.855,133.301,7.812,-23.438,1530.725,332
193,1685506803.822,-5.859,-297.852,-89.844,-23.438,1530.729,328
194,1685506803.826,-46.387,-232.422,-17.09,-27.344,1530.733,328
195,1685506803.829,-88.379,177.734,98.145,-35.645,1530.737,328
196,1685506803.833,-61.523,112.305,5.859,-32.227,1530.741,330
197,1685506803.837,-35.156,-717.773,-265.625,-20.996,1530.745,330
198,1685506803.841,-52.246,-480.957,0.977,-35.156,1530.749,330
199,1685506803.845,-73.242,229.98,155.762,-36.133,1530.753,337
200,1685506803.859,-68.359,-0.977,-43.945,-35.156,1530.755,337
201,1685506803.863,-30.762,-231.445,-52.246,-31.25,1530.759,346
202,1685506803.867,-33.691,126.465,125.488,-29.785,1530.763,346
203,1685506803.871,-79.102,297.363,89.844,-44.434,1530.767,346
204,1685506803.875,-75.195,-239.258,-217.285,-38.086,1530.771,353
205,1685506803.879,-26.367,-930.176,-322.754,-11.23,1530.775,353
206,1685506803.883,-6.836,-273.438,125.488,-13.184,1530.779,353
207,1685506803.886,-42.969,390.137,187.988,-32.227,1530.783,353
208,1685506803.89,-76.66,-245.605,-124.023,-32.715,1530.787,358
209,1685506803.894,-39.551,-187.012,45.898,-13.672,1530.791,358
210,1685506803.898,7.812,482.91,242.188,-11.23,1530.794,358
211,1685506803.902,-13.672,375.0,61.035,-20.996,1530.798,358
212,1685506803.906,-61.035,-131.836,-181.641,-27.344,1530.803,364
213,1685506803.91,-45.898,4.883,-13.672,-22.461,1530.807,364
214,1685506803.914,7.812,435.059,174.805,-15.625,1530.811,364
215,1685506803.918,-3.418,300.293,29.297,-25.391,1530.815,373
216,1685506803.922,-49.805,-102.539,-96.191,-28.32,1530.819,373
217,1685506803.926,-40.527,-253.906,-83.496,-17.578,1530.823,373
218,1685506803.93,9.277,-139.648,61.035,-15.625,1530.827,373
219,1685506803.933,6.836,-108.887,23.438,-25.391,1530.83,385
220,1685506803.937,-44.434,-764.16,-298.34,-23.438,1530.834,385
221,1685506803.941,-52.246,-469.238,5.859,-21.484,1530.838,385
222,1685506803.945,5.859,288.574,223.633,-8.789,1530.842,395
223,1685506803.949,27.832,156.738,23.926,1.953,1530.846,395
224,1685506803.979,-24.902,-308.105,-90.82,-14.16,1530.876,402
225,1685506803.983,-62.988,-311.035,8.789,-21.973,1530.879,402
226,1685506803.987,-30.273,128.418,129.395,-19.043,1530.883,402
227,1685506803.991,13.184,108.887,62.012,-21.484,1530.887,402
228,1685506803.994,23.926,136.719,95.703,-11.23,1530.891,402
229,1685506803.995,-6.836,-50.781,54.688,-23.438,1530.891,402
230,1685506803.998,-22.949,427.734,132.812,-28.809,1530.895,405
231,1685506803.999,-47.363,-166.992,-24.414,-27.344,1530.895,405
232,1685506804.002,-60.547,163.574,17.578,-41.504,1530.898,405
233,1685506804.003,-23.438,-128.906,15.625,-14.16,1530.899,405
234,1685506804.006,23.438,-193.359,-9.277,-0.488,1530.903,405
235,1685506804.006,-35.645,-283.203,-140.625,-36.133,1530.902,405
236,1685506804.01,-7.812,-899.902,-307.617,-20.508,1530.907,405
237,1685506804.01,4.395,123.047,59.082,-27.344,1530.906,405
238,1685506804.014,-55.664,-494.629,16.113,-42.48,1530.911,409
239,1685506804.014,-25.391,150.391,7.812,-36.621,1530.91,409
240,1685506804.018,-51.27,176.758,215.82,-39.551,1530.915,409
241,1685506804.018,-61.523,-375.0,-237.305,-38.086,1530.914,409
242,1685506804.021,-21.973,-309.082,-51.758,-15.137,1530.918,409
243,1685506804.022,-1.953,-68.848,-19.043,-20.508,1530.919,409
244,1685506804.025,23.438,262.207,164.551,-4.883,1530.922,409
245,1685506804.029,3.906,439.453,116.211,-11.23,1530.926,409
246,1685506804.033,-36.621,34.18,-104.492,-11.23,1530.93,409
247,1685506804.037,-27.832,-348.145,-145.996,5.859,1530.934,409
248,1685506804.04,19.531,-139.16,69.336,27.832,1530.938,409
249,1685506804.044,7.812,5.371,79.102,28.809,1530.941,404
250,1685506804.048,-43.457,-184.57,-46.387,20.02,1530.945,404
251,1685506804.052,-36.133,-904.785,-346.68,24.414,1530.949,404
252,1685506804.056,24.414,-684.082,-63.965,35.645,1530.953,394
253,1685506804.06,55.664,156.25,236.328,39.551,1530.957,394
254,1685506804.064,21.484,-246.094,-48.34,31.738,1530.961,394
255,1685506804.067,-5.371,-617.188,-83.496,30.762,1530.965,386
256,1685506804.071,37.598,170.898,220.215,36.133,1530.969,386
257,1685506804.075,72.754,496.094,199.707,30.273,1530.973,386
258,1685506804.079,35.645,98.145,-11.719,21.484,1530.977,386
259,1685506804.083,-6.348,105.957,30.273,13.184,1530.981,381
260,1685506804.087,18.066,391.602,133.789,26.855,1530.983,381
261,1685506804.091,59.57,361.328,72.754,42.969,1530.987,381
262,1685506804.095,28.809,-78.125,-119.141,26.367,1530.991,378
263,1685506804.099,-29.785,-31.25,-41.504,11.23,1530.995,378
264,1685506804.103,-21.973,229.98,91.309,12.207,1530.999,378
265,1685506804.107,20.02,-36.133,-30.273,20.508,1531.003,373
266,1685506804.111,21.484,-793.457,-342.285,20.508,1531.007,373
267,1685506804.114,-28.809,-636.719,-131.836,-0.977,1531.011,373
268,1685506804.118,-43.457,110.352,167.969,-11.719,1531.015,373
269,1685506804.122,9.277,181.152,113.281,4.395,1531.019,373
270,1685506804.126,30.273,177.734,155.273,11.719,1531.022,365
271,1685506804.129,-40.039,129.395,-19.043,-10.742,1531.04,365
272,1685506804.13,-9.277,258.789,87.891,-2.93,1531.026,365
273,1685506804.133,-7.812,-196.777,-99.609,0.0,1531.043,365
274,1685506804.137,29.297,-108.887,82.031,0.0,1531.047,356
275,1685506804.141,-7.324,208.984,116.211,-14.16,1531.051,356
276,1685506804.145,-59.57,107.422,24.414,-25.391,1531.055,356
277,1685506804.149,-37.109,-320.312,-167.969,-19.043,1531.059,351
278,1685506804.153,2.93,-987.305,-358.887,-8.301,1531.063,351
279,1685506804.156,-8.789,-557.129,-2.441,-26.367,1531.067,351
280,1685506804.16,-55.664,132.812,176.758,-43.945,1531.071,351
281,1685506804.164,-56.641,-154.785,13.184,-35.156,1531.075,351
282,1685506804.168,-5.371,88.379,132.324,-30.762,1531.079,352
283,1685506804.172,-2.441,441.406,160.645,-26.855,1531.083,352
284,1685506804.189,-55.664,199.219,-4.883,-34.18,1531.086,356
285,1685506804.193,-68.359,-197.266,-113.77,-41.016,1531.09,356
286,1685506804.197,-18.066,13.672,62.012,-31.25,1531.093,356
287,1685506804.201,3.418,393.066,151.855,-30.762,1531.097,356
288,1685506804.205,-48.34,177.246,-5.371,-49.805,1531.101,356
289,1685506804.209,-79.59,-491.211,-177.734,-54.199,1531.105,352
290,1685506804.213,-35.156,-352.051,-54.688,-33.691,1531.109,352
291,1685506804.216,-4.883,39.062,67.871,-29.297,1531.113,352
292,1685506804.22,-34.668,-158.203,-34.668,-47.363,1531.117,348
293,1685506804.224,-81.543,-777.832,-294.434,-51.758,1531.121,348
294,1685506804.228,-70.801,-332.52,50.293,-49.316,1531.125,348
295,1685506804.232,-17.578,342.285,250.488,-46.875,1531.129,348
296,1685506804.234,-16.113,102.539,18.555,-41.504,1531.131,349
297,1685506804.238,-73.73,-296.387,-114.746,-53.223,1531.135,349
298,1685506804.242,-78.613,-119.629,30.762,-49.316,1531.138,349
299,1685506804.246,-18.555,333.008,185.547,-25.879,1531.142,349
300,1685506804.25,-16.113,-3.418,-72.266,-28.32,1531.146,354
301,1685506804.254,-61.035,-691.406,-198.73,-47.852,1531.15,354
302,1685506804.258,-77.637,-368.164,64.941,-43.457,1531.154,354
303,1685506804.261,-29.297,264.648,193.848,-35.156,1531.158,357
304,1685506804.265,7.812,-90.332,-42.969,-32.715,1531.162,357
305,1685506804.269,-35.156,-596.191,-132.324,-39.551,1531.166,357
306,1685506804.273,-67.871,-239.258,72.266,-50.781,1531.17,357
307,1685506804.277,-30.762,120.117,132.812,-35.156,1531.174,355
308,1685506804.279,5.859,-220.215,-75.195,-20.996,1531.176,355
309,1685506804.283,-22.461,-188.965,30.273,-32.227,1531.18,355
310,1685506804.287,-62.5,211.426,125.977,-46.875,1531.183,355
311,1685506804.291,-47.363,124.512,60.547,-35.645,1531.187,351
312,1685506804.295,-6.836,-11.719,72.754,-25.391,1531.191,351
313,1685506804.299,-20.508,-125.488,0.488,-35.645,1531.195,351
314,1685506804.303,-65.918,-86.426,15.137,-53.223,1531.199,348
315,1685506804.306,-59.57,-72.266,-8.789,-51.758,1531.203,348
316,1685506804.31,-15.137,-721.191,-218.262,-24.414,1531.207,348
317,1685506804.314,7.324,-225.098,69.824,-20.508,1531.211,348
318,1685506804.318,-29.785,374.512,165.527,-41.016,1531.215,349
319,1685506804.322,-62.5,30.762,3.906,-45.41,1531.219,349
320,1685506804.325,-30.273,-132.324,73.242,-32.715,1531.222,349
321,1685506804.329,-4.883,-152.344,50.293,-30.762,1531.225,351
322,1685506804.333,-37.598,-12.207,75.195,-52.246,1531.229,351
323,1685506804.337,-74.707,-167.969,-58.594,-59.082,1531.233,351
324,1685506804.341,-57.129,-805.176,-255.859,-45.41,1531.237,353
325,1685506804.345,-18.555,-343.262,105.469,-51.27,1531.241,353
326,1685506804.349,-29.785,106.934,165.039,-61.523,1531.245,353
327,1685506804.352,-73.242,-361.328,-105.957,-64.453,1531.249,353
328,1685506804.356,-70.312,-569.336,-52.246,-57.129,1531.253,353
329,1685506804.36,-17.578,205.078,233.398,-41.992,1531.257,350
330,1685506804.364,-15.137,408.691,175.293,-45.41,1531.261,350
331,1685506804.368,-63.477,-57.617,-53.711,-50.293,1531.264,350
332,1685506804.369,-67.871,-13.184,26.855,-36.621,1531.266,350
333,1685506804.373,-15.137,347.168,176.27,-23.926,1531.269,343
334,1685506804.377,12.207,252.93,38.574,-24.902,1531.273,343
335,1685506804.381,-39.551,-271.973,-156.738,-55.176,1531.277,343
336,1685506804.385,-78.613,-111.328,-13.672,-69.824,1531.281,343
337,1685506804.389,-33.203,47.852,83.984,-43.945,1531.285,338
338,1685506804.393,7.324,-147.949,-8.301,-28.809,1531.289,338
339,1685506804.396,-25.391,-741.699,-295.41,-36.621,1531.293,338
340,1685506804.4,-65.43,-451.66,2.441,-52.246,1531.297,336
341,1685506804.404,-38.086,261.23,228.027,-48.34,1531.301,336
342,1685506804.408,4.395,224.609,106.445,-33.203,1531.305,336
343,1685506804.412,-18.066,147.461,127.93,-34.18,1531.308,334
344,1685506804.414,-64.453,21.973,-21.973,-39.062,1531.311,334
345,1685506804.418,-59.57,-185.547,-104.492,-36.133,1531.315,334
346,1685506804.422,-18.555,-310.059,-40.039,-13.184,1531.318,334
347,1685506804.426,-18.555,-387.695,-0.488,-16.602,1531.322,334
348,1685506804.43,-59.082,-20.02,69.824,-35.156,1531.326,327
349,1685506804.434,-74.219,-84.473,-39.062,-39.062,1531.33,327
350,1685506804.438,-31.25,-437.5,-106.934,-32.227,1531.334,327
351,1685506804.441,-13.672,-837.891,-210.938,-31.738,1531.338,314
352,1685506804.445,-58.594,-125.0,107.422,-57.617,1531.342,314
353,1685506804.449,-77.637,242.188,147.949,-58.594,1531.346,314
354,1685506804.453,-41.016,-137.207,3.418,-30.762,1531.35,297
355,1685506804.457,-6.836,187.5,144.531,-24.902,1531.354,297
356,1685506804.459,-34.18,447.266,133.789,-38.086,1531.369,297
357,1685506804.463,-77.637,187.988,-13.184,-44.922,1531.372,297
358,1685506804.467,-45.898,-143.555,-65.918,-30.762,1531.376,297
359,1685506804.471,9.277,143.066,93.75,-14.16,1531.38,283
360,1685506804.475,-10.254,401.855,117.188,-29.785,1531.384,283
361,1685506804.479,-62.5,-112.305,-194.824,-53.711,1531.388,283
362,1685506804.483,-68.848,-829.59,-382.324,-38.086,1531.392,273
363,1685506804.486,-20.996,-332.031,24.902,-20.996,1531.396,273
364,1685506804.49,-9.277,183.105,143.066,-27.344,1531.4,273
365,1685506804.494,-48.34,-186.523,-59.082,-30.762,1531.404,264
366,1685506804.498,-62.988,-472.656,-52.734,-22.949,1531.408,264
367,1685506804.502,-34.18,71.777,148.438,-26.855,1531.412,264
368,1685506804.505,-9.766,362.793,112.793,-38.086,1531.414,264
369,1685506804.509,-40.039,-205.078,-123.047,-47.852,1531.418,253
370,1685506804.513,-78.125,-582.031,-110.352,-52.246,1531.422,253
371,1685506804.517,-35.645,10.742,140.625,-43.945,1531.426,253
372,1685506804.521,9.277,431.641,179.688,-34.18,1531.43,241
373,1685506804.525,-22.949,-195.801,-111.328,-34.18,1531.434,241
374,1685506804.529,-70.312,-682.617,-163.086,-40.039,1531.438,241
375,1685506804.532,-58.594,-2.441,139.648,-40.039,1531.442,241
376,1685506804.536,-10.254,366.211,149.902,-27.832,1531.446,241
377,1685506804.54,-13.184,2.93,-52.734,-35.645,1531.449,231
378,1685506804.544,-68.359,-157.227,-84.473,-58.105,1531.453,231
379,1685506804.548,-67.871,-67.871,15.137,-45.898,1531.457,231
380,1685506804.551,-11.719,123.047,79.59,-22.461,1531.459,227
381,1685506804.555,-2.93,-163.086,-143.066,-19.531,1531.463,227
382,1685506804.559,-47.852,-114.746,-46.387,-38.086,1531.467,227
383,1685506804.563,-62.988,191.895,123.535,-41.016,1531.471,229
384,1685506804.567,-26.855,144.043,24.414,-22.461,1531.475,229
385,1685506804.571,-7.812,-604.004,-269.531,-20.02,1531.478,229
386,1685506804.575,-34.18,-508.789,-49.316,-28.809,1531.482,229
387,1685506804.578,-60.059,201.66,174.805,-38.086,1531.486,232
388,1685506804.582,-36.621,10.742,21.973,-37.598,1531.49,232
389,1685506804.586,6.836,-281.25,6.348,-25.391,1531.494,232
390,1685506804.59,-14.16,115.723,125.488,-29.785,1531.498,233
391,1685506804.594,-59.082,254.883,97.656,-43.457,1531.502,233
392,1685506804.61,-47.852,-66.406,-68.359,-37.598,1531.508,234
393,1685506804.614,0.488,-329.59,-112.793,-23.438,1531.511,234
394,1685506804.618,-3.906,-219.727,27.832,-24.414,1531.515,234
395,1685506804.622,-48.34,105.957,118.164,-41.016,1531.519,238
396,1685506804.626,-61.523,-160.645,-83.496,-49.316,1531.523,238
397,1685506804.63,-14.648,-926.27,-333.984,-25.391,1531.527,238
398,1685506804.634,19.043,-362.793,86.914,-16.113,1531.531,248
399,1685506804.637,-29.297,277.832,198.73,-44.434,1531.535,248
400,1685506804.641,-74.707,-268.555,-125.0,-63.477,1531.539,248
401,1685506804.645,-28.32,-216.309,50.781,-54.199,1531.543,259
402,1685506804.649,20.02,366.699,205.566,-52.734,1531.547,259
403,1685506804.653,-14.648,296.875,73.242,-57.617,1531.551,259
404,1685506804.654,-63.965,-94.238,-93.75,-57.617,1531.551,259
405,1685506804.658,-35.645,66.895,25.391,-48.828,1531.554,259
406,1685506804.662,13.672,395.508,142.578,-37.109,1531.558,267
407,1685506804.666,-10.742,181.152,-18.066,-45.898,1531.562,267
408,1685506804.67,-61.035,-379.883,-208.496,-56.152,1531.566,267
409,1685506804.674,-66.406,-457.031,-187.988,-49.805,1531.57,270
410,1685506804.678,-14.16,-54.688,72.266,-32.715,1531.574,270
411,1685506804.681,0.977,136.719,82.031,-27.832,1531.578,270
412,1685506804.685,-54.199,-742.188,-361.328,-36.621,1531.582,270
413,1685506804.689,-63.477,-606.934,-123.535,-38.574,1531.586,270
414,1685506804.693,-19.531,223.633,208.008,-30.762,1531.59,270
415,1685506804.697,1.953,222.656,90.82,-26.855,1531.593,270
416,1685506804.699,-31.25,-13.672,34.668,-43.945,1531.595,270
417,1685506804.703,-67.383,-314.453,-98.633,-47.852,1531.599,272
418,1685506804.707,-35.156,-71.777,47.852,-32.227,1531.603,272
419,1685506804.711,6.348,14.648,16.113,-15.625,1531.606,272
420,1685506804.715,-28.809,-395.996,-81.543,-18.066,1531.61,279
421,1685506804.719,-68.848,-343.262,-5.371,-27.344,1531.614,279
422,1685506804.723,-33.203,-172.852,62.988,-9.277,1531.618,279
423,1685506804.726,11.23,-347.168,-48.828,-5.859,1531.622,279
424,1685506804.73,-13.184,-774.414,-176.27,-30.762,1531.626,289
425,1685506804.734,-56.641,-89.355,135.254,-43.457,1531.63,289
426,1685506804.738,-41.016,249.512,144.043,-38.086,1531.634,289
427,1685506804.742,6.836,-190.43,-76.172,-21.484,1531.638,297
428,1685506804.744,3.906,83.984,56.641,-28.32,1531.64,297
429,1685506804.748,-38.574,428.223,146.484,-46.875,1531.644,297
430,1685506804.752,-52.734,154.785,-12.695,-39.062,1531.647,297
431,1685506804.756,-19.531,-384.277,-211.426,-24.902,1531.651,301
432,1685506804.76,13.672,-46.387,23.438,-16.602,1531.655,301
433,1685506804.764,-28.809,89.844,47.852,-27.344,1531.659,301
434,1685506804.768,-63.477,-346.191,-217.773,-39.062,1531.663,301
435,1685506804.771,-23.926,-757.324,-291.992,-28.32,1531.667,302
436,1685506804.775,12.207,-251.465,33.203,-24.902,1531.671,302
437,1685506804.779,-18.066,125.488,100.098,-42.48,1531.675,302
438,1685506804.783,-63.477,-301.758,-92.285,-54.199,1531.679,304
439,1685506804.787,-42.48,-363.281,-16.602,-38.086,1531.683,304
440,1685506804.804,6.348,75.684,136.719,-18.555,1531.7,308
441,1685506804.808,1.953,63.477,55.664,-21.484,1531.704,308
442,1685506804.812,-51.758,-288.086,-96.68,-34.18,1531.708,310
443,1685506804.816,-61.035,-470.703,-56.641,-27.344,1531.712,310
444,1685506804.82,-7.812,139.648,176.27,-20.02,1531.715,310
445,1685506804.824,3.418,285.156,118.652,-29.297,1531.719,306
446,1685506804.828,-41.992,-385.742,-168.945,-34.18,1531.723,306
447,1685506804.831,-62.988,-618.164,-130.859,-26.855,1531.727,306
448,1685506804.835,-22.461,172.363,191.895,-25.879,1531.731,306
449,1685506804.835,-28.809,35.156,76.66,-21.484,1531.759,306
450,1685506804.839,7.812,439.453,147.949,-31.25,1531.735,297
451,1685506804.839,5.371,263.672,106.934,-13.184,1531.763,297
452,1685506804.843,-34.18,11.23,-79.59,-42.48,1531.739,297
453,1685506804.843,-13.672,-266.113,-214.355,-21.973,1531.767,297
454,1685506804.847,-62.5,-119.629,-70.801,-42.48,1531.743,297
455,1685506804.847,-44.434,-195.801,-64.941,-28.32,1531.771,297
456,1685506804.851,-23.926,229.492,140.137,-20.02,1531.775,297
457,1685506804.855,14.16,-107.422,-44.434,-12.695,1531.779,287
458,1685506804.859,-1.465,-359.863,-67.383,-17.578,1531.782,287
459,1685506804.862,-47.363,-7.324,45.898,-32.227,1531.786,287
460,1685506804.866,-52.734,239.258,112.305,-38.574,1531.79,279
461,1685506804.87,-5.859,41.504,22.461,-21.484,1531.794,279
462,1685506804.874,13.672,-673.34,-256.348,-14.16,1531.798,279
463,1685506804.878,-31.25,-247.559,-9.766,-39.551,1531.802,279
464,1685506804.898,-55.664,214.844,126.953,-37.598,1531.804,265
465,1685506804.902,-10.742,-346.191,-95.703,-10.254,1531.807,265
466,1685506804.906,13.184,-748.047,-165.039,-10.742,1531.811,250
467,1685506804.91,-25.879,-145.996,110.84,-29.785,1531.815,250
468,1685506804.914,-57.129,296.387,159.668,-33.691,1531.819,250
469,1685506804.918,-25.391,-228.027,-91.797,-19.043,1531.823,250
470,1685506804.922,25.879,-694.336,-146.484,-7.324,1531.827,230
471,1685506804.925,12.207,-28.809,170.898,-23.438,1531.831,230
472,1685506804.929,-34.668,302.734,131.836,-37.598,1531.835,230
473,1685506804.933,-27.344,-192.871,-89.844,-24.902,1531.839,230
474,1685506804.937,9.277,-54.199,46.387,-14.16,1531.843,210
475,1685506804.939,-36.621,254.395,23.438,-27.832,1531.835,210
476,1685506804.941,10.742,362.305,147.949,-19.043,1531.847,210
477,1685506804.943,-50.781,-439.941,-274.902,-21.973,1531.839,210
478,1685506804.947,3.906,-290.039,-33.203,-13.184,1531.843,194
479,1685506804.951,27.832,409.668,204.102,-20.02,1531.846,194
480,1685506804.955,-19.531,124.023,-35.645,-34.668,1531.85,194
481,1685506804.959,-52.246,-429.199,-171.387,-30.273,1531.854,194
482,1685506804.963,-19.531,-374.512,-59.082,-14.16,1531.858,182
483,1685506804.966,16.602,81.055,145.508,-11.719,1531.862,182
484,1685506804.97,-9.766,101.074,34.18,-20.508,1531.866,182
485,1685506804.974,-56.641,-739.746,-338.867,-36.133,1531.87,182
486,1685506804.978,-31.738,-357.422,8.789,-37.598,1531.874,171
487,1685506804.982,19.531,416.016,244.629,-19.043,1531.878,171
488,1685506804.984,2.441,124.023,-42.48,-25.391,1531.88,171
489,1685506804.988,-49.805,-440.43,-182.129,-42.48,1531.884,160
490,1685506804.992,-51.758,-187.012,40.527,-36.621,1531.888,160
491,1685506804.996,-11.23,336.426,181.641,-26.855,1531.891,160
492,1685506805.0,-5.371,1.953,-84.473,-27.344,1531.895,160
493,1685506805.004,-53.223,-692.383,-227.539,-35.645,1531.899,152
494,1685506805.008,-61.035,-404.785,-23.438,-39.062,1531.903,152
495,1685506805.011,-6.836,98.633,142.578,-20.996,1531.907,152
496,1685506805.015,18.555,-281.25,-52.246,-8.789,1531.911,152
497,1685506805.019,-32.227,-856.445,-252.441,-28.32,1531.915,150
498,1685506805.023,-60.547,-152.344,114.746,-48.34,1531.919,150
499,1685506805.027,-21.484,272.461,166.016,-32.227,1531.923,150
500,1685506805.074,13.672,-5.371,9.277,-24.414,1531.971,214
501,1685506805.078,-10.254,166.016,80.078,-30.273,1531.975,214
502,1685506805.078,-23.438,-367.676,-13.672,-40.527,1531.979,214
503,1685506805.082,1.953,-120.605,107.91,-40.039,1531.983,214
504,1685506805.082,-56.152,253.906,70.312,-26.855,1531.979,214
505,1685506805.086,-32.715,98.633,2.441,-19.531,1531.983,241
506,1685506805.086,-27.344,79.59,56.641,-51.27,1531.987,241
507,1685506805.09,11.23,-52.246,-25.879,-9.766,1531.987,241
508,1685506805.09,-57.617,-113.281,-32.715,-50.293,1531.991,241
509,1685506805.094,2.441,-155.762,-22.461,-15.625,1531.991,241
510,1685506805.094,-25.879,-171.387,83.984,-42.48,1531.995,241
511,1685506805.098,-46.875,-116.211,3.906,-32.715,1531.995,272
512,1685506805.098,14.16,10.742,88.867,-34.668,1531.999,272
513,1685506805.101,-45.898,-63.965,1.953,-30.762,1531.999,272
514,1685506805.102,-8.789,-85.938,3.906,-31.738,1532.003,272
515,1685506805.105,-58.594,-367.676,-91.309,-41.504,1532.006,272
516,1685506805.105,-0.488,-681.152,-231.934,-21.484,1532.002,272
517,1685506805.109,13.184,-285.645,9.766,-35.156,1532.006,272
518,1685506805.109,-51.27,-222.168,29.785,-37.109,1532.01,272
519,1685506805.113,-28.809,32.715,56.152,-49.805,1532.01,272
520,1685506805.113,5.859,317.383,195.312,-14.16,1532.014,272
521,1685506805.117,1.953,346.191,93.262,-11.719,1532.018,318
522,1685506805.117,-58.594,-346.191,-133.301,-50.781,1532.014,318
523,1685506805.12,-61.523,-338.379,-107.422,-33.691,1532.019,318
524,1685506805.121,-51.758,-245.605,-222.656,-29.785,1532.022,318
525,1685506805.124,-16.113,-67.871,95.215,-18.555,1532.023,318
526,1685506805.128,6.348,170.898,91.309,-19.531,1532.027,372
527,1685506805.132,-41.016,-500.488,-294.434,-33.691,1532.031,372
528,1685506805.136,-66.406,-748.535,-200.684,-27.832,1532.035,372
529,1685506805.14,-23.926,-165.039,130.371,-20.02,1532.039,422
530,1685506805.144,7.812,-62.988,62.988,-20.996,1532.043,422
531,1685506805.147,-29.297,-694.336,-282.227,-26.367,1532.047,422
532,1685506805.151,-68.359,-1000.0,-374.023,-22.949,1532.05,422
533,1685506805.155,-37.598,-169.922,132.324,-25.391,1532.054,422
534,1685506805.159,-0.977,265.137,227.539,-31.738,1532.058,464
535,1685506805.163,-10.254,217.773,166.016,-36.621,1532.062,464
536,1685506805.164,-41.016,215.82,86.914,-40.039,1532.061,464
537,1685506805.168,-32.715,24.414,4.883,-41.992,1532.065,502
538,1685506805.172,12.695,-183.105,-37.598,-24.902,1532.068,502
539,1685506805.176,10.742,-469.727,-69.824,-13.672,1532.072,502
540,1685506805.18,-43.457,-41.504,79.59,-34.18,1532.076,536
541,1685506805.184,-59.082,84.961,60.059,-33.203,1532.08,536
542,1685506805.188,-17.578,-326.172,-78.125,-21.484,1532.084,536
543,1685506805.191,-1.953,-821.289,-262.207,-18.066,1532.088,536
544,1685506805.195,-42.969,-153.32,56.641,-37.109,1532.092,536
545,1685506805.199,-62.012,311.523,148.926,-44.922,1532.096,566
546,1685506805.203,-11.23,-33.691,-12.695,-26.367,1532.1,566
547,1685506805.207,22.949,201.66,102.051,-15.137,1532.104,566
548,1685506805.209,-8.301,419.434,96.68,-30.762,1532.12,588
549,1685506805.213,-46.875,202.148,-18.066,-42.48,1532.124,588
550,1685506805.217,-28.32,-125.977,-81.543,-30.762,1532.127,588
551,1685506805.221,15.625,153.32,63.477,-18.066,1532.131,588
552,1685506805.225,-1.465,353.027,74.707,-27.832,1532.135,600
553,1685506805.229,-60.059,-188.477,-229.004,-48.828,1532.139,600
554,1685506805.233,-60.059,-852.539,-399.414,-41.504,1532.143,600
555,1685506805.236,-3.906,-385.254,43.945,-32.227,1532.147,600
556,1685506805.24,4.883,416.016,243.164,-42.969,1532.151,602
557,1685506805.244,-40.527,109.863,-24.414,-48.828,1532.155,602
558,1685506805.248,-54.688,-480.957,-99.121,-37.598,1532.159,602
559,1685506805.252,-17.09,24.414,102.539,-24.902,1532.163,598
560,1685506805.254,15.137,398.926,141.602,-22.949,1532.165,598
561,1685506805.258,-23.438,-194.336,-127.441,-35.645,1532.169,598
562,1685506805.262,-49.316,-615.723,-156.25,-40.527,1532.173,598
563,1685506805.266,-6.348,-36.621,143.555,-28.809,1532.177,598
564,1685506805.27,27.832,428.223,175.781,-17.09,1532.181,592
565,1685506805.274,-14.16,-147.461,-134.766,-21.484,1532.185,592
566,1685506805.278,-61.523,-601.562,-144.043,-27.832,1532.189,592
567,1685506805.281,-34.668,-2.441,133.789,-14.16,1532.192,585
568,1685506805.285,7.324,187.5,97.656,0.488,1532.196,585
569,1685506805.289,-0.977,-301.27,-111.328,-9.766,1532.2,585
570,1685506805.293,-39.551,-404.785,-86.426,-22.949,1532.204,573
571,1685506805.297,-41.504,132.324,144.531,-20.508,1532.208,573
572,1685506805.329,0.0,239.258,83.984,-10.254,1532.225,532
573,1685506805.333,9.277,-55.176,-46.875,-13.184,1532.229,512
574,1685506805.337,-37.598,41.504,24.414,-27.832,1532.233,512
575,1685506805.341,-67.383,235.84,85.938,-28.32,1532.237,512
576,1685506805.345,-16.602,140.137,36.621,-15.137,1532.241,512
577,1685506805.349,18.066,-318.848,-137.207,-4.395,1532.245,498
578,1685506805.353,-25.879,-302.246,-66.895,-18.555,1532.249,498
579,1685506805.356,-50.781,77.148,103.027,-37.109,1532.253,498
580,1685506805.359,-40.527,-385.742,-191.895,-26.367,1532.255,498
581,1685506805.36,-12.207,7.324,7.812,-17.578,1532.256,498
582,1685506805.363,8.301,-728.027,-191.895,-12.695,1532.259,487
583,1685506805.364,21.973,-548.34,-191.406,-1.465,1532.26,487
584,1685506805.367,13.672,-114.258,110.352,-25.879,1532.263,487
585,1685506805.368,3.418,-180.664,27.344,-20.02,1532.264,487
586,1685506805.371,-26.367,273.438,127.441,-26.855,1532.267,487
587,1685506805.372,-41.504,-5.371,21.484,-36.621,1532.268,487
588,1685506805.375,-40.039,-164.551,-92.285,-14.648,1532.271,487
589,1685506805.379,-10.254,-470.703,-94.238,-5.371,1532.275,471
590,1685506805.383,7.812,-54.688,113.77,-0.977,1532.278,471
591,1685506805.386,-25.879,228.027,86.426,-14.648,1532.282,471
592,1685506805.39,-55.664,-285.156,-163.574,-23.926,1532.286,449
593,1685506805.394,-17.09,-187.012,10.254,-14.16,1532.29,449
594,1685506805.398,13.672,325.195,186.523,-6.836,1532.294,449
595,1685506805.402,-18.066,325.195,78.125,-24.414,1532.298,421
596,1685506805.42,-62.012,-427.246,-330.078,-30.273,1532.33,392
597,1685506805.424,-37.598,-696.777,-231.934,-18.066,1532.334,392
598,1685506805.428,28.32,53.711,230.957,-11.23,1532.337,392
599,1685506805.432,9.766,220.703,108.887,-30.762,1532.341,364
600,1685506805.436,-50.293,-463.379,-217.285,-36.621,1532.345,364
601,1685506805.44,-34.18,-493.652,-81.543,-16.602,1532.349,364
602,1685506805.444,0.977,-57.617,143.066,-7.324,1532.353,332
603,1685506805.447,0.488,74.707,38.574,-24.902,1532.357,332
604,1685506805.449,-31.25,-2.441,56.641,-35.645,1532.346,332
605,1685506805.451,-35.156,-679.688,-300.781,-39.062,1532.361,332
606,1685506805.453,-45.41,-267.09,-98.145,-43.945,1532.35,332
607,1685506805.455,-57.617,-393.555,-14.16,-36.621,1532.365,332
608,1685506805.457,3.418,97.656,87.891,-20.508,1532.354,332
609,1685506805.459,-24.414,287.598,170.41,-26.367,1532.369,293
610,1685506805.461,43.457,59.57,10.742,-9.277,1532.358,293
611,1685506805.463,-1.465,178.711,61.523,-21.973,1532.373,293
612,1685506805.465,-7.324,-758.301,-302.734,-15.137,1532.362,293
613,1685506805.469,-60.059,-519.043,-57.129,0.977,1532.365,293
614,1685506805.473,-39.551,-30.762,145.02,-7.324,1532.369,250
615,1685506805.476,-13.672,-64.941,55.176,-37.109,1532.373,250
616,1685506805.48,-41.016,-18.066,64.453,-54.199,1532.377,250
617,1685506805.484,-88.379,193.359,117.676,-81.543,1532.381,208
618,1685506805.488,-84.473,258.789,92.285,-77.148,1532.385,208
619,1685506805.492,-36.133,-315.918,-192.383,-67.871,1532.389,208
620,1685506805.509,-33.203,-587.402,-142.578,-91.309,1532.406,171
621,1685506805.513,-98.145,110.84,140.625,-118.652,1532.41,141
622,1685506805.517,-126.953,116.699,28.809,-141.602,1532.414,141
623,1685506805.521,-85.938,-408.691,-171.875,-146.973,1532.418,141
624,1685506805.525,-70.801,-34.18,48.34,-155.273,1532.421,115
625,1685506805.529,-119.141,51.758,34.668,-179.688,1532.425,115
626,1685506805.533,-153.32,-386.23,-212.891,-179.199,1532.429,115
627,1685506805.536,-135.254,-870.117,-318.359,-171.875,1532.433,115
628,1685506805.539,-118.164,213.379,110.352,-157.227,1532.436,115
629,1685506805.54,-92.285,-512.695,7.324,-165.527,1532.437,115
630,1685506805.543,-122.559,78.125,28.32,-153.809,1532.44,89
631,1685506805.544,-113.281,319.824,221.68,-176.758,1532.441,89
632,1685506805.547,-166.016,-292.48,-161.621,-159.18,1532.444,89
633,1685506805.548,-156.738,89.844,2.93,-187.5,1532.445,89
634,1685506805.551,-166.992,-552.246,-112.305,-153.809,1532.448,89
635,1685506805.552,-145.996,-43.945,18.066,-179.199,1532.449,89
636,1685506805.555,-125.0,19.531,182.617,-156.25,1532.452,66
637,1685506805.559,-124.023,123.047,81.543,-152.832,1532.456,66
638,1685506805.563,-157.227,-278.32,-62.012,-160.645,1532.46,66
639,1685506805.566,-151.855,-154.297,58.594,-151.367,1532.464,66
640,1685506805.57,-93.75,234.863,127.441,-126.953,1532.468,48
641,1685506805.574,-62.012,312.988,98.633,-127.441,1532.472,48
642,1685506805.578,-90.332,-312.012,-204.102,-127.441,1532.475,48
643,1685506805.582,-124.023,-840.332,-283.203,-119.141,1532.479,40
644,1685506805.616,-78.125,13.672,188.965,-105.957,1532.512,40
645,1685506805.62,-42.48,399.414,154.297,-98.633,1532.516,40
646,1685506805.624,-69.824,-10.742,-48.828,-109.375,1532.52,41
647,1685506805.628,-88.867,87.402,30.762,-104.98,1532.524,41
648,1685506805.632,-58.594,294.922,117.676,-76.172,1532.528,41
649,1685506805.636,-33.691,26.367,5.371,-75.684,1532.532,42
650,1685506805.64,-76.172,-668.945,-281.25,-86.914,1532.536,42
651,1685506805.643,-118.652,-334.961,-12.207,-87.891,1532.54,42
652,1685506805.644,-95.703,-78.125,-53.711,-47.363,1532.541,42
653,1685506805.647,-104.004,282.715,181.152,-69.336,1532.544,42
654,1685506805.648,-47.363,-333.496,-67.383,-38.086,1532.545,42
655,1685506805.651,-26.367,175.781,72.754,-43.457,1532.548,42
656,1685506805.652,9.766,-491.211,-14.16,-8.789,1532.549,48
657,1685506805.655,-11.23,130.859,114.258,-45.41,1532.551,48
658,1685506805.656,2.93,30.762,133.789,-19.043,1532.553,48
659,1685506805.659,-70.801,155.273,37.598,-43.945,1532.555,48
660,1685506805.66,-26.855,217.773,77.637,-18.066,1532.557,48
661,1685506805.664,-3.906,-218.75,-28.809,-1.465,1532.561,61
662,1685506805.668,22.949,-185.547,98.145,-5.859,1532.565,61
663,1685506805.671,17.09,354.004,191.406,-0.977,1532.569,61
664,1685506805.675,-23.926,301.27,84.961,11.23,1532.572,61
665,1685506805.679,-26.367,-220.703,-74.219,12.695,1532.576,76
666,1685506805.683,57.129,-20.508,75.684,21.973,1532.58,76
667,1685506805.687,91.309,431.641,198.242,33.203,1532.584,76
668,1685506805.704,15.625,371.094,92.773,16.602,1532.6,89
669,1685506805.708,-23.926,-437.988,-304.199,18.066,1532.604,99
670,1685506805.712,19.043,-960.449,-297.852,27.344,1532.608,99
671,1685506805.716,36.621,79.59,243.164,18.066,1532.612,99
672,1685506805.72,-12.695,391.113,158.691,24.414,1532.616,107
673,1685506805.724,-40.039,-583.008,-234.863,25.879,1532.62,107
674,1685506805.728,17.578,-301.27,21.484,36.621,1532.624,107
675,1685506805.731,79.59,557.617,291.992,39.062,1532.628,107
676,1685506805.735,36.133,358.887,67.383,27.832,1532.632,119
677,1685506805.739,-19.043,-670.41,-280.762,25.879,1532.636,119
678,1685506805.743,5.859,-308.594,37.598,25.879,1532.64,119
679,1685506805.747,53.223,522.461,252.441,26.367,1532.643,135
680,1685506805.749,41.016,207.031,11.23,14.16,1532.645,135
681,1685506805.753,-3.418,-190.43,-68.848,4.883,1532.649,135
682,1685506805.757,1.953,110.84,101.074,6.348,1532.653,135
683,1685506805.761,47.363,451.172,177.734,23.926,1532.657,150
684,1685506805.765,48.828,128.418,10.254,23.438,1532.661,150
685,1685506805.769,-11.719,-399.902,-145.996,5.859,1532.665,150
686,1685506805.773,-38.086,-316.895,-13.184,8.301,1532.669,150
687,1685506805.776,-2.93,-77.637,88.867,31.738,1532.673,160
688,1685506805.78,26.367,-126.953,31.738,38.574,1532.677,160
689,1685506805.784,-4.395,-21.484,81.055,6.348,1532.681,160
690,1685506805.788,-50.781,229.004,136.719,-6.348,1532.684,166
691,1685506805.792,-19.531,385.742,160.156,0.0,1532.688,166
692,1685506805.794,14.16,-202.148,-136.719,1.953,1532.69,166
693,1685506805.798,-11.23,-732.91,-183.105,0.977,1532.694,166
694,1685506805.802,-42.48,-1.953,157.715,-9.766,1532.697,166
695,1685506805.806,-31.738,240.234,141.602,-4.883,1532.701,173
696,1685506805.81,5.371,52.734,89.844,3.418,1532.705,173
697,1685506805.814,-8.789,-31.738,44.922,-14.16,1532.709,173
698,1685506805.818,-53.711,-4.395,40.527,-28.32,1532.713,183
699,1685506805.821,-45.898,-60.547,22.949,-15.625,1532.717,183
700,1685506805.824,-21.973,-822.266,-317.871,-1.953,1532.72,183
701,1685506805.825,6.348,-247.559,22.949,-1.465,1532.721,183
702,1685506805.828,9.277,-633.789,-58.105,-9.277,1532.724,197
703,1685506805.829,17.578,218.262,164.062,-7.324,1532.725,197
704,1685506805.832,-24.414,268.555,228.027,-38.574,1532.728,197
705,1685506805.833,-25.879,411.133,126.953,-25.879,1532.729,197
706,1685506805.836,-65.918,22.461,-11.23,-41.016,1532.732,197
707,1685506805.837,-61.523,62.988,-14.16,-25.879,1532.733,197
708,1685506805.84,-41.504,-224.609,-4.883,-33.203,1532.735,197
709,1685506805.844,-5.859,93.75,166.016,-20.02,1532.739,208
710,1685506805.848,-26.855,40.527,86.914,-20.02,1532.743,208
711,1685506805.851,-74.219,-302.734,-91.797,-32.227,1532.747,208
712,1685506805.855,-64.941,-148.926,74.219,-34.18,1532.751,208
713,1685506805.859,-17.09,271.973,188.477,-32.227,1532.755,215
714,1685506805.863,-41.504,179.199,87.891,-40.527,1532.759,215
715,1685506805.867,-95.703,-465.82,-227.051,-47.363,1532.763,215
716,1685506805.884,-101.562,-821.289,-240.234,-48.34,1532.78,219
717,1685506805.888,-41.016,98.145,233.887,-39.062,1532.784,225
718,1685506805.892,-20.996,392.578,167.48,-42.48,1532.788,225
719,1685506805.896,-72.266,-26.367,-20.02,-53.711,1532.792,225
720,1685506805.9,-93.75,41.016,66.895,-43.945,1532.795,235
721,1685506805.904,-46.387,19.531,101.562,-26.855,1532.799,235
722,1685506805.908,-7.812,-78.613,47.852,-24.414,1532.803,235
723,1685506805.911,-47.852,-659.18,-261.23,-38.086,1532.807,248
724,1685506805.915,-86.426,-395.996,-25.879,-48.828,1532.811,248
725,1685506805.915,-80.566,64.453,35.645,-48.828,1532.812,248
726,1685506805.919,-55.664,276.855,193.359,-38.574,1532.815,248
727,1685506805.919,-58.105,-67.871,23.926,-46.387,1532.815,248
728,1685506805.923,-20.508,244.629,111.328,-33.691,1532.819,248
729,1685506805.923,-12.695,-206.055,0.0,-41.504,1532.819,248
730,1685506805.927,-44.922,182.129,155.273,-35.645,1532.823,259
731,1685506805.927,-25.879,-736.816,-213.867,-48.34,1532.823,259
732,1685506805.931,-80.078,-233.887,53.711,-59.082,1532.827,259
733,1685506805.935,-85.938,36.621,125.0,-59.082,1532.831,259
734,1685506805.939,-45.898,-276.855,34.18,-37.109,1532.835,264
735,1685506805.942,-29.785,29.785,165.527,-32.715,1532.839,264
736,1685506805.946,-68.359,327.148,149.902,-60.547,1532.843,264
737,1685506805.95,-101.562,256.348,78.613,-72.754,1532.847,264
738,1685506805.954,-58.105,-308.594,-115.234,-56.641,1532.851,267
739,1685506805.958,-10.742,-385.254,-30.273,-43.945,1532.854,267
740,1685506805.974,-45.41,246.582,171.875,-61.523,1532.87,272
741,1685506805.978,-82.031,-28.809,-31.738,-63.477,1532.874,272
742,1685506805.982,-44.922,-261.719,-66.895,-40.527,1532.878,281
743,1685506805.986,-8.789,-42.48,63.965,-37.598,1532.882,281
744,1685506805.99,-32.227,180.176,142.578,-43.457,1532.886,281
745,1685506805.994,-73.242,-84.961,-18.066,-46.387,1532.89,281
746,1685506805.998,-78.613,-879.395,-342.773,-48.34,1532.894,291
747,1685506806.001,-35.156,-639.648,-62.988,-50.293,1532.898,291
748,1685506806.004,-24.902,315.43,118.652,-57.617,1532.929,291
749,1685506806.005,-15.625,287.598,258.789,-58.105,1532.901,291
750,1685506806.008,-71.777,-228.516,-108.887,-61.523,1532.933,296
751,1685506806.009,-77.148,187.988,48.828,-64.453,1532.905,296
752,1685506806.012,-106.445,-612.305,-105.957,-63.477,1532.937,296
753,1685506806.013,-105.469,-92.285,-2.93,-61.035,1532.909,296
754,1685506806.016,-66.895,5.859,168.457,-53.223,1532.941,296
755,1685506806.017,-47.363,233.887,166.504,-55.664,1532.913,296
756,1685506806.02,-18.066,395.996,205.566,-40.039,1532.945,297
757,1685506806.024,-44.922,-105.957,-38.086,-53.223,1532.949,297
758,1685506806.028,-82.031,-484.863,-102.051,-69.336,1532.953,297
759,1685506806.031,-60.547,-208.008,79.59,-69.336,1532.957,297
760,1685506806.035,-12.207,326.66,229.004,-67.871,1532.961,297
761,1685506806.039,-18.555,-72.754,-73.73,-69.336,1532.964,296
762,1685506806.043,-65.918,-947.266,-348.145,-67.871,1532.968,296
763,1685506806.047,-80.566,-271.484,124.512,-71.777,1532.972,296
764,1685506806.064,-44.922,342.773,254.883,-59.082,1532.96,306
765,1685506806.068,-22.949,83.984,37.598,-46.387,1532.964,306
766,1685506806.072,-53.711,136.23,91.797,-54.688,1532.968,306
767,1685506806.076,-71.289,248.535,130.859,-52.734,1532.972,306
768,1685506806.08,-46.387,206.055,107.422,-50.781,1532.976,311
769,1685506806.084,-15.137,-207.031,0.488,-55.664,1532.979,311
770,1685506806.088,-38.574,-156.738,61.523,-50.293,1532.983,311
771,1685506806.091,-76.172,202.148,129.883,-53.711,1532.987,312
772,1685506806.095,-57.617,21.484,55.176,-49.805,1532.991,312
773,1685506806.099,-14.648,-224.121,34.18,-32.715,1532.995,312
774,1685506806.103,-24.414,119.141,127.93,-35.156,1532.999,309
775,1685506806.107,-65.43,258.789,120.117,-46.875,1533.003,309
776,1685506806.109,-54.688,-48.828,1.953,-43.945,1533.018,309
777,1685506806.113,-13.672,-885.254,-272.949,-31.25,1533.022,309
778,1685506806.117,-10.254,-683.594,-26.855,-34.668,1533.026,309
779,1685506806.121,-50.781,138.184,208.984,-52.734,1533.03,307
780,1685506806.125,-56.641,-14.16,58.594,-48.34,1533.033,307
781,1685506806.129,-13.672,-279.785,74.219,-27.832,1533.037,307
782,1685506806.133,3.418,-44.922,142.09,-28.809,1533.041,309
783,1685506806.136,-38.086,300.781,173.828,-53.223,1533.045,309
784,1685506806.14,-67.871,-272.461,-92.773,-52.246,1533.049,309
785,1685506806.144,-20.508,-602.539,-52.246,-29.785,1533.053,309
786,1685506806.148,19.531,182.129,256.348,-26.855,1533.057,314
787,1685506806.152,-18.066,133.789,99.121,-41.504,1533.061,314
788,1685506806.154,-66.406,-469.727,-137.207,-56.152,1533.05,314
789,1685506806.158,-41.504,-183.105,98.633,-53.711,1533.054,314
790,1685506806.162,5.371,416.504,290.039,-44.922,1533.058,317
791,1685506806.166,-23.438,279.297,109.375,-47.852,1533.062,317
792,1685506806.17,-79.59,-120.117,14.16,-56.641,1533.065,317
793,1685506806.174,-70.801,-210.449,70.312,-49.316,1533.069,315
794,1685506806.178,-13.184,-30.762,159.18,-37.109,1533.073,315
795,1685506806.181,-7.812,-27.832,95.215,-34.18,1533.077,315
796,1685506806.185,-63.965,-736.328,-216.309,-36.621,1533.081,315
797,1685506806.189,-76.66,-413.574,96.191,-43.457,1533.085,310
798,1685506806.193,-19.531,382.812,308.105,-31.25,1533.089,310
799,1685506806.197,-0.488,336.426,167.969,-41.992,1533.093,310
800,1685506806.2,-42.969,-20.02,150.879,-50.293,1533.096,308
801,1685506806.204,-72.754,-231.445,77.637,-41.016,1533.1,308
802,1685506806.208,-37.598,-49.805,153.809,-34.668,1533.104,308
803,1685506806.212,3.906,-63.477,107.422,-31.25,1533.108,308
804,1685506806.216,-36.133,-705.078,-154.785,-49.805,1533.112,310
805,1685506806.22,-80.078,-574.219,43.945,-67.383,1533.116,310
806,1685506806.224,-61.523,41.016,251.465,-59.082,1533.12,310
807,1685506806.227,-30.762,-32.715,130.859,-48.828,1533.124,310
808,1685506806.231,-34.668,-418.945,74.707,-47.363,1533.128,314
809,1685506806.235,-66.895,133.301,213.379,-59.57,1533.132,314
810,1685506806.239,-64.941,347.656,196.777,-58.594,1533.135,314
811,1685506806.243,-17.578,63.477,122.07,-36.133,1533.139,315
812,1685506806.244,-5.859,269.043,182.617,-42.48,1533.14,315
813,1685506806.248,-50.781,387.695,170.41,-55.176,1533.144,315
814,1685506806.252,-76.172,181.641,109.375,-48.828,1533.148,315
815,1685506806.256,-28.809,-6.836,73.73,-31.25,1533.152,312
816,1685506806.26,4.395,41.504,88.379,-26.855,1533.156,312
817,1685506806.264,-39.062,-66.895,84.961,-56.152,1533.16,312
818,1685506806.268,-83.496,-255.371,46.387,-65.43,1533.164,312
819,1685506806.271,-51.758,-812.988,-129.883,-44.434,1533.167,307
820,1685506806.275,2.441,-548.828,166.504,-35.156,1533.171,307
821,1685506806.279,-19.043,320.801,307.129,-43.945,1533.175,307
822,1685506806.283,-64.941,99.609,99.121,-48.34,1533.179,306
823,1685506806.287,-47.363,-44.434,198.242,-35.156,1533.183,306
824,1685506806.289,-7.812,244.141,236.328,-27.344,1533.185,306
825,1685506806.293,-14.648,76.172,137.695,-37.598,1533.189,306
826,1685506806.297,-56.152,-305.176,24.902,-50.781,1533.193,306
827,1685506806.301,-51.758,-496.094,56.641,-45.41,1533.197,309
828,1685506806.305,-10.254,93.75,256.836,-40.527,1533.201,309
829,1685506806.309,-6.348,222.168,239.746,-38.086,1533.205,309
830,1685506806.313,-53.711,-336.914,33.203,-33.691,1533.208,313
831,1685506806.316,-72.266,-889.16,-145.508,-31.738,1533.212,313
832,1685506806.32,-29.785,-120.605,235.352,-26.367,1533.216,313
833,1685506806.324,-2.441,555.664,331.055,-21.484,1533.22,313
834,1685506806.328,-33.203,102.539,82.52,-30.273,1533.224,313
835,1685506806.332,-73.242,32.227,146.484,-36.133,1533.228,313
836,1685506806.349,-48.828,364.258,250.488,-30.273,1533.244,309
837,1685506806.353,-7.812,453.613,229.004,-30.273,1533.248,306
838,1685506806.357,-27.832,122.07,82.52,-41.016,1533.252,306
839,1685506806.361,-70.312,54.688,111.328,-50.293,1533.256,306
840,1685506806.365,-48.34,192.383,215.82,-35.156,1533.26,306
841,1685506806.369,0.488,15.137,142.578,-15.137,1533.264,306
842,1685506806.373,-11.23,-608.398,-99.121,-22.461,1533.268,306
843,1685506806.376,-48.828,-348.633,135.742,-39.062,1533.272,306
844,1685506806.379,-59.57,225.098,217.285,-32.227,1533.289,306
845,1685506806.38,-51.758,269.531,294.922,-29.297,1533.276,306
846,1685506806.383,-17.578,-251.953,140.137,-26.855,1533.293,310
847,1685506806.384,-20.996,41.992,154.297,-14.648,1533.279,310
848,1685506806.387,11.23,-484.863,152.344,-19.531,1533.297,310
849,1685506806.388,-12.207,-283.691,172.852,-29.297,1533.283,310
850,1685506806.391,-27.832,136.719,271.484,-30.762,1533.301,310
851,1685506806.392,-45.41,100.098,237.793,-40.039,1533.287,310
852,1685506806.395,-75.684,315.43,230.957,-39.551,1533.305,313
853,1685506806.399,-54.688,-188.965,142.09,-33.203,1533.309,313
854,1685506806.403,1.953,-213.867,218.75,-21.973,1533.313,313
855,1685506806.406,-8.301,285.156,294.922,-28.32,1533.316,312
856,1685506806.41,-67.383,356.934,212.891,-46.387,1533.32,312
857,1685506806.414,-64.941,-312.988,63.477,-45.41,1533.324,312
858,1685506806.418,-18.066,-511.719,161.133,-35.645,1533.328,312
859,1685506806.422,-16.602,250.977,316.895,-42.48,1533.332,307
860,1685506806.426,-64.453,49.805,157.227,-62.988,1533.334,307
861,1685506806.43,-67.871,-525.879,17.09,-49.316,1533.338,307
862,1685506806.434,-17.578,-84.473,237.793,-26.855,1533.342,304
863,1685506806.438,0.488,508.789,363.77,-39.062,1533.346,304
864,1685506806.442,-43.945,284.18,201.66,-50.781,1533.35,304
865,1685506806.446,-78.125,-407.715,41.504,-48.828,1533.353,304
866,1685506806.45,-40.527,-259.277,202.148,-42.48,1533.357,304
867,1685506806.453,-3.906,460.938,362.305,-40.039,1533.361,304
868,1685506806.457,-35.156,234.863,178.223,-46.387,1533.365,304
869,1685506806.461,-81.543,-656.738,-58.105,-47.363,1533.369,304
870,1685506806.465,-55.664,-162.598,240.234,-37.598,1533.373,308
871,1685506806.469,3.418,499.023,353.027,-28.809,1533.377,308
872,1685506806.484,-17.09,207.031,218.262,-27.344,1533.381,310
873,1685506806.488,-73.242,-225.586,200.195,-39.551,1533.385,310
874,1685506806.492,-59.082,-167.969,210.449,-38.086,1533.389,307
875,1685506806.496,-0.488,178.223,314.453,-29.297,1533.393,307
876,1685506806.5,6.348,123.047,197.754,-32.227,1533.397,307
877,1685506806.504,-49.316,-810.059,-129.395,-40.039,1533.401,302
878,1685506806.508,-66.895,-475.586,203.613,-45.41,1533.405,302
879,1685506806.511,-25.391,370.605,406.738,-32.227,1533.408,302
880,1685506806.515,-2.93,131.348,244.141,-33.203,1533.412,302
881,1685506806.519,-45.898,-26.855,268.066,-49.316,1533.416,299
882,1685506806.523,-75.195,281.738,294.922,-51.27,1533.42,299
883,1685506806.527,-31.25,326.66,253.906,-43.945,1533.424,299
884,1685506806.529,14.648,126.953,215.332,-31.25,1533.439,299
885,1685506806.533,-17.578,257.324,253.906,-41.504,1533.443,301
886,1685506806.537,-73.242,343.75,252.441,-58.105,1533.447,301
887,1685506806.541,-50.781,181.641,230.957,-30.273,1533.451,301
888,1685506806.545,2.441,2.441,181.152,-12.207,1533.455,305
889,1685506806.549,-4.883,-31.738,201.172,-35.645,1533.459,305
890,1685506806.553,-58.594,-165.039,211.914,-49.316,1533.463,305
891,1685506806.556,-53.711,-211.426,176.27,-39.062,1533.466,306
892,1685506806.56,4.395,-748.047,84.473,-11.719,1533.47,306
893,1685506806.564,14.648,-661.133,315.918,-13.672,1533.474,306
894,1685506806.568,-32.227,207.52,377.441,-38.574,1533.478,306
895,1685506806.572,-57.617,179.688,270.02,-41.016,1533.482,306
896,1685506806.574,-3.906,19.043,324.219,-32.227,1533.47,303
897,1685506806.578,30.762,71.777,310.547,-27.344,1533.474,303
898,1685506806.582,-8.789,316.895,292.48,-38.574,1533.478,303
899,1685506806.586,-50.781,47.852,205.078,-50.293,1533.482,299
900,1685506806.59,-20.02,-394.531,237.793,-35.645,1533.486,299
901,1685506806.594,20.508,24.902,326.66,-22.949,1533.49,299
902,1685506806.598,-4.883,142.578,270.02,-29.785,1533.494,298
903,1685506806.601,-53.223,-287.109,217.285,-42.48,1533.498,298
904,1685506806.605,-50.781,-347.168,309.082,-35.156,1533.502,298
905,1685506806.609,9.766,360.352,422.363,-11.23,1533.506,298
906,1685506806.613,23.438,662.598,344.727,-21.484,1533.509,298
907,1685506806.617,-36.621,-144.531,138.184,-34.668,1533.513,302
908,1685506806.649,-47.852,-501.953,274.414,-28.32,1533.545,308
909,1685506806.653,13.184,378.418,412.598,-23.438,1533.549,308
910,1685506806.657,27.832,534.18,309.57,-28.809,1533.553,305
911,1685506806.661,-20.02,140.625,200.195,-41.016,1533.557,305
912,1685506806.664,-33.691,212.891,315.918,-26.367,1533.56,305
913,1685506806.665,-39.551,176.27,251.465,-31.25,1533.561,305
914,1685506806.668,-30.273,171.387,283.691,-10.742,1533.564,302
915,1685506806.669,-3.418,189.453,338.867,-16.602,1533.565,302
916,1685506806.672,21.973,-101.074,273.926,14.16,1533.568,302
917,1685506806.673,20.996,61.523,277.344,-15.625,1533.569,302
918,1685506806.676,3.906,-233.398,289.062,-5.371,1533.572,302
919,1685506806.676,-22.949,-518.555,84.473,-19.531,1533.573,302
920,1685506806.68,-56.641,-268.066,275.879,-17.578,1533.576,302
921,1685506806.68,-38.574,211.914,331.543,-21.973,1533.576,302
922,1685506806.684,-17.578,458.008,386.719,-12.695,1533.58,303
923,1685506806.684,-35.645,179.688,276.367,-16.602,1533.58,303
924,1685506806.688,27.344,223.633,280.762,-8.789,1533.584,303
925,1685506806.688,1.953,-76.66,268.066,-13.672,1533.584,303
926,1685506806.691,19.043,188.477,354.98,-13.184,1533.588,303
927,1685506806.692,17.578,-86.426,288.086,-12.207,1533.588,303
928,1685506806.695,-28.32,495.117,361.816,-32.715,1533.592,303
929,1685506806.699,-43.945,465.82,281.738,-35.156,1533.595,308
930,1685506806.703,-22.949,80.566,234.863,-24.414,1533.599,308
931,1685506806.707,5.859,231.934,338.867,-14.16,1533.603,308
932,1685506806.712,-22.949,464.355,306.641,-6.348,1533.611,313
933,1685506806.716,-65.918,138.672,196.289,-23.926,1533.614,313
934,1685506806.72,-31.738,-503.418,111.816,-19.043,1533.618,313
935,1685506806.724,24.414,-580.566,253.418,6.348,1533.622,313
936,1685506806.728,5.859,406.25,427.246,-15.137,1533.626,313
937,1685506806.732,-51.27,193.848,239.746,-45.41,1533.63,313
938,1685506806.736,-39.062,-620.117,91.309,-32.227,1533.634,313
939,1685506806.739,18.066,-37.109,364.746,-8.789,1533.638,309
940,1685506806.743,15.625,708.984,411.133,-15.137,1533.642,309
941,1685506806.747,-34.668,394.043,269.531,-33.203,1533.646,309
942,1685506806.751,-38.574,96.68,309.57,-18.555,1533.65,307
943,1685506806.755,12.207,496.582,384.766,4.395,1533.654,307
944,1685506806.769,36.621,698.73,308.105,-11.23,1533.666,309
945,1685506806.773,-18.066,162.598,200.684,-36.133,1533.669,309
946,1685506806.777,-48.34,-76.172,273.926,-20.02,1533.673,309
947,1685506806.781,-12.695,163.574,311.523,0.488,1533.677,314
948,1685506806.785,16.113,406.738,375.488,0.488,1533.681,314
949,1685506806.789,-15.625,166.992,224.609,-27.832,1533.685,314
950,1685506806.793,-61.035,-904.785,9.766,-31.738,1533.689,314
951,1685506806.796,-20.02,-605.469,349.609,-17.578,1533.693,316
952,1685506806.8,28.809,521.973,466.797,-14.16,1533.697,316
953,1685506806.804,20.02,467.285,311.523,-6.836,1533.701,316
954,1685506806.808,-28.32,369.629,327.148,-23.438,1533.705,315
955,1685506806.812,-43.457,568.848,328.613,-37.598,1533.708,315
956,1685506806.816,13.184,524.414,289.551,-16.602,1533.712,315
957,1685506806.82,17.09,271.484,218.262,-11.719,1533.716,311
958,1685506806.824,-34.18,371.582,254.395,-26.367,1533.72,311
959,1685506806.828,-50.781,525.879,310.059,-28.32,1533.724,311
960,1685506806.832,-12.207,445.312,268.555,-9.277,1533.728,311
961,1685506806.836,23.926,-63.965,76.66,-5.371,1533.732,309
962,1685506806.84,1.953,-120.605,186.035,-12.207,1533.736,309
963,1685506806.843,-25.391,195.312,333.496,-20.508,1533.74,309
964,1685506806.847,9.766,339.844,271.973,-9.277,1533.743,309
965,1685506806.851,31.25,-436.035,121.582,8.301,1533.747,312
966,1685506806.855,-12.207,-365.723,321.289,-2.441,1533.751,312
967,1685506806.859,-42.969,479.004,367.188,-24.902,1533.755,312
968,1685506806.859,-42.48,325.684,250.488,-23.438,1533.756,312
969,1685506806.863,-7.324,97.656,311.523,-24.902,1533.76,318
970,1685506806.867,-3.418,432.617,340.82,-50.781,1533.764,318
971,1685506806.871,-58.594,534.18,262.695,-67.383,1533.768,318
972,1685506806.875,-62.988,192.871,189.453,-74.219,1533.772,318
973,1685506806.879,-14.16,-80.566,246.582,-52.246,1533.775,320
974,1685506806.883,-16.113,266.113,323.242,-70.801,1533.779,320
975,1685506806.886,-59.082,617.188,317.871,-94.238,1533.783,320
976,1685506806.89,-102.539,53.223,160.645,-87.402,1533.787,318
977,1685506806.894,-82.031,-930.176,104.98,-95.703,1533.791,318
978,1685506806.898,-23.438,-237.793,399.902,-93.262,1533.795,318
979,1685506806.902,-69.336,618.652,366.699,-88.867,1533.799,315
980,1685506806.906,-129.883,182.129,157.715,-104.004,1533.802,315
981,1685506806.91,-76.172,320.312,308.105,-93.262,1533.806,315
982,1685506806.914,-44.922,775.391,383.301,-94.238,1533.81,315
983,1685506806.918,-66.406,670.898,247.07,-119.141,1533.814,316
984,1685506806.922,-100.098,235.352,141.602,-123.047,1533.818,316
985,1685506806.926,-91.797,9.277,184.082,-96.191,1533.822,316
986,1685506806.93,-33.203,315.43,286.621,-70.801,1533.826,321
987,1685506806.933,-28.809,588.867,275.879,-77.637,1533.83,321
988,1685506806.937,-71.289,-289.551,17.578,-68.848,1533.834,321
989,1685506806.941,-60.059,-66.895,236.816,-38.086,1533.838,321
990,1685506806.945,-10.254,731.445,368.652,-28.809,1533.842,327
991,1685506806.949,-10.254,426.758,212.891,-50.293,1533.845,327
992,1685506806.949,-50.293,-31.25,210.449,-55.664,1533.846,327
993,1685506806.953,-55.664,39.062,232.422,-40.039,1533.85,327
994,1685506806.957,-13.672,463.379,298.34,-26.367,1533.854,327
995,1685506806.961,20.996,515.625,260.742,-22.949,1533.858,329
996,1685506806.965,-0.488,348.633,270.508,-18.555,1533.862,329
997,1685506806.969,-35.156,144.043,198.73,-1.465,1533.865,329
998,1685506806.973,-4.883,302.246,252.93,19.043,1533.869,327
999,1685506806.976,51.27,356.934,257.812,33.203,1533.873,327
1000,1685506806.98,13.672,-622.07,47.852,22.949,1533.877,327
1001,1685506806.984,-38.574,-48.828,273.438,5.371,1533.881,327
1002,1685506806.988,-24.414,693.359,342.285,-3.418,1533.885,325
1003,1685506806.992,30.273,444.336,223.633,2.441,1533.889,325
1004,1685506806.997,53.223,694.336,285.156,6.836,1533.896,325
1005,1685506807.001,-4.395,725.586,244.141,-0.977,1533.9,327
1006,1685506807.005,-14.16,300.781,133.789,1.465,1533.904,327
1007,1685506807.009,41.016,4.395,98.633,13.184,1533.908,327
1008,1685506807.013,37.598,426.27,261.23,0.0,1533.911,333
1009,1685506807.017,-10.254,501.465,228.516,-10.254,1533.915,333
1010,1685506807.021,-30.762,58.105,124.023,-0.977,1533.919,333
1011,1685506807.024,14.16,-349.121,68.359,31.25,1533.923,333
1012,1685506807.028,50.781,210.938,309.082,29.785,1533.927,337
1013,1685506807.032,9.277,857.91,318.359,3.418,1533.931,337
1014,1685506807.036,-36.621,481.445,156.738,-7.812,1533.935,337
1015,1685506807.039,46.875,753.906,323.242,37.109,1533.936,337
1016,1685506807.04,0.488,389.648,276.367,17.578,1533.939,337
1017,1685506807.043,45.41,606.934,184.082,21.973,1533.939,337
1018,1685506807.047,-0.488,270.508,136.23,19.531,1533.943,337
1019,1685506807.051,-9.766,263.184,254.883,20.02,1533.947,337
1020,1685506807.055,28.32,473.145,250.488,15.625,1533.951,334
1021,1685506807.059,43.457,545.41,255.859,14.648,1533.955,334
1022,1685506807.063,1.465,252.93,138.672,-2.93,1533.959,334
1023,1685506807.066,-26.367,-770.508,-54.688,0.977,1533.963,334
1024,1685506807.07,22.949,-362.305,313.965,19.043,1533.967,332
1025,1685506807.074,60.059,823.242,419.434,23.926,1533.971,332
1026,1685506807.078,19.043,644.531,187.5,5.371,1533.975,332
1027,1685506807.082,-10.742,543.945,221.191,-4.395,1533.979,335
1028,1685506807.084,20.996,865.723,294.434,8.301,1534.009,335
1029,1685506807.088,54.688,898.926,243.652,16.113,1534.013,335
1030,1685506807.092,26.367,596.68,119.141,1.465,1534.017,335
1031,1685506807.096,-15.625,625.488,178.711,-6.348,1534.021,340
1032,1685506807.1,4.883,808.105,255.371,6.348,1534.025,340
1033,1685506807.104,44.434,636.23,178.711,7.324,1534.028,340
1034,1685506807.108,26.855,-150.879,-58.594,7.324,1534.032,340
1035,1685506807.111,-24.414,-95.215,136.23,-13.672,1534.036,343
1036,1685506807.115,-28.809,750.0,334.473,-24.414,1534.04,343
1037,1685506807.119,0.488,756.348,250.488,-16.602,1534.044,343
1038,1685506807.123,10.254,329.59,188.477,-17.09,1534.048,341
1039,1685506807.127,-22.949,598.145,215.332,-34.668,1534.052,341
1040,1685506807.144,-38.086,772.949,223.633,-34.18,1534.041,337
1041,1685506807.148,0.488,352.539,161.621,-8.789,1534.045,337
1042,1685506807.152,25.391,109.863,189.453,-3.906,1534.049,336
1043,1685506807.156,-19.043,641.113,257.812,-27.344,1534.053,336
1044,1685506807.16,-57.129,834.961,223.633,-42.969,1534.056,336
1045,1685506807.164,-21.484,330.566,122.559,-31.25,1534.06,338
1046,1685506807.168,19.531,135.742,175.781,-20.996,1534.064,338
1047,1685506807.171,-10.254,799.316,292.969,-36.133,1534.068,338
1048,1685506807.175,-55.664,901.855,186.523,-38.574,1534.072,338
1049,1685506807.176,-19.531,892.09,190.918,-14.648,1534.085,338
1050,1685506807.179,-46.387,360.84,108.887,-31.738,1534.076,338
1051,1685506807.18,-38.574,197.266,-28.809,-10.254,1534.088,343
1052,1685506807.183,-1.953,504.395,245.605,-15.625,1534.08,343
1053,1685506807.184,19.531,273.926,174.316,-8.301,1534.092,343
1054,1685506807.187,22.461,974.121,277.832,-5.859,1534.084,343
1055,1685506807.188,25.879,998.535,339.355,-21.484,1534.096,343
1056,1685506807.192,-33.691,820.801,136.23,-33.203,1534.1,344
1057,1685506807.196,-38.086,184.082,10.254,-23.438,1534.104,344
1058,1685506807.2,-3.418,344.238,166.992,-2.93,1534.108,344
1059,1685506807.203,16.113,982.91,325.684,1.465,1534.112,344
1060,1685506807.207,-13.184,857.91,171.387,-11.23,1534.116,340
1061,1685506807.211,-50.781,-127.93,-149.414,-14.648,1534.12,340
1062,1685506807.215,-32.227,256.348,157.715,-15.625,1534.124,340
1063,1685506807.219,-0.977,-977.051,322.754,-10.254,1534.128,340
1064,1685506807.235,-3.418,640.137,107.91,-16.602,1534.133,333
1065,1685506807.239,-43.457,111.328,31.738,-2.441,1534.137,333
1066,1685506807.243,-41.992,376.953,194.336,-0.488,1534.141,333
1067,1685506807.247,18.066,990.723,304.688,2.93,1534.144,335
1068,1685506807.251,19.043,699.219,66.895,1.953,1534.148,335
1069,1685506807.255,-41.992,-179.688,-89.844,0.488,1534.152,335
1070,1685506807.259,-45.898,241.211,215.332,-18.066,1534.156,335
1071,1685506807.262,11.23,980.957,289.551,-14.16,1534.16,338
1072,1685506807.266,39.062,692.383,155.273,3.906,1534.164,338
1073,1685506807.27,-14.16,341.797,199.219,8.301,1534.168,338
1074,1685506807.274,-37.109,791.504,255.371,14.648,1534.172,337
1075,1685506807.278,28.32,964.355,217.773,14.16,1534.176,337
1076,1685506807.279,66.895,771.484,122.559,9.766,1534.176,337
1077,1685506807.283,11.23,887.695,170.41,-16.113,1534.179,337
1078,1685506807.287,-48.828,835.938,148.926,-26.367,1534.183,332
1079,1685506807.291,-38.086,520.02,94.238,-9.766,1534.187,332
1080,1685506807.295,8.301,420.41,54.199,0.488,1534.191,332
1081,1685506807.299,16.113,532.227,129.883,-7.324,1534.195,332
1082,1685506807.303,-47.852,652.832,181.152,-31.25,1534.199,327
1083,1685506807.306,-51.27,758.789,152.832,-20.02,1534.203,327
1084,1685506807.31,11.719,54.688,-36.133,3.418,1534.207,327
1085,1685506807.314,18.066,187.988,210.938,6.348,1534.211,327
1086,1685506807.318,-17.09,995.117,291.504,-15.137,1534.215,328
1087,1685506807.322,-30.762,865.234,139.16,-17.09,1534.219,328
1088,1685506807.324,6.836,749.512,220.703,8.301,1534.22,328
1089,1685506807.328,39.551,823.73,210.449,9.277,1534.224,328
1090,1685506807.332,1.953,-997.559,207.52,-4.395,1534.228,332
1091,1685506807.336,-39.062,719.238,13.672,2.441,1534.231,332
1092,1685506807.34,-1.953,260.742,3.906,17.578,1534.235,332
1093,1685506807.344,34.18,621.582,198.242,7.324,1534.239,335
1094,1685506807.348,4.883,900.879,177.246,-5.859,1534.243,335
1095,1685506807.351,-43.945,464.844,27.344,-5.859,1534.247,335
1096,1685506807.355,-27.344,-225.586,-71.289,1.953,1534.251,335
1097,1685506807.359,28.32,616.211,268.066,1.953,1534.255,334
1098,1685506807.363,14.648,-916.016,266.602,-5.859,1534.259,334
1099,1685506807.367,-27.832,732.91,32.227,-20.508,1534.263,334
1100,1685506807.369,-25.879,877.93,132.324,-18.066,1534.278,334
1101,1685506807.373,10.742,-979.98,224.121,-3.906,1534.282,329
1102,1685506807.377,7.812,920.41,121.094,-13.672,1534.286,329
1103,1685506807.381,-21.973,750.977,11.23,-33.203,1534.29,329
1104,1685506807.385,-27.344,868.164,98.145,-31.738,1534.294,326
1105,1685506807.389,10.254,873.047,136.23,0.977,1534.298,326
1106,1685506807.393,23.926,832.52,97.656,0.0,1534.302,326
1107,1685506807.396,-21.484,192.383,-157.715,-46.875,1534.306,326
1108,1685506807.4,-48.828,252.93,37.598,-57.129,1534.31,328
1109,1685506807.404,-9.277,-979.004,287.109,-29.785,1534.313,328
1110,1685506807.408,26.367,890.137,143.555,-8.301,1534.317,328
1111,1685506807.412,-7.324,649.414,53.711,-21.973,1534.321,328
1112,1685506807.429,-53.223,803.223,89.844,-31.738,1534.325,335
1113,1685506807.433,-36.621,830.566,138.672,-23.438,1534.329,335
1114,1685506807.437,1.465,764.16,114.258,-21.973,1534.333,334
1115,1685506807.441,14.16,591.797,72.754,-18.066,1534.337,334
1116,1685506807.445,-20.508,866.211,189.453,-22.461,1534.341,334
1117,1685506807.449,-59.57,926.27,116.211,-28.32,1534.344,334
1118,1685506807.453,-6.348,710.938,86.914,-19.043,1534.348,334
1119,1685506807.456,15.137,751.953,227.539,-16.113,1534.352,330
1120,1685506807.459,-12.695,999.023,219.238,-17.578,1534.369,330
1121,1685506807.46,-42.48,961.914,195.801,-20.996,1534.356,330
1122,1685506807.463,-49.805,955.566,80.566,-25.879,1534.373,330
1123,1685506807.464,-81.055,-974.609,106.934,-19.531,1534.36,330
1124,1685506807.467,-29.785,762.207,2.441,-0.977,1534.377,328
1125,1685506807.468,-36.621,650.879,-35.156,1.465,1534.364,328
1126,1685506807.471,21.484,910.645,174.316,0.977,1534.38,328
1127,1685506807.472,6.836,518.555,57.129,6.348,1534.368,328
1128,1685506807.475,1.953,-986.328,130.371,-16.113,1534.384,328
1129,1685506807.479,-61.523,720.215,-151.855,-40.527,1534.388,328
1130,1685506807.483,-62.988,643.555,-25.879,-37.109,1534.392,331
1131,1685506807.486,-2.441,911.133,170.898,-9.277,1534.396,331
1132,1685506807.49,3.418,-963.379,169.922,-20.508,1534.4,331
1133,1685506807.494,-41.504,897.461,10.742,-37.598,1534.404,331
1134,1685506807.498,-46.387,175.293,-248.535,-13.184,1534.408,336
1135,1685506807.502,-4.395,574.707,102.539,9.766,1534.412,336
1136,1685506807.505,-1.953,-874.023,210.938,3.418,1534.414,336
1137,1685506807.509,-40.039,743.652,-49.805,-6.348,1534.418,338
1138,1685506807.513,-52.734,-21.973,-218.75,-13.184,1534.421,338
1139,1685506807.517,-18.066,546.875,127.441,-24.414,1534.425,338
1140,1685506807.521,13.184,-865.723,285.645,-9.277,1534.429,338
1141,1685506807.525,-14.16,736.816,-34.668,-0.977,1534.433,336
1142,1685506807.529,-61.523,516.113,-82.52,-4.395,1534.437,336
1143,1685506807.532,-45.898,875.0,175.781,-14.648,1534.441,336
1144,1685506807.536,15.137,-957.031,201.172,-9.766,1534.445,332
1145,1685506807.54,7.324,796.875,-40.039,-4.395,1534.449,332
1146,1685506807.544,-49.805,775.879,8.301,-26.367,1534.453,332
1147,1685506807.548,-37.598,997.559,168.457,-33.691,1534.457,332
1148,1685506807.551,13.672,960.938,124.023,-20.996,1534.46,332
1149,1685506807.555,4.395,887.695,17.578,-2.93,1534.464,332
1150,1685506807.559,-51.758,939.941,45.898,-13.672,1534.467,332
1151,1685506807.563,-66.406,961.426,75.195,-35.645,1534.471,332
1152,1685506807.567,-11.23,968.262,51.758,-28.809,1534.475,336
1153,1685506807.571,24.414,417.48,-178.711,-19.043,1534.479,336
1154,1685506807.575,-17.09,435.547,5.859,-26.367,1534.483,336
1155,1685506807.578,-45.898,-980.957,226.562,-42.48,1534.487,340
1156,1685506807.582,-22.949,937.012,95.703,-31.738,1534.491,340
1157,1685506807.586,20.508,894.531,66.895,-7.812,1534.495,340
1158,1685506807.59,6.348,960.938,114.258,-13.672,1534.499,341
1159,1685506807.594,-43.457,-1000.0,91.797,-12.695,1534.503,341
1160,1685506807.609,-50.293,894.043,-21.973,-23.926,1534.505,337
1161,1685506807.613,-6.836,758.301,-29.785,-40.527,1534.509,337
1162,1685506807.617,6.836,899.414,142.578,-26.367,1534.513,337
1163,1685506807.621,-32.227,-948.73,131.348,-21.973,1534.517,334
1164,1685506807.625,-45.41,791.504,-83.984,-20.508,1534.521,334
1165,1685506807.629,-6.348,246.094,-104.004,-7.812,1534.525,334
1166,1685506807.633,14.16,704.59,112.793,-13.672,1534.529,334
1167,1685506807.636,-31.25,-905.762,156.25,-28.809,1534.533,335
1168,1685506807.64,-56.152,711.426,-69.824,-31.25,1534.537,335
1169,1685506807.644,-10.742,285.156,-117.188,-13.184,1534.541,335
1170,1685506807.648,33.691,859.863,217.285,-13.184,1534.545,340
1171,1685506807.652,-5.859,-973.633,129.395,-31.738,1534.548,340
1172,1685506807.654,-55.664,811.523,-89.844,-36.133,1534.551,340
1173,1685506807.658,-21.484,917.969,102.539,-13.184,1534.555,340
1174,1685506807.662,19.531,998.047,183.105,-9.766,1534.559,344
1175,1685506807.666,-1.953,937.012,26.367,-30.762,1534.563,344
1176,1685506807.67,-46.875,850.098,-54.688,-38.574,1534.567,344
1177,1685506807.674,-27.344,867.676,-8.789,-26.367,1534.571,344
1178,1685506807.678,24.414,974.609,153.809,-18.066,1534.575,343
1179,1685506807.681,30.762,964.355,107.422,-19.531,1534.578,343
1180,1685506807.685,-19.043,322.754,-272.461,-25.879,1534.582,343
1181,1685506807.689,-37.109,545.898,34.668,-28.809,1534.586,339
1182,1685506807.693,10.254,-923.828,271.973,-24.902,1534.59,339
1183,1685506807.697,22.461,897.949,25.879,-28.809,1534.594,339
1184,1685506807.704,-19.043,718.262,-46.875,-42.48,1534.599,337
1185,1685506807.708,-43.457,822.754,48.828,-44.922,1534.603,337
1186,1685506807.712,2.93,-979.004,172.852,-25.391,1534.607,337
1187,1685506807.716,44.922,869.629,34.668,-12.207,1534.611,339
1188,1685506807.72,2.93,692.383,-57.617,-18.555,1534.615,339
1189,1685506807.724,-44.922,875.488,29.785,-26.855,1534.619,339
1190,1685506807.728,-13.672,990.723,116.211,-17.578,1534.623,339
1191,1685506807.731,28.809,833.984,53.711,-6.836,1534.627,345
1192,1685506807.735,10.254,623.535,-4.883,-14.648,1534.631,345
1193,1685506807.739,-31.25,950.684,158.691,-28.32,1534.634,345
1194,1685506807.743,-25.879,999.023,79.102,-24.902,1534.638,348
1195,1685506807.744,18.555,906.738,70.801,-17.09,1534.641,348
1196,1685506807.747,19.043,851.562,-48.828,-13.184,1534.642,348
1197,1685506807.748,-30.762,-994.141,124.512,-34.18,1534.645,348
1198,1685506807.752,-43.457,941.406,24.414,-21.973,1534.649,348
1199,1685506807.756,-4.883,811.523,-106.934,-3.418,1534.653,348
1200,1685506807.76,18.555,918.457,48.828,-11.719,1534.657,346
1201,1685506807.764,-13.672,985.84,49.805,-22.949,1534.66,346
1202,1685506807.768,-45.898,897.949,-141.113,-33.203,1534.664,346
1203,1685506807.771,-18.066,458.984,-208.496,-24.902,1534.668,342
1204,1685506807.775,26.855,681.641,126.953,-7.324,1534.672,342
1205,1685506807.779,4.395,-953.613,209.961,-14.648,1534.676,342
1206,1685506807.783,-43.457,935.059,-16.602,-32.227,1534.68,341
1207,1685506807.787,-17.09,964.844,22.461,-20.508,1534.684,341
1208,1685506807.79,20.996,932.617,108.887,-12.207,1534.688,341
1209,1685506807.794,3.906,-992.676,44.434,-36.621,1534.692,341
1210,1685506807.798,-46.875,853.027,-114.746,-55.664,1534.695,344
1211,1685506807.802,-55.176,243.652,-232.422,-41.992,1534.699,344
1212,1685506807.806,0.0,692.383,131.348,-30.762,1534.703,344
1213,1685506807.81,13.672,-880.859,170.898,-29.297,1534.707,348
1214,1685506807.814,-36.621,742.676,-114.258,-28.32,1534.711,348
1215,1685506807.817,-66.895,455.566,-47.363,-21.973,1534.715,348
1216,1685506807.821,-17.578,895.02,225.098,-7.812,1534.719,348
1217,1685506807.825,26.855,-981.445,158.203,-1.465,1534.723,348
1218,1685506807.829,-9.277,915.527,-71.777,-18.555,1534.727,349
1219,1685506807.833,-48.828,952.637,-7.324,-20.508,1534.731,349
1220,1685506807.834,-20.02,984.375,130.859,-4.395,1534.744,349
1221,1685506807.838,19.531,958.984,104.004,-9.277,1534.748,349
1222,1685506807.842,-16.113,908.691,-98.633,-29.785,1534.752,345
1223,1685506807.846,-67.871,944.336,-54.688,-32.227,1534.756,345
1224,1685506807.85,-48.34,970.215,76.172,-20.02,1534.76,345
1225,1685506807.854,1.465,-992.676,58.594,-13.672,1534.763,340
1226,1685506807.858,-0.977,421.387,-236.816,-9.766,1534.767,340
1227,1685506807.861,-48.34,384.766,-92.285,-21.484,1534.771,340
1228,1685506807.865,-47.363,994.141,185.547,-22.949,1534.775,340
1229,1685506807.869,5.859,975.098,103.516,-13.672,1534.779,338
1230,1685506807.873,29.785,959.473,109.863,-14.16,1534.783,338
1231,1685506807.877,-20.996,959.961,74.707,-19.043,1534.787,338
1232,1685506807.894,-62.988,997.559,16.113,-28.32,1534.79,344
1233,1685506807.898,-18.066,869.141,-159.18,-21.484,1534.793,344
1234,1685506807.902,19.043,686.035,-97.168,-12.695,1534.797,344
1235,1685506807.906,-18.066,911.621,119.629,-21.484,1534.801,344
1236,1685506807.91,-60.547,-959.961,47.852,-28.809,1534.805,343
1237,1685506807.914,-32.227,831.055,-164.062,-15.625,1534.809,343
1238,1685506807.918,6.836,675.293,-68.359,-9.277,1534.813,343
1239,1685506807.921,-5.371,947.754,113.77,-17.578,1534.817,338
1240,1685506807.925,-36.133,-981.934,75.684,-15.625,1534.821,338
1241,1685506807.926,-45.898,961.426,6.836,-28.809,1534.834,338
1242,1685506807.929,-27.832,840.332,-88.379,-7.324,1534.825,338
1243,1685506807.93,-56.152,891.602,-164.551,-19.531,1534.838,338
1244,1685506807.933,18.066,814.453,34.18,-1.465,1534.829,334
1245,1685506807.934,-19.531,940.918,38.574,-15.137,1534.842,334
1246,1685506807.937,6.348,999.023,179.688,-15.625,1534.832,334
1247,1685506807.938,2.93,-1000.0,133.301,-22.949,1534.846,334
1248,1685506807.942,-30.273,936.523,-50.781,-40.527,1534.85,334
1249,1685506807.946,-56.641,770.996,-161.621,-39.551,1534.854,334
1250,1685506807.95,-16.113,869.141,28.809,-18.555,1534.858,335
1251,1685506807.953,19.531,-972.168,182.617,-16.113,1534.861,335
1252,1685506807.957,-24.414,937.5,-55.176,-36.621,1534.865,335
1253,1685506807.961,-79.59,231.934,-358.398,-41.504,1534.869,335
1254,1685506807.965,-45.41,511.719,59.082,-24.902,1534.873,339
1255,1685506807.969,14.16,-892.09,273.438,-8.301,1534.877,339
1256,1685506807.984,-1.953,858.887,-81.543,-12.695,1534.895,342
1257,1685506807.988,-48.34,584.473,-198.73,-25.879,1534.899,342
1258,1685506807.992,-45.41,834.473,74.219,-22.461,1534.902,341
1259,1685506807.996,1.953,-925.293,175.293,-11.719,1534.906,341
1260,1685506808.0,20.996,830.078,-110.84,-3.906,1534.91,341
1261,1685506808.004,-32.227,242.676,-275.391,-17.09,1534.914,337
1262,1685506808.008,-51.758,681.152,73.73,-32.227,1534.918,337
1263,1685506808.011,-2.441,-916.992,199.219,-23.926,1534.922,337
1264,1685506808.015,19.043,838.379,-35.156,-16.113,1534.926,337
1265,1685506808.019,-34.668,791.504,-81.543,-29.785,1534.93,334
1266,1685506808.023,-65.43,981.934,105.469,-37.598,1534.934,334
1267,1685506808.027,-26.367,978.027,57.617,-26.855,1534.938,334
1268,1685506808.032,-1.953,874.023,-78.125,-19.043,1534.932,336
1269,1685506808.036,-20.508,913.574,2.441,-28.809,1534.936,336
1270,1685506808.04,-48.34,-996.094,66.406,-34.18,1534.94,336
1271,1685506808.044,-37.109,935.547,16.113,-23.926,1534.944,341
1272,1685506808.048,5.859,823.242,-80.566,-9.766,1534.948,341
1273,1685506808.052,-11.23,900.391,-70.801,-20.02,1534.952,341
1274,1685506808.056,-56.152,982.91,1.953,-40.527,1534.956,341
1275,1685506808.059,-43.945,919.922,22.949,-28.32,1534.96,341
1276,1685506808.063,-4.395,458.496,-203.125,-1.465,1534.963,342
1277,1685506808.067,1.953,744.141,34.18,4.883,1534.967,342
1278,1685506808.071,-39.551,-922.363,169.434,-13.672,1534.971,342
1279,1685506808.074,-25.391,711.426,-70.801,-18.555,1534.971,338
1280,1685506808.075,-65.918,879.883,-63.477,-27.832,1534.975,338
1281,1685506808.078,10.254,908.203,78.613,-16.602,1534.975,338
1282,1685506808.082,-27.344,999.023,67.871,-33.691,1534.979,338
1283,1685506808.086,-67.871,865.723,-82.031,-31.738,1534.983,332
1284,1685506808.09,-29.297,895.508,18.555,-21.484,1534.987,332
1285,1685506808.094,6.348,934.57,92.285,-25.879,1534.991,332
1286,1685506808.098,-24.902,999.023,68.848,-32.715,1534.994,332
1287,1685506808.101,-54.199,859.863,-97.168,-32.227,1534.998,329
1288,1685506808.105,-47.852,24.414,-279.785,-20.508,1535.002,329
1289,1685506808.109,-6.348,438.477,140.137,-18.066,1535.006,329
1290,1685506808.113,5.371,-932.617,229.004,-22.949,1535.01,331
1291,1685506808.117,-42.969,875.488,-93.75,-27.832,1535.014,331
1292,1685506808.119,-58.594,929.688,11.719,-28.809,1535.016,331
1293,1685506808.123,-18.066,994.141,167.969,-25.391,1535.02,331
1294,1685506808.127,4.395,951.172,51.758,-22.461,1535.024,334
1295,1685506808.131,-35.156,892.09,-123.535,-29.785,1535.028,334
1296,1685506808.135,-54.688,943.848,-26.367,-38.086,1535.032,334
1297,1685506808.139,-9.277,973.145,39.062,-19.531,1535.036,334
1298,1685506808.143,12.207,984.863,-5.371,-15.137,1535.04,334
1299,1685506808.146,-33.203,390.137,-255.371,-27.344,1535.043,334
1300,1685506808.15,-70.801,380.859,-78.613,-37.598,1535.047,334
1301,1685506808.154,-30.273,996.094,211.914,-29.785,1535.051,330
1302,1685506808.158,14.16,970.215,100.098,-21.484,1535.055,330
1303,1685506808.162,-0.977,967.285,62.5,-32.715,1535.059,330
