,timestamps,TP9,AF7,AF8,TP10,Secondary Timestamp,emg_signal
0,1686362217.66,-247.07,813.477,60.059,-92.285,1294.561,327.85605850720924
1,1686362217.67,-260.742,982.91,66.895,-19.531,1294.565,328.0176337409329
2,1686362217.67,-223.633,928.711,23.438,83.496,1294.569,323.28208874338196
3,1686362217.68,-197.754,829.102,50.781,69.824,1294.573,332.37474237261137
4,1686362217.68,-211.914,841.309,57.617,-4.395,1294.577,335.22291962067277
5,1686362217.68,-208.984,662.598,6.348,1.953,1294.581,331.7887290811156
6,1686362217.69,-205.566,776.367,37.598,13.672,1294.585,338.352666266188
7,1686362217.69,-202.637,344.727,12.207,-14.648,1294.589,332.3238033553742
8,1686362217.7,-214.355,255.371,69.824,-78.125,1294.593,339.24163146245814
9,1686362217.7,-218.75,-977.539,99.121,-104.004,1294.597,328.2754822478043
10,1686362217.7,-191.406,912.598,6.348,7.812,1294.601,339.7978592757309
11,1686362217.71,-180.664,809.082,45.898,68.848,1294.604,335.95097739669535
12,1686362217.71,-239.258,983.887,49.316,-25.391,1294.607,327.7006840635055
13,1686362217.72,-244.141,734.375,0.0,-73.73,1294.611,327.71793117313837
14,1686362217.72,-222.656,364.746,33.691,-123.047,1294.615,329.08130819429584
15,1686362217.72,-167.48,621.094,80.078,-120.117,1294.619,328.23297587824345
16,1686362217.73,-154.785,978.516,82.52,-120.117,1294.622,333.07757652720943
17,1686362217.73,-180.176,-975.586,39.062,-169.922,1294.626,339.20633045345795
18,1686362217.73,-205.078,351.074,-23.438,-183.594,1294.63,327.45414030733434
19,1686362217.74,-205.566,186.035,59.082,-120.605,1294.634,339.8247441668708
20,1686362217.74,-174.805,-983.887,104.98,-99.121,1294.64,323.97159040325073
21,1686362217.74,-178.223,855.469,6.348,-124.023,1294.644,324.78143482860645
22,1686362217.75,-197.754,442.383,35.156,-154.297,1294.647,341.66304467935953
23,1686362217.75,-165.527,711.426,91.797,-138.672,1294.651,330.76371975426895
24,1686362217.76,-148.926,960.449,20.996,-104.98,1294.655,338.4179528394992
25,1686362217.76,-164.062,710.938,-2.441,-150.879,1294.659,332.7784221041826
26,1686362217.76,-167.969,-45.898,-12.695,-171.875,1294.663,335.873802693661
27,1686362217.77,-164.551,53.223,54.199,-85.449,1294.667,340.1175097074232
28,1686362217.77,-182.129,-965.332,108.887,22.949,1294.671,328.7758256852254
29,1686362217.78,-203.613,837.891,-7.812,22.949,1294.675,338.7934284786609
30,1686362217.78,-213.867,400.391,0.977,-55.664,1294.679,338.7110351535605
31,1686362217.78,-228.516,670.41,62.5,-74.707,1294.683,341.22578512702626
32,1686362217.78,-207.031,910.645,26.367,-81.055,1294.696,337.8637084742801
33,1686362217.79,-183.594,572.266,-19.531,-160.645,1294.7,335.5114976178871
34,1686362217.79,-187.988,416.016,-21.973,-223.633,1294.704,337.1593267088213
35,1686362217.8,-191.895,422.852,-5.371,-153.809,1294.708,344.9472957819102
36,1686362217.8,-178.711,408.203,16.113,-79.102,1294.712,334.4930430446914
37,1686362217.8,-185.547,168.457,-44.922,-74.219,1294.716,332.28739283630284
38,1686362217.81,-225.098,-396.973,-20.02,-92.773,1294.72,330.648043389688
39,1686362217.81,-239.746,310.059,78.613,-92.285,1294.724,335.1964838034991
40,1686362217.82,-225.098,782.715,-9.766,-68.848,1294.728,334.0923092608436
41,1686362217.82,-206.055,422.363,-16.113,-83.008,1294.732,334.1656736979532
42,1686362217.82,-220.703,409.668,13.672,-124.512,1294.735,339.26875286697657
43,1686362217.83,-263.184,468.262,-13.672,-148.438,1294.739,333.8044848610594
44,1686362217.84,-265.625,233.887,-41.504,-89.844,1294.742,336.055128327735
45,1686362217.85,-222.168,89.355,-13.184,39.551,1294.746,333.3132657112493
46,1686362217.85,-235.352,265.137,14.648,113.281,1294.75,333.976822683102
47,1686362217.86,-264.648,302.734,-21.484,100.098,1294.753,343.3423761019961
48,1686362217.86,-254.395,78.613,-35.156,133.789,1294.757,340.5115054456327
49,1686362217.86,-229.98,-239.258,-22.949,237.305,1294.761,339.3562692935884
50,1686362217.87,-193.848,-144.043,-8.301,256.348,1294.765,346.17695950239624
51,1686362217.87,-164.062,-0.977,-5.371,163.086,1294.769,336.1918677379983
52,1686362217.88,-181.641,15.137,-17.09,104.98,1294.773,326.9568071115603
53,1686362217.88,-164.551,-549.805,-64.941,133.301,1294.777,327.1694433000015
54,1686362217.88,-124.023,-501.465,33.203,159.18,1294.781,339.69791851756133
55,1686362217.89,-159.18,607.422,63.965,146.484,1294.785,343.04465824840713
56,1686362217.89,-197.266,391.113,-33.691,161.621,1294.789,345.76319290286153
57,1686362217.9,-193.848,91.309,-15.625,213.867,1294.793,332.00990818071097
58,1686362217.9,-184.57,409.18,1.465,235.352,1294.797,335.5653792367573
59,1686362217.9,-192.383,285.645,-16.113,183.594,1294.801,333.5374761086097
60,1686362217.91,-200.195,185.059,5.859,97.168,1294.805,341.12776239140106
61,1686362217.91,-211.426,236.328,-5.859,19.043,1294.809,334.5202722732683
62,1686362217.92,-220.215,-483.398,-70.312,-11.23,1294.813,350.09919679360974
63,1686362217.92,-201.172,-797.852,-2.441,-14.16,1294.817,331.53129953370257
64,1686362217.92,-196.289,191.406,77.637,-4.883,1294.821,330.5288625673229
65,1686362217.93,-213.867,583.496,-1.953,-11.719,1294.824,329.50423473342806
66,1686362217.93,-224.121,271.484,-29.785,-28.809,1294.828,344.61324376608144
67,1686362217.94,-230.469,200.684,-1.465,-6.348,1294.832,340.7397484963809
68,1686362217.94,-206.055,353.027,-6.348,24.414,1294.845,337.8782998770302
69,1686362217.94,-181.152,270.02,-20.996,-33.203,1294.849,344.3654671264643
70,1686362217.94,-201.172,37.598,-22.949,-110.84,1294.853,340.7769846041141
71,1686362217.95,-221.191,-119.141,-15.137,-81.543,1294.857,337.17681820079076
72,1686362217.95,-226.562,-27.832,-14.16,-1.953,1294.861,343.61623049102775
73,1686362217.96,-208.008,209.473,-18.555,28.809,1294.865,346.7242633311036
74,1686362217.96,-219.727,-445.801,-28.32,13.672,1294.869,337.1604471061558
75,1686362217.96,-225.098,-450.195,37.109,-45.41,1294.873,343.0167143577504
76,1686362217.97,-188.965,580.566,54.199,-50.781,1294.876,330.66618766658445
77,1686362217.97,-161.621,400.391,-34.18,48.828,1294.88,348.53086921240396
78,1686362217.97,-175.293,186.523,-33.203,95.215,1294.884,335.60557878798375
79,1686362217.98,-206.055,427.734,-3.418,62.012,1294.888,339.3852758404055
80,1686362217.98,-240.234,394.043,-11.23,52.246,1294.883,347.21782733583524
81,1686362217.99,-212.402,-7.812,-35.645,71.777,1294.887,341.3242280491536
82,1686362217.99,-167.969,-42.48,-15.137,103.516,1294.891,332.4510997483214
83,1686362218.0,-168.457,371.094,23.926,58.594,1294.895,341.8236371829211
84,1686362218.0,-174.316,279.785,-23.438,27.832,1294.899,336.43629312113745
85,1686362218.0,-166.016,-323.242,-38.086,111.328,1294.903,339.0635338755214
86,1686362218.01,-147.461,-298.828,51.27,166.504,1294.907,335.3208074270275
87,1686362218.01,-148.926,413.086,40.039,130.371,1294.91,331.59344595238684
88,1686362218.01,-177.734,396.484,-38.574,86.914,1294.914,344.646504636516
89,1686362218.02,-198.242,-187.988,9.277,60.059,1294.918,339.3355596803125
90,1686362218.02,-182.617,-34.668,83.008,24.902,1294.922,337.04551573934555
91,1686362218.03,-170.41,429.199,-1.465,-56.152,1294.926,345.90827186742985
92,1686362218.04,-177.734,38.086,-42.48,-165.039,1294.94,342.77315692742513
93,1686362218.04,-183.594,-132.324,18.555,-169.922,1294.944,354.2916821708511
94,1686362218.05,-163.086,274.902,40.039,-89.844,1294.948,341.82805737687386
95,1686362218.05,-137.207,284.18,-12.207,-40.527,1294.952,333.881961638252
96,1686362218.06,-154.297,79.59,-15.137,-70.801,1294.956,339.399917498859
97,1686362218.06,-144.043,-466.797,-31.25,-69.336,1294.959,341.0336191505892
98,1686362218.06,-122.559,-671.875,45.41,-2.93,1294.963,341.57268262836055
99,1686362218.07,-109.863,564.453,108.398,17.09,1294.967,331.5943078572452
100,1686362218.07,-109.375,678.223,-25.879,-5.371,1294.971,338.07398981927736
101,1686362218.08,-156.738,243.652,-27.832,-14.16,1294.975,330.7085558589845
102,1686362218.08,-172.363,495.605,34.668,19.531,1294.979,341.5810231081418
103,1686362218.08,-147.949,568.359,9.277,72.266,1294.983,342.1519839595799
104,1686362218.09,-147.949,207.52,-16.602,126.953,1294.996,337.3075037477785
105,1686362218.09,-178.223,30.273,-2.441,120.605,1295.0,345.44461141122486
106,1686362218.09,-182.129,125.977,10.254,91.309,1295.003,333.6759158033994
107,1686362218.1,-147.461,219.238,23.926,98.633,1295.007,343.6421135342415
108,1686362218.1,-145.02,92.285,13.184,94.727,1295.011,343.84597376737327
109,1686362218.11,-162.598,-209.473,-1.465,44.922,1295.015,354.1299601004991
110,1686362218.11,-168.457,125.0,36.133,26.367,1295.019,347.0264370410297
111,1686362218.11,-144.531,546.387,56.152,48.828,1295.023,333.81388372510173
112,1686362218.12,-119.141,13.672,-21.484,33.691,1295.027,343.65611465464684
113,1686362218.12,-126.465,-478.027,31.738,-43.457,1295.031,332.11688506836714
114,1686362218.12,-127.441,414.551,106.934,-89.355,1295.035,336.31428430648594
115,1686362218.13,-122.559,597.656,7.812,-44.922,1295.039,350.90822955991206
116,1686362218.13,-129.395,316.895,15.625,-17.09,1295.027,332.60333444755855
117,1686362218.13,-146.484,439.453,40.527,-58.105,1295.031,337.4507693700877
118,1686362218.14,-166.992,395.02,17.578,-88.379,1295.034,337.7828477424925
119,1686362218.14,-156.738,190.918,7.324,-60.059,1295.038,334.0222362068519
120,1686362218.15,-143.555,-103.516,18.555,-16.113,1295.042,340.2220642180854
121,1686362218.15,-147.461,111.328,57.129,-12.207,1295.046,343.1102649095649
122,1686362218.15,-155.762,424.316,38.574,-24.902,1295.05,330.7592062662729
123,1686362218.16,-150.391,307.617,0.0,-14.648,1295.054,344.13547722535117
124,1686362218.16,-118.164,138.184,38.086,26.367,1295.058,336.2148629180923
125,1686362218.16,-104.98,502.441,86.426,30.762,1295.062,338.18545074796737
126,1686362218.17,-133.789,866.699,54.688,-2.441,1295.066,333.0044136077435
127,1686362218.17,-144.043,385.254,-24.414,-1.465,1295.07,341.6384153924341
128,1686362218.18,-111.816,31.25,17.578,15.137,1295.074,338.3627142388889
129,1686362218.18,-107.422,624.512,99.609,12.695,1295.078,336.55860254091914
130,1686362218.18,-108.398,736.328,10.254,-8.789,1295.081,340.485357845599
131,1686362218.19,-100.586,310.059,35.645,-24.902,1295.085,340.99694515347875
132,1686362218.19,-112.305,306.152,61.523,-15.625,1295.089,331.393875360809
133,1686362218.2,-99.609,391.602,26.367,9.766,1295.093,341.7932778377761
134,1686362218.2,-99.121,428.223,34.18,-29.297,1295.097,346.1898408188299
135,1686362218.2,-125.977,-2.441,-23.438,-57.617,1295.101,345.47848713387987
136,1686362218.21,-121.582,-163.574,50.293,-49.316,1295.105,340.5696397940983
137,1686362218.21,-98.145,816.406,134.766,-88.379,1295.109,338.86512692858935
138,1686362218.22,-109.863,958.496,20.02,-164.551,1295.113,333.69359177147265
139,1686362218.22,-138.672,466.797,4.883,-188.965,1295.117,339.9903182090374
140,1686362218.24,-151.855,504.883,53.223,-125.488,1295.132,335.1402437904926
141,1686362218.24,-124.512,800.293,46.875,-71.289,1295.136,351.298533221515
142,1686362218.24,-103.516,667.969,15.137,-75.195,1295.14,334.0116602532229
143,1686362218.25,-113.281,275.391,16.602,-105.957,1295.143,335.13233261834034
144,1686362218.25,-112.305,304.688,38.574,-130.859,1295.147,341.4867811101154
145,1686362218.26,-92.773,473.145,34.668,-63.965,1295.151,346.1862328414316
146,1686362218.26,-92.773,593.262,23.926,-12.695,1295.155,328.7990285277025
147,1686362218.26,-120.117,-39.062,-30.273,-51.758,1295.159,350.7656798447298
148,1686362218.27,-154.297,-58.105,41.016,-45.41,1295.163,353.435672103006
149,1686362218.27,-137.207,790.039,51.758,11.23,1295.164,338.80761370477717
150,1686362218.27,-138.184,839.355,19.531,36.621,1295.168,331.9029900342784
151,1686362218.27,-143.066,-985.352,81.543,-8.789,1295.167,344.7356651632009
152,1686362218.28,-112.793,760.742,-8.301,22.949,1295.171,348.12936236553486
153,1686362218.28,-126.953,513.672,17.09,83.008,1295.171,356.4190570501136
154,1686362218.28,-140.137,484.863,37.109,86.426,1295.175,348.25416343781967
155,1686362218.28,-118.164,452.148,6.836,36.133,1295.175,341.86156273958204
156,1686362218.28,-146.484,620.605,-2.93,51.27,1295.179,338.5388185532391
157,1686362218.29,-151.855,346.191,-28.809,41.016,1295.183,330.7100558482786
158,1686362218.29,-156.738,147.461,21.973,64.941,1295.187,332.051712801752
159,1686362218.29,-142.578,449.219,62.012,50.293,1295.191,339.3321458888437
160,1686362218.3,-140.137,782.715,34.668,14.16,1295.195,344.73419710170174
161,1686362218.3,-156.738,728.516,-1.953,13.184,1295.199,336.4787813254094
162,1686362218.31,-150.391,20.508,-33.691,61.523,1295.203,337.099023061167
163,1686362218.31,-131.836,30.273,41.992,88.379,1295.207,349.57693218265933
164,1686362218.31,-142.578,834.961,38.086,49.805,1295.214,328.1607182106469
165,1686362218.32,-157.715,512.207,-33.203,13.184,1295.218,333.3296165555222
166,1686362218.32,-145.996,257.812,25.391,65.43,1295.222,328.2521860283348
167,1686362218.32,-111.328,456.543,35.156,111.816,1295.226,326.92858480780114
168,1686362218.33,-109.863,625.0,-7.812,44.434,1295.229,337.8418036584727
169,1686362218.33,-153.809,540.039,-20.508,-47.363,1295.233,337.27796110060075
170,1686362218.34,-153.32,-155.273,-19.531,-27.344,1295.237,337.90392597701117
171,1686362218.34,-135.742,14.648,64.941,17.09,1295.241,347.3331951902094
172,1686362218.34,-123.047,-981.445,74.219,-16.113,1295.245,337.48746678830065
173,1686362218.35,-112.793,739.258,-31.738,-46.875,1295.249,348.67896225929786
174,1686362218.35,-110.84,490.723,-18.555,-40.039,1295.253,344.2608310562854
175,1686362218.35,-88.379,770.996,40.039,7.324,1295.257,340.83817253737493
176,1686362218.36,-80.078,822.754,12.695,14.648,1295.266,351.60900307568204
177,1686362218.36,-82.031,458.496,-19.531,-26.855,1295.269,339.43740702614144
178,1686362218.36,-103.027,299.805,-3.906,-20.996,1295.273,349.0536897972521
179,1686362218.37,-136.23,404.297,10.742,31.738,1295.277,347.27795358391944
180,1686362218.37,-124.023,502.441,10.742,73.242,1295.281,352.5081427555724
181,1686362218.38,-128.906,129.395,-35.645,64.453,1295.285,343.4151769720981
182,1686362218.38,-134.766,-350.586,41.992,-1.465,1295.289,344.8022908942164
183,1686362218.38,-113.77,529.297,104.492,-0.977,1295.293,339.3069005616951
184,1686362218.39,-92.285,952.148,6.348,75.684,1295.297,335.3885185434764
185,1686362218.39,-74.707,575.195,-6.836,56.641,1295.301,337.99171390819293
186,1686362218.4,-100.098,499.512,17.578,-8.789,1295.305,342.821516923426
187,1686362218.4,-119.629,622.559,6.836,10.254,1295.309,336.2180860548452
188,1686362218.42,-95.215,479.492,-15.625,68.848,1295.312,339.12880489193253
189,1686362218.42,-90.82,346.68,7.324,43.945,1295.315,350.5594538493304
190,1686362218.42,-96.191,495.117,7.324,-69.336,1295.319,346.5866564419891
191,1686362218.43,-105.957,306.152,-15.625,-135.742,1295.323,349.097241112559
192,1686362218.43,-101.562,304.688,18.555,-96.68,1295.327,342.8828909351015
193,1686362218.44,-72.754,-148.438,-10.254,-42.969,1295.331,337.2112437402967
194,1686362218.44,-76.66,-235.84,36.133,-61.523,1295.335,335.4010680536442
195,1686362218.44,-87.891,739.746,61.523,-116.211,1295.339,341.555945668686
196,1686362218.45,-83.984,718.262,-21.973,-128.906,1295.343,337.09955299583686
197,1686362218.45,-79.102,318.848,20.02,-106.445,1295.347,343.191838586601
198,1686362218.46,-83.984,631.348,67.871,-101.074,1295.351,344.8787985356305
199,1686362218.46,-120.605,782.715,-3.418,-105.957,1295.355,338.71542264387404
200,1686362218.46,-133.301,369.629,-27.344,-67.871,1295.357,333.08661782457193
201,1686362218.46,-112.793,342.285,0.488,-19.531,1295.36,345.5484345710331
202,1686362218.47,-130.371,619.141,13.672,-31.738,1295.364,333.23890067803904
203,1686362218.47,-128.906,501.953,-9.766,-105.957,1295.368,351.1229683126506
204,1686362218.48,-111.328,181.152,7.812,-137.207,1295.372,342.35550412648155
205,1686362218.48,-114.746,65.43,28.32,-108.398,1295.376,336.68219725062323
206,1686362218.48,-100.098,410.156,32.227,-144.531,1295.38,336.8846570473075
207,1686362218.49,-87.891,681.641,18.066,-229.004,1295.384,337.3072838863788
208,1686362218.49,-94.238,-60.059,-65.918,-249.512,1295.388,337.7978808430908
209,1686362218.5,-97.168,-382.812,35.645,-268.555,1295.392,353.0273135743395
210,1686362218.5,-89.355,730.469,105.957,-310.547,1295.396,338.5348016933953
211,1686362218.5,-87.402,837.891,-16.602,-291.504,1295.399,341.1662038895781
212,1686362218.51,-97.168,346.68,-9.766,-248.047,1295.401,340.63575963355737
213,1686362218.51,-84.473,452.148,29.297,-204.59,1295.405,347.4825890792992
214,1686362218.51,-54.688,634.277,-1.953,-153.809,1295.409,345.2748909695646
215,1686362218.52,-59.082,357.422,-31.25,-131.836,1295.413,347.1399999798135
216,1686362218.52,-72.266,-149.902,3.418,-163.086,1295.417,336.53494019018456
217,1686362218.53,-83.984,-52.734,32.227,-144.043,1295.421,341.58390292921206
218,1686362218.53,-72.754,544.922,41.504,-79.102,1295.425,333.6776407110573
219,1686362218.53,-45.898,655.273,-16.113,-71.289,1295.429,338.87909426813627
220,1686362218.54,-50.293,-2.93,-20.508,-77.637,1295.433,331.6344952545203
221,1686362218.54,-75.195,278.809,80.566,-75.195,1295.437,331.2646918063573
222,1686362218.54,-75.195,886.23,42.969,-47.363,1295.44,342.07429183388535
223,1686362218.55,-80.566,370.117,-39.551,-31.738,1295.444,334.2835884078172
224,1686362218.55,-108.887,69.824,-21.484,-58.594,1295.448,341.5088821678121
225,1686362218.56,-102.539,586.914,46.387,-66.406,1295.451,348.3889444814576
226,1686362218.56,-96.68,526.855,-13.184,-30.762,1295.455,349.21622268243317
227,1686362218.56,-77.637,212.891,24.902,-18.555,1295.459,343.41035586223165
228,1686362218.57,-65.43,386.719,41.016,-41.992,1295.463,352.3750324357297
229,1686362218.57,-80.078,284.18,-13.184,-29.785,1295.467,339.6531388815394
230,1686362218.58,-74.707,420.41,29.785,29.297,1295.471,357.17551077928965
231,1686362218.58,-52.246,215.332,-9.766,73.242,1295.475,347.26909430878817
232,1686362218.58,-55.664,-21.484,26.367,57.129,1295.479,340.7534049765711
233,1686362218.59,-94.727,741.211,64.941,-15.625,1295.483,346.99023117585
234,1686362218.59,-86.914,695.312,-6.836,-24.902,1295.487,349.8543578734041
235,1686362218.59,-47.363,427.734,20.02,5.859,1295.491,356.94219136136076
236,1686362218.6,-35.156,565.43,34.18,-6.348,1295.495,339.7898602863355
237,1686362218.6,-44.434,468.75,-7.812,-21.484,1295.499,349.6571889179692
238,1686362218.6,-58.594,285.645,-16.113,28.32,1295.503,338.76519988452407
239,1686362218.61,-60.547,-138.184,8.301,123.047,1295.506,330.09446102760126
240,1686362218.61,-41.016,138.184,62.012,150.879,1295.51,345.9742904158229
241,1686362218.62,-58.105,616.211,10.742,99.609,1295.514,340.81614075574254
242,1686362218.62,-80.078,410.156,-12.695,64.941,1295.518,337.20021823226455
243,1686362218.62,-69.824,-18.066,15.625,82.52,1295.522,348.5663585610554
244,1686362218.63,-53.711,319.336,80.566,107.422,1295.526,350.97409937321544
245,1686362218.63,-44.922,-948.242,39.551,57.129,1295.53,353.30953772641504
246,1686362218.64,-59.57,517.578,-37.598,-37.109,1295.534,338.27784579530476
247,1686362218.64,-44.434,279.785,-18.066,-20.996,1295.538,335.6097543980256
248,1686362218.64,-28.32,636.23,18.555,49.316,1295.538,347.19314938288716
249,1686362218.65,-57.129,645.508,-6.836,28.32,1295.542,341.76457588464007
250,1686362218.65,-91.797,237.305,-8.301,-4.395,1295.546,348.46072815981364
251,1686362218.65,-91.309,158.691,17.578,-5.859,1295.55,335.1350717491518
252,1686362218.66,-58.594,334.473,-12.695,53.223,1295.554,355.370577718785
253,1686362218.66,-40.527,275.879,-15.625,114.258,1295.558,356.54874827008655
254,1686362218.67,-65.43,-125.488,-37.109,89.844,1295.562,351.1220855561176
255,1686362218.67,-107.91,-409.18,17.578,82.031,1295.566,346.33063253771473
256,1686362218.67,-97.656,490.234,71.777,93.75,1295.57,349.2709482859633
257,1686362218.68,-61.035,771.973,-8.789,81.055,1295.574,348.02706152565287
258,1686362218.68,-66.895,343.262,-4.883,51.27,1295.577,356.0917403790956
259,1686362218.68,-65.43,340.332,2.93,49.805,1295.581,346.17269964613126
260,1686362218.68,-66.895,474.121,-12.207,102.539,1295.596,344.3131583894965
261,1686362218.69,-64.453,319.824,-15.625,130.371,1295.599,341.0917832000272
262,1686362218.69,-48.34,138.672,-11.719,92.285,1295.603,344.28060797680547
263,1686362218.7,-51.758,25.391,-17.578,34.18,1295.607,342.8182108329801
264,1686362218.7,-49.316,48.828,-22.949,35.156,1295.611,346.5092972483281
265,1686362218.7,-31.738,230.469,-18.066,78.125,1295.615,340.74207318859953
266,1686362218.71,-20.02,-415.527,-38.086,85.938,1295.619,343.09378049647626
267,1686362218.71,-35.156,-520.02,41.016,60.059,1295.623,345.22480946873674
268,1686362218.72,-50.293,597.656,71.777,66.406,1295.627,349.8844221160142
269,1686362218.72,-38.574,538.574,-27.832,100.098,1295.631,351.3870071835476
270,1686362218.72,-41.992,176.27,-40.039,94.238,1295.635,344.23097066482063
271,1686362218.73,-58.594,349.609,-9.277,28.809,1295.639,353.33761866568966
272,1686362218.73,-64.453,337.402,-16.113,-4.395,1295.64,326.3826591707529
273,1686362218.74,-46.387,62.5,-41.992,-21.484,1295.644,344.4128355792697
274,1686362218.74,-41.992,59.57,-31.25,-49.805,1295.648,342.8854788223149
275,1686362218.74,-65.43,256.836,-15.137,-60.547,1295.652,340.06747340820795
276,1686362218.75,-89.844,156.738,-38.574,-110.352,1295.656,351.5609098338399
277,1686362218.75,-88.867,-379.395,-49.805,-124.512,1295.66,348.65723537178616
278,1686362218.76,-55.664,-335.938,18.555,-78.613,1295.663,352.41179093061214
279,1686362218.76,-53.711,383.789,19.043,-97.656,1295.667,336.18452173252666
280,1686362218.76,-74.219,208.496,-39.551,-116.211,1295.671,363.1808494823184
281,1686362218.77,-72.266,-498.535,-33.203,-68.848,1295.675,345.50393875791514
282,1686362218.77,-62.012,-278.809,35.156,-35.156,1295.679,341.94628730924245
283,1686362218.78,-73.242,507.324,16.113,-59.082,1295.683,346.47479013409225
284,1686362218.79,-87.891,243.652,-50.293,-109.375,1295.687,330.4047514645803
285,1686362218.79,-99.121,-112.305,-20.996,-86.914,1295.69,342.3756574460579
286,1686362218.8,-81.543,104.98,-8.789,-26.367,1295.694,340.48177783670184
287,1686362218.8,-53.223,106.445,-36.133,-40.527,1295.698,351.96319622219715
288,1686362218.81,-60.059,5.371,-27.832,-128.906,1295.702,336.3918772521642
289,1686362218.81,-95.215,-596.68,-58.594,-172.852,1295.706,346.1834343444747
290,1686362218.81,-87.402,-475.098,-0.977,-134.766,1295.71,358.356399381709
291,1686362218.82,-58.594,645.508,31.25,-95.703,1295.714,357.9637016995084
292,1686362218.82,-67.383,357.422,-51.758,-126.465,1295.718,344.726157614455
293,1686362218.82,-80.078,-23.926,-41.504,-183.105,1295.722,346.30662918820553
294,1686362218.83,-73.242,258.789,-6.348,-149.414,1295.726,354.5727933653412
295,1686362218.83,-45.898,363.77,-16.602,-106.445,1295.73,339.69130683216645
296,1686362218.84,-45.898,-94.238,-64.941,-125.488,1295.731,349.23607393932537
297,1686362218.84,-83.984,-276.855,-56.152,-148.926,1295.735,348.78215371455667
298,1686362218.84,-96.68,249.023,6.348,-109.863,1295.739,343.78481405979375
299,1686362218.85,-83.008,357.422,-22.461,-43.945,1295.743,343.4088048760497
300,1686362218.85,-79.59,21.484,-21.973,-50.293,1295.747,346.2308507204535
301,1686362218.86,-89.355,-222.656,-17.09,-79.59,1295.751,337.71297141014713
302,1686362218.86,-102.539,31.25,-17.578,-56.152,1295.755,350.76232072341736
303,1686362218.86,-87.402,411.133,-14.648,-39.062,1295.759,343.7703173411416
304,1686362218.87,-67.871,-173.34,-63.477,-75.684,1295.763,351.47425921782104
305,1686362218.87,-82.52,-417.48,-15.137,-122.559,1295.767,357.9025447984652
306,1686362218.87,-94.727,417.969,15.625,-108.887,1295.771,341.68949129705567
307,1686362218.88,-72.266,363.77,-42.48,-61.035,1295.774,373.29025552334184
308,1686362218.88,-25.879,129.883,-17.09,-62.012,1295.777,363.7288609736581
309,1686362218.88,-18.555,250.0,-7.812,-104.004,1295.781,359.8281299333499
310,1686362218.89,-53.711,88.867,-51.758,-119.629,1295.784,362.19873606412796
311,1686362218.89,-66.406,-55.664,-27.344,-78.613,1295.788,365.2019508236514
312,1686362218.9,-42.48,-438.965,-19.043,-29.297,1295.792,361.1543091317585
313,1686362218.9,-37.109,-346.191,-10.742,-48.828,1295.796,369.31149592577566
314,1686362218.9,-80.078,429.688,-0.488,-105.469,1295.8,368.38027354064457
315,1686362218.91,-93.75,350.586,-55.176,-111.816,1295.804,371.7148755694028
316,1686362218.91,-68.848,-193.848,-11.23,-61.523,1295.808,372.51489326779756
317,1686362218.92,-66.895,189.941,52.246,-34.668,1295.812,376.1758872401068
318,1686362218.92,-66.406,630.859,-19.043,-90.332,1295.816,372.2996595121276
319,1686362218.92,-75.684,132.812,-56.641,-82.52,1295.82,372.7513264695564
320,1686362218.93,-94.238,34.668,-35.645,18.555,1295.823,371.28804487689047
321,1686362218.93,-90.82,378.418,-2.93,115.234,1295.827,365.57414387928134
322,1686362218.93,-95.215,327.637,-29.785,117.676,1295.831,385.3328397726533
323,1686362218.94,-115.723,-13.184,-12.207,16.113,1295.835,376.92118681317237
324,1686362218.94,-100.098,-82.031,-1.465,-63.477,1295.839,366.82551738771343
325,1686362218.95,-68.359,58.594,-31.25,-91.309,1295.843,383.3470058984508
326,1686362218.95,-61.523,107.91,-22.461,-135.742,1295.847,373.81208551307526
327,1686362218.95,-100.098,-296.875,-47.852,-183.105,1295.851,374.819762587292
328,1686362218.96,-103.516,-524.414,13.184,-136.23,1295.854,382.25906836061563
329,1686362218.96,-83.008,429.199,61.035,-11.719,1295.858,379.8571404151839
330,1686362218.96,-75.684,679.199,-25.391,52.734,1295.862,389.89263013288473
331,1686362218.97,-93.262,182.617,-20.508,2.441,1295.866,373.2380512355073
332,1686362218.97,-96.191,185.547,18.555,-15.137,1295.867,388.7835240701539
333,1686362218.97,-65.918,426.758,-7.812,8.301,1295.87,368.8359501170175
334,1686362218.98,-62.5,218.75,-45.898,-57.617,1295.874,381.08139884342063
335,1686362218.98,-64.453,-115.234,-20.996,-137.207,1295.878,378.47531563981465
336,1686362218.99,-68.359,68.359,-19.043,-150.391,1295.882,390.1642990854304
337,1686362218.99,-60.059,119.629,-38.574,-112.793,1295.886,384.12250764538277
338,1686362218.99,-28.809,194.824,-12.207,-83.496,1295.89,393.38901155493846
339,1686362219.0,-17.09,-394.531,-52.246,-64.453,1295.894,390.68784353668445
340,1686362219.0,-43.457,-431.641,19.043,-36.133,1295.898,387.43216528852673
341,1686362219.0,-55.176,697.266,56.152,-26.367,1295.902,385.87873299825173
342,1686362219.01,-52.246,483.887,-35.645,0.488,1295.906,386.816487724002
343,1686362219.01,-45.898,145.508,-60.059,19.043,1295.91,387.312460690474
344,1686362219.02,-57.129,295.41,-32.227,-15.137,1295.914,385.818451747919
345,1686362219.02,-76.172,291.016,-18.066,-21.973,1295.918,383.8826404419854
346,1686362219.02,-42.969,54.199,-24.414,-5.859,1295.921,380.88535032917747
347,1686362219.03,-9.766,84.961,-14.648,-15.625,1295.925,387.007736018751
348,1686362219.03,-37.109,200.684,-42.969,-32.715,1295.929,379.4683942204927
349,1686362219.04,-74.219,8.789,-51.27,9.766,1295.933,384.75847657586223
350,1686362219.04,-73.242,-347.168,-44.922,110.352,1295.937,379.8706700481744
351,1686362219.04,-75.195,-296.387,14.16,126.465,1295.941,380.52631144895605
352,1686362219.05,-89.355,478.027,24.414,17.09,1295.945,380.7438245538445
353,1686362219.05,-87.891,388.184,-42.969,-63.965,1295.949,389.8414423854675
354,1686362219.06,-63.965,-6.348,-34.18,-46.875,1295.953,380.9316536125126
355,1686362219.06,-16.113,145.508,-19.043,-53.711,1295.957,378.8054265305564
356,1686362219.06,-2.441,401.367,-11.719,-138.184,1295.97,375.9802052825279
357,1686362219.06,-32.715,200.195,-43.457,-163.574,1295.974,379.13398502170696
358,1686362219.07,-56.641,-164.551,-36.133,-73.242,1295.978,384.75223510097453
359,1686362219.07,-55.176,-61.523,6.836,6.348,1295.982,380.4488554812721
360,1686362219.08,-51.758,212.402,-20.02,-24.414,1295.985,370.90874777857465
361,1686362219.08,-68.848,182.617,-45.898,-116.211,1295.989,380.62702190177964
362,1686362219.08,-85.449,-515.625,-41.992,-141.602,1295.993,370.95750121302916
363,1686362219.09,-71.777,-372.559,41.504,-111.328,1295.997,364.16702781505467
364,1686362219.09,-46.875,735.352,47.363,-83.984,1296.001,372.99204806868556
365,1686362219.1,-69.824,458.008,-56.152,-85.938,1296.005,365.3862153075403
366,1686362219.1,-89.844,96.191,-47.363,-92.285,1296.009,377.8004213191237
367,1686362219.1,-84.473,347.168,-11.719,-95.215,1296.013,372.1481813148782
368,1686362219.11,-73.73,374.512,-22.461,-125.0,1296.014,369.1252645054559
369,1686362219.11,-68.359,-124.512,-80.566,-155.762,1296.018,368.0494721951419
370,1686362219.12,-74.219,-252.93,-71.777,-151.855,1296.022,373.43241969916386
371,1686362219.12,-74.219,307.617,0.0,-125.0,1296.026,374.36581556909005
372,1686362219.12,-46.387,407.227,-38.086,-116.211,1296.03,370.9916456347285
373,1686362219.13,-45.898,-268.066,-71.289,-110.352,1296.034,361.4177699805076
374,1686362219.13,-78.613,-409.18,-6.348,-123.535,1296.038,373.80586124685965
375,1686362219.14,-77.637,383.789,11.23,-148.438,1296.042,370.2423423697568
376,1686362219.14,-56.641,444.336,-39.062,-123.535,1296.046,367.13036061878006
377,1686362219.14,-53.223,51.27,-43.945,-79.59,1296.05,361.83228839922515
378,1686362219.15,-90.332,43.945,-22.949,-66.895,1296.054,359.67359450077333
379,1686362219.15,-106.445,308.594,-19.043,-59.57,1296.057,368.5367673576413
380,1686362219.16,-103.516,217.285,-55.176,-50.293,1296.062,357.52497521381883
381,1686362219.17,-71.777,63.477,-50.781,-75.195,1296.065,373.5410698571204
382,1686362219.17,-55.176,140.137,-23.926,-145.508,1296.069,365.28230850573476
383,1686362219.18,-87.402,-32.227,-45.41,-147.461,1296.073,368.14874098049296
384,1686362219.18,-86.914,-15.137,-23.438,-41.504,1296.077,346.4245761143212
385,1686362219.18,-53.223,-448.242,-59.57,21.484,1296.081,358.1464011629373
386,1686362219.19,-69.824,-558.105,-3.906,15.137,1296.085,360.2341854428593
387,1686362219.19,-100.586,522.949,43.945,-37.109,1296.089,354.74668693257775
388,1686362219.2,-79.102,506.836,-42.48,-72.266,1296.093,358.4713545802398
389,1686362219.2,-68.848,236.816,-32.227,-69.336,1296.097,351.5550226560623
390,1686362219.2,-75.195,461.914,-4.395,-103.027,1296.101,358.47726931315157
391,1686362219.21,-85.938,430.176,-18.555,-160.156,1296.104,358.89829662042087
392,1686362219.21,-90.332,40.039,-45.41,-144.043,1296.107,361.2441819973461
393,1686362219.21,-71.777,-15.137,-31.25,-68.359,1296.11,363.48712743892605
394,1686362219.22,-62.988,331.055,-16.602,-44.434,1296.114,350.22531361804954
395,1686362219.22,-96.68,270.508,-29.785,-110.84,1296.118,362.526323755238
396,1686362219.23,-104.492,-71.289,-19.043,-133.789,1296.122,365.71299240998866
397,1686362219.23,-91.309,-225.098,-11.23,-79.59,1296.126,359.915150354705
398,1686362219.23,-92.773,-10.254,-9.766,-54.199,1296.13,351.9782221842821
399,1686362219.24,-94.238,283.203,-2.441,-134.277,1296.134,336.3635677685587
400,1686362219.24,-98.145,-135.254,-57.129,-205.566,1296.138,348.0270149493205
401,1686362219.24,-91.797,-491.699,8.301,-196.289,1296.142,360.5938049099107
402,1686362219.25,-66.406,470.215,71.777,-176.758,1296.146,358.33476098837826
403,1686362219.25,-62.5,596.191,-24.414,-168.945,1296.149,347.3621149637195
404,1686362219.26,-88.867,158.691,-34.18,-158.203,1296.151,346.31195243022717
405,1686362219.26,-89.844,245.605,-3.418,-125.488,1296.155,343.5284623410461
406,1686362219.26,-76.66,373.535,-20.508,-75.195,1296.159,350.5943173881022
407,1686362219.27,-64.453,122.559,-47.852,-21.484,1296.163,342.52756708781567
408,1686362219.27,-83.496,-337.891,-17.578,-14.648,1296.167,343.4953654748092
409,1686362219.28,-110.84,-190.918,6.836,-45.898,1296.171,356.09476342457197
410,1686362219.28,-89.355,402.832,-6.836,-19.531,1296.175,346.1427992234827
411,1686362219.28,-81.055,414.062,-48.828,-36.133,1296.179,351.67182595702616
412,1686362219.29,-109.863,-339.844,-33.691,-120.117,1296.183,350.6470885151617
413,1686362219.29,-138.672,-71.777,45.898,-152.832,1296.186,336.45423642154793
414,1686362219.3,-115.723,697.266,9.766,-124.023,1296.19,344.5885372372815
415,1686362219.3,-86.426,295.41,-66.895,-132.324,1296.194,336.4461499450249
416,1686362219.3,-93.262,-77.637,-57.129,-181.152,1296.198,340.31721989499135
417,1686362219.3,-98.633,285.645,0.488,-200.684,1296.202,343.12793209903253
418,1686362219.31,-96.191,383.789,-34.668,-133.789,1296.205,334.96765756044425
419,1686362219.31,-85.938,119.629,-7.324,-33.203,1296.209,333.47828734991384
420,1686362219.32,-79.102,73.242,-5.859,-62.5,1296.213,329.6448755275942
421,1686362219.32,-82.52,-27.832,-56.152,-151.855,1296.217,321.7813174261134
422,1686362219.32,-81.055,-15.137,-3.418,-141.602,1296.221,327.3816703856554
423,1686362219.33,-58.105,-187.5,-38.086,-83.008,1296.225,326.6395640550075
424,1686362219.33,-70.312,-223.633,-28.809,-72.754,1296.229,317.81457893006825
425,1686362219.34,-89.844,490.723,7.324,-117.188,1296.233,324.87236697021063
426,1686362219.34,-73.242,396.484,-53.711,-82.52,1296.237,313.8938567223934
427,1686362219.34,-64.453,19.531,-33.203,-50.781,1296.241,324.9900669384472
428,1686362219.34,-64.453,193.848,2.93,-120.605,1296.241,328.9463181723704
429,1686362219.35,-85.449,409.18,-6.836,-148.438,1296.245,305.53617662558645
430,1686362219.35,-111.816,223.633,-48.34,-128.418,1296.249,313.5856401798363
431,1686362219.36,-102.539,-495.117,-27.344,-83.496,1296.253,309.8872329351406
432,1686362219.36,-77.637,-238.281,29.297,-59.082,1296.257,313.72727656813026
433,1686362219.36,-62.988,321.289,-28.809,-70.312,1296.261,312.81303600844114
434,1686362219.37,-81.055,135.742,-41.016,-60.059,1296.265,310.91900088160685
435,1686362219.37,-97.168,-329.59,-21.973,15.137,1296.269,314.9962536896384
436,1686362219.38,-85.449,-72.754,39.062,66.406,1296.273,308.66756235581374
437,1686362219.38,-78.613,719.238,6.836,28.809,1296.277,317.6507493421711
438,1686362219.38,-97.168,293.457,-58.594,-3.418,1296.28,314.883656865346
439,1686362219.39,-94.727,53.223,-40.527,18.555,1296.284,316.34670966377075
440,1686362219.39,-71.777,346.68,-7.324,70.312,1296.293,293.2473801144086
441,1686362219.4,-57.617,369.629,-39.062,95.703,1296.297,310.7181185717124
442,1686362219.4,-72.754,-203.613,-67.383,48.828,1296.301,309.4235652793879
443,1686362219.4,-91.309,-250.488,-25.391,-14.648,1296.305,321.30151808443554
444,1686362219.41,-70.312,338.379,-17.09,-26.855,1296.308,310.33146019325045
445,1686362219.41,-42.969,225.586,-40.527,-25.391,1296.312,312.9770446707286
446,1686362219.42,-69.336,-309.57,-47.363,-71.777,1296.316,324.06165248777205
447,1686362219.42,-115.723,-333.984,-3.906,-114.746,1296.32,330.90935854428005
448,1686362219.42,-100.586,461.426,24.414,-92.773,1296.324,324.9150424874387
449,1686362219.43,-92.285,513.672,-40.039,-56.152,1296.328,316.69816984198195
450,1686362219.43,-121.094,122.07,-44.434,-68.359,1296.332,337.75384671563023
451,1686362219.44,-112.305,312.988,-8.301,-67.871,1296.346,329.7923612202414
452,1686362219.44,-136.23,109.375,-17.09,-78.613,1296.336,341.20523838066214
453,1686362219.44,-72.266,223.145,-46.875,-53.711,1296.349,328.586089792996
454,1686362219.44,-69.824,34.18,-64.453,-63.477,1296.353,336.2828824095877
455,1686362219.45,-88.867,-111.816,-37.109,-69.824,1296.357,329.19145986560767
456,1686362219.45,-107.91,-151.855,-29.297,-2.93,1296.361,339.7382239763741
457,1686362219.46,-100.098,113.281,-18.066,64.941,1296.365,334.8945954522139
458,1686362219.46,-66.406,-375.0,-48.34,54.199,1296.369,345.6795163711705
459,1686362219.46,-82.52,-628.906,1.465,0.0,1296.373,337.41899700716425
460,1686362219.47,-115.234,439.453,38.086,-16.602,1296.377,336.8440902627447
461,1686362219.47,-102.539,540.039,-52.246,-6.348,1296.381,340.2501101202856
462,1686362219.47,-83.008,242.676,-52.246,-11.23,1296.385,330.12331997211294
463,1686362219.48,-77.637,390.137,-17.578,-61.523,1296.388,341.570919445308
464,1686362219.48,-95.703,316.406,-23.926,-106.934,1296.379,342.54243604711854
465,1686362219.49,-96.68,-20.02,-41.992,-57.129,1296.383,359.32736688239385
466,1686362219.49,-68.359,-28.809,-34.668,-20.508,1296.387,346.2662339164608
467,1686362219.49,-83.008,282.715,-20.996,-25.879,1296.391,345.7540456448686
468,1686362219.5,-102.539,207.031,-46.875,-47.363,1296.394,340.3359348349149
469,1686362219.5,-99.609,-344.238,-62.012,-50.781,1296.398,354.97393016308024
470,1686362219.51,-98.633,-352.051,-25.879,6.348,1296.402,356.9338319016179
471,1686362219.51,-100.586,199.219,-7.324,13.184,1296.406,347.7294639992422
472,1686362219.51,-108.398,349.609,-10.254,-53.711,1296.41,351.59227622269066
473,1686362219.52,-104.004,-250.488,-61.035,-80.566,1296.414,356.2793063790759
474,1686362219.52,-83.496,-373.535,-27.344,-55.176,1296.418,358.8926246592072
475,1686362219.52,-80.566,443.848,-8.301,-90.82,1296.422,353.0154789466534
476,1686362219.54,-93.75,279.297,-60.547,-184.082,1296.436,352.8874151644959
477,1686362219.54,-110.84,-22.949,-44.922,-213.867,1296.44,355.06405921420543
478,1686362219.55,-114.746,133.301,-31.738,-156.25,1296.444,352.89392735294706
479,1686362219.55,-116.699,28.809,-52.246,-136.719,1296.448,358.49156942848225
480,1686362219.56,-129.395,-40.527,-40.527,-154.785,1296.452,357.2639388212223
481,1686362219.56,-137.207,-555.176,-67.871,-117.188,1296.456,355.2719458112043
482,1686362219.56,-123.535,-480.957,-2.441,-105.469,1296.46,358.3952357958206
483,1686362219.57,-83.496,669.434,29.297,-131.348,1296.464,364.12053701256957
484,1686362219.57,-70.312,482.422,-54.199,-130.371,1296.468,356.0665421352162
485,1686362219.58,-99.121,-69.824,-49.316,-133.301,1296.472,359.47860589935726
486,1686362219.58,-116.699,95.215,-19.043,-88.379,1296.476,352.5431191721379
487,1686362219.58,-89.844,453.613,-4.395,-1.465,1296.479,358.05248769666304
488,1686362219.59,-100.586,82.031,-69.336,11.719,1296.482,364.92010970919483
489,1686362219.59,-138.672,-294.434,-86.426,-62.012,1296.485,363.68597034909146
490,1686362219.59,-151.855,166.992,-13.184,-116.699,1296.489,363.3452569478703
491,1686362219.6,-143.555,354.004,-29.785,-115.234,1296.493,355.81011556685735
492,1686362219.6,-102.051,28.809,-31.738,-118.652,1296.497,359.1338620735012
493,1686362219.61,-103.027,-220.703,-25.879,-154.297,1296.501,362.20783937831567
494,1686362219.61,-114.258,-20.996,-15.137,-147.949,1296.505,355.7545603326178
495,1686362219.61,-110.84,342.285,-17.09,-91.797,1296.509,357.55781636076495
496,1686362219.62,-99.121,-187.012,-62.5,-41.992,1296.513,357.8947321610548
497,1686362219.62,-107.422,-433.105,-20.02,-68.848,1296.517,355.8817746042568
498,1686362219.62,-138.184,382.324,15.137,-142.578,1296.521,347.94801225614265
499,1686362219.63,-143.555,317.383,-51.27,-126.953,1296.525,354.7431118963307
500,1686362219.63,-120.117,-59.082,-32.715,-83.984,1296.527,365.75546876633155
501,1686362219.63,-109.863,124.023,11.719,-130.859,1296.53,348.1411840955987
502,1686362219.64,-135.742,329.102,-25.879,-200.684,1296.534,351.61485616185826
503,1686362219.64,-137.695,107.91,-43.945,-200.684,1296.538,354.727248367612
504,1686362219.65,-100.586,-418.457,-22.461,-131.348,1296.542,348.3057486673476
505,1686362219.65,-76.66,-270.508,0.488,-119.629,1296.546,350.63261110519403
506,1686362219.65,-107.422,359.863,-6.836,-179.688,1296.55,337.4522048754857
507,1686362219.66,-130.371,318.848,-50.781,-192.871,1296.554,344.7178638155409
508,1686362219.66,-123.047,-247.559,-18.066,-137.207,1296.558,350.7020817722808
509,1686362219.66,-117.188,99.609,42.48,-129.395,1296.562,343.07481296430853
510,1686362219.67,-106.445,595.215,-28.809,-179.688,1296.566,339.4228773601824
511,1686362219.67,-115.723,131.836,-67.871,-173.828,1296.569,338.950286463811
512,1686362219.68,-94.238,0.977,-49.805,-98.145,1296.574,340.72140742516586
513,1686362219.68,-57.129,330.078,-18.555,-34.18,1296.578,344.0318242460921
514,1686362219.68,-82.031,279.297,-42.48,-78.613,1296.582,330.54391258348574
515,1686362219.69,-104.492,-267.578,-68.848,-139.648,1296.586,338.8366912466983
516,1686362219.69,-98.145,-267.578,-58.594,-85.938,1296.589,325.794202550878
517,1686362219.7,-82.52,104.98,-37.598,0.977,1296.593,329.46696386878915
518,1686362219.7,-57.129,244.629,-26.855,6.836,1296.597,327.2848749075749
519,1686362219.7,-86.426,-184.57,-62.988,-45.41,1296.601,341.6243912489794
520,1686362219.71,-103.027,-404.785,-11.719,-82.031,1296.605,343.8549032868101
521,1686362219.71,-69.336,481.934,22.949,-78.613,1296.609,340.51229020870466
522,1686362219.72,-66.406,490.723,-48.34,-67.383,1296.613,338.0036645278552
523,1686362219.72,-57.129,56.152,-50.781,-82.031,1296.617,345.86821699065854
524,1686362219.72,-74.707,66.406,-30.273,-56.152,1296.622,345.19739629949055
525,1686362219.72,-83.496,273.438,-19.043,-23.926,1296.626,338.59347991227963
526,1686362219.73,-45.41,215.82,-33.691,-42.48,1296.63,359.32020408951064
527,1686362219.73,-55.664,-69.336,-47.852,-82.52,1296.634,382.63514911212224
528,1686362219.74,-90.82,-104.004,-37.598,-99.609,1296.638,369.55716052041834
529,1686362219.74,-101.074,-12.695,-45.898,-57.129,1296.642,363.12962300094983
530,1686362219.74,-81.055,110.84,-32.227,-13.672,1296.646,410.6727702217423
531,1686362219.75,-66.895,-406.738,-62.012,-51.758,1296.65,402.2267981035698
532,1686362219.75,-75.195,-605.469,-1.465,-120.605,1296.654,401.1552060047041
533,1686362219.76,-69.336,488.281,43.945,-127.93,1296.658,406.2814205480623
534,1686362219.76,-48.828,520.996,-43.457,-97.656,1296.661,407.9738786538489
535,1686362219.76,-68.848,219.727,-42.969,-125.488,1296.665,427.9856961941273
536,1686362219.77,-112.305,368.652,-20.02,-153.809,1296.664,424.4066423432192
537,1686362219.77,-126.953,300.781,-32.715,-89.844,1296.668,441.01591148613613
538,1686362219.78,-113.281,-2.441,-43.945,-4.883,1296.672,464.3585192610492
539,1686362219.78,-98.145,10.742,-16.602,-17.09,1296.675,469.8517711210967
540,1686362219.78,-100.098,196.777,-36.133,-112.793,1296.679,465.4016930483873
541,1686362219.79,-116.699,-31.738,-55.176,-166.992,1296.683,495.33323580025416
542,1686362219.79,-110.352,-367.188,-39.551,-160.645,1296.687,485.4635856159746
543,1686362219.79,-86.914,-358.887,-17.578,-143.066,1296.691,483.4025530286171
544,1686362219.8,-93.75,195.801,15.625,-160.645,1296.695,490.04954501518176
545,1686362219.8,-119.141,308.105,-37.109,-198.242,1296.699,512.3715812030705
546,1686362219.81,-129.395,-167.969,-16.113,-155.762,1296.703,501.81268424273213
547,1686362219.81,-113.77,-79.59,33.691,-100.586,1296.707,498.92747572929574
548,1686362219.81,-115.723,337.891,-22.461,-124.023,1296.72,511.1863753719362
549,1686362219.81,-148.926,80.078,-49.805,-153.809,1296.724,505.4898331366341
550,1686362219.82,-151.855,-101.562,-41.992,-114.746,1296.728,514.4133047526798
551,1686362219.82,-139.648,-76.66,-16.113,-62.988,1296.732,517.6922455716531
552,1686362219.83,-142.578,-52.734,-41.992,-71.289,1296.735,528.7736266798249
553,1686362219.83,-151.367,-6.348,-38.086,-168.457,1296.739,524.0820622699734
554,1686362219.83,-136.719,-599.609,-39.062,-213.867,1296.743,522.1549359929079
555,1686362219.84,-118.164,-476.562,6.836,-162.598,1296.747,533.244889574016
556,1686362219.84,-105.957,600.586,23.438,-147.461,1296.751,522.6175729658917
557,1686362219.84,-122.559,324.219,-60.059,-171.875,1296.755,517.912993540876
558,1686362219.85,-141.602,-146.484,-57.129,-156.25,1296.759,514.8365695133278
559,1686362219.85,-119.629,68.848,-20.996,-126.465,1296.763,520.4306594467773
560,1686362219.86,-84.961,365.234,-10.742,-105.469,1296.765,523.3696504748192
561,1686362219.86,-102.051,-32.715,-77.637,-76.172,1296.769,522.1352531093012
562,1686362219.86,-143.066,-339.844,-88.867,-80.078,1296.773,526.4669345430149
563,1686362219.87,-146.484,179.688,-3.418,-99.609,1296.777,513.1264978997891
564,1686362219.87,-129.883,317.383,-41.992,-99.121,1296.781,501.0179325074274
565,1686362219.88,-121.582,-343.75,-87.402,-104.492,1296.785,509.04235754646584
566,1686362219.88,-135.742,-448.73,-25.879,-129.395,1296.789,522.6205825254104
567,1686362219.88,-135.742,300.781,6.348,-131.348,1296.792,483.269694912802
568,1686362219.89,-106.445,324.219,-43.945,-73.73,1296.796,495.58254820527435
569,1686362219.89,-97.656,-28.809,-39.062,-40.527,1296.8,491.3314107450172
570,1686362219.9,-105.469,-40.527,-18.555,-103.027,1296.804,477.82296707934046
571,1686362219.9,-107.422,211.914,-25.391,-145.996,1296.808,478.8234497754546
572,1686362219.92,-96.191,100.098,-38.086,-95.703,1296.815,457.38489364933
573,1686362219.92,-93.262,-113.77,-33.203,-75.195,1296.819,462.9196789663702
574,1686362219.92,-116.211,89.844,-24.414,-150.391,1296.823,464.08886563246296
575,1686362219.93,-143.555,23.926,-47.852,-234.863,1296.827,438.04377833818444
576,1686362219.93,-137.207,-20.02,-20.996,-248.535,1296.831,446.69211123710437
577,1686362219.94,-106.934,-484.375,-64.941,-228.516,1296.835,442.15121900169316
578,1686362219.94,-115.234,-459.961,6.348,-249.023,1296.839,413.9554681890139
579,1686362219.94,-143.555,605.469,34.18,-237.305,1296.843,416.74458760592677
580,1686362219.95,-154.785,385.254,-61.523,-145.508,1296.846,425.8276986075677
581,1686362219.95,-129.395,69.824,-30.273,-109.863,1296.85,413.1030724894138
582,1686362219.96,-83.008,337.402,-10.254,-167.969,1296.854,381.1714197428571
583,1686362219.96,-87.402,347.656,-25.391,-225.098,1296.858,382.87444370779986
584,1686362219.96,-113.281,0.0,-46.875,-190.43,1296.857,386.9186402384351
585,1686362219.96,-92.773,-36.621,-35.645,-116.699,1296.86,390.3610132445498
586,1686362219.97,-89.355,298.828,-11.23,-104.492,1296.864,358.44150408720856
587,1686362219.97,-113.281,66.406,-57.617,-120.605,1296.868,347.91854151597477
588,1686362219.98,-121.582,-270.02,-36.621,-141.113,1296.872,359.6929040024155
589,1686362219.98,-85.938,-205.566,-9.766,-145.02,1296.876,328.34851655151385
590,1686362219.98,-66.895,133.301,-8.301,-125.488,1296.88,321.8679084843704
591,1686362219.99,-86.426,409.668,-20.508,-148.926,1296.884,328.05513284993503
592,1686362219.99,-97.656,-251.465,-79.59,-171.387,1296.888,326.735810532018
593,1686362220.0,-115.234,-603.516,1.465,-166.016,1296.892,292.6620998919109
594,1686362220.0,-98.145,410.156,58.105,-168.457,1296.896,297.64163342612164
595,1686362220.0,-92.773,552.734,-45.41,-209.961,1296.899,292.5947954543226
596,1686362220.0,-134.766,83.008,-42.969,-264.16,1296.902,296.4013939436201
597,1686362220.01,-127.441,186.523,0.977,-269.043,1296.905,280.2680254499743
598,1686362220.01,-95.703,364.746,-17.09,-250.488,1296.909,264.2860500174698
599,1686362220.02,-90.332,146.484,-43.457,-245.605,1296.913,276.08291310862666
600,1686362220.02,-108.398,-333.496,-22.461,-256.836,1296.917,255.49960886983092
601,1686362220.02,-116.211,-206.543,4.883,-231.445,1296.921,255.1822382806558
602,1686362220.03,-97.168,202.148,-9.277,-150.879,1296.925,246.98778620294055
603,1686362220.03,-80.566,309.082,-22.461,-118.164,1296.929,247.90014458562425
604,1686362220.04,-81.055,-338.379,-53.223,-129.395,1296.933,232.8849796995137
605,1686362220.04,-109.375,-206.055,2.441,-156.25,1296.937,233.14328281996845
606,1686362220.04,-105.469,715.82,11.23,-151.367,1296.941,230.80194200390062
607,1686362220.05,-71.777,369.629,-45.898,-128.418,1296.945,231.5868828233101
608,1686362220.05,-65.918,153.32,-42.969,-211.426,1296.948,234.41217949783353
609,1686362220.06,-77.148,291.992,-13.672,-279.785,1296.952,226.53235415573644
610,1686362220.06,-76.172,266.602,-41.992,-186.035,1296.956,239.27313022795158
611,1686362220.06,-36.621,24.902,-24.902,-116.211,1296.96,235.2776256362458
612,1686362220.07,-31.25,-19.531,-17.578,-166.504,1296.964,226.31144772474596
613,1686362220.07,-67.871,-39.551,-39.062,-190.43,1296.968,222.52787806516994
614,1686362220.08,-73.242,97.168,0.488,-117.676,1296.971,234.30597673544315
615,1686362220.08,-54.688,-85.449,-41.016,-60.547,1296.975,238.50580581758683
616,1686362220.08,-45.41,-374.512,-20.02,-90.332,1296.979,231.02187770653555
617,1686362220.09,-53.711,273.438,29.297,-163.086,1296.983,234.26104751578077
618,1686362220.09,-82.52,423.34,-35.156,-188.477,1296.987,218.8661031692812
619,1686362220.09,-87.891,-43.457,-4.395,-177.246,1296.991,237.66747648581958
620,1686362220.1,-47.363,67.871,43.945,-197.266,1296.992,237.65592456170359
621,1686362220.1,-35.645,429.688,-20.02,-212.891,1296.996,242.79774668398426
622,1686362220.1,-61.523,201.66,-40.527,-208.008,1296.999,241.47457663803232
623,1686362220.11,-63.477,-108.398,-22.461,-163.574,1297.003,235.72115789172753
624,1686362220.11,-32.715,113.281,-6.348,-132.324,1297.007,221.55559180644045
625,1686362220.12,-34.18,123.047,-49.316,-154.297,1297.011,236.9548448495344
626,1686362220.12,-67.383,-22.949,-38.086,-165.039,1297.015,245.5568718727691
627,1686362220.12,-68.359,-451.66,-35.645,-120.117,1297.019,243.65375457547074
628,1686362220.13,-44.434,-188.965,22.461,-79.59,1297.023,235.73901413211775
629,1686362220.13,-35.645,756.348,25.391,-96.68,1297.027,236.44879376442134
630,1686362220.14,-67.871,328.125,-36.133,-149.902,1297.031,237.67602108864452
631,1686362220.14,-79.59,-98.633,-41.504,-189.453,1297.035,248.95981809353796
632,1686362220.14,-46.387,198.73,-14.16,-155.273,1297.04,238.1304768817169
633,1686362220.15,-28.32,523.926,0.0,-108.887,1297.044,254.51436721128337
634,1686362220.15,-41.504,0.977,-66.895,-102.539,1297.048,246.12996749472737
635,1686362220.15,-60.059,-254.395,-57.617,-135.254,1297.052,253.88619021373532
636,1686362220.16,-40.039,233.887,-6.348,-157.227,1297.056,254.86379078044814
637,1686362220.16,-18.066,203.613,-27.832,-183.105,1297.06,256.0027036565234
638,1686362220.17,-24.414,-282.715,-53.711,-237.305,1297.064,253.8872064394928
639,1686362220.17,-35.645,-318.848,-1.465,-239.746,1297.068,253.1073530409563
640,1686362220.17,-28.32,455.566,35.156,-187.5,1297.071,267.87604213732726
641,1686362220.18,-27.832,489.258,-24.414,-161.133,1297.075,260.05575138244103
642,1686362220.18,-53.223,142.09,-19.531,-216.309,1297.079,267.34147423372445
643,1686362220.18,-88.867,155.273,7.324,-230.957,1297.083,263.82972938209775
644,1686362220.19,-103.516,288.574,-6.836,-172.852,1297.095,261.43178539685925
645,1686362220.19,-83.496,174.805,-30.762,-104.98,1297.099,264.0500596295368
646,1686362220.19,-87.402,-25.391,-35.156,-91.309,1297.103,274.4588145684115
647,1686362220.2,-123.047,-67.871,-9.277,-149.414,1297.107,267.35898693506675
648,1686362220.2,-125.0,38.574,-23.438,-170.41,1297.111,274.7956189433584
649,1686362220.21,-99.121,161.133,-31.738,-132.812,1297.115,278.49833487742103
650,1686362220.21,-106.445,-457.031,-52.246,-123.535,1297.119,274.0054000560679
651,1686362220.21,-119.629,-503.906,14.16,-183.105,1297.122,286.4153623575005
652,1686362220.22,-121.094,535.156,44.922,-244.141,1297.126,283.7686676597311
653,1686362220.22,-111.816,429.688,-39.551,-186.035,1297.13,291.7994882760464
654,1686362220.22,-80.566,135.742,-45.898,-90.332,1297.134,283.48859021793635
655,1686362220.23,-106.445,295.41,-22.461,-91.797,1297.138,294.12517249008175
656,1686362220.23,-141.113,255.859,-11.23,-117.676,1297.129,288.6930867190612
657,1686362220.24,-113.77,-40.527,-42.969,-43.457,1297.133,295.6197356845691
658,1686362220.24,-83.984,-98.633,-31.25,17.09,1297.137,289.9369637000553
659,1686362220.24,-68.848,182.617,-18.555,-44.922,1297.14,296.5902880466035
660,1686362220.25,-67.871,72.266,-22.461,-125.977,1297.144,290.66455400616275
661,1686362220.25,-63.477,-458.008,-57.129,-112.793,1297.148,293.92207597597917
662,1686362220.26,-56.152,-574.707,-2.93,-74.219,1297.152,293.5240954609407
663,1686362220.26,-58.105,341.797,51.27,-120.117,1297.156,294.8698028398554
664,1686362220.26,-85.938,437.5,-45.898,-189.453,1297.16,303.854358106802
665,1686362220.27,-97.656,-136.719,-22.949,-188.477,1297.164,301.9633405163736
666,1686362220.27,-76.172,43.945,19.531,-126.465,1297.168,306.895902391424
667,1686362220.28,-48.34,325.195,-21.973,-103.027,1297.172,305.2996722179185
668,1686362220.29,-46.387,63.477,-58.105,-157.227,1297.186,311.8333864259131
669,1686362220.3,-82.031,-185.547,-37.598,-152.344,1297.19,319.28842838961106
670,1686362220.3,-68.848,6.348,-12.695,-40.039,1297.194,318.0518949209953
671,1686362220.3,-47.363,-19.531,-28.809,44.922,1297.198,323.85693410986806
672,1686362220.31,-60.547,-86.914,-29.785,5.371,1297.202,306.1216505646487
673,1686362220.31,-89.844,-614.258,-52.246,-76.66,1297.206,319.4500203130748
674,1686362220.32,-107.422,-575.195,21.484,-82.031,1297.21,325.7104925544957
675,1686362220.32,-83.008,376.953,33.203,-66.406,1297.214,315.53616623526614
676,1686362220.32,-70.312,238.77,-33.203,-103.027,1297.218,325.3663706338365
677,1686362220.33,-89.844,-3.418,-11.719,-116.211,1297.222,314.9601568254162
678,1686362220.33,-100.586,244.629,-4.395,-73.242,1297.225,327.6146777955906
679,1686362220.33,-68.359,345.215,-22.461,-10.742,1297.229,333.83913501084265
680,1686362220.34,-45.898,3.906,-37.598,-19.531,1297.235,327.77877119730414
681,1686362220.34,-44.922,-148.926,-55.664,-93.75,1297.239,317.31209817927544
682,1686362220.35,-41.992,68.848,-25.391,-105.957,1297.242,321.91949364921334
683,1686362220.35,-53.711,125.977,-27.344,-67.871,1297.246,336.9226638494053
684,1686362220.36,-41.016,-162.598,-23.438,-61.523,1297.25,327.89006840221015
685,1686362220.36,-34.668,-382.324,-0.977,-139.16,1297.254,336.4979421944808
686,1686362220.36,-55.176,-102.539,-11.23,-214.844,1297.258,339.1555908446419
687,1686362220.37,-44.922,202.148,-20.508,-167.969,1297.262,331.97044057385256
688,1686362220.37,-47.363,-272.461,-59.082,-92.285,1297.266,328.84043711103055
689,1686362220.38,-53.711,-591.309,-41.016,-118.164,1297.27,325.86660727083216
690,1686362220.38,-46.387,79.102,3.418,-169.434,1297.274,323.26116842338735
691,1686362220.38,-21.973,-158.691,-18.066,-89.844,1297.276,324.8407876441717
692,1686362220.38,-39.062,291.992,-46.387,-148.926,1297.278,330.49258619980225
693,1686362220.38,-9.766,-94.238,28.809,-92.285,1297.28,332.7725554470925
694,1686362220.39,-19.531,173.34,-35.645,-120.117,1297.284,341.07008612677663
695,1686362220.39,-40.039,-107.422,-53.711,-93.262,1297.288,340.8394113695741
696,1686362220.4,-32.715,-439.941,-6.836,-31.738,1297.292,326.0756500096551
697,1686362220.4,-20.996,-264.648,18.066,-41.992,1297.296,336.56868025102557
698,1686362220.4,-27.344,185.059,-12.695,-129.395,1297.3,329.25264941613403
699,1686362220.41,-46.387,132.812,-45.41,-161.133,1297.304,341.5217380990685
700,1686362220.41,-44.434,-386.23,-2.93,-132.812,1297.308,343.5306154623816
701,1686362220.42,-16.113,-23.926,57.617,-132.324,1297.312,339.68605585494123
702,1686362220.42,-22.949,476.562,-13.672,-208.984,1297.315,336.34472472076624
703,1686362220.42,-73.242,-34.668,-62.988,-268.066,1297.319,320.4187172598263
704,1686362220.43,-70.312,-340.332,-39.062,-228.516,1297.326,333.0234077595247
705,1686362220.43,-19.043,82.52,7.324,-171.387,1297.329,342.3309900935163
706,1686362220.44,-16.113,332.031,-13.184,-153.809,1297.333,326.2476129237137
707,1686362220.44,-48.828,-204.102,-57.129,-189.941,1297.337,336.89320324600465
708,1686362220.44,-55.176,-452.148,-68.359,-198.242,1297.341,338.5327270116428
709,1686362220.45,-38.086,-54.688,-24.414,-132.324,1297.345,339.78745616896333
710,1686362220.45,-25.391,77.148,-19.043,-101.562,1297.349,347.26586103521703
711,1686362220.45,-39.551,-354.492,-57.617,-171.387,1297.353,337.62494473692607
712,1686362220.46,-56.641,-509.277,7.812,-226.562,1297.357,339.5420273293056
713,1686362220.46,-26.855,328.125,61.035,-227.051,1297.361,348.8613306536082
714,1686362220.47,-4.883,380.371,-29.297,-233.887,1297.365,344.4732664929087
715,1686362220.47,-20.02,-9.766,-33.691,-287.109,1297.368,342.26701777299803
716,1686362220.47,-33.203,19.531,-9.277,-328.125,1297.367,357.28726830329913
717,1686362220.48,-22.461,170.41,-22.949,-300.293,1297.371,338.49298503181296
718,1686362220.48,-0.488,61.035,-24.414,-238.77,1297.374,344.45934176022786
719,1686362220.48,-3.418,-262.695,-27.832,-178.223,1297.378,346.64692622496307
720,1686362220.49,-34.668,-270.508,-15.625,-156.25,1297.382,352.7885207017315
721,1686362220.49,-39.062,-120.605,-31.25,-93.75,1297.386,351.1389759637279
722,1686362220.5,-21.973,54.688,-35.156,-41.992,1297.39,337.83905906611335
723,1686362220.5,9.766,-488.77,-45.898,-54.688,1297.394,346.764383562404
724,1686362220.5,35.645,-592.773,23.926,-82.031,1297.398,344.2050082584182
725,1686362220.51,70.312,439.453,47.363,-86.914,1297.402,343.5748736453458
726,1686362220.51,129.883,343.262,-43.945,-18.555,1297.406,345.4327942554091
727,1686362220.51,165.039,69.824,-45.898,-1.953,1297.41,347.520624658747
728,1686362220.52,156.738,177.734,-26.367,-71.289,1297.414,344.7691206137061
729,1686362220.52,147.949,187.988,-17.09,-83.496,1297.418,355.0262072912278
730,1686362220.52,160.156,-198.73,-64.941,-54.199,1297.421,335.9161456149466
731,1686362220.53,182.617,-263.672,-54.688,-69.824,1297.425,354.56905680566985
732,1686362220.53,184.57,69.824,-34.668,-158.691,1297.429,348.45493923171244
733,1686362220.54,173.34,-141.602,-52.246,-205.078,1297.433,343.92091964214353
734,1686362220.54,198.242,-499.512,-52.246,-150.391,1297.437,344.64420774190376
735,1686362220.54,225.098,-666.016,-14.16,-118.164,1297.441,355.22045745671477
736,1686362220.55,215.82,210.938,43.945,-166.992,1297.445,360.9216267573151
737,1686362220.55,187.012,392.09,-38.086,-166.992,1297.449,354.6592122743538
738,1686362220.56,183.594,-60.059,-35.645,-118.164,1297.453,362.47079314591224
739,1686362220.56,211.426,92.285,-1.953,-116.211,1297.457,350.47042357904786
740,1686362220.58,236.328,198.73,-21.973,-185.059,1297.471,344.38212319428885
741,1686362220.58,220.703,-25.879,-43.457,-236.328,1297.475,356.89295451889643
742,1686362220.58,198.73,-191.895,-33.691,-221.191,1297.479,337.3092505236992
743,1686362220.59,214.844,-190.918,-14.648,-216.797,1297.483,352.2591825670069
744,1686362220.59,219.727,-125.488,-29.297,-246.094,1297.487,344.5320477618973
745,1686362220.6,184.082,-78.125,-43.945,-317.383,1297.491,356.98223733367837
746,1686362220.6,171.387,-681.152,-67.383,-310.059,1297.495,353.4846313070962
747,1686362220.6,212.402,-606.445,-17.09,-197.754,1297.499,357.8015731548979
748,1686362220.61,248.047,358.887,21.973,-112.305,1297.503,346.2235739779605
749,1686362220.61,239.746,298.828,-35.645,-89.844,1297.53,350.29337050273074
750,1686362220.61,224.121,265.137,-49.316,-126.953,1297.507,350.488875571478
751,1686362220.61,233.887,-71.777,-53.711,-145.02,1297.534,343.35677184971814
752,1686362220.62,215.332,-148.926,-37.109,-144.043,1297.511,361.1342232202316
753,1686362220.62,199.707,-230.957,-48.34,-180.176,1297.538,346.42149378885324
754,1686362220.62,216.797,47.852,-13.672,-138.672,1297.542,354.933113176871
755,1686362220.62,228.516,130.371,3.906,-98.633,1297.514,353.34294922064964
756,1686362220.62,242.676,30.273,-47.852,-126.953,1297.546,351.09198307104344
757,1686362220.63,222.656,-364.746,-48.828,-181.152,1297.55,369.389532699719
758,1686362220.63,187.5,-345.215,-3.906,-242.188,1297.553,356.7050995527241
759,1686362220.63,175.293,4.395,-20.996,-277.832,1297.557,355.1893246536478
760,1686362220.64,185.547,144.531,-32.715,-228.027,1297.561,360.5760591180535
761,1686362220.64,175.293,-381.348,-73.73,-178.223,1297.565,355.6304017639545
762,1686362220.65,166.016,-692.383,-54.688,-182.129,1297.569,358.33756183751717
763,1686362220.65,143.555,-2.93,-1.953,-178.223,1297.573,359.7645661594492
764,1686362220.68,149.902,205.078,-46.387,-107.91,1297.576,357.8114475378366
765,1686362220.68,152.832,-153.32,-38.574,-54.199,1297.58,357.6374195834696
766,1686362220.69,130.859,-138.672,6.836,-100.098,1297.584,360.2468232609838
767,1686362220.69,115.723,-60.547,-41.504,-133.301,1297.588,358.6633700225478
768,1686362220.7,129.395,-40.527,-32.715,-102.051,1297.592,354.4739446786056
769,1686362220.7,156.25,-526.855,-58.594,-78.613,1297.596,367.3465381131698
770,1686362220.7,149.902,-491.699,-11.719,-116.211,1297.6,363.99958797625004
771,1686362220.71,117.676,415.039,11.719,-181.152,1297.604,366.8300878016981
772,1686362220.71,107.422,-286.621,-66.406,-145.02,1297.607,364.69630400967856
773,1686362220.71,98.145,128.418,-49.316,-175.781,1297.608,364.2667986166984
774,1686362220.71,127.441,-456.055,-48.828,-105.957,1297.611,354.3525010783545
775,1686362220.72,117.676,-65.43,-23.926,-118.164,1297.612,363.72766454047024
776,1686362220.72,139.648,41.016,7.324,-90.82,1297.615,357.39712494612286
777,1686362220.72,120.605,177.734,-11.719,-89.844,1297.616,363.0073571634505
778,1686362220.72,131.836,222.168,-31.25,-154.297,1297.619,359.02585474762236
779,1686362220.72,99.121,146.973,-24.902,-121.582,1297.619,358.78754990894424
780,1686362220.73,135.742,-311.035,-66.406,-196.777,1297.623,358.94820319856
781,1686362220.73,162.109,-613.77,-41.992,-168.457,1297.627,356.3896481862628
782,1686362220.73,146.484,26.367,0.488,-168.945,1297.631,371.0179970967794
783,1686362220.74,142.578,290.527,-34.668,-214.844,1297.635,352.79473248882465
784,1686362220.74,128.906,-248.047,-12.207,-246.582,1297.639,345.38386942858034
785,1686362220.74,88.379,-266.113,37.109,-196.289,1297.643,346.8057466010015
786,1686362220.75,102.051,144.531,-2.441,-125.488,1297.646,358.1285745369164
787,1686362220.75,118.652,136.23,-42.969,-168.945,1297.65,365.02613243731736
788,1686362220.76,82.031,-545.41,-82.52,-245.605,1297.652,342.5587667524614
789,1686362220.76,72.754,-576.66,-18.555,-243.652,1297.656,357.26577244183125
790,1686362220.76,110.352,264.648,0.488,-196.777,1297.66,349.31017358443574
791,1686362220.77,121.094,104.98,-48.34,-173.34,1297.664,352.46778845625386
792,1686362220.77,107.422,-579.102,-38.086,-224.121,1297.668,360.99780776231853
793,1686362220.78,82.031,-520.02,-9.277,-255.859,1297.671,362.08528908483015
794,1686362220.78,81.055,152.344,14.16,-216.797,1297.675,366.5682362678884
795,1686362220.78,125.0,300.781,-16.113,-175.781,1297.679,356.2427011735395
796,1686362220.79,121.094,-465.332,-40.527,-188.965,1297.683,362.43344744590803
797,1686362220.79,96.68,-344.238,32.715,-236.328,1297.687,346.4048865356005
798,1686362220.79,132.324,469.727,6.348,-187.5,1297.691,361.91189009946817
799,1686362220.8,157.227,143.066,-53.223,-103.516,1297.695,352.0011042956238
800,1686362220.8,151.855,-68.359,-43.945,-143.066,1297.698,359.66952272684216
801,1686362220.8,130.371,81.055,-7.812,-191.895,1297.702,365.432703519217
802,1686362220.81,116.211,83.496,-33.203,-176.27,1297.706,363.1733517613621
803,1686362220.81,123.047,-135.742,-32.715,-175.781,1297.71,346.9190539895469
804,1686362220.82,114.258,-187.5,-37.109,-217.773,1297.714,345.57156257719095
805,1686362220.82,86.426,-241.699,-44.922,-277.832,1297.718,359.7398498059994
806,1686362220.82,82.031,-209.961,0.0,-255.371,1297.722,372.47552702132543
807,1686362220.83,92.773,-389.648,-43.457,-185.547,1297.726,345.03252504581167
808,1686362220.83,76.66,-624.512,11.719,-181.152,1297.729,348.819861967697
809,1686362220.84,59.57,209.961,59.57,-248.047,1297.733,362.6878796571285
810,1686362220.84,55.176,354.492,-44.434,-307.617,1297.737,347.7233300398722
811,1686362220.84,83.984,-26.367,-25.391,-269.043,1297.741,362.0506444501789
812,1686362220.85,115.723,135.742,2.441,-215.332,1297.741,364.8372104055093
813,1686362220.85,96.68,198.73,-28.32,-237.793,1297.745,356.3210571727248
814,1686362220.85,74.707,-46.875,-54.688,-257.324,1297.749,350.20259984900207
815,1686362220.86,82.031,-360.84,-40.039,-166.016,1297.753,361.2586763877782
816,1686362220.86,108.398,-126.465,-12.695,-109.863,1297.757,352.9559306243255
817,1686362220.87,112.305,20.02,-42.48,-182.617,1297.761,357.1482557582918
818,1686362220.87,78.613,-86.914,-37.598,-232.91,1297.765,372.3647711822128
819,1686362220.87,66.895,-559.082,-34.18,-224.121,1297.769,363.0879321382694
820,1686362220.88,94.238,-464.844,-2.441,-182.129,1297.773,358.70077164191696
821,1686362220.88,93.262,433.105,9.277,-169.922,1297.776,366.99149983072056
822,1686362220.88,82.52,235.352,-44.922,-191.406,1297.78,359.2196171639814
823,1686362220.89,78.125,-109.863,-30.273,-172.363,1297.784,362.10631038994677
824,1686362220.89,89.844,241.211,-2.93,-126.953,1297.8,359.90019621981526
825,1686362220.9,84.473,361.328,-31.738,-118.652,1297.804,352.0144796266641
826,1686362220.9,64.941,-66.895,-46.387,-161.621,1297.808,356.7190285816322
827,1686362220.9,66.895,-175.293,-39.062,-200.195,1297.812,340.85958897762913
828,1686362220.91,68.359,72.754,-38.086,-198.242,1297.816,356.04327629941787
829,1686362220.91,84.473,-33.203,-52.734,-219.238,1297.82,361.74042126921404
830,1686362220.92,76.172,-457.52,-59.57,-255.371,1297.824,352.3455611268364
831,1686362220.92,52.734,-469.238,-25.879,-246.094,1297.828,341.5088962035456
832,1686362220.92,62.012,301.758,18.555,-189.941,1297.832,357.30228660332574
833,1686362220.93,80.566,402.344,-48.34,-133.301,1297.836,351.99647054879097
834,1686362220.93,86.914,-93.262,-36.621,-147.949,1297.84,356.9448847283169
835,1686362220.94,83.496,-234.375,2.93,-191.895,1297.843,350.85170858779776
836,1686362220.94,91.797,92.285,-19.043,-164.062,1297.836,350.55695413156616
837,1686362220.94,108.887,236.816,-37.109,-104.004,1297.84,366.55571268870955
838,1686362220.94,93.75,-131.348,-47.852,-126.465,1297.844,359.2114896254751
839,1686362220.95,47.852,-256.836,-3.418,-199.219,1297.847,348.3072090058808
840,1686362220.95,50.293,29.297,-30.762,-237.793,1297.851,348.630899200533
841,1686362220.96,90.82,151.855,-41.992,-224.121,1297.855,354.80030299682505
842,1686362220.96,75.684,-451.172,-37.598,-192.383,1297.859,353.15434578751973
843,1686362220.96,32.715,-407.227,1.953,-232.422,1297.863,363.21095714527155
844,1686362220.97,14.16,524.902,28.809,-252.441,1297.867,355.5467948113219
845,1686362220.97,16.602,317.383,-48.34,-190.918,1297.871,358.4311638313987
846,1686362220.98,51.758,102.051,-40.527,-141.602,1297.875,359.67592076289793
847,1686362220.98,52.734,311.035,-11.719,-141.602,1297.879,367.2396032267965
848,1686362220.98,6.836,255.859,-25.879,-169.922,1297.905,349.9593220640251
849,1686362220.99,-5.371,-103.516,-63.477,-153.32,1297.909,356.14712140131377
850,1686362220.99,23.438,-255.371,-45.898,-107.91,1297.913,365.3477383689878
851,1686362221.0,2.441,179.688,-4.395,-109.863,1297.917,353.2668945559583
852,1686362221.0,-21.973,245.605,-48.34,-142.09,1297.921,362.8722879091
853,1686362221.0,-5.371,-320.801,-97.656,-125.977,1297.925,359.1418300574111
854,1686362221.01,17.09,-813.477,-41.992,-71.777,1297.929,351.5799320193686
855,1686362221.01,39.551,104.004,51.27,-69.824,1297.933,360.97040953460527
856,1686362221.01,46.387,666.992,-45.898,-95.703,1297.936,355.1631438873433
857,1686362221.02,27.832,-27.344,-28.809,-73.242,1297.94,362.8064252833687
858,1686362221.02,23.926,10.742,48.34,-16.602,1297.944,344.9542214327788
859,1686362221.03,39.551,380.371,-27.344,-8.789,1297.948,355.2105070186631
860,1686362221.04,19.043,198.242,-71.777,-66.406,1297.936,369.72046120310273
861,1686362221.04,18.066,-42.969,-49.805,-99.609,1297.94,358.53432972029685
862,1686362221.05,35.645,89.844,-26.367,-93.262,1297.944,355.5290467150878
863,1686362221.05,61.035,16.113,-55.664,-58.594,1297.948,345.53104697036036
864,1686362221.06,74.707,-32.227,-41.504,-58.594,1297.952,358.4420452588245
865,1686362221.06,56.152,-510.254,-62.988,-82.52,1297.956,342.854992477651
866,1686362221.06,41.504,-675.293,-0.488,-50.781,1297.96,352.1382959083211
867,1686362221.07,50.781,571.289,47.852,-16.113,1297.964,351.1940191223786
868,1686362221.07,56.152,562.988,-63.965,-11.719,1297.968,346.7304501767469
869,1686362221.08,46.875,20.508,-18.555,-62.012,1297.971,353.781839850112
870,1686362221.08,48.34,301.27,11.719,-77.637,1297.975,359.63202310656703
871,1686362221.08,45.41,413.574,-36.133,-27.344,1297.979,355.8377979526523
872,1686362221.08,39.551,62.012,-60.059,-22.949,1297.981,348.22533841528
873,1686362221.09,36.133,-160.156,-81.055,-102.051,1297.985,349.14871760645485
874,1686362221.09,37.109,32.227,-40.039,-135.742,1297.989,356.531836976391
875,1686362221.1,53.223,186.035,-20.02,-82.52,1297.993,356.00556712025434
876,1686362221.1,50.781,53.711,-37.109,-43.945,1297.997,359.3838152485169
877,1686362221.1,35.645,-220.703,-34.18,-92.773,1298.001,361.06947959432716
878,1686362221.11,24.414,-55.176,-40.039,-140.137,1298.005,344.60440407614465
879,1686362221.11,21.484,141.113,-18.066,-84.473,1298.009,357.60055838801543
880,1686362221.12,44.434,-258.789,-62.5,-23.438,1298.013,355.18428421204777
881,1686362221.12,48.828,-532.715,-35.156,-60.059,1298.017,351.16011775800183
882,1686362221.12,18.555,275.879,18.066,-103.516,1298.021,356.78708483603964
883,1686362221.13,14.16,410.156,-54.688,-81.543,1298.024,362.43152464175904
884,1686362221.15,37.598,49.316,-43.945,-76.66,1298.056,351.8116773988967
885,1686362221.15,15.137,191.895,-17.09,-97.656,1298.06,359.03953596848623
886,1686362221.15,-9.766,193.359,-42.48,-115.234,1298.064,349.4548792434523
887,1686362221.16,1.953,-112.793,-80.078,-74.707,1298.068,351.64616377269306
888,1686362221.16,33.203,-453.125,-15.625,-16.113,1298.072,355.97083319913526
889,1686362221.17,56.152,-239.258,23.926,-20.996,1298.076,360.37471454228677
890,1686362221.17,31.25,263.672,-33.691,-71.289,1298.079,355.2747563602578
891,1686362221.17,6.836,199.219,-65.43,-91.797,1298.083,352.4828360779998
892,1686362221.18,-19.043,-155.762,-48.828,-108.887,1298.072,351.3105640975193
893,1686362221.18,-0.488,-396.973,-14.16,-45.41,1298.087,359.5922151882766
894,1686362221.18,-1.953,236.816,-12.207,-110.84,1298.076,359.06293340107453
895,1686362221.18,11.719,-159.18,21.973,-33.691,1298.091,357.7977350828136
896,1686362221.18,8.789,308.594,-62.012,-158.691,1298.079,365.44397735471193
897,1686362221.18,17.578,326.172,-50.293,-98.633,1298.095,354.0058505357672
898,1686362221.19,-18.555,-84.473,-51.27,-218.75,1298.083,347.0105903309828
899,1686362221.19,-1.953,25.879,-80.078,-134.277,1298.099,361.53414886999064
900,1686362221.19,-28.809,-163.574,-50.293,-195.312,1298.087,350.89266732754754
901,1686362221.2,-13.184,-33.691,-56.641,-110.84,1298.091,363.84535847663403
902,1686362221.2,-18.066,-134.277,-57.129,-96.191,1298.095,363.14677898864016
903,1686362221.2,-26.367,-279.297,-23.438,-134.766,1298.099,360.498042202274
904,1686362221.21,-27.344,-116.211,-1.953,-125.0,1298.103,349.68528779509245
905,1686362221.21,-19.531,204.102,-31.25,-93.262,1298.107,353.7304535588367
906,1686362221.21,-12.207,164.062,-55.176,-128.418,1298.111,354.5691219754953
907,1686362221.22,-33.691,-374.512,-36.133,-203.613,1298.115,350.30244261889425
908,1686362221.24,-36.621,-494.629,0.488,-244.629,1298.135,345.6670159452037
909,1686362221.24,-15.137,-11.23,-29.785,-211.426,1298.138,355.28098411686557
910,1686362221.24,-10.254,190.918,-58.105,-166.504,1298.142,361.67038600679854
911,1686362221.25,-17.578,-502.93,-87.402,-172.852,1298.146,357.8206525170179
912,1686362221.25,-11.23,-876.465,-20.02,-164.551,1298.15,354.5879253708467
913,1686362221.26,11.719,34.18,5.371,-115.723,1298.154,349.9959088085186
914,1686362221.26,27.344,337.891,-46.387,-76.66,1298.158,351.38484605332366
915,1686362221.26,30.273,-216.797,-20.996,-91.797,1298.162,353.50763365335985
916,1686362221.27,21.973,-55.176,11.719,-160.645,1298.166,354.6828248739494
917,1686362221.27,21.973,51.27,-33.203,-194.336,1298.164,353.96422516002264
918,1686362221.27,15.625,19.531,-33.691,-186.523,1298.168,367.28072026117667
919,1686362221.27,8.789,390.625,-24.902,-170.898,1298.17,370.48449498864744
920,1686362221.28,24.414,43.945,-46.387,-142.09,1298.174,348.7122014458869
921,1686362221.28,32.227,-277.832,-59.082,-121.094,1298.172,361.1542669532914
922,1686362221.28,39.551,-352.539,-41.504,-110.352,1298.176,361.9096116527816
923,1686362221.28,38.574,-77.148,-58.105,-156.25,1298.178,354.9812309497125
924,1686362221.28,17.09,-10.742,-31.738,-147.949,1298.18,354.8941658909386
925,1686362221.29,-10.742,-211.426,-72.754,-160.156,1298.183,351.21799655790454
926,1686362221.29,11.23,-556.641,-36.133,-152.832,1298.187,353.8683029451095
927,1686362221.29,34.668,-259.766,-7.324,-167.48,1298.191,344.80193742011795
928,1686362221.3,36.621,28.809,-26.367,-218.262,1298.195,342.17501811588903
929,1686362221.3,32.227,26.367,-31.738,-216.797,1298.199,347.9284891957261
930,1686362221.31,27.344,-511.719,-69.336,-152.344,1298.203,350.02071230239085
931,1686362221.31,34.668,-749.512,6.836,-120.605,1298.207,351.8741815710799
932,1686362221.31,34.18,194.824,44.434,-195.312,1298.22,348.948442946545
933,1686362221.32,-2.93,242.188,-47.852,-261.23,1298.224,349.4407575989584
934,1686362221.32,-20.02,-111.816,-56.641,-236.816,1298.228,359.54172588759184
935,1686362221.32,-4.395,-145.996,-20.02,-180.664,1298.232,354.4954364071162
936,1686362221.33,6.348,-142.578,-46.875,-179.688,1298.236,349.8129132976827
937,1686362221.33,-9.277,-132.324,-51.758,-224.609,1298.239,344.8957181009824
938,1686362221.34,-38.086,-686.035,-59.57,-208.984,1298.243,369.62121399999774
939,1686362221.34,-34.18,-872.07,-9.766,-178.711,1298.247,356.39142057794425
940,1686362221.34,-1.953,260.742,64.453,-165.527,1298.251,360.0203748395677
941,1686362221.35,16.602,367.676,-41.992,-185.059,1298.255,352.85122523038297
942,1686362221.35,-2.441,-98.145,-62.012,-254.395,1298.259,358.0864653268061
943,1686362221.35,-1.465,100.098,-27.344,-250.977,1298.263,356.32204061828617
944,1686362221.36,27.344,151.855,-27.832,-185.059,1298.265,360.35380067200765
945,1686362221.36,32.715,-188.965,-41.504,-166.504,1298.269,350.07855911489264
946,1686362221.36,20.02,-333.984,-53.711,-180.176,1298.273,347.47972845187854
947,1686362221.37,13.184,-42.48,-32.715,-138.672,1298.277,343.2783774718067
948,1686362221.37,36.621,64.941,-44.434,-51.758,1298.281,346.8556139450852
949,1686362221.38,59.57,-493.164,-95.215,-17.09,1298.285,349.8823087545475
950,1686362221.38,18.066,-627.441,-50.781,-57.617,1298.289,348.4931496168916
951,1686362221.38,-21.484,39.551,-8.789,-114.258,1298.293,346.8483642212132
952,1686362221.39,4.395,8.301,-41.016,-109.375,1298.296,360.75817789682344
953,1686362221.39,20.02,-479.492,-62.012,-112.793,1298.3,351.9043914034575
954,1686362221.4,4.395,-399.414,-37.598,-170.41,1298.304,353.1899624072423
955,1686362221.4,-22.949,224.609,-25.879,-198.73,1298.308,354.14205046613085
956,1686362221.42,-32.715,82.52,-60.059,-118.652,1298.311,355.58957012903124
957,1686362221.42,1.465,-233.398,-41.992,-28.809,1298.315,354.4094185681853
958,1686362221.42,6.836,-66.406,-24.902,-58.594,1298.319,346.87515321761674
959,1686362221.43,-27.832,-103.516,-54.199,-95.215,1298.323,344.57204613703476
960,1686362221.43,-18.066,-229.004,-48.828,-50.781,1298.327,362.2104137513045
961,1686362221.44,25.879,-662.109,-63.477,-13.184,1298.331,355.1956341853208
962,1686362221.44,41.992,-526.367,-3.418,-56.641,1298.335,345.8003067619069
963,1686362221.44,34.668,423.828,0.488,-125.977,1298.339,354.3650036572702
964,1686362221.45,15.625,115.723,-59.57,-121.582,1298.343,367.79687235989826
965,1686362221.45,21.484,-147.949,-39.062,-63.965,1298.347,344.9671467326496
966,1686362221.46,32.227,-13.184,-52.246,-60.547,1298.351,352.86543895810684
967,1686362221.46,18.066,-17.578,-44.434,-126.465,1298.354,352.72965122374035
968,1686362221.46,-0.488,-204.102,-74.707,-179.688,1298.356,349.3196533551786
969,1686362221.46,16.602,-378.418,-69.336,-158.691,1298.36,356.1861284813839
970,1686362221.47,31.738,49.316,-23.438,-142.09,1298.364,346.85344089173697
971,1686362221.47,10.742,89.355,-59.082,-198.242,1298.368,351.0097079622422
972,1686362221.48,-20.996,-311.035,-51.27,-282.227,1298.372,351.21109455545377
973,1686362221.48,7.812,-538.086,-39.062,-288.086,1298.376,359.4358432461598
974,1686362221.48,31.25,-166.016,-24.902,-250.977,1298.38,358.75566624687104
975,1686362221.49,9.277,155.762,-43.945,-269.531,1298.384,345.134377174056
976,1686362221.49,-19.043,-522.949,-101.562,-259.277,1298.388,358.308072422098
977,1686362221.5,-45.898,-661.621,-31.25,-158.691,1298.392,355.25911865333796
978,1686362221.5,-26.855,200.195,9.277,-100.098,1298.396,356.96434758737075
979,1686362221.5,-13.672,159.668,-61.523,-147.949,1298.399,351.9691066859979
980,1686362221.51,-30.273,-224.609,-62.988,-232.91,1298.405,351.4278058281909
981,1686362221.51,-25.879,-319.336,-32.227,-265.137,1298.409,350.13379545284073
982,1686362221.51,-8.789,-185.059,-28.809,-236.328,1298.413,371.22682506643264
983,1686362221.52,0.0,-123.047,-37.109,-188.965,1298.417,357.32245941311504
984,1686362221.52,-34.18,-667.969,-54.199,-182.129,1298.421,357.96978288516266
985,1686362221.53,-63.965,-768.066,-42.969,-175.293,1298.425,340.96986907793945
986,1686362221.53,-33.203,21.973,-14.648,-116.211,1298.429,345.0196400281643
987,1686362221.53,-4.395,216.797,-55.664,-98.145,1298.432,362.00467407009165
988,1686362221.54,-17.578,-442.871,-20.508,-158.203,1298.436,354.912775983692
989,1686362221.54,-31.738,-268.555,41.992,-216.309,1298.44,344.1142423433618
990,1686362221.54,-26.367,254.395,-21.484,-171.387,1298.444,348.93748836553107
991,1686362221.55,-14.648,-96.68,-55.176,-133.301,1298.448,347.0258800258472
992,1686362221.55,5.859,-253.906,-50.293,-192.383,1298.448,349.8330154996232
993,1686362221.56,-4.395,-108.887,-29.785,-262.695,1298.452,351.0505238017765
994,1686362221.56,-16.602,-106.934,-47.363,-254.883,1298.456,347.32541423323
995,1686362221.56,8.789,-395.996,-59.082,-207.031,1298.46,346.90050920325245
996,1686362221.57,15.137,-486.328,-57.129,-198.73,1298.464,360.00709058964406
997,1686362221.57,-11.23,-387.207,-40.527,-195.312,1298.468,350.30237638538017
998,1686362221.58,-3.418,-212.891,-18.066,-166.016,1298.472,357.6971568133542
999,1686362221.58,35.645,-427.246,-66.895,-138.184,1298.475,356.5161074080669
1000,1686362221.58,44.922,-859.375,-20.02,-147.461,1298.479,351.5609859115574
1001,1686362221.59,18.555,-43.457,38.574,-177.734,1298.483,350.4354897514714
1002,1686362221.59,4.395,175.781,-54.199,-175.293,1298.487,364.6244398653929
1003,1686362221.59,16.113,-232.422,-44.434,-116.699,1298.491,358.1119232800798
1004,1686362221.6,23.438,-133.301,-21.973,-79.102,1298.492,355.3619273002027
1005,1686362221.6,27.832,-34.18,-39.062,-104.98,1298.495,351.8342671668457
1006,1686362221.6,19.531,-187.988,-58.105,-141.602,1298.499,349.3992064351009
1007,1686362221.61,11.719,-512.695,-52.734,-128.418,1298.503,349.0140177065262
1008,1686362221.61,14.648,-344.238,-31.25,-65.43,1298.507,343.5679593728259
1009,1686362221.62,4.883,-228.516,-67.383,-36.621,1298.511,360.7413440997114
1010,1686362221.62,-21.973,-384.277,-53.223,-77.637,1298.515,346.53984243151706
1011,1686362221.62,-16.113,-771.484,-50.293,-78.125,1298.519,347.445253052358
1012,1686362221.63,17.09,-696.289,25.391,-28.32,1298.523,354.2496807926552
1013,1686362221.63,30.273,326.66,52.734,-74.707,1298.527,360.1961122994757
1014,1686362221.64,7.812,132.812,-59.57,-171.387,1298.531,347.06396358996625
1015,1686362221.64,-17.578,-232.91,-58.105,-198.73,1298.535,356.0651381046344
1016,1686362221.64,-3.906,66.406,-9.766,-150.391,1298.539,353.1396074024493
1017,1686362221.65,4.883,88.867,-31.25,-132.324,1298.543,345.7126987690939
1018,1686362221.65,-17.09,-281.738,-52.734,-182.129,1298.546,355.6218079157628
1019,1686362221.65,-18.555,-405.273,-31.25,-227.539,1298.55,354.2006554042859
1020,1686362221.66,-8.301,-177.734,-30.762,-183.594,1298.554,348.96139034713065
1021,1686362221.66,13.672,-230.957,-41.016,-113.281,1298.558,356.6255436661179
1022,1686362221.67,9.766,-588.379,-61.035,-135.254,1298.562,355.22556086644505
1023,1686362221.67,2.441,-580.078,-21.973,-195.801,1298.566,350.8463495068593
1024,1686362221.67,-1.953,84.961,24.902,-193.359,1298.57,351.68210987973424
1025,1686362221.68,-1.953,19.531,-48.828,-169.434,1298.574,349.01276028664586
1026,1686362221.68,2.93,-342.285,-0.488,-194.336,1298.578,353.94896289560154
1027,1686362221.68,-7.324,104.98,-21.484,-169.922,1298.595,349.1794714280349
1028,1686362221.68,1.465,-197.266,36.621,-209.473,1298.582,358.66867241442657
1029,1686362221.69,-20.02,9.766,-51.27,-119.629,1298.599,337.2709426393802
1030,1686362221.69,-8.301,-379.883,-42.969,-123.535,1298.603,345.3715011358106
1031,1686362221.7,-1.953,-458.984,1.953,-176.27,1298.607,346.1202422991806
1032,1686362221.7,-17.578,-174.316,-24.414,-197.266,1298.611,353.0376914704913
1033,1686362221.7,-7.324,-50.293,-39.062,-127.93,1298.615,346.68668284091035
1034,1686362221.71,15.137,-635.254,-50.781,-73.242,1298.619,351.28368289324
1035,1686362221.71,-7.324,-605.957,-4.395,-90.82,1298.623,357.53611050533186
1036,1686362221.72,-35.645,290.039,16.602,-100.586,1298.626,342.209081953216
1037,1686362221.72,-36.621,155.762,-34.668,-54.688,1298.63,336.5640691931881
1038,1686362221.72,-33.691,5.859,-33.203,9.766,1298.634,354.5376539488834
1039,1686362221.73,-28.809,-29.785,-37.109,-11.23,1298.638,345.45295643348703
1040,1686362221.73,-29.785,-91.797,-14.648,-56.152,1298.633,345.75564775029915
1041,1686362221.74,-31.25,-226.562,-59.082,-33.691,1298.637,357.7324605136721
1042,1686362221.74,-10.254,-376.465,-62.988,13.184,1298.641,356.5276525810034
1043,1686362221.74,-1.465,79.102,1.465,-30.762,1298.645,350.36221984172454
1044,1686362221.75,-18.066,90.82,-43.945,-103.516,1298.649,345.02246154835353
1045,1686362221.75,-30.273,-531.25,-73.242,-119.141,1298.653,347.4278301680419
1046,1686362221.76,-17.09,-545.898,-18.555,-100.098,1298.657,352.740662448765
1047,1686362221.76,3.418,227.051,20.508,-104.004,1298.661,347.3259185608748
1048,1686362221.76,-20.508,151.367,-52.734,-153.809,1298.665,348.6883992869014
1049,1686362221.77,-39.062,-363.281,-22.949,-172.363,1298.669,350.6170536593935
1050,1686362221.77,-15.137,-218.75,36.621,-143.066,1298.673,347.35728030820064
1051,1686362221.78,6.836,157.715,-19.531,-110.352,1298.676,335.0972975279405
1052,1686362221.79,5.371,-18.066,-42.48,-112.793,1298.69,343.8478546920303
1053,1686362221.8,-16.602,-271.484,-35.645,-134.277,1298.694,353.5693931228397
1054,1686362221.8,-29.297,-306.641,-13.672,-98.145,1298.698,356.305405409684
1055,1686362221.8,13.184,-242.676,-8.789,-55.664,1298.702,350.1632659500995
1056,1686362221.81,26.855,-83.496,-24.414,-124.023,1298.706,359.6896021080214
1057,1686362221.81,-3.418,-575.195,-80.566,-187.012,1298.709,352.50029723876406
1058,1686362221.82,-8.301,-934.082,15.625,-155.762,1298.713,352.5785920316691
1059,1686362221.82,6.348,211.426,88.379,-112.793,1298.717,354.666242191282
1060,1686362221.82,-0.488,508.301,-33.203,-122.559,1298.721,350.97398176578633
1061,1686362221.83,-16.113,46.387,-32.715,-179.199,1298.725,347.98699069709727
1062,1686362221.83,-11.23,156.738,-16.602,-186.035,1298.729,362.49774466920854
1063,1686362221.83,-10.742,185.547,-16.113,-136.719,1298.733,351.1703553389748
1064,1686362221.84,10.254,-41.016,-40.039,-103.027,1298.732,355.04752034690665
1065,1686362221.84,-0.977,-182.617,-60.059,-95.703,1298.736,354.6030062967983
1066,1686362221.84,-28.809,0.977,-23.438,-118.164,1298.74,347.9992698344175
1067,1686362221.85,-30.762,73.73,-18.066,-117.676,1298.743,351.34894111838156
1068,1686362221.85,-22.461,-190.918,-43.457,-91.309,1298.747,356.00203162390125
1069,1686362221.86,-5.859,-375.977,-25.879,-121.582,1298.751,358.818351472483
1070,1686362221.86,-42.48,-261.23,-17.578,-175.781,1298.755,344.22044079700987
1071,1686362221.86,-62.5,68.359,-15.625,-145.02,1298.759,341.2930617355724
1072,1686362221.87,-18.555,-230.469,-62.988,-67.871,1298.763,359.5607170380484
1073,1686362221.87,9.766,-714.844,-0.977,-74.219,1298.767,348.5024075639425
1074,1686362221.87,13.672,192.871,65.43,-159.668,1298.771,340.11225236743604
1075,1686362221.88,7.324,405.273,-33.691,-203.613,1298.775,352.344662834292
1076,1686362221.88,7.324,13.184,-16.602,-177.246,1298.776,357.90668705856615
1077,1686362221.88,30.273,85.449,6.348,-128.418,1298.78,345.662049412236
1078,1686362221.89,33.203,110.84,-19.043,-114.746,1298.784,346.3252823093572
1079,1686362221.89,9.277,-133.789,-40.527,-106.445,1298.788,353.5865952868903
1080,1686362221.9,1.953,-519.043,-2.93,-70.312,1298.792,346.47515336914967
1081,1686362221.9,18.555,-332.52,38.086,-83.008,1298.796,352.5910034639535
1082,1686362221.9,18.066,154.297,-11.23,-180.176,1298.8,360.83527961044445
1083,1686362221.91,-3.906,148.926,-30.273,-213.867,1298.804,366.9940504761013
1084,1686362221.91,17.578,-595.703,-28.809,-126.465,1298.808,351.24243822507793
1085,1686362221.92,47.852,-371.582,35.156,-94.727,1298.812,352.8446187940754
1086,1686362221.92,21.484,562.5,30.762,-139.16,1298.816,358.888256731734
1087,1686362221.92,-26.855,81.543,-48.828,-175.781,1298.819,352.6337638161963
1088,1686362221.93,-38.086,-171.875,-36.133,-159.18,1298.824,344.42167398597473
1089,1686362221.93,-13.672,213.379,2.441,-103.516,1298.828,350.11687729348677
1090,1686362221.93,-13.184,85.449,-29.297,-80.566,1298.832,348.75546046003484
1091,1686362221.94,-44.922,-275.879,-46.875,-113.281,1298.835,359.3051794493087
1092,1686362221.94,-59.57,-250.488,-34.18,-149.902,1298.839,354.19590500026015
1093,1686362221.95,-40.039,-163.574,-22.949,-147.461,1298.843,340.65153062047085
1094,1686362221.95,-14.16,-32.227,-18.555,-163.086,1298.847,346.3979643264418
1095,1686362221.95,-13.672,-357.422,-59.57,-204.102,1298.851,350.92179113115196
1096,1686362221.96,-20.508,-485.84,-8.301,-224.609,1298.855,355.6817612879572
1097,1686362221.96,-15.137,235.84,27.344,-178.711,1298.859,360.13654195691623
1098,1686362221.96,-11.23,172.363,-44.434,-111.328,1298.863,346.87247430564764
1099,1686362221.97,-8.789,-270.508,-4.883,-119.141,1298.867,346.33426208450055
1100,1686362221.97,-20.508,-127.441,38.086,-174.805,1298.866,345.46306745740367
1101,1686362221.97,-27.832,254.883,0.488,-203.613,1298.87,337.5310512339217
1102,1686362221.98,-10.254,124.023,-41.016,-215.82,1298.874,343.04533967559297
1103,1686362221.98,-16.113,-190.918,-18.066,-254.395,1298.878,360.7332174627899
1104,1686362221.99,-42.48,-129.395,-6.836,-302.734,1298.882,355.47780252706053
1105,1686362221.99,-48.828,-114.258,-45.41,-285.645,1298.886,346.94720128201567
1106,1686362221.99,-22.461,-46.387,-18.066,-212.891,1298.89,350.97326660973
1107,1686362222.0,-7.324,-528.809,-59.57,-187.988,1298.894,360.05416610149194
1108,1686362222.0,-23.438,-475.098,-14.16,-243.164,1298.898,350.4639316750014
1109,1686362222.0,-27.344,477.051,22.949,-270.508,1298.902,354.82703360110366
1110,1686362222.01,-17.09,204.59,-34.668,-252.93,1298.905,343.7314997787417
1111,1686362222.01,-10.742,-3.906,-39.062,-263.672,1298.909,345.8553743477524
1112,1686362222.02,-11.719,3.418,-17.578,-317.383,1298.918,347.7508955725373
1113,1686362222.02,-39.551,-3.906,-0.488,-338.867,1298.922,347.4368095171544
1114,1686362222.03,-23.438,-138.672,-56.641,-291.992,1298.926,358.2124853450764
1115,1686362222.03,20.02,-276.367,-56.152,-219.727,1298.929,344.6510649462198
1116,1686362222.03,-10.742,102.539,-23.438,-192.871,1298.933,341.6105321172343
1117,1686362222.04,-21.484,-43.457,-51.27,-162.598,1298.937,350.84564638643576
1118,1686362222.04,-3.418,-479.98,-53.711,-112.305,1298.941,354.4849867935205
1119,1686362222.04,-2.441,-439.453,-3.906,-129.395,1298.945,353.1819025566909
1120,1686362222.05,5.371,316.895,32.227,-204.102,1298.949,357.5056078351279
1121,1686362222.05,-27.832,242.676,-52.246,-208.496,1298.953,353.0107765564728
1122,1686362222.06,-46.875,-191.895,-31.738,-168.457,1298.957,350.0809373571524
1123,1686362222.06,-13.184,183.594,-22.949,-160.156,1298.971,349.37863128438545
1124,1686362222.06,-19.531,-9.277,-2.93,-150.879,1298.961,353.1203300486747
1125,1686362222.06,-29.297,-44.922,-40.039,-211.426,1298.975,354.3863220058026
1126,1686362222.07,-52.246,-283.203,-40.527,-235.352,1298.979,346.6822707611096
1127,1686362222.07,-54.199,-256.348,-6.348,-241.699,1298.983,357.92716608320836
1128,1686362222.08,-32.715,-183.594,-23.438,-262.207,1298.986,340.91808635765113
1129,1686362222.08,-29.297,-117.188,-33.691,-269.531,1298.99,344.4603067994944
1130,1686362222.08,-51.27,-594.238,-46.875,-260.254,1298.994,347.5528039630187
1131,1686362222.09,-49.805,-874.512,26.367,-207.031,1298.998,342.0511654956024
1132,1686362222.09,-16.113,238.77,91.309,-170.41,1299.002,349.2561258325446
1133,1686362222.1,-20.02,457.52,-26.367,-175.293,1299.006,346.86013151548036
1134,1686362222.1,-45.898,3.418,-32.715,-172.852,1299.01,355.6200007841106
1135,1686362222.1,-47.363,143.555,2.441,-157.715,1299.014,354.443373377639
1136,1686362222.11,-8.789,203.125,-8.301,-123.535,1299.046,341.26802856900025
1137,1686362222.11,12.695,-86.426,-42.48,-115.234,1299.05,355.21130230706683
1138,1686362222.12,-1.953,-270.996,-41.016,-130.371,1299.054,355.5046720357058
1139,1686362222.12,-22.949,14.16,-0.488,-80.078,1299.058,349.5996412261772
1140,1686362222.12,-16.113,1.953,-32.227,2.441,1299.062,349.53068308982785
1141,1686362222.13,9.766,-500.977,-59.57,23.926,1299.066,353.81297357827805
1142,1686362222.13,-9.766,-574.707,-15.137,-15.137,1299.07,342.5417603898455
1143,1686362222.13,-55.664,-56.641,8.789,-46.387,1299.073,351.55832447466594
1144,1686362222.14,-19.531,168.457,-10.254,-32.227,1299.077,353.8170905994116
1145,1686362222.14,-552.246,-434.082,-55.176,-10.254,1299.081,361.5079926589324
1146,1686362222.15,-1000.0,-530.273,-1.953,-66.895,1299.085,359.30500226404746
1147,1686362222.15,-979.98,279.785,41.504,-129.395,1299.089,362.1652033408075
1148,1686362222.16,-995.605,227.539,-30.762,-97.656,1299.061,343.65250703727736
1149,1686362222.17,-1000.0,18.555,3.418,-53.711,1299.065,342.42963568762707
1150,1686362222.17,-996.582,20.02,13.184,-85.938,1299.069,343.77188800550533
1151,1686362222.18,-1000.0,-58.105,-44.922,-140.137,1299.073,351.9384052356493
1152,1686362222.18,-986.328,-243.652,-34.18,-122.07,1299.077,347.9238603687948
1153,1686362222.18,-873.047,-549.316,11.719,-95.703,1299.081,340.902577714733
1154,1686362222.19,-799.316,129.395,42.48,-105.957,1299.085,352.85452282750515
1155,1686362222.19,-746.582,386.719,-19.043,-105.957,1299.089,352.9443839469522
1156,1686362222.2,-674.316,-119.141,-24.902,-55.664,1299.093,351.0077637685574
1157,1686362222.2,-597.656,90.332,18.066,-42.48,1299.097,351.84795193533137
1158,1686362222.2,-554.688,375.488,0.488,-95.703,1299.1,353.09690836730175
1159,1686362222.21,-550.781,198.242,-33.203,-147.949,1299.104,348.49337379574706
1160,1686362222.21,-524.414,-288.086,-64.453,-130.859,1299.136,350.1710858925412
1161,1686362222.21,-475.586,-62.012,8.789,-73.242,1299.139,365.12019893368415
1162,1686362222.22,-410.156,415.039,14.648,-74.219,1299.143,351.7601975900095
1163,1686362222.22,-362.793,221.191,-51.758,-136.719,1299.147,349.20696938006347
1164,1686362222.23,-362.793,-505.859,-74.707,-132.324,1299.151,343.9322217005547
1165,1686362222.23,-349.609,-472.656,20.996,-68.848,1299.155,354.5772185988884
1166,1686362222.23,-303.711,323.242,20.508,-37.598,1299.159,359.2277826447078
1167,1686362222.24,-275.391,348.633,-44.434,-90.82,1299.163,344.63274343865726
1168,1686362222.24,-283.203,-395.996,-22.949,-88.379,1299.167,339.4040943122935
1169,1686362222.24,-275.391,16.113,40.039,-25.391,1299.171,345.332476787998
1170,1686362222.25,-223.633,480.957,-30.273,-1.465,1299.175,339.2287721057321
1171,1686362222.25,-198.73,5.371,-37.598,-19.043,1299.179,347.09728188930484
1172,1686362222.26,-217.285,-176.758,53.223,-68.359,1299.152,356.7552667094843
1173,1686362222.26,-224.609,252.441,23.926,-57.617,1299.156,358.42288708589865
1174,1686362222.26,-190.918,312.012,-40.039,-31.25,1299.159,354.442494973166
1175,1686362222.27,-168.945,-173.34,-30.762,-73.73,1299.163,355.62633847841363
1176,1686362222.27,-194.824,-373.535,37.598,-140.137,1299.167,360.1183199135255
1177,1686362222.28,-201.66,-2.93,23.926,-131.836,1299.171,363.125489584336
1178,1686362222.28,-174.316,284.18,-5.859,-67.871,1299.175,350.32710951462985
1179,1686362222.28,-150.391,97.168,-11.719,-54.199,1299.179,353.5101718449577
1180,1686362222.29,-168.457,-39.551,21.484,-83.984,1299.183,343.8897200878777
1181,1686362222.29,-183.594,311.035,16.113,-84.961,1299.187,353.94261637473767
1182,1686362222.29,-166.016,255.859,-6.348,-49.805,1299.191,345.0363271117681
1183,1686362222.3,-133.301,-134.766,-53.711,-47.363,1299.195,350.6008868768113
1184,1686362222.3,-115.723,-127.441,-43.945,-100.586,1299.203,339.73087660884164
1185,1686362222.31,-131.836,-1.465,-1.465,-136.23,1299.207,348.47060107551283
1186,1686362222.31,-139.16,91.309,-21.973,-86.426,1299.211,333.6399681657728
1187,1686362222.32,-128.418,-290.527,-70.801,-32.715,1299.215,354.6480265499178
1188,1686362222.32,-101.562,-191.406,33.691,-89.844,1299.219,353.9642028992086
1189,1686362222.32,-100.098,129.883,-3.418,-153.32,1299.223,347.51440933145955
1190,1686362222.33,-113.281,-87.402,-63.965,-129.395,1299.227,361.99861113878
1191,1686362222.33,-84.961,-424.316,-28.32,-55.664,1299.231,339.81771247864754
1192,1686362222.33,-71.289,50.293,28.32,-34.18,1299.235,353.9730666425954
1193,1686362222.34,-111.328,487.793,4.395,-96.68,1299.239,353.24879117324605
1194,1686362222.34,-126.465,79.59,-35.645,-107.91,1299.242,352.56444929849636
1195,1686362222.34,-72.754,179.688,-5.859,-35.645,1299.242,364.8680677991551
1196,1686362222.35,-99.609,-30.273,-1.953,-35.156,1299.246,350.19181594712904
1197,1686362222.35,-79.102,151.367,-33.203,-116.211,1299.246,361.9066996843892
1198,1686362222.35,-96.191,-183.594,-40.527,-150.879,1299.25,352.4124102609664
1199,1686362222.36,-89.355,-313.965,-21.484,-125.0,1299.253,357.35460310461593
1200,1686362222.36,-71.289,-108.887,-9.277,-117.188,1299.257,355.8680932308973
1201,1686362222.36,-49.805,-17.09,-1.953,-152.344,1299.261,364.44184635843703
1202,1686362222.37,-53.711,-166.504,-25.391,-159.18,1299.265,346.59841864128185
1203,1686362222.37,-60.059,-841.797,-49.316,-92.773,1299.269,354.6644260256365
1204,1686362222.38,-44.434,-205.078,78.613,-45.898,1299.273,337.77543790804066
1205,1686362222.38,-40.039,699.219,41.016,-89.355,1299.277,346.4817097038219
1206,1686362222.38,-62.012,150.391,-54.199,-131.348,1299.281,351.77393802608503
1207,1686362222.39,-70.312,89.355,-11.719,-104.98,1299.285,347.3766802376732
1208,1686362222.39,-39.062,300.781,-10.742,-96.191,1299.3,345.57094084200367
1209,1686362222.4,-29.297,129.883,-20.02,-124.512,1299.304,338.81359698416503
1210,1686362222.4,-47.852,-217.285,-41.016,-160.156,1299.308,339.89360431203465
1211,1686362222.4,-74.707,-68.359,-15.137,-193.848,1299.312,353.9399650032629
1212,1686362222.41,-86.426,109.863,3.418,-183.594,1299.316,341.805896004631
1213,1686362222.41,-71.777,-162.598,-34.668,-188.965,1299.32,350.59133494368734
1214,1686362222.42,-80.078,-703.613,-49.316,-219.727,1299.324,356.5682139789783
1215,1686362222.42,-87.402,-353.027,54.688,-261.23,1299.328,352.34108494311954
1216,1686362222.42,-79.59,440.43,23.926,-279.297,1299.331,360.80467276710635
1217,1686362222.43,-62.988,194.824,-39.551,-233.398,1299.335,354.37325903737695
1218,1686362222.43,-50.781,-178.223,14.648,-188.965,1299.339,350.5229165105773
1219,1686362222.44,-62.5,70.312,-2.441,-151.855,1299.343,361.32537415668617
1220,1686362222.44,-63.477,125.488,-31.25,-109.863,1299.346,350.5926221418594
1221,1686362222.44,-41.504,-24.902,-26.855,-92.773,1299.35,358.38721537780265
1222,1686362222.44,-38.574,-118.652,-19.043,-122.07,1299.354,334.7974178785719
1223,1686362222.45,-62.012,-257.324,-22.461,-188.477,1299.358,356.87116483981305
1224,1686362222.45,-69.824,-20.508,-3.906,-180.664,1299.362,349.2361496395143
1225,1686362222.46,-49.316,-175.781,-32.715,-83.984,1299.366,352.57306086097657
1226,1686362222.46,-35.156,-826.172,-20.508,-48.34,1299.369,354.54842903527987
1227,1686362222.46,-44.922,-67.871,77.637,-104.98,1299.373,345.0945569773547
1228,1686362222.47,-60.547,522.949,15.625,-147.461,1299.377,356.492461328939
1229,1686362222.47,-75.684,-169.922,-34.18,-126.465,1299.381,353.98329830282654
1230,1686362222.47,-40.527,-256.348,60.547,-113.281,1299.385,360.3733790008097
1231,1686362222.48,-24.902,420.41,41.992,-156.25,1299.389,343.5588816262822
1232,1686362222.48,-58.594,254.395,-25.879,-178.223,1299.391,353.12006017059673
1233,1686362222.49,-54.688,-192.383,-26.367,-136.719,1299.395,345.62256498898023
1234,1686362222.49,-33.691,15.625,-5.859,-98.633,1299.399,357.06583693087407
1235,1686362222.49,-48.34,178.223,-8.789,-145.996,1299.403,354.4994489135759
1236,1686362222.5,-73.73,-57.617,-31.25,-216.309,1299.406,346.02090266561345
1237,1686362222.5,-63.477,-540.039,-20.02,-184.57,1299.41,353.32285574576053
1238,1686362222.51,-53.223,-303.223,22.949,-115.234,1299.414,355.58153380442053
1239,1686362222.51,-59.082,230.957,8.301,-124.023,1299.418,350.98236477841476
1240,1686362222.51,-85.449,-39.062,-46.875,-177.246,1299.422,360.85554255718864
1241,1686362222.52,-100.098,-680.176,-33.203,-185.059,1299.426,351.5022932332177
1242,1686362222.52,-83.496,-147.461,18.066,-160.156,1299.43,352.51427113283427
1243,1686362222.52,-72.266,145.996,-29.297,-148.926,1299.434,356.335159116064
1244,1686362222.54,-84.473,-254.883,-20.996,-148.926,1299.436,352.33834486962945
1245,1686362222.54,-101.074,-283.203,57.617,-116.211,1299.44,359.31128714284944
1246,1686362222.55,-99.121,58.105,30.273,-62.012,1299.444,341.13809915955403
1247,1686362222.55,-80.078,14.16,-19.531,-55.176,1299.448,343.13526230738927
1248,1686362222.56,-74.707,-215.332,-23.438,-95.215,1299.452,346.130414704134
1249,1686362222.56,-89.355,-641.113,3.418,-91.309,1299.456,347.52237324557217
1250,1686362222.56,-67.871,-71.289,56.641,-62.5,1299.46,348.5725700861012
1251,1686362222.57,-44.434,477.539,1.465,-62.988,1299.463,346.5697661804095
1252,1686362222.57,-69.336,-142.09,-40.527,-79.102,1299.467,341.88173929834943
1253,1686362222.58,-93.75,-310.059,56.152,-121.582,1299.471,351.3978655531228
1254,1686362222.58,-82.031,264.648,52.246,-127.441,1299.475,349.3613993246221
1255,1686362222.58,-68.848,231.445,-18.555,-92.285,1299.479,349.16364843856917
1256,1686362222.59,-62.012,-125.0,-41.016,-118.652,1299.484,345.19761137718876
1257,1686362222.59,-63.477,-132.812,-19.531,-194.824,1299.488,345.5770683701494
1258,1686362222.59,-60.547,-112.305,0.0,-226.074,1299.492,349.00531744661157
1259,1686362222.6,-41.992,-2.93,-9.277,-200.684,1299.496,332.95482559609763
1260,1686362222.6,-38.574,-335.938,-64.941,-149.902,1299.5,351.28717084245557
1261,1686362222.61,-54.688,-364.258,-21.973,-125.488,1299.504,349.1064032828354
1262,1686362222.61,-68.359,53.711,37.109,-125.488,1299.508,347.32130703126046
1263,1686362222.61,-55.664,117.676,-10.742,-92.285,1299.512,345.8564403592138
1264,1686362222.62,-30.762,-465.82,-20.508,-52.734,1299.516,348.8675073923534
1265,1686362222.62,-43.945,-52.734,62.5,-72.754,1299.519,351.05689518880826
1266,1686362222.62,-72.754,387.207,19.531,-118.652,1299.523,344.1057710532495
1267,1686362222.63,-65.918,-3.418,-23.926,-95.703,1299.527,349.8007846892961
1268,1686362222.63,-54.688,-18.066,21.973,-67.871,1299.527,350.4500731719721
1269,1686362222.64,-46.875,183.105,7.812,-109.375,1299.531,359.4056605493948
1270,1686362222.64,-56.152,65.43,-30.762,-165.527,1299.534,342.63775631832067
1271,1686362222.64,-55.176,-371.582,-24.414,-170.898,1299.538,357.8421100510451
1272,1686362222.65,-30.762,-519.043,41.016,-135.254,1299.542,350.72275975164297
1273,1686362222.65,-18.066,-48.828,32.227,-133.301,1299.546,349.17569863928384
1274,1686362222.66,-23.438,136.719,4.395,-189.941,1299.55,347.8518611278442
1275,1686362222.66,-35.645,-139.16,-10.254,-209.961,1299.554,344.1279864840979
1276,1686362222.66,-37.109,-588.867,-2.441,-157.227,1299.558,351.0327367557913
1277,1686362222.67,-42.48,254.395,66.406,-127.441,1299.562,347.87928963329153
1278,1686362222.67,-65.918,583.984,5.371,-125.488,1299.566,348.677787102178
1279,1686362222.67,-83.984,-33.203,-42.48,-89.355,1299.57,350.84084358142655
1280,1686362222.69,-63.477,73.73,-3.906,-50.781,1299.589,361.0663346435455
1281,1686362222.7,-44.922,280.273,1.465,-34.668,1299.593,352.8030248762939
1282,1686362222.7,-52.246,118.652,-21.973,-76.66,1299.597,351.70686117930893
1283,1686362222.7,-50.293,-173.828,-28.809,-139.16,1299.601,353.10824459664104
1284,1686362222.71,-46.387,-19.043,-7.324,-142.578,1299.605,343.2864752509338
1285,1686362222.71,-39.062,-49.316,-13.672,-133.789,1299.608,357.6441537336565
1286,1686362222.72,-40.527,-136.23,-31.25,-191.406,1299.612,355.66464734356924
1287,1686362222.72,-57.617,-617.188,-62.5,-255.859,1299.616,343.7125333716692
1288,1686362222.72,-66.406,-484.375,62.988,-253.418,1299.62,341.41449940154274
1289,1686362222.73,-58.594,576.172,69.824,-201.172,1299.624,335.13547427457644
1290,1686362222.73,-27.832,473.145,-31.738,-180.664,1299.628,365.5409413489802
1291,1686362222.74,-53.223,54.688,-10.742,-220.703,1299.632,345.7478825316116
