,timestamps,TP9,AF7,AF8,TP10,Secondary Timestamp,emg_signal
0,1686275290.53,-30.762,-212.891,-69.336,-22.949,1996.424,352.0343583079638
1,1686275290.53,1.465,-838.379,-296.875,21.973,1996.428,348.4405603970977
2,1686275290.54,-14.648,-458.496,-47.852,-30.762,1996.432,346.8153744230632
3,1686275290.54,-56.152,9.277,82.52,-83.008,1996.435,336.57453945610104
4,1686275290.54,-47.363,-260.742,-82.52,-44.922,1996.439,344.45888353850455
5,1686275290.55,6.836,-499.512,-67.871,2.441,1996.443,349.2091413695943
6,1686275290.55,1.465,-391.602,-23.438,-28.32,1996.447,351.1544605453656
7,1686275290.56,-57.129,-194.336,9.277,-81.055,1996.451,343.348811313634
8,1686275290.56,-68.848,-653.32,-189.941,-49.316,1996.455,349.960139526365
9,1686275290.56,-15.625,-916.504,-310.059,19.531,1996.459,349.8331691784971
10,1686275290.57,8.789,-267.578,-1.953,-13.184,1996.463,357.8687922779093
11,1686275290.57,-53.223,-311.035,-49.316,-72.754,1996.467,351.0124227434043
12,1686275290.57,-91.797,-800.781,-273.438,-61.035,1996.469,348.5787747070405
13,1686275290.58,-33.203,-380.371,-13.672,-12.695,1996.473,346.30796158707506
14,1686275290.58,15.625,173.34,150.391,-2.93,1996.477,357.1217617692057
15,1686275290.58,-21.484,4.883,24.902,-56.641,1996.481,346.3739277648496
16,1686275290.59,-64.941,-334.473,-42.969,-66.406,1996.484,342.9625809166077
17,1686275290.59,-38.574,-419.922,-41.504,-12.207,1996.488,356.29797307560693
18,1686275290.6,12.207,-206.543,37.109,12.695,1996.492,348.59290349333537
19,1686275290.6,-8.301,-142.578,-12.207,-39.551,1996.496,355.5550508463636
20,1686275290.6,-74.219,-768.066,-293.457,-77.637,1996.5,347.6534497941103
21,1686275290.61,-59.082,-502.441,-71.289,-53.223,1996.504,352.4439549541272
22,1686275290.61,11.719,-148.438,43.457,0.0,1996.508,354.3744474965076
23,1686275290.62,3.418,-432.617,-122.07,-7.324,1996.512,354.1953147986474
24,1686275290.62,-57.129,-594.238,-101.562,-68.359,1996.514,344.8112051542998
25,1686275290.62,-72.266,-183.594,46.387,-65.43,1996.518,358.8745147704614
26,1686275290.63,-13.672,42.48,42.969,11.23,1996.522,359.2395799123534
27,1686275290.63,14.16,-182.129,-41.992,15.137,1996.525,354.6758980150517
28,1686275290.63,-41.504,-219.727,10.742,-55.664,1996.529,351.7061208636828
29,1686275290.64,-71.777,-343.262,-28.32,-62.5,1996.533,351.66809164821507
30,1686275290.64,-24.902,-412.598,-47.852,0.488,1996.537,347.9438779216753
31,1686275290.64,7.812,-570.801,-127.93,27.344,1996.541,345.04395901805617
32,1686275290.65,-32.227,-722.168,-157.227,-24.414,1996.545,351.09116737232597
33,1686275290.65,-69.824,-141.602,50.293,-61.035,1996.549,343.4625493067732
34,1686275290.66,-33.691,-9.766,60.059,-7.324,1996.553,354.47118617285
35,1686275290.66,22.949,-533.691,-152.344,38.086,1996.557,347.7959576905212
36,1686275290.66,0.977,-514.16,-96.191,-9.766,1996.561,354.3469932191063
37,1686275290.67,-65.43,-280.762,19.043,-63.965,1996.565,351.6654703205476
38,1686275290.67,-68.359,-175.293,17.578,-43.457,1996.569,351.4452340229424
39,1686275290.68,-9.277,-666.504,-242.188,18.066,1996.573,343.7095938527667
40,1686275290.68,-4.883,-536.621,-76.66,-14.16,1996.577,340.21365806910416
41,1686275290.68,-55.664,-276.367,23.438,-79.59,1996.581,347.9971333415072
42,1686275290.69,-67.383,-546.387,-138.184,-53.711,1996.585,340.1313807333652
43,1686275290.69,-16.602,-823.73,-282.715,18.555,1996.589,359.205648108438
44,1686275290.7,11.23,-470.703,-83.496,7.812,1996.592,345.2439446801496
45,1686275290.7,-37.109,-16.113,76.172,-55.176,1996.596,344.8804545338251
46,1686275290.7,-86.914,-165.527,-20.02,-74.707,1996.6,346.86304909373285
47,1686275290.71,-39.551,-191.895,62.5,-23.926,1996.604,351.371561808028
48,1686275290.71,17.578,69.824,113.281,11.23,1996.606,359.94165293855366
49,1686275290.71,-20.996,96.68,65.918,-41.504,1996.61,345.80150353813724
50,1686275290.72,-76.66,-239.258,-74.219,-77.148,1996.614,351.13364872327566
51,1686275290.72,-53.223,-456.543,-72.754,-22.949,1996.618,350.1414702928735
52,1686275290.73,5.859,-182.617,68.359,25.391,1996.622,353.68940311231347
53,1686275290.73,-0.488,-187.5,21.973,-16.602,1996.626,349.66544780330224
54,1686275290.73,-58.594,-616.699,-222.656,-72.266,1996.63,339.79422907282435
55,1686275290.74,-77.637,-938.477,-393.555,-38.574,1996.634,357.48625595842987
56,1686275290.74,-15.625,-328.613,-8.789,0.977,1996.638,352.3077252312011
57,1686275290.74,7.324,96.68,112.793,-25.391,1996.642,356.4652192653505
58,1686275290.75,-53.223,-378.418,-136.719,-62.012,1996.645,344.3136694934289
59,1686275290.75,-29.297,-139.648,49.316,0.0,1996.662,357.1089310604385
60,1686275290.75,-84.473,-569.336,-132.324,-51.27,1996.649,344.4742273289107
61,1686275290.76,16.113,-14.648,41.992,11.23,1996.666,353.3387837776834
62,1686275290.76,-34.668,-491.211,-194.824,-48.34,1996.67,351.38173974564324
63,1686275290.76,-75.195,-299.805,-49.316,-83.496,1996.674,354.1529338480093
64,1686275290.77,-36.621,12.695,108.398,-18.555,1996.678,349.41804257888253
65,1686275290.77,4.883,-338.379,-22.461,31.738,1996.682,355.1678200086984
66,1686275290.78,-23.926,-898.438,-381.348,-3.418,1996.686,354.58797087222985
67,1686275290.78,-82.52,-1000.0,-473.145,-50.293,1996.69,351.44131281117507
68,1686275290.78,-66.406,-314.941,-17.09,-40.039,1996.694,345.2582047794386
69,1686275290.79,4.395,-16.113,73.73,7.812,1996.697,349.6674961977261
70,1686275290.79,5.859,-229.98,-12.695,-18.066,1996.701,344.8512443288857
71,1686275290.8,-49.805,-54.199,58.105,-66.895,1996.705,343.6055545548351
72,1686275290.8,-60.547,55.176,59.082,-40.527,1996.738,359.03916611062726
73,1686275290.8,-13.672,-112.793,-11.23,9.277,1996.742,351.63161621428856
74,1686275290.81,3.418,-179.688,37.109,-12.695,1996.746,348.978732170331
75,1686275290.81,-39.551,-83.008,50.293,-75.684,1996.75,348.73798640173464
76,1686275290.81,-62.988,-62.012,24.902,-67.871,1996.754,352.1316241856477
77,1686275290.82,-24.414,-497.559,-113.77,-2.441,1996.758,354.2957417694047
78,1686275290.82,10.742,-707.031,-136.23,-3.906,1996.762,352.05985173403167
79,1686275290.82,-23.438,-156.25,65.43,-69.824,1996.766,347.2681484400432
80,1686275290.83,-64.453,-205.078,-35.156,-83.984,1996.77,349.5856084313312
81,1686275290.83,-38.574,-656.738,-221.191,-20.996,1996.774,348.9303573543832
82,1686275290.84,-1.953,-554.199,-82.52,8.789,1996.777,352.6670021362781
83,1686275290.84,-19.531,-312.012,8.789,-46.387,1996.781,350.63156482783313
84,1686275290.84,-63.477,-218.262,-8.301,-88.867,1996.753,353.2123613622745
85,1686275290.85,-64.941,-637.695,-215.332,-45.898,1996.757,354.5041227564225
86,1686275290.85,-4.395,-461.426,-47.852,-5.371,1996.761,348.3996005096055
87,1686275290.86,8.301,102.051,135.742,-40.527,1996.765,345.72173851717804
88,1686275290.86,-55.664,-86.914,-3.906,-92.773,1996.769,346.33055084369533
89,1686275290.86,-82.52,-668.457,-132.324,-68.848,1996.772,355.76972752981357
90,1686275290.87,-23.926,-527.832,-39.062,-3.906,1996.776,352.36447368275896
91,1686275290.87,7.812,39.062,99.121,-18.555,1996.78,343.12673780806097
92,1686275290.88,-41.992,-169.434,-26.855,-65.918,1996.784,350.9379956220046
93,1686275290.88,-83.984,-806.152,-286.133,-75.195,1996.788,345.62065438674796
94,1686275290.88,-34.668,-429.688,-77.148,-39.551,1996.792,348.85994187906573
95,1686275290.89,18.066,-208.008,15.137,-0.488,1996.796,345.52130344300423
96,1686275290.93,-25.391,-518.555,-134.277,-30.762,1996.829,349.62471454413975
97,1686275290.94,-75.684,-505.859,-94.238,-74.219,1996.833,348.881722218043
98,1686275290.94,-51.758,-247.559,12.207,-51.758,1996.837,357.8980766121554
99,1686275290.94,15.625,-45.41,60.059,0.488,1996.841,346.2571707454531
100,1686275290.95,4.883,-275.879,-58.105,-23.926,1996.845,366.62855627415416
101,1686275290.95,6.348,-683.594,-227.539,1.465,1996.848,349.93971176579697
102,1686275290.95,-45.41,-633.301,-131.836,-61.523,1996.851,367.2493973775208
103,1686275290.95,-70.312,-941.895,-378.418,-63.477,1996.849,349.9074770834508
104,1686275290.96,-78.125,-321.289,11.23,-83.496,1996.855,343.9833553448592
105,1686275290.96,-66.406,-564.941,-96.191,-38.574,1996.853,353.1268020577896
106,1686275290.96,7.812,51.758,131.348,-0.977,1996.857,349.5582866070136
107,1686275290.96,-34.18,-144.043,35.156,-10.742,1996.859,353.2233743671898
108,1686275290.96,11.719,-399.902,-114.258,-17.578,1996.861,349.2851493557531
109,1686275290.96,17.578,-573.73,-172.852,32.227,1996.863,349.083790987081
110,1686275290.97,-52.246,-445.801,-27.832,-66.406,1996.865,352.19828492735763
111,1686275290.97,-12.695,-649.902,-167.969,-27.832,1996.867,362.4489823053813
112,1686275290.97,-68.359,-67.383,88.867,-64.941,1996.868,358.6970284281173
113,1686275290.97,-62.988,-299.805,-3.418,-73.242,1996.871,344.54384962387667
114,1686275290.98,-10.254,-315.918,-39.062,-1.465,1996.872,353.45813366082194
115,1686275290.98,-50.293,-207.031,-16.602,-36.133,1996.875,351.42371105334735
116,1686275290.98,0.0,-436.523,-56.152,8.301,1996.879,352.56522801732
117,1686275290.98,-1.465,-142.578,40.527,-27.832,1996.883,346.32027790769416
118,1686275290.99,-49.805,36.621,49.805,-72.266,1996.887,348.75068080185804
119,1686275290.99,-58.105,-269.043,-63.477,-41.504,1996.891,344.1391845729628
120,1686275290.99,-4.883,-402.344,-62.5,2.441,1996.89,348.5062141548819
121,1686275291.0,4.883,-89.844,43.945,-10.254,1996.894,356.29675545227275
122,1686275291.0,-45.898,18.066,67.871,-56.152,1996.898,359.82724981028235
123,1686275291.0,-67.871,-375.0,-117.188,-48.828,1996.902,349.6803426643667
124,1686275291.01,-18.555,-855.469,-265.137,17.578,1996.906,361.5029700235028
125,1686275291.01,17.578,-620.605,-83.008,19.043,1996.91,340.9643423513555
126,1686275291.02,-28.809,-403.32,-18.555,-40.527,1996.914,348.5747218435157
127,1686275291.02,-70.312,-642.578,-218.262,-59.082,1996.918,353.15819024048864
128,1686275291.02,-42.48,-938.965,-377.441,-6.348,1996.922,352.7455045586963
129,1686275291.03,24.902,-245.605,16.602,7.812,1996.926,353.94406938233425
130,1686275291.03,5.371,54.199,81.055,-33.691,1996.93,344.8491190802995
131,1686275291.04,-61.523,-641.113,-250.0,-65.43,1996.933,358.80879381605286
132,1686275291.1,-25.879,-426.758,-56.641,-24.414,1997.003,352.902641129025
133,1686275291.1,38.086,110.84,113.281,27.832,1997.007,344.1570048802492
134,1686275291.11,0.977,-25.879,6.836,-30.273,1997.011,358.425513689942
135,1686275291.11,-93.262,-71.777,64.453,-83.008,1997.01,352.2945076679073
136,1686275291.11,-68.359,-435.059,-111.816,-86.914,1997.015,342.76048233050767
137,1686275291.11,-56.641,69.824,76.66,-17.09,1997.014,345.49814637916745
138,1686275291.11,-76.172,-213.867,21.484,-66.406,1997.018,344.272640432165
139,1686275291.11,-3.906,-150.391,-27.832,29.297,1997.018,348.9146811352624
140,1686275291.12,-25.879,-180.176,43.457,-3.906,1997.022,345.33865486303824
141,1686275291.12,-27.344,-248.047,20.02,-27.344,1997.021,346.57656555449967
142,1686275291.12,-17.578,-476.562,-74.219,2.441,1997.026,356.1419416048823
143,1686275291.12,-72.754,-124.023,47.363,-75.684,1997.025,353.52302237156476
144,1686275291.12,-70.312,-904.297,-347.656,-54.199,1997.03,347.7042404354546
145,1686275291.13,-65.918,-356.934,-46.875,-27.344,1997.029,350.75542059469984
146,1686275291.13,-11.23,-182.617,63.477,-23.926,1997.053,343.83894844248005
147,1686275291.13,-91.797,-760.254,-184.082,-65.43,1997.034,350.40349131737247
148,1686275291.13,-9.277,-509.766,-55.664,31.738,1997.033,355.53598019142834
149,1686275291.13,-40.527,-186.035,-9.766,-34.18,1997.057,345.24642053971075
150,1686275291.13,-33.691,5.859,152.832,-10.254,1997.038,358.48675737940897
151,1686275291.13,6.348,-226.074,18.066,6.348,1997.037,346.0701991019997
152,1686275291.14,-11.23,-651.855,-229.004,18.555,1997.061,352.21838132263963
153,1686275291.14,0.0,-10.742,30.273,4.883,1997.042,343.1654541983765
154,1686275291.14,-39.551,-184.57,-23.438,-44.922,1997.041,356.5976059653772
155,1686275291.14,36.621,-299.316,-15.625,35.645,1997.065,348.91390656367906
156,1686275291.14,-60.059,-376.465,-82.52,-20.508,1997.045,338.35899518950345
157,1686275291.14,-46.875,-267.578,-38.086,-60.059,1997.046,344.68956011817914
158,1686275291.14,1.953,-7.324,82.52,-23.438,1997.069,348.0808555249742
159,1686275291.14,-4.395,-655.762,-173.34,42.969,1997.049,350.67874873317027
160,1686275291.15,-61.035,-504.395,-189.453,-43.457,1997.073,346.7142102812876
161,1686275291.15,28.809,-666.992,-121.582,36.133,1997.053,364.4156917023268
162,1686275291.15,-38.574,-733.887,-168.945,12.695,1997.077,359.67696802657457
163,1686275291.16,22.949,-244.629,78.125,41.504,1997.081,357.2872393370195
164,1686275291.16,16.602,17.578,97.168,-6.836,1997.084,350.40348525488463
165,1686275291.16,-37.598,-249.023,-27.344,-54.688,1997.088,350.8044597479129
166,1686275291.17,-47.852,-849.609,-364.258,-18.066,1997.092,350.26123149722247
167,1686275291.17,4.883,-1000.0,-495.605,42.48,1997.096,347.4506253293734
168,1686275291.17,20.02,-779.785,-204.102,4.883,1997.082,359.4957390426788
169,1686275291.18,-32.227,-550.781,-82.031,-64.453,1997.086,352.76391437032424
170,1686275291.18,-57.617,-526.367,-72.266,-55.664,1997.09,345.68780191697783
171,1686275291.19,-1.465,-81.055,110.84,3.906,1997.094,340.6226427473179
172,1686275291.19,34.18,100.098,83.496,9.277,1997.098,347.9467205702659
173,1686275291.19,-16.602,-396.484,-97.168,-42.48,1997.102,354.85874377142505
174,1686275291.2,-63.477,-666.016,-116.211,-66.895,1997.106,343.1411848407148
175,1686275291.2,-16.113,-38.574,116.211,-29.297,1997.11,355.67039270615834
176,1686275291.2,47.852,149.902,115.723,3.906,1997.114,352.5850568618095
177,1686275291.21,-0.977,-373.047,-100.586,-38.086,1997.117,352.1388393865278
178,1686275291.21,-61.523,-477.539,-73.242,-70.312,1997.121,359.1473476127572
179,1686275291.22,-44.434,-342.773,31.738,-30.273,1997.125,353.26712765944706
180,1686275291.23,13.672,-92.285,87.891,9.277,1997.143,355.2086243118454
181,1686275291.24,7.812,-560.547,-240.234,-13.184,1997.147,336.59614996360744
182,1686275291.24,-58.594,-924.316,-269.043,-70.312,1997.151,344.8972216314113
183,1686275291.24,-66.895,-285.645,89.844,-69.824,1997.155,347.766201619656
184,1686275291.25,-2.93,0.977,104.98,-11.719,1997.159,360.06573020240506
185,1686275291.25,8.301,-757.324,-289.551,-5.859,1997.162,351.73262871282185
186,1686275291.26,-49.805,-740.234,-198.242,-69.336,1997.166,346.78013331721684
187,1686275291.26,-71.289,-21.973,118.652,-77.637,1997.17,353.0712586550758
188,1686275291.26,-14.16,-36.621,31.738,-18.555,1997.174,349.4835080946808
189,1686275291.27,28.32,-283.203,-17.578,-10.254,1997.178,344.50449022607444
190,1686275291.27,-7.324,-69.336,80.078,-65.918,1997.182,343.4569340560187
191,1686275291.28,-46.387,14.648,48.828,-88.379,1997.186,356.02628328563804
192,1686275291.28,-21.484,-186.035,-18.066,-38.086,1997.174,339.969352744984
193,1686275291.28,27.344,-196.777,58.105,-10.742,1997.178,351.386461217133
194,1686275291.29,1.953,-18.066,89.355,-47.363,1997.182,354.7145808833859
195,1686275291.29,-60.547,-8.789,58.105,-75.684,1997.186,353.7683402063517
196,1686275291.29,-60.547,-306.641,-25.391,-46.875,1997.19,352.26419746907175
197,1686275291.3,-5.859,-482.422,-21.484,-7.812,1997.193,354.95744966198697
198,1686275291.3,0.0,-463.379,-12.695,-24.414,1997.197,352.36257688853726
199,1686275291.3,-55.664,-445.312,-22.949,-74.219,1997.201,351.65294135092967
200,1686275291.31,-82.52,-633.301,-134.766,-57.617,1997.205,355.1823650260436
201,1686275291.31,-30.273,-647.461,-109.863,-5.371,1997.209,351.4473358576821
202,1686275291.32,-1.465,-165.527,64.453,-21.484,1997.213,344.3974772278926
203,1686275291.32,-49.805,-253.906,1.465,-74.219,1997.217,340.92341414828263
204,1686275291.32,-82.031,-782.715,-268.066,-74.707,1997.234,349.28919172096397
205,1686275291.33,-42.48,-962.891,-363.77,-7.812,1997.238,358.0289516596893
206,1686275291.33,8.789,-357.91,-10.254,2.441,1997.242,344.4931291815559
207,1686275291.34,-21.484,-83.496,77.637,-57.617,1997.246,355.87391459885055
208,1686275291.34,-65.43,-339.355,-40.527,-79.102,1997.25,353.09770326013125
209,1686275291.34,-32.715,-462.891,-38.574,-33.203,1997.254,353.2032613160265
210,1686275291.35,13.184,-242.676,45.898,-5.859,1997.258,357.3034859029557
211,1686275291.35,1.465,-158.691,14.648,-42.48,1997.262,353.17864999971647
212,1686275291.35,-65.918,-854.492,-328.613,-71.777,1997.266,356.279977146926
213,1686275291.36,-67.871,-652.832,-151.855,-45.41,1997.27,354.07593643246184
214,1686275291.36,-0.488,106.934,154.297,-3.906,1997.273,363.7321007240192
215,1686275291.37,6.348,-12.207,37.109,-20.996,1997.277,359.63719978046174
216,1686275291.37,-47.363,-233.398,20.02,-79.102,1997.264,364.4881636574156
217,1686275291.37,-63.477,-36.621,82.031,-69.824,1997.268,363.110582689915
218,1686275291.38,-15.137,81.543,90.82,-3.418,1997.272,366.5124663821263
219,1686275291.38,9.766,-136.23,2.441,1.465,1997.275,375.6009038289309
220,1686275291.38,-36.621,-275.879,14.648,-55.664,1997.279,367.8508057925952
221,1686275291.39,-72.266,-421.875,-66.895,-69.824,1997.283,375.8135399533415
222,1686275291.39,-34.668,-445.801,-52.734,-21.484,1997.287,360.848326411728
223,1686275291.4,1.465,-522.461,-74.707,3.906,1997.291,370.36346287577817
224,1686275291.4,-28.809,-590.82,-95.703,-37.598,1997.295,368.18188221408724
225,1686275291.4,-72.754,-164.062,35.156,-68.848,1997.299,370.9998764181122
226,1686275291.41,-46.875,-166.504,24.414,-26.367,1997.303,375.03155233506135
227,1686275291.41,0.977,-693.359,-208.984,27.344,1997.307,372.245412117165
228,1686275291.41,-20.508,-988.281,-385.254,-11.719,1997.309,363.440311665616
229,1686275291.42,-72.266,-303.711,-10.254,-77.637,1997.313,374.19388997721467
230,1686275291.42,-71.777,-31.25,64.941,-54.199,1997.317,377.93038911962725
231,1686275291.42,-6.836,-290.527,-45.898,9.277,1997.321,383.83060423905124
232,1686275291.43,8.301,-67.383,68.848,-1.953,1997.325,378.87861410998323
233,1686275291.43,-50.293,-205.566,15.137,-62.012,1997.329,380.3266173448707
234,1686275291.44,-63.965,-515.625,-79.59,-43.457,1997.333,391.795520911691
235,1686275291.44,-16.602,-829.59,-282.227,34.668,1997.337,383.10019663517494
236,1686275291.44,3.418,-372.07,-14.648,21.484,1997.34,377.28691837525236
237,1686275291.45,-35.645,100.586,125.977,-50.293,1997.344,381.91128153205284
238,1686275291.45,-72.754,-178.223,-16.602,-62.012,1997.348,388.21213928412965
239,1686275291.46,-38.574,-229.98,71.777,-21.484,1997.352,375.4691111634269
240,1686275291.46,9.277,-89.355,40.527,-3.906,1997.367,385.6285744199609
241,1686275291.47,-18.066,-254.883,-55.176,-35.156,1997.371,385.6033758008986
242,1686275291.47,-71.289,-526.855,-125.0,-68.848,1997.375,390.3974389902422
243,1686275291.47,-45.41,-535.645,-72.754,-31.25,1997.379,387.65464491204636
244,1686275291.48,14.16,-88.867,99.609,14.648,1997.383,389.8981124221835
245,1686275291.48,0.977,-193.848,23.926,-14.648,1997.387,388.219901584926
246,1686275291.49,-56.152,-668.457,-159.668,-47.363,1997.391,384.7633648957028
247,1686275291.49,-64.453,-694.824,-117.188,-22.461,1997.395,399.1447665705174
248,1686275291.49,4.395,-57.617,124.023,20.508,1997.399,384.073811269613
249,1686275291.5,35.156,114.746,103.027,3.418,1997.403,390.7246457390759
250,1686275291.5,-25.879,-409.668,-135.254,-48.828,1997.406,393.18728756320644
251,1686275291.5,-19.043,-56.152,111.328,0.0,1997.412,376.4832117592207
252,1686275291.5,-70.801,-556.152,-137.207,-47.363,1997.41,391.46747656246544
253,1686275291.51,19.531,70.312,86.426,5.859,1997.416,393.5567996879729
254,1686275291.51,-28.32,-601.562,-254.883,-41.016,1997.42,390.10082821116157
255,1686275291.52,-71.289,-673.828,-130.859,-61.035,1997.424,401.14417133364594
256,1686275291.52,-40.039,-222.656,108.398,-19.043,1997.427,376.99211857446
257,1686275291.52,8.789,-341.797,-50.293,15.625,1997.431,383.07607726506404
258,1686275291.53,-13.184,-849.609,-300.293,-7.812,1997.435,400.21915220475114
259,1686275291.53,-66.895,-539.062,-77.148,-66.406,1997.439,384.62814146530525
260,1686275291.53,-60.547,-64.453,100.098,-44.434,1997.443,389.9169886438364
261,1686275291.54,0.488,-204.102,20.996,20.996,1997.447,387.0431257814015
262,1686275291.54,1.465,-538.574,-48.34,-8.301,1997.451,393.228943019105
263,1686275291.55,-45.41,-221.191,32.715,-75.195,1997.455,391.18925502679014
264,1686275291.55,-49.316,25.391,45.41,-56.641,1997.447,389.6824910653484
265,1686275291.55,-4.883,-150.391,13.184,-0.977,1997.451,386.33765982673214
266,1686275291.56,16.602,-167.48,60.059,-6.836,1997.455,384.53245710757915
267,1686275291.56,-32.715,-37.598,62.5,-61.523,1997.459,387.51671268192996
268,1686275291.57,-72.754,-25.879,62.988,-71.289,1997.463,399.785711474517
269,1686275291.57,-31.738,-491.211,-106.934,-1.465,1997.466,387.1119279490369
270,1686275291.57,-0.488,-830.078,-172.363,28.809,1997.47,387.5390489696064
271,1686275291.58,-28.809,-414.551,33.691,-33.203,1997.474,378.86746843099235
272,1686275291.58,-63.965,-28.32,79.102,-64.941,1997.478,386.8610094481495
273,1686275291.58,-30.762,-398.926,-96.191,-11.719,1997.482,374.6852185083275
274,1686275291.59,15.137,-610.84,-118.164,14.16,1997.486,381.6355579586597
275,1686275291.59,-10.254,-304.688,3.418,-41.992,1997.49,390.86387248014955
276,1686275291.61,-60.547,-173.828,28.32,-84.961,1997.504,379.69774742772006
277,1686275291.61,-60.059,-487.793,-170.898,-41.992,1997.508,377.03160815836765
278,1686275291.62,-2.93,-282.227,-30.273,12.207,1997.512,376.591926873555
279,1686275291.62,3.906,44.922,103.027,-11.719,1997.516,377.01324537127044
280,1686275291.62,-54.199,-120.117,22.949,-73.73,1997.519,381.0462610629496
281,1686275291.63,-72.266,-812.988,-338.867,-45.898,1997.523,382.3901165282352
282,1686275291.63,-22.949,-994.629,-390.137,16.113,1997.527,376.9691704873307
283,1686275291.64,7.324,-145.996,49.805,-5.371,1997.531,375.285114059056
284,1686275291.64,-31.738,-133.301,17.578,-52.246,1997.535,380.4138904698601
285,1686275291.64,-67.383,-498.535,-82.031,-58.105,1997.539,368.07504277402023
286,1686275291.65,-26.367,-105.957,97.168,-20.508,1997.543,384.24537525441804
287,1686275291.65,27.832,141.113,111.816,6.836,1997.547,375.5538699298993
288,1686275291.65,-8.301,-159.18,-49.805,-40.527,1997.549,370.0342713403353
289,1686275291.66,-77.148,-472.168,-82.52,-78.613,1997.553,365.82712362254773
290,1686275291.66,-49.805,-131.836,79.102,-25.879,1997.557,377.34894877326303
291,1686275291.66,18.066,112.305,93.262,16.113,1997.561,379.74782495944595
292,1686275291.67,1.953,-224.609,-52.246,-30.762,1997.565,368.0942604307385
293,1686275291.67,-62.988,-696.777,-169.922,-73.73,1997.568,372.63167195468367
294,1686275291.68,-57.129,-461.914,-63.965,-42.48,1997.572,377.35323829502204
295,1686275291.68,10.742,32.715,121.582,7.812,1997.576,365.94210017190363
296,1686275291.68,13.184,-407.227,-125.977,-3.418,1997.58,371.052677866846
297,1686275291.69,-50.781,-735.84,-179.199,-56.641,1997.584,371.02465791805315
298,1686275291.69,-62.012,-296.875,23.926,-52.246,1997.588,366.0391025466351
299,1686275291.7,-11.23,-305.664,-19.531,6.836,1997.592,369.7192981729829
300,1686275291.7,6.348,-786.133,-270.02,17.09,1997.594,371.87465786527605
301,1686275291.7,-39.551,-760.742,-188.477,-52.734,1997.598,362.8668192067721
302,1686275291.71,-70.801,-84.473,102.539,-88.867,1997.602,365.6238289475151
303,1686275291.71,-30.273,-43.945,20.996,-25.391,1997.606,371.4093983449948
304,1686275291.71,8.789,-335.449,-46.387,4.395,1997.61,360.893571788042
305,1686275291.72,-28.809,-461.914,-57.617,-46.387,1997.614,370.58691260357807
306,1686275291.72,-91.309,-335.449,-12.695,-86.426,1997.618,367.8689073424767
307,1686275291.72,-72.266,-183.105,29.785,-46.875,1997.621,367.3031421413992
308,1686275291.73,-6.836,-764.16,-275.879,18.066,1997.625,365.96720615127884
309,1686275291.73,-11.719,-463.379,-83.496,-22.461,1997.629,367.3422157879759
310,1686275291.74,-73.73,44.434,102.539,-86.426,1997.633,365.0208998960804
311,1686275291.74,-71.289,-195.801,-13.184,-60.547,1997.637,363.85133907535044
312,1686275291.74,-5.371,-233.398,65.43,-11.23,1997.657,360.53261118336206
313,1686275291.75,8.789,-152.344,28.32,-20.996,1997.66,354.5039848373597
314,1686275291.75,-48.34,-365.234,-67.871,-67.383,1997.664,365.3860113374844
315,1686275291.76,-79.59,-592.285,-131.836,-59.082,1997.668,367.66125210747214
316,1686275291.76,-17.09,-628.418,-105.957,5.859,1997.672,362.4087617397022
317,1686275291.76,13.672,-475.098,-46.387,3.906,1997.676,355.4110156563221
318,1686275291.77,-37.598,-346.191,-23.438,-54.199,1997.68,358.9049277944558
319,1686275291.77,-82.52,-482.91,-127.441,-61.035,1997.684,364.67966505668505
320,1686275291.78,-52.246,-674.805,-132.324,-10.254,1997.688,359.14213876864943
321,1686275291.78,17.09,-37.598,121.582,18.555,1997.692,351.9152793270759
322,1686275291.78,2.93,5.859,47.852,-22.949,1997.696,352.2375901599868
323,1686275291.79,-61.035,-690.43,-229.492,-47.363,1997.7,360.2572927685263
324,1686275291.8,-61.035,-412.109,-43.945,-16.113,1997.699,350.65878992040797
325,1686275291.81,5.371,176.758,158.203,15.625,1997.703,352.69108439178433
326,1686275291.81,25.391,-14.648,7.812,-3.418,1997.707,351.55875464714643
327,1686275291.81,-33.203,-520.02,-179.688,-44.434,1997.711,347.1707403640759
328,1686275291.82,-46.387,-451.66,-95.215,-23.438,1997.714,338.9774584099989
329,1686275291.82,12.207,-340.332,10.742,35.156,1997.718,344.913395110208
330,1686275291.83,37.109,-426.27,-50.293,16.602,1997.722,343.98679593267104
331,1686275291.83,-17.578,-879.395,-354.98,-40.527,1997.726,342.79561874051694
332,1686275291.83,-66.406,-732.91,-206.543,-58.105,1997.73,336.6170625826946
333,1686275291.83,-63.477,-83.496,48.34,-75.195,1997.729,341.61607421560285
334,1686275291.84,-30.762,-20.02,24.902,-25.879,1997.733,329.4003939418654
335,1686275291.84,-25.391,-21.973,119.141,-19.043,1997.734,333.7802013131269
336,1686275291.84,22.461,-42.48,41.504,8.301,1997.738,327.4120768429376
337,1686275291.84,18.555,-157.715,-17.578,18.555,1997.737,334.7839584723896
338,1686275291.84,0.488,-220.215,1.465,-19.043,1997.741,340.4002378560913
339,1686275291.84,-20.508,-212.891,40.039,-45.898,1997.742,332.4789437874395
340,1686275291.85,-50.293,-117.188,26.855,-63.965,1997.745,331.3015034548799
341,1686275291.85,-58.105,-363.77,-69.824,-33.691,1997.749,320.12884392493163
342,1686275291.86,3.418,-646.484,-140.137,14.16,1997.753,344.7639848504248
343,1686275291.86,25.879,-585.938,-115.234,1.465,1997.757,324.4894006712528
344,1686275291.86,-35.645,-234.375,1.465,-57.129,1997.76,313.02671606785697
345,1686275291.87,-55.664,-40.527,77.637,-56.641,1997.764,324.1262748390367
346,1686275291.87,-8.789,-537.598,-181.641,9.277,1997.768,319.8773430508966
347,1686275291.88,10.254,-1000.0,-466.309,25.391,1997.772,323.77312223226187
348,1686275291.88,-25.391,-505.371,-123.535,-41.992,1997.788,319.348704675798
349,1686275291.88,-57.129,-104.98,55.176,-69.824,1997.792,304.99079844571725
350,1686275291.89,-17.578,-371.094,-99.609,-15.625,1997.796,312.46783470185045
351,1686275291.89,26.367,-137.207,40.527,3.418,1997.8,311.2419739687189
352,1686275291.89,-11.23,21.484,80.078,-44.922,1997.804,308.80541337168825
353,1686275291.9,-64.453,-376.465,-101.562,-63.965,1997.808,314.4217938784088
354,1686275291.9,-46.875,-862.793,-298.34,-8.301,1997.812,314.0128909749715
355,1686275291.9,12.695,-400.879,-27.344,18.066,1997.815,306.7985388315695
356,1686275291.91,15.137,121.094,130.859,-21.484,1997.819,306.6115517279053
357,1686275291.91,-45.898,-202.148,-40.039,-59.082,1997.823,301.172257890588
358,1686275291.92,-58.594,-406.738,-60.059,-37.109,1997.827,289.36074386003065
359,1686275291.92,-1.953,-42.969,84.473,1.465,1997.831,307.0729862103216
360,1686275291.96,18.066,138.672,118.164,-18.555,1997.856,299.57828088565475
361,1686275291.96,-34.18,-190.918,-40.039,-73.242,1997.86,306.59978377278264
362,1686275291.96,-75.195,-415.039,-85.938,-69.824,1997.864,290.78978591519314
363,1686275291.97,-24.414,-80.566,67.871,-16.113,1997.868,283.7822920823509
364,1686275291.97,20.02,69.824,91.309,-5.371,1997.872,293.8091253971898
365,1686275291.98,-20.02,-437.5,-124.512,-45.898,1997.876,295.26643617530993
366,1686275291.98,-72.266,-757.324,-180.176,-64.941,1997.88,288.03677365666243
367,1686275291.98,-36.133,-191.406,60.059,-17.09,1997.884,292.7205338530148
368,1686275291.98,1.953,-470.703,-78.613,4.883,1997.879,282.8136379854902
369,1686275291.99,0.977,-646.973,-195.312,-17.09,1997.883,293.9368323745289
370,1686275291.99,23.926,-108.398,20.508,11.23,1997.887,300.70930162286794
371,1686275291.99,-55.664,-420.898,-61.035,-79.102,1997.887,293.0516491215157
372,1686275291.99,-11.719,-560.547,-132.812,-41.504,1997.891,289.67930074793634
373,1686275292.0,-71.777,-531.738,-54.688,-76.172,1997.895,291.08049339771867
374,1686275292.0,-57.617,-20.508,95.703,-60.547,1997.891,287.1136075027724
375,1686275292.0,-55.664,-428.223,-44.434,-41.992,1997.899,298.72651265275516
376,1686275292.0,-6.836,-134.766,1.953,5.371,1997.895,296.1708140810204
377,1686275292.0,4.395,-687.012,-170.898,9.277,1997.899,297.44240058683835
378,1686275292.01,-41.016,-597.168,-86.426,-60.059,1997.903,284.3091104417162
379,1686275292.01,-71.289,-39.551,80.566,-75.195,1997.907,303.01156299334286
380,1686275292.01,-28.809,-114.746,34.668,-14.16,1997.911,294.904613739408
381,1686275292.02,9.277,-484.863,-46.387,7.324,1997.914,295.58119236530223
382,1686275292.02,-25.879,-185.059,32.227,-47.363,1997.918,295.66658130280626
383,1686275292.03,-74.219,11.23,50.781,-81.055,1997.922,301.37243717379897
384,1686275292.03,-41.992,-235.352,-22.461,-28.32,1997.953,300.4932070054721
385,1686275292.03,6.836,-867.676,-345.215,37.109,1997.957,297.52490937184825
386,1686275292.04,-29.297,-985.84,-357.91,-5.371,1997.961,298.4585214459289
387,1686275292.04,-80.078,-421.875,-20.996,-70.801,1997.965,304.20785524239017
388,1686275292.04,-60.059,-330.078,-44.434,-32.227,1997.969,300.1988887009588
389,1686275292.05,-8.789,-703.125,-150.879,15.625,1997.973,308.89881375759126
390,1686275292.05,-0.488,-412.109,1.465,-16.602,1997.977,315.11852921774164
391,1686275292.06,-41.016,-7.324,80.078,-68.848,1997.981,310.70137600611827
392,1686275292.06,-66.406,-460.938,-164.062,-44.434,1997.984,315.3230432945438
393,1686275292.06,-24.902,-676.27,-143.066,8.789,1997.988,303.27813465465675
394,1686275292.07,6.836,-83.496,90.82,-12.695,1997.992,312.24653989557896
395,1686275292.07,-36.133,-295.898,-62.988,-59.082,1997.996,312.7295748805654
396,1686275292.07,-67.871,-749.023,-240.723,-50.781,1997.969,318.1845527154326
397,1686275292.08,-37.109,-309.57,-15.137,-18.066,1997.973,317.9901124996226
398,1686275292.08,1.465,165.527,153.32,-22.949,1997.977,316.54240626394363
399,1686275292.08,-28.32,13.184,30.273,-68.848,1997.981,326.47613539987225
400,1686275292.09,-79.102,-654.297,-241.211,-77.637,1997.985,319.3822800142218
401,1686275292.09,-56.641,-704.59,-157.715,-35.156,1997.988,330.3686455971343
402,1686275292.1,0.977,-310.547,23.438,-7.812,1997.992,335.5922858606901
403,1686275292.1,-17.578,-386.23,-63.965,-41.992,1997.996,322.6346725054881
404,1686275292.1,-86.426,-859.863,-339.844,-74.707,1998.0,330.1336826048962
405,1686275292.11,-79.102,-603.516,-179.199,-48.34,1998.004,321.98581057219207
406,1686275292.11,-3.418,95.703,136.719,-4.395,1998.008,324.1928173424817
407,1686275292.12,15.137,-36.133,9.277,-16.113,1998.012,324.62403417860355
408,1686275292.13,-47.852,-374.023,-65.43,-68.359,1998.029,329.2324132082476
409,1686275292.14,-63.965,-128.906,54.199,-63.965,1998.033,335.91468471725835
410,1686275292.14,-5.371,69.336,79.102,-11.23,1998.037,333.2487735109389
411,1686275292.14,9.766,-221.191,-70.312,-5.859,1998.041,336.0452150551643
412,1686275292.15,-48.34,-629.395,-129.395,-62.988,1998.045,335.6269167388813
413,1686275292.15,-76.66,-558.594,-78.613,-69.824,1998.049,332.23036042666973
414,1686275292.16,-31.738,-365.723,-18.555,-16.602,1998.053,329.306015556211
415,1686275292.16,13.184,-551.758,-95.703,11.719,1998.057,332.53885939798295
416,1686275292.16,8.789,-662.109,-148.438,-15.137,1998.059,338.97060928516083
417,1686275292.16,-18.066,-819.824,-249.512,-21.973,1998.06,333.3314359234042
418,1686275292.17,-37.109,40.527,100.586,-73.242,1998.063,339.19559626229903
419,1686275292.17,-63.965,-191.895,20.996,-81.543,1998.064,336.91644008961106
420,1686275292.17,-49.805,-82.52,-14.648,-52.734,1998.067,334.0926531868619
421,1686275292.17,-40.527,133.301,131.348,-41.992,1998.068,332.68155274627816
422,1686275292.18,-3.906,-295.898,-45.41,3.906,1998.071,325.84058775109
423,1686275292.18,13.672,-556.152,-162.598,20.508,1998.072,325.79590618846754
424,1686275292.18,10.254,-23.926,79.102,-11.23,1998.075,338.23846614820644
425,1686275292.18,-46.387,-169.922,16.113,-73.242,1998.079,339.9289296703411
426,1686275292.19,-72.754,-490.234,-81.055,-68.359,1998.083,335.4097367685609
427,1686275292.19,-21.484,-479.004,-43.457,-10.254,1998.086,329.3534536526391
428,1686275292.19,22.949,-46.387,77.148,-5.859,1998.09,341.75869941684937
429,1686275292.2,-11.719,116.699,96.68,-51.27,1998.094,344.4634649413303
430,1686275292.2,-58.105,-253.906,-84.473,-63.477,1998.098,336.1234188822646
431,1686275292.21,-36.133,-881.348,-326.66,-7.812,1998.102,340.00462314279747
432,1686275292.21,17.09,-519.531,-31.738,21.484,1998.109,343.0063852746045
433,1686275292.22,-4.883,55.664,108.398,-30.273,1998.113,326.7717532722946
434,1686275292.22,-63.965,-211.914,-70.801,-66.895,1998.117,328.8165773570462
435,1686275292.22,-46.875,-263.184,34.18,-23.438,1998.121,340.428423503151
436,1686275292.23,20.508,17.578,106.445,25.391,1998.125,337.64250717960766
437,1686275292.23,8.301,-175.781,12.207,-6.348,1998.129,346.2502812512126
438,1686275292.24,-51.27,-598.633,-148.926,-54.688,1998.133,328.42966838078354
439,1686275292.24,-61.035,-717.773,-161.621,-47.852,1998.137,338.2760565148921
440,1686275292.24,0.0,-122.07,82.52,-7.812,1998.141,333.78455238314405
441,1686275292.25,24.414,120.605,102.051,-4.395,1998.145,342.5738348108371
442,1686275292.25,-34.18,-368.652,-114.258,-47.852,1998.148,337.80214291392474
443,1686275292.25,-73.242,-603.027,-167.969,-48.34,1998.152,337.67637450400787
444,1686275292.27,-23.438,-208.008,33.203,3.906,1998.167,345.3932746951721
445,1686275292.27,22.461,-233.887,-13.672,14.16,1998.171,345.7770249765338
446,1686275292.28,-23.926,-677.246,-226.562,-35.645,1998.175,333.64268021233744
447,1686275292.28,-72.754,-314.941,-32.227,-71.289,1998.179,336.17555778924856
448,1686275292.28,-38.574,22.461,84.473,-28.809,1998.183,350.2418142628528
449,1686275292.29,17.09,-338.379,-48.34,4.395,1998.186,347.2828047090991
450,1686275292.29,-18.066,-881.836,-369.629,-35.156,1998.19,340.34070294224296
451,1686275292.3,-91.309,-1000.0,-461.914,-77.148,1998.194,342.0982761016162
452,1686275292.3,-67.871,-340.332,-19.531,-56.152,1998.198,349.4490894569529
453,1686275292.3,-2.441,-32.715,86.914,2.93,1998.202,349.9424652192388
454,1686275292.31,-5.859,-233.398,-34.668,-20.02,1998.206,343.5888343896951
455,1686275292.31,-61.523,-70.312,40.039,-83.984,1998.21,347.1665316461132
456,1686275292.31,-73.73,19.531,56.152,-68.848,1998.237,356.785359251478
457,1686275292.32,-20.996,-140.137,-4.395,-13.184,1998.241,355.3263365742266
458,1686275292.32,6.348,-151.855,33.691,-11.23,1998.245,349.4205586510808
459,1686275292.32,-37.109,-207.52,5.371,-56.152,1998.249,353.8739361068034
460,1686275292.33,-78.125,-307.617,-8.789,-66.895,1998.253,353.24530231520146
461,1686275292.33,-38.574,-444.824,-14.648,-18.066,1998.257,358.706232859309
462,1686275292.34,11.719,-452.148,1.953,-0.488,1998.26,357.0212890031102
463,1686275292.34,-20.02,-80.078,49.805,-59.57,1998.264,360.3621310717302
464,1686275292.34,-67.383,-34.668,43.457,-87.891,1998.268,367.66090006395643
465,1686275292.35,-41.504,-471.191,-145.02,-35.645,1998.272,349.0002655964311
466,1686275292.35,-2.441,-974.121,-364.746,9.766,1998.276,351.5621466489423
467,1686275292.36,-10.742,-602.051,-104.004,-34.18,1998.28,357.9721676338502
468,1686275292.37,-59.57,-177.734,27.344,-79.102,1998.269,361.4713438954846
469,1686275292.38,-66.406,-619.629,-212.891,-41.992,1998.273,369.60595629530195
470,1686275292.38,1.953,-426.758,-31.25,13.672,1998.277,361.889106866716
471,1686275292.38,18.066,154.785,145.508,-9.766,1998.281,363.1394720740185
472,1686275292.39,-35.156,-45.898,16.113,-57.617,1998.285,355.61656760144683
473,1686275292.39,-62.988,-610.352,-143.555,-40.039,1998.289,362.4472404729928
474,1686275292.4,-15.625,-585.938,-92.285,4.395,1998.293,365.91144923503884
475,1686275292.4,19.531,-187.5,51.758,-3.418,1998.297,373.7788469197161
476,1686275292.4,-0.488,-144.531,-56.641,-29.785,1998.328,359.1683457075476
477,1686275292.4,-31.25,-218.262,-49.316,-50.781,1998.3,357.4049363979955
478,1686275292.41,-54.688,-589.355,-110.84,-60.547,1998.332,367.7208295007648
479,1686275292.41,-80.566,-821.289,-316.406,-49.316,1998.304,371.7771120984417
480,1686275292.41,-34.668,-196.777,55.664,-23.926,1998.336,357.82587706724024
481,1686275292.41,-38.574,-463.867,-68.848,-0.977,1998.308,372.06931277117553
482,1686275292.42,23.438,97.656,88.867,20.508,1998.34,369.5288570870184
483,1686275292.42,25.391,188.965,149.414,13.184,1998.312,360.3804665216075
484,1686275292.42,9.277,-235.352,-82.52,-7.812,1998.343,354.4844563999326
485,1686275292.42,-56.152,-789.551,-200.684,-51.758,1998.347,355.9074571504731
486,1686275292.43,-62.988,-502.441,-23.926,-42.48,1998.351,351.39179375692015
487,1686275292.43,2.441,42.969,122.07,-0.488,1998.355,353.54274850062217
488,1686275292.43,17.578,-337.402,-61.523,-4.395,1998.359,356.33403621796845
489,1686275292.44,-41.504,-563.965,-106.934,-48.34,1998.363,352.2217785271692
490,1686275292.44,-63.965,-199.219,35.645,-45.41,1998.367,348.272604914487
491,1686275292.45,-8.301,-288.086,17.09,-1.953,1998.371,359.3683081752676
492,1686275292.45,21.484,-668.457,-223.633,13.184,1998.358,356.2882935263146
493,1686275292.45,-31.25,-1000.0,-451.172,-24.902,1998.362,354.23987814682505
494,1686275292.46,-54.688,-448.242,-50.293,-58.105,1998.366,343.4991425337508
495,1686275292.46,-3.906,7.812,117.188,-19.043,1998.369,350.0539936902959
496,1686275292.46,43.457,-216.797,-35.156,13.184,1998.373,353.50824682171486
497,1686275292.47,20.02,-410.156,-62.5,-22.461,1998.377,348.21867687369945
498,1686275292.47,-36.133,-306.152,5.859,-58.594,1998.381,344.32692149341693
499,1686275292.48,-23.926,-135.742,34.668,-17.09,1998.385,348.68571930708276
500,1686275292.48,30.273,-740.234,-230.469,37.109,1998.389,341.30328328434774
501,1686275292.48,26.855,-415.039,-51.758,-6.348,1998.393,339.19788944543694
502,1686275292.49,-28.32,81.055,69.824,-62.012,1998.397,335.79587223860625
503,1686275292.49,-44.434,-330.078,-108.398,-37.109,1998.401,337.2948033429285
504,1686275292.49,8.789,-451.172,-57.129,17.578,1998.389,338.04735903290623
505,1686275292.5,42.969,-20.02,79.102,7.812,1998.393,322.33771295179196
506,1686275292.5,-8.301,158.203,92.285,-42.969,1998.397,331.52264869246045
507,1686275292.5,-48.34,-281.25,-102.539,-31.738,1998.4,334.2989959672857
508,1686275292.51,-12.695,-759.277,-218.262,31.738,1998.404,341.3849450392968
509,1686275292.51,30.273,-496.582,-39.062,36.133,1998.408,341.07746635974803
510,1686275292.52,-1.953,-321.777,-23.438,-14.648,1998.412,327.91649955898043
511,1686275292.52,-56.641,-560.547,-143.555,-38.574,1998.416,336.8697522729421
512,1686275292.52,-32.715,-676.758,-115.234,3.418,1998.42,346.8131456831629
513,1686275292.53,30.273,-44.434,116.699,25.391,1998.424,339.5261378186142
514,1686275292.53,14.648,93.75,78.613,-15.625,1998.428,351.87189661062104
515,1686275292.54,-61.035,-678.223,-251.465,-41.992,1998.432,356.9204510818704
516,1686275292.54,-62.012,-748.047,-173.34,-14.648,1998.437,355.7459885606873
517,1686275292.54,17.09,-51.27,109.863,26.367,1998.441,350.27080111213405
518,1686275292.55,26.855,-185.547,-26.855,7.812,1998.445,366.80493034702954
519,1686275292.55,-31.25,-685.547,-248.535,-43.457,1998.448,365.77329681274495
520,1686275292.56,-47.852,-320.312,-34.668,-30.762,1998.452,367.43187323564365
521,1686275292.56,9.766,-148.926,61.035,29.297,1998.456,374.92759278971056
522,1686275292.56,41.992,-437.5,-61.523,32.227,1998.46,394.2427177566929
523,1686275292.57,-13.184,-795.898,-283.203,-24.414,1998.464,382.8434573872593
524,1686275292.57,-54.199,-431.152,-74.219,-41.992,1998.468,376.71918465348705
525,1686275292.57,-18.555,140.625,149.902,2.441,1998.472,384.00944761429975
526,1686275292.58,23.926,-8.301,35.156,29.785,1998.476,411.02599754572486
527,1686275292.58,-3.906,-244.629,-6.836,-10.742,1998.48,410.0849114543
528,1686275292.58,-49.805,-86.426,57.129,-46.387,1998.479,402.02496984106944
529,1686275292.59,-29.297,78.125,88.867,-10.254,1998.483,412.09093633650514
530,1686275292.59,28.809,-115.723,0.0,33.691,1998.487,417.9063524247789
531,1686275292.6,27.344,-177.246,34.668,4.883,1998.491,415.33729136888377
532,1686275292.6,-35.156,-243.652,-6.836,-51.27,1998.495,414.26197823149414
533,1686275292.6,-47.852,-417.48,-51.758,-28.809,1998.498,426.1668236277504
534,1686275292.61,6.836,-563.965,-118.164,41.992,1998.502,425.6246980886341
535,1686275292.61,17.578,-922.363,-343.262,29.297,1998.506,433.4657451172411
536,1686275292.61,-29.785,-400.879,-57.617,-43.945,1998.51,437.84579102267963
537,1686275292.62,-48.828,38.574,107.91,-47.363,1998.514,442.1971350109043
538,1686275292.62,7.324,-348.145,-91.797,13.184,1998.518,441.6862138304249
539,1686275292.63,32.227,-497.07,-85.938,26.855,1998.522,440.26750132218115
540,1686275292.63,-14.648,-148.438,65.918,-35.645,1998.552,448.16981410107053
541,1686275292.63,-51.27,-60.547,25.391,-58.594,1998.556,446.81483327289345
542,1686275292.64,-18.066,-660.156,-240.723,6.348,1998.56,445.9506780592827
543,1686275292.64,36.133,-423.828,-57.617,30.762,1998.564,445.61849202009216
544,1686275292.64,11.719,45.898,103.516,-15.625,1998.568,446.30379957003765
545,1686275292.65,-41.016,-406.25,-117.188,-43.457,1998.572,447.45120021338226
546,1686275292.65,-20.02,-903.32,-337.891,3.906,1998.576,449.3487189734275
547,1686275292.66,42.969,-642.09,-100.098,52.246,1998.58,445.06696221183427
548,1686275292.66,42.969,0.0,130.859,9.766,1998.583,459.5409382233665
549,1686275292.66,-16.602,-117.676,-21.973,-47.852,1998.587,446.51142993908206
550,1686275292.67,-29.785,-585.449,-89.844,-23.438,1998.591,453.6757345325738
551,1686275292.67,28.809,-177.734,68.848,35.156,1998.595,443.8607918736818
552,1686275292.67,48.828,99.609,65.918,24.902,1998.583,448.70333300422783
553,1686275292.68,8.789,-208.984,-39.062,-27.344,1998.587,453.17679918728265
554,1686275292.68,-22.461,-312.012,6.348,-35.156,1998.591,455.34350002018783
555,1686275292.68,20.02,-49.805,70.312,18.066,1998.595,447.196142006576
556,1686275292.69,59.082,41.992,61.523,29.297,1998.599,445.07230914104656
557,1686275292.69,10.254,-449.707,-121.094,-23.438,1998.603,443.39445583720044
558,1686275292.7,-42.969,-730.957,-152.344,-44.434,1998.606,451.2019302724339
559,1686275292.7,0.488,-123.535,105.469,3.906,1998.61,445.5202289101543
560,1686275292.7,65.918,107.91,107.422,49.805,1998.614,456.3632296531358
561,1686275292.71,41.016,-414.062,-125.977,15.625,1998.618,448.2614715687919
562,1686275292.71,-20.02,-651.367,-136.23,-20.996,1998.622,444.26565633236464
563,1686275292.72,-15.625,-425.293,-18.066,14.16,1998.626,441.87769216746705
564,1686275292.73,49.805,-69.336,99.121,48.828,1998.629,436.4278494393246
565,1686275292.74,57.129,-559.082,-230.957,24.902,1998.633,445.08060818404545
566,1686275292.74,-5.859,-896.484,-297.363,-16.113,1998.636,426.80897464207175
567,1686275292.74,-16.602,-114.258,109.375,-10.742,1998.64,435.7620563763612
568,1686275292.75,47.852,45.41,82.52,59.57,1998.644,421.29061870567267
569,1686275292.75,70.312,-531.738,-105.469,71.777,1998.648,428.2656849505785
570,1686275292.76,11.719,-516.113,-50.293,0.488,1998.652,420.25788762598967
571,1686275292.76,-14.16,-10.254,102.539,-17.578,1998.656,419.01965619261426
572,1686275292.76,30.273,-63.477,41.504,50.293,1998.66,417.430876524776
573,1686275292.77,58.594,-738.77,-246.094,79.59,1998.664,420.37034527876096
574,1686275292.77,25.391,-390.625,-46.875,11.23,1998.668,411.42932111509225
575,1686275292.78,-14.648,6.836,81.055,-23.926,1998.672,418.273597262554
576,1686275292.79,14.648,-401.855,-97.168,30.273,1998.689,402.18199480264184
577,1686275292.8,76.172,-485.352,-68.848,66.406,1998.693,391.61305518288407
578,1686275292.8,60.547,-103.516,59.57,29.785,1998.697,395.2141805880513
579,1686275292.8,0.977,6.348,52.246,-13.184,1998.701,394.1196043498609
580,1686275292.81,7.324,-359.375,-96.68,27.832,1998.704,382.6402617671912
581,1686275292.81,72.266,-736.816,-142.09,83.008,1998.708,383.6444583161896
582,1686275292.82,72.754,-417.969,3.418,51.27,1998.712,387.7027792491047
583,1686275292.82,5.371,-7.324,72.266,-14.16,1998.716,386.92170275301726
584,1686275292.82,-34.668,-789.551,-240.723,-26.855,1998.719,391.51318684170843
585,1686275292.82,-17.09,-474.121,-130.859,7.324,1998.72,382.07332253727867
586,1686275292.83,3.906,-462.402,-18.555,33.203,1998.723,374.3327613670388
587,1686275292.83,45.41,-709.961,-154.297,69.824,1998.724,364.761479446836
588,1686275292.83,55.664,-34.668,112.793,53.711,1998.727,368.01887065537386
589,1686275292.83,76.66,-143.066,84.473,47.363,1998.728,362.91129795788186
590,1686275292.84,20.508,-346.191,-79.59,0.488,1998.731,374.2705051894373
591,1686275292.84,15.137,-335.449,-48.34,-21.484,1998.732,365.8392256353342
592,1686275292.84,-38.086,-769.531,-259.277,-28.32,1998.735,369.1704231660718
593,1686275292.84,-18.555,-638.672,-127.441,11.23,1998.739,351.95815530487255
594,1686275292.85,45.898,-248.047,44.922,52.246,1998.743,357.0449596158542
595,1686275292.85,41.504,-188.477,5.859,24.414,1998.747,326.880512555605
596,1686275292.85,-9.766,-523.438,-65.43,-21.973,1998.751,346.66483809301195
597,1686275292.86,-2.93,-232.91,39.062,8.789,1998.755,336.2706413637127
598,1686275292.86,65.918,177.734,141.602,74.707,1998.758,334.049961838593
599,1686275292.87,71.777,-87.891,-10.742,64.453,1998.762,307.85581296266247
600,1686275292.87,-1.953,-803.711,-322.266,9.766,1998.765,308.95230710541017
601,1686275292.87,-18.066,-389.648,-16.602,4.883,1998.768,316.4421055784213
602,1686275292.88,52.734,128.906,145.508,59.082,1998.772,317.899139554814
603,1686275292.88,85.938,-118.652,-45.898,58.594,1998.776,307.6991656010885
604,1686275292.88,37.598,-267.578,3.906,1.465,1998.78,284.52978732896634
605,1686275292.89,-13.184,-413.086,-35.645,-8.301,1998.784,298.63704915842163
606,1686275292.89,18.066,-444.336,-20.02,43.945,1998.788,282.26147896872897
607,1686275292.9,72.754,-543.945,-111.328,83.008,1998.792,284.42800517788055
608,1686275292.9,46.387,-928.223,-355.957,50.781,1998.796,288.0001818673134
609,1686275292.9,5.859,-398.438,-42.48,-1.953,1998.8,295.3052534126139
610,1686275292.91,21.973,-7.812,86.426,26.367,1998.804,274.84909019645767
611,1686275292.91,74.707,-550.293,-148.438,87.402,1998.807,273.4533170743927
612,1686275292.93,76.172,-474.121,13.672,63.965,1998.824,271.6934328074769
613,1686275292.93,16.113,27.344,116.211,-3.418,1998.828,267.82868428037864
614,1686275292.94,-5.859,-80.078,-14.16,6.348,1998.832,268.23444845650147
615,1686275292.94,44.434,-306.152,-43.457,66.895,1998.836,278.2073062912281
616,1686275292.94,72.754,-103.027,55.176,62.012,1998.84,259.98953281820206
617,1686275292.95,25.391,-231.445,-12.695,16.602,1998.844,264.34869528875146
618,1686275292.95,-6.348,-513.184,-113.77,19.043,1998.848,264.91143262129947
619,1686275292.96,40.527,-849.121,-302.734,88.867,1998.852,259.25501273586656
620,1686275292.96,79.102,-204.102,50.293,92.285,1998.854,265.8922096950916
621,1686275292.96,78.613,-675.293,-117.188,104.492,1998.856,265.71713815046127
622,1686275292.96,57.617,53.223,62.988,35.156,1998.858,248.84812674794023
623,1686275292.96,41.016,-8.789,128.418,31.25,1998.86,253.65703230721493
624,1686275292.97,-3.906,-252.93,-51.27,-17.578,1998.862,266.93684980267625
625,1686275292.97,-8.789,-135.254,-9.277,9.766,1998.864,258.9539606809385
626,1686275292.97,11.719,-271.484,37.598,23.438,1998.866,262.1696935737646
627,1686275292.97,18.555,-588.867,-85.938,65.918,1998.867,252.62693292485346
628,1686275292.97,79.59,-23.926,104.98,83.984,1998.87,268.42836132453454
629,1686275292.98,87.402,-343.262,-42.969,60.547,1998.874,263.98891290189374
630,1686275292.98,30.273,-584.961,-110.84,-0.977,1998.878,268.6996432828361
631,1686275292.98,10.742,-293.457,10.254,14.648,1998.882,254.6795429258487
632,1686275292.99,63.965,-30.273,80.566,76.66,1998.885,257.7261605713726
633,1686275292.99,91.309,-23.926,79.102,79.59,1998.889,253.72190807022346
634,1686275293.0,45.41,-569.824,-211.914,33.691,1998.893,262.86428287364697
635,1686275293.0,1.465,-1000.0,-447.754,39.551,1998.897,254.244848281234
636,1686275293.0,53.223,-490.723,-22.949,82.52,1998.913,267.68143363280944
637,1686275293.01,111.328,30.762,127.441,97.168,1998.917,263.891371784085
638,1686275293.01,68.359,-584.961,-238.77,55.176,1998.921,260.72445013223734
639,1686275293.02,11.23,-542.969,-90.332,8.301,1998.925,265.55731960690076
640,1686275293.02,45.898,18.066,130.859,48.828,1998.929,266.8792472366222
641,1686275293.02,104.492,-301.27,-48.34,106.934,1998.933,262.5337317854106
642,1686275293.03,81.543,-846.191,-298.828,70.801,1998.936,270.3805856417793
643,1686275293.03,23.926,-510.254,-102.539,8.301,1998.94,268.1559641087882
644,1686275293.03,36.621,-4.395,103.516,37.109,1998.944,268.09123648421496
645,1686275293.04,94.238,-72.266,29.785,95.215,1998.948,269.21131880288567
646,1686275293.04,93.75,-214.844,-2.441,75.195,1998.952,276.701803623155
647,1686275293.05,36.133,-73.73,59.57,15.625,1998.956,260.0937866734077
648,1686275293.05,15.137,-24.414,57.129,32.227,1998.957,287.0059864937486
649,1686275293.05,69.336,-377.93,-78.125,102.539,1998.961,273.49032098694767
650,1686275293.06,101.074,-588.379,-90.332,101.562,1998.965,279.7310953940463
651,1686275293.06,58.594,-190.43,51.758,31.25,1998.969,270.90803671062224
652,1686275293.07,14.648,-24.414,79.102,11.719,1998.973,282.61131336947255
653,1686275293.07,61.035,-456.055,-102.539,84.961,1998.977,275.52078943676986
654,1686275293.07,109.375,-740.723,-151.855,121.582,1998.981,283.0596473092419
655,1686275293.08,74.707,-228.516,62.5,56.641,1998.985,283.26424777010504
656,1686275293.08,19.531,-34.668,51.758,20.996,1998.988,293.57533890948685
657,1686275293.08,36.133,-416.992,-74.219,67.871,1998.992,284.35120453655634
658,1686275293.09,95.703,-538.086,-53.223,108.887,1998.996,286.67742528675194
659,1686275293.09,91.309,-374.512,-6.836,68.848,1999.0,288.4512884006075
660,1686275293.11,35.156,-235.352,-2.441,16.113,1999.004,287.57032660313916
661,1686275293.11,32.715,-625.0,-205.078,50.293,1999.008,302.1993008635247
662,1686275293.12,89.355,-458.008,-52.246,101.074,1999.012,294.4285353045193
663,1686275293.12,106.934,-112.793,70.312,77.637,1999.016,302.15279993091934
664,1686275293.12,52.734,-446.777,-99.609,29.785,1999.02,294.4264497550854
665,1686275293.13,8.789,-914.551,-324.707,46.387,1999.024,296.89936068037287
666,1686275293.13,57.617,-747.07,-169.434,93.262,1999.028,298.46721094763905
667,1686275293.14,113.281,-3.906,125.0,95.215,1999.032,298.8365706116989
668,1686275293.14,68.848,-104.492,-0.977,52.246,1999.035,310.8682001546096
669,1686275293.14,8.301,-457.52,-74.707,37.598,1999.039,310.8145797730007
670,1686275293.15,49.805,-122.559,69.336,88.867,1999.043,313.78701165594833
671,1686275293.15,117.676,119.629,107.422,110.352,1999.047,295.7581344293617
672,1686275293.15,81.055,-162.109,-26.367,65.918,1999.049,308.98223927210336
673,1686275293.16,20.02,-369.141,-54.688,25.879,1999.053,314.68702587580935
674,1686275293.16,40.527,-116.211,70.801,69.336,1999.057,306.7601615574123
675,1686275293.16,103.516,34.668,95.703,117.676,1999.061,306.6680195195971
676,1686275293.17,100.586,-265.625,-45.898,85.938,1999.065,307.1087721498836
677,1686275293.17,37.109,-626.953,-152.832,41.504,1999.069,308.79492447946706
678,1686275293.18,31.738,-599.609,-104.492,62.5,1999.073,309.91761606925365
679,1686275293.18,96.191,-383.301,-5.371,116.699,1999.077,312.8492810728855
680,1686275293.18,120.117,-523.438,-133.789,108.398,1999.081,318.7518741885393
681,1686275293.19,52.734,-910.156,-364.258,49.316,1999.085,317.79558476630933
682,1686275293.19,17.09,-527.344,-99.609,29.785,1999.089,317.27094848013894
683,1686275293.2,78.125,-339.355,1.953,89.355,1999.092,318.3691860376898
684,1686275293.2,122.559,-671.387,-190.918,113.281,1999.095,312.1046463874711
685,1686275293.2,76.172,-502.441,-39.062,50.781,1999.098,319.58922464998784
686,1686275293.21,15.137,-73.242,102.539,12.695,1999.102,320.66000769216805
687,1686275293.21,41.992,-130.371,14.16,62.988,1999.106,323.8778282777361
688,1686275293.21,98.633,-349.121,-45.898,104.492,1999.11,321.55672871020994
689,1686275293.22,75.684,-476.074,-69.336,65.918,1999.114,328.9919692927278
690,1686275293.22,21.973,-317.383,17.09,13.184,1999.118,330.05851264515707
691,1686275293.22,35.156,-126.465,48.828,40.527,1999.122,316.5730971600021
692,1686275293.23,83.984,-760.742,-281.738,114.258,1999.126,324.9336410098891
693,1686275293.23,82.52,-698.73,-130.859,85.938,1999.13,328.42603036720374
694,1686275293.24,34.668,-22.461,122.07,6.836,1999.134,334.57096783878444
695,1686275293.24,26.855,-144.043,-6.348,31.25,1999.138,338.3722962305268
696,1686275293.24,76.66,-554.688,-62.988,94.238,1999.153,337.2004063975203
697,1686275293.25,104.492,-158.203,73.73,84.473,1999.157,333.30599282171767
698,1686275293.25,60.059,59.57,71.289,20.508,1999.161,336.4701018452903
699,1686275293.26,21.973,-232.422,-61.523,17.09,1999.164,337.5993693411773
700,1686275293.26,68.359,-228.516,39.062,81.055,1999.168,324.86857365906576
701,1686275293.26,104.98,-302.734,0.977,109.375,1999.172,333.1222950089546
702,1686275293.27,76.66,-455.078,-75.684,53.711,1999.176,335.9058754452569
703,1686275293.27,32.715,-592.773,-131.836,18.555,1999.18,338.2683840251355
704,1686275293.27,46.875,-696.289,-123.047,72.754,1999.184,332.35374067778605
705,1686275293.28,117.188,-100.586,95.215,110.352,1999.188,332.03834200060396
706,1686275293.28,102.539,-26.367,39.551,61.523,1999.192,327.7470892184247
707,1686275293.29,33.691,-660.645,-221.68,15.137,1999.196,338.548043505862
708,1686275293.29,33.203,-717.773,-135.742,49.805,1999.184,340.94442237464233
709,1686275293.29,99.609,-134.766,112.305,100.586,1999.188,335.78225206464896
710,1686275293.3,122.559,-12.695,29.785,90.332,1999.192,331.85306994140916
711,1686275293.3,67.383,-655.762,-278.809,48.34,1999.195,333.3100430494899
712,1686275293.3,34.18,-541.016,-88.379,48.828,1999.199,338.2047073219003
713,1686275293.31,82.031,-250.488,45.898,97.168,1999.203,341.0366729907776
714,1686275293.31,113.281,-453.125,-68.848,96.68,1999.207,338.7734248455626
715,1686275293.32,52.246,-733.398,-208.496,39.551,1999.211,344.6192823295338
716,1686275293.32,13.184,-391.113,-51.758,17.578,1999.215,344.0637906149277
717,1686275293.32,71.289,104.004,144.043,69.336,1999.219,339.60916808261726
718,1686275293.33,119.141,-97.656,27.344,108.398,1999.223,335.0241353976677
719,1686275293.33,79.102,-567.383,-68.848,68.359,1999.227,337.76182176131675
720,1686275293.33,29.297,-248.535,35.645,29.297,1999.231,349.5809718991745
721,1686275293.34,54.688,31.738,76.66,71.777,1999.235,344.0846013214775
722,1686275293.34,108.887,-379.883,-54.688,118.652,1999.239,343.9306637550613
723,1686275293.35,89.844,-565.918,-92.773,76.172,1999.243,346.5476209199475
724,1686275293.35,37.109,-213.379,20.996,25.879,1999.247,341.38931249334155
725,1686275293.35,39.062,-284.668,-10.254,55.664,1999.251,351.2663065461932
726,1686275293.36,97.168,-617.188,-104.492,113.77,1999.254,350.50422688636655
727,1686275293.36,104.98,-701.172,-113.77,89.355,1999.258,358.72947876955374
728,1686275293.36,45.41,-192.871,44.922,17.578,1999.262,340.08904602030367
729,1686275293.37,26.855,8.789,73.242,29.297,1999.266,342.84717294702375
730,1686275293.37,84.473,-351.562,-77.637,96.68,1999.27,356.30174297990783
731,1686275293.38,116.211,-533.203,-94.238,102.539,1999.274,355.9080400990137
732,1686275293.38,75.684,-173.828,73.73,41.016,1999.287,360.8679194807146
733,1686275293.38,33.691,-51.27,42.969,21.973,1999.291,333.0170908990574
734,1686275293.39,60.547,-635.254,-233.398,79.59,1999.295,349.4403023562116
735,1686275293.39,119.141,-451.66,-48.34,113.281,1999.299,349.41526868647435
736,1686275293.39,97.168,-138.184,60.059,67.383,1999.303,350.2053110647496
737,1686275293.4,35.156,-491.699,-91.309,24.902,1999.306,351.8421580392552
738,1686275293.4,32.715,-921.875,-332.031,67.871,1999.31,343.94353545618753
739,1686275293.4,91.309,-733.887,-182.129,111.328,1999.314,356.57485356828516
740,1686275293.41,99.121,-38.574,114.258,64.453,1999.318,345.35665015770354
741,1686275293.41,33.691,-105.957,-7.324,9.277,1999.322,362.4826282495531
742,1686275293.42,25.879,-273.438,-27.832,30.273,1999.326,351.1855851991972
743,1686275293.42,88.379,20.996,112.305,84.473,1999.33,352.9391975407568
744,1686275293.44,105.469,121.582,115.234,67.871,1999.334,336.47568809578866
745,1686275293.44,51.27,-157.715,2.441,8.789,1999.338,348.23724773006086
746,1686275293.45,20.996,-410.645,-19.531,2.441,1999.342,347.1512037351215
747,1686275293.45,62.012,-134.277,75.195,66.406,1999.346,358.0164892496437
748,1686275293.45,95.215,81.543,105.957,77.637,1999.35,357.69403035097685
749,1686275293.46,50.293,-411.133,-93.75,10.254,1999.354,348.65402998963486
750,1686275293.46,-2.441,-752.441,-158.203,-9.766,1999.358,352.2898101000525
751,1686275293.46,31.25,-459.961,-13.184,29.785,1999.361,354.82172313950906
752,1686275293.47,83.984,-108.398,84.961,54.688,1999.365,351.1317993296688
753,1686275293.47,60.547,-373.535,-81.055,30.273,1999.369,351.0315703435139
754,1686275293.48,-0.488,-715.332,-169.922,-4.883,1999.373,361.6393881353076
755,1686275293.48,-1.953,-510.742,-25.879,19.043,1999.377,359.67577926666524
756,1686275293.48,63.477,-158.203,53.711,67.871,1999.38,358.5532412215652
757,1686275293.49,70.312,-494.141,-160.645,46.387,1999.383,349.8885058651799
758,1686275293.49,11.719,-541.992,-69.824,-11.23,1999.387,363.93668943351247
759,1686275293.5,-9.277,1.465,126.953,0.488,1999.391,349.3131075800409
760,1686275293.5,44.434,-85.938,17.578,64.453,1999.395,354.7310103776893
761,1686275293.5,68.848,-615.234,-124.512,73.242,1999.399,361.4616789551909
762,1686275293.51,12.207,-516.602,-52.734,4.883,1999.403,353.4768947089193
763,1686275293.51,-18.066,-24.414,90.82,-15.625,1999.407,355.7169466734412
764,1686275293.51,21.973,-89.355,40.527,44.434,1999.411,358.68774817114723
765,1686275293.52,49.805,-808.594,-293.945,77.637,1999.415,361.159619810526
766,1686275293.52,23.926,-689.453,-174.805,18.066,1999.419,359.3563900649118
767,1686275293.53,-14.16,-31.25,92.773,-31.738,1999.423,363.05353029581073
768,1686275293.53,2.93,-198.73,-27.832,14.648,1999.424,363.26496749856983
769,1686275293.53,55.176,-547.363,-79.102,68.848,1999.428,351.9909660247625
770,1686275293.54,47.363,-194.336,41.016,24.414,1999.432,365.98660651799497
771,1686275293.54,-1.953,1.465,52.734,-34.668,1999.436,353.13472014892574
772,1686275293.54,-17.09,-250.977,-34.18,-15.137,1999.44,355.87367188509404
773,1686275293.55,25.391,-525.879,-72.754,33.203,1999.444,359.58749868651563
774,1686275293.55,33.691,-356.934,7.324,18.066,1999.448,357.38303052809385
775,1686275293.56,-22.461,-25.391,91.309,-39.062,1999.452,369.2443522411688
776,1686275293.56,-58.594,-425.781,-110.84,-37.598,1999.456,353.6796396353021
777,1686275293.56,-12.695,-746.094,-172.852,25.879,1999.46,350.0740867858681
778,1686275293.57,35.156,-226.074,63.477,27.344,1999.464,355.43198389177104
779,1686275293.57,-11.719,-326.172,-47.363,-38.086,1999.467,364.8573361744484
780,1686275293.57,-72.754,-859.375,-304.688,-43.457,1999.469,354.7785816569215
781,1686275293.58,-33.203,-733.887,-161.133,19.043,1999.473,354.37876202022125
782,1686275293.58,28.32,-26.855,132.324,31.25,1999.477,359.8390339645717
783,1686275293.58,3.418,-7.812,51.27,-22.949,1999.48,365.9375701951772
784,1686275293.59,-45.898,-424.316,-97.168,-58.105,1999.484,352.61461371653763
785,1686275293.59,-34.668,-467.773,-54.688,-18.066,1999.488,364.28816181505107
786,1686275293.6,25.391,-263.184,57.129,22.461,1999.492,343.20446012257116
787,1686275293.6,31.25,-135.254,41.504,-4.395,1999.496,354.56271536588565
788,1686275293.6,-28.809,-758.301,-296.875,-32.227,1999.5,357.90881791756647
789,1686275293.61,-37.598,-579.102,-99.121,-16.602,1999.504,360.06354009113664
790,1686275293.61,28.809,95.215,151.855,32.227,1999.508,354.7461057842492
791,1686275293.62,51.27,-64.453,8.789,40.039,1999.512,354.5089544262997
792,1686275293.62,0.488,-279.785,-14.16,-13.672,1999.514,357.36504112344784
793,1686275293.62,-24.902,-106.934,47.852,-9.766,1999.518,359.37851877357934
794,1686275293.63,20.02,24.414,81.055,50.293,1999.522,361.77400842615845
795,1686275293.63,66.406,-326.172,-38.574,71.289,1999.526,355.22979738814496
796,1686275293.63,24.902,-569.824,-109.375,10.254,1999.53,372.8391821838196
797,1686275293.64,-31.738,-438.965,-43.945,-29.785,1999.534,347.08961199191907
798,1686275293.64,0.977,-418.945,-26.367,26.367,1999.537,352.59499054342115
799,1686275293.64,52.734,-576.172,-111.816,59.082,1999.541,351.2294906999864
800,1686275293.65,17.09,-793.945,-177.246,22.461,1999.545,352.82089459722437
801,1686275293.65,-38.574,-272.949,43.457,-33.203,1999.549,364.4653013293168
802,1686275293.66,-19.043,-29.297,87.891,-4.883,1999.553,367.81029907795147
803,1686275293.66,36.133,-582.52,-149.902,56.641,1999.557,365.20851791238766
804,1686275293.66,35.156,-576.66,-109.375,15.625,1999.559,368.0021734980438
805,1686275293.67,-21.973,-39.551,96.191,-41.992,1999.563,361.1723208921107
806,1686275293.67,-34.18,-59.57,41.016,-17.578,1999.567,347.2775490950845
807,1686275293.68,24.902,-321.777,-59.57,38.574,1999.571,356.1425511746494
808,1686275293.68,38.574,-168.457,25.879,32.227,1999.575,354.46233980599334
809,1686275293.68,-19.043,-321.777,-29.785,-33.691,1999.578,352.4191941075236
810,1686275293.69,-56.641,-566.406,-114.746,-42.969,1999.582,360.44642390768485
811,1686275293.69,-23.926,-913.574,-305.176,30.762,1999.586,368.04892765416537
812,1686275293.69,20.508,-726.074,-155.273,36.621,1999.59,362.0026116084728
813,1686275293.7,-15.137,-42.969,85.449,-38.574,1999.594,356.63733067100964
814,1686275293.7,-62.988,-138.184,-9.277,-57.617,1999.598,357.53754368936274
815,1686275293.71,-30.273,-282.227,-13.672,-11.719,1999.602,360.7425703543464
816,1686275293.72,28.809,1.953,91.797,22.461,1999.619,363.66079224136047
817,1686275293.73,20.996,77.148,74.707,-8.301,1999.623,354.6220648583037
818,1686275293.73,-45.41,-266.113,-44.434,-48.34,1999.627,362.6491074067989
819,1686275293.74,-46.387,-351.562,20.996,-28.32,1999.631,359.2562174730765
820,1686275293.74,12.695,-90.82,75.684,23.438,1999.634,357.4454032564446
821,1686275293.74,13.184,-247.559,-12.207,5.371,1999.638,365.1734155972139
822,1686275293.75,-51.758,-610.84,-143.555,-58.594,1999.642,357.6110104189884
823,1686275293.75,-80.078,-771.973,-169.434,-46.875,1999.646,366.3696624382378
824,1686275293.75,-26.367,-139.648,80.078,-8.301,1999.662,356.70713467567305
825,1686275293.75,-18.555,-456.543,4.395,8.301,1999.65,360.8592881070136
826,1686275293.76,28.32,71.777,98.633,23.926,1999.666,365.3146797462983
827,1686275293.76,24.414,-32.227,106.445,4.395,1999.654,365.85662160751247
828,1686275293.76,-10.742,-547.363,-182.617,-9.766,1999.67,366.85540125915395
829,1686275293.76,-21.484,-421.387,-131.348,-34.18,1999.658,352.65063253159457
830,1686275293.76,-58.105,-438.477,-62.988,-48.828,1999.674,355.69668759854864
831,1686275293.77,-70.801,-772.949,-194.336,-41.504,1999.662,360.12689186547914
832,1686275293.77,-27.832,11.23,116.211,-14.648,1999.677,354.66968306830285
833,1686275293.77,22.949,-393.555,-56.152,28.809,1999.681,353.95621730560936
834,1686275293.78,6.836,-720.703,-131.348,-4.395,1999.685,354.1806870155123
835,1686275293.78,-52.246,-307.129,12.695,-59.57,1999.689,359.7804312340745
836,1686275293.78,-49.805,30.762,111.816,-35.645,1999.693,354.91232925588946
837,1686275293.79,12.695,-120.117,48.34,22.949,1999.697,356.73933677278575
838,1686275293.79,-2.441,-818.359,-291.992,14.16,1999.701,364.0006590653423
839,1686275293.8,-58.105,-659.18,-113.77,-60.059,1999.705,358.13583045169025
840,1686275293.8,-69.336,-26.855,141.113,-75.684,1999.709,364.6068837626916
841,1686275293.8,-19.531,-213.867,-9.766,-15.625,1999.713,361.22069691211533
842,1686275293.81,5.859,-582.52,-62.5,-7.324,1999.717,362.0070868655436
843,1686275293.81,-43.945,-256.836,42.969,-59.082,1999.72,349.2874287758109
844,1686275293.81,-83.496,11.23,83.496,-70.801,1999.724,363.7703100369248
845,1686275293.82,-50.293,-411.621,-57.129,-20.996,1999.728,356.1885161279258
846,1686275293.82,-1.953,-681.641,-107.91,7.812,1999.732,366.05011039109735
847,1686275293.82,-23.438,-175.293,57.617,-55.176,1999.736,368.5030741309382
848,1686275293.83,-81.055,-94.238,40.039,-101.074,1999.74,355.254590985438
849,1686275293.83,-74.707,-429.199,-83.008,-49.805,1999.744,360.8119806099863
850,1686275293.84,-14.648,-356.445,-9.277,-0.977,1999.748,358.3322546256857
851,1686275293.84,-14.648,-335.938,-13.184,-27.832,1999.752,362.46350310653673
852,1686275293.86,-68.848,-295.898,2.93,-80.078,1999.754,361.0146981359056
853,1686275293.86,-79.59,-691.406,-216.309,-49.805,1999.758,353.3180368646343
854,1686275293.87,-36.133,-902.832,-229.004,2.441,1999.762,350.4487411544757
855,1686275293.87,-13.184,-163.574,102.051,-30.273,1999.766,370.0676690924778
856,1686275293.87,-62.988,-40.039,55.664,-95.703,1999.77,356.34891457558416
857,1686275293.88,-101.074,-712.402,-175.293,-90.332,1999.774,355.8065498028042
858,1686275293.88,-53.223,-564.453,-64.453,-30.762,1999.778,367.60042498315613
859,1686275293.88,-6.836,74.219,155.273,-30.273,1999.782,357.8386974274611
860,1686275293.89,-53.223,-80.078,35.156,-83.008,1999.785,357.5684811742123
861,1686275293.89,-114.746,-779.785,-275.879,-99.121,1999.789,366.527971114485
862,1686275293.9,-72.266,-463.379,-49.805,-58.594,1999.793,362.6738270794858
863,1686275293.9,0.488,57.617,132.324,-18.555,1999.797,362.5737880834742
864,1686275293.9,-24.414,-129.883,5.859,-62.5,1999.799,355.78111476326166
865,1686275293.91,-86.426,-328.125,16.602,-105.957,1999.803,360.4151580565482
866,1686275293.91,-71.289,-135.742,76.172,-65.43,1999.807,364.48224275851294
867,1686275293.92,-19.531,-50.293,81.055,-25.879,1999.811,366.46871362014855
868,1686275293.92,-25.391,-412.109,-55.664,-48.34,1999.815,343.26307734677766
869,1686275293.92,-75.195,-809.57,-161.133,-89.844,1999.819,360.5044451172322
870,1686275293.93,-91.309,-512.207,-7.324,-78.125,1999.823,351.45632984547683
871,1686275293.93,-40.527,-23.926,124.512,-30.762,1999.827,355.9727631639806
872,1686275293.93,-21.973,-423.828,-71.777,-36.133,1999.831,359.4121267448612
873,1686275293.94,-80.078,-710.449,-126.953,-88.867,1999.835,354.35669831509847
874,1686275293.94,-111.328,-233.398,83.008,-103.027,1999.838,358.71675667870005
875,1686275293.95,-69.336,-290.039,4.883,-55.176,1999.842,363.9764363725812
876,1686275293.95,-32.227,-666.016,-161.621,-37.109,1999.844,361.77319758140567
877,1686275293.95,-69.824,-520.02,-42.48,-85.938,1999.848,364.43480634660267
878,1686275293.96,-114.258,-44.434,125.0,-119.141,1999.852,361.21312806761154
879,1686275293.96,-82.52,-52.246,71.289,-82.52,1999.856,365.2424484440902
880,1686275293.96,-16.602,-323.242,-41.992,-42.48,1999.86,363.81775467492434
881,1686275293.97,-34.18,-442.871,-33.203,-72.754,1999.864,367.20529085878655
882,1686275293.97,-93.75,-457.031,19.043,-112.793,1999.868,356.49886166251724
883,1686275293.98,-95.703,-489.258,-10.742,-77.637,1999.872,370.23389631015283
884,1686275293.98,-43.945,-898.438,-289.062,-21.484,1999.876,355.5377789141746
885,1686275293.98,-31.25,-703.125,-145.996,-47.363,1999.879,361.54897660781336
886,1686275293.99,-79.102,-60.059,94.727,-115.234,1999.883,365.22320937732735
887,1686275293.99,-99.121,-130.859,34.668,-103.516,1999.887,362.9622965391756
888,1686275294.02,-51.758,-205.566,87.402,-41.504,1999.92,362.38338612445284
889,1686275294.03,-18.066,25.879,112.305,-40.039,1999.923,356.0668646576489
890,1686275294.03,-58.105,35.645,82.52,-89.355,1999.927,366.002219911832
891,1686275294.04,-95.215,-274.902,-14.16,-103.516,1999.931,353.8027882490316
892,1686275294.04,-107.91,-799.805,-179.688,-80.566,1999.934,362.5488477317263
893,1686275294.04,-60.059,-314.453,39.551,-55.664,1999.935,362.07995156902365
894,1686275294.04,-36.133,-115.723,129.395,-28.809,1999.938,361.74227977541585
895,1686275294.04,-13.672,-372.07,20.996,-25.391,1999.939,365.28935071942203
896,1686275294.05,-24.414,24.414,81.055,-54.688,1999.942,358.13114793900365
897,1686275294.05,-38.086,-380.859,-1.465,-79.102,1999.943,364.42350085980513
898,1686275294.05,-83.496,-615.723,-224.121,-112.793,1999.946,357.7987451821093
899,1686275294.05,-102.539,-460.449,-101.074,-120.117,1999.947,364.92528051260274
900,1686275294.05,-94.727,-753.418,-146.973,-77.637,1999.951,354.4821491854292
901,1686275294.05,-98.145,-476.074,-49.805,-111.816,1999.95,361.2185407060708
902,1686275294.06,-26.855,-432.129,20.996,-42.48,1999.955,358.7771327815095
903,1686275294.06,-40.039,-174.805,87.891,-51.27,1999.954,358.2051675698305
904,1686275294.06,-38.086,-144.531,78.125,-83.496,1999.959,364.6373328453426
905,1686275294.06,-6.836,-481.445,-57.617,-34.668,1999.958,358.75224691299064
906,1686275294.06,-53.711,-646.973,-104.98,-77.148,1999.962,367.2897390180651
907,1686275294.07,-109.375,-660.645,-188.965,-122.559,1999.962,369.0262349945466
908,1686275294.07,-100.586,-391.113,-14.16,-99.609,1999.966,359.725490439402
909,1686275294.07,-57.129,1.465,138.672,-64.941,1999.969,365.60977941459356
910,1686275294.08,-2.441,-82.52,69.824,-20.508,1999.973,352.46140072741343
911,1686275294.08,-53.711,-749.023,-174.316,-54.199,1999.977,361.76719749818216
912,1686275294.09,-113.281,-481.445,-3.906,-115.234,1999.985,359.7131107094193
913,1686275294.09,-90.332,64.941,155.273,-81.055,1999.989,360.61819749615154
914,1686275294.09,-31.738,-195.312,-9.766,-18.555,1999.993,357.62640467282284
915,1686275294.1,-38.086,-846.191,-296.875,-41.992,1999.997,361.2381894004415
916,1686275294.1,-95.703,-554.199,-59.57,-113.281,2000.001,370.72232310231186
917,1686275294.11,-104.492,-261.23,81.055,-103.027,2000.005,363.97545607036943
918,1686275294.11,-43.457,-563.477,-84.961,-38.574,2000.009,360.5390060619779
919,1686275294.11,-28.32,-687.988,-108.398,-27.832,2000.013,357.60677727184475
920,1686275294.12,-80.566,-202.148,63.965,-82.52,2000.017,364.2915931794705
921,1686275294.12,-100.098,52.246,106.934,-87.891,2000.02,358.6663915466319
922,1686275294.12,-58.594,-286.621,-49.316,-33.691,2000.024,364.72147784469666
923,1686275294.13,-26.855,-465.332,-46.875,-24.414,2000.028,357.53862892158475
924,1686275294.13,-51.758,-70.312,118.652,-77.148,2000.038,363.9571658860657
925,1686275294.13,-108.887,-38.086,62.5,-108.398,2000.042,368.64381192362316
926,1686275294.14,-88.867,-614.258,-183.105,-54.688,2000.046,360.7526492347636
927,1686275294.14,-15.625,-298.828,11.23,-17.09,2000.05,371.52119764352324
928,1686275294.14,-36.133,63.477,137.695,-66.406,2000.054,361.9426416112887
929,1686275294.15,-96.68,-376.465,-21.973,-111.328,2000.058,359.47508016124596
930,1686275294.15,-90.332,-908.203,-319.336,-56.641,2000.061,355.8205087338181
931,1686275294.16,-38.574,-1000.0,-391.113,-5.859,2000.065,352.77923466903644
932,1686275294.16,-28.809,-278.32,34.18,-60.547,2000.069,356.9615155079472
933,1686275294.16,-83.496,-45.41,73.242,-120.117,2000.073,361.2771983272945
934,1686275294.17,-105.957,-288.086,-41.504,-100.098,2000.077,361.36968206411933
935,1686275294.17,-43.945,-44.922,83.008,-45.898,2000.081,359.3864275077558
936,1686275294.19,-16.602,117.676,113.281,-47.363,2000.084,370.94329005984235
937,1686275294.19,-80.566,-149.902,-5.859,-94.238,2000.088,348.74666390862734
938,1686275294.2,-128.418,-314.453,47.852,-102.539,2000.092,364.7095775381463
939,1686275294.2,-86.914,-56.641,121.582,-48.828,2000.096,367.2248815332749
940,1686275294.2,-32.715,-33.691,90.332,-32.715,2000.1,363.7013713137845
941,1686275294.21,-59.57,-514.16,-100.586,-81.543,2000.103,354.8667926017254
942,1686275294.21,-119.141,-866.211,-232.422,-105.469,2000.107,359.3461940508887
943,1686275294.22,-91.797,-348.633,44.434,-65.43,2000.111,355.96225220482506
944,1686275294.22,-16.602,7.324,128.906,-11.719,2000.115,364.9493188584767
945,1686275294.22,-35.645,-394.531,-63.477,-44.922,2000.119,359.3167654565453
946,1686275294.23,-100.098,-576.66,-51.27,-102.051,2000.123,360.99259557766527
947,1686275294.23,-92.285,-446.777,3.418,-83.496,2000.127,349.4663099232579
948,1686275294.25,-15.137,-163.086,62.988,-34.668,2000.144,362.0081980907032
949,1686275294.25,-5.371,-491.699,-140.625,-37.109,2000.148,358.4243946587127
950,1686275294.26,-74.707,-603.027,-109.375,-96.68,2000.152,351.17686747540944
951,1686275294.26,-86.914,-58.105,110.352,-95.703,2000.156,348.60509590378484
952,1686275294.26,-30.762,-61.035,59.57,-26.855,2000.16,360.9509799815189
953,1686275294.27,-3.906,-613.281,-130.371,-16.113,2000.164,350.6240202091832
954,1686275294.27,-49.316,-562.988,-78.613,-77.637,2000.168,360.33957573450385
955,1686275294.28,-85.938,-295.898,9.766,-87.891,2000.172,358.6830362611247
956,1686275294.28,-51.758,-240.234,-2.93,-45.41,2000.174,366.27816108571636
957,1686275294.28,-37.109,-452.148,-45.898,-23.438,2000.175,361.8574209082671
958,1686275294.28,-2.441,-552.246,-34.18,1.953,2000.178,352.0226073880628
959,1686275294.28,9.277,-860.352,-293.945,6.348,2000.179,358.98245312571544
960,1686275294.29,-6.348,-316.895,19.043,-42.969,2000.182,344.67799215768804
961,1686275294.29,-23.926,-634.766,-139.648,-55.176,2000.183,362.0238695379289
962,1686275294.29,-57.617,-106.934,68.848,-99.609,2000.186,366.4596312678749
963,1686275294.29,-63.965,-72.266,88.867,-92.773,2000.187,352.0180848375909
964,1686275294.29,-58.594,-304.688,-16.602,-68.848,2000.189,358.9567789916109
965,1686275294.3,-3.418,-593.262,-51.758,-15.137,2000.193,360.72543061540046
966,1686275294.3,10.742,-434.082,34.668,-29.785,2000.197,363.3054768185529
967,1686275294.3,-40.039,-102.539,66.406,-77.148,2000.201,358.3337333624302
968,1686275294.31,-69.336,-334.473,-13.184,-65.918,2000.205,355.4099873555543
969,1686275294.31,-23.926,-429.688,36.621,-15.137,2000.209,357.1790626631567
970,1686275294.32,18.555,-290.527,37.598,-8.789,2000.213,361.0944315666764
971,1686275294.32,-15.625,-408.203,13.184,-61.035,2000.217,352.0919338204232
972,1686275294.32,-49.316,-708.496,-161.133,-72.754,2000.219,358.52426160616153
973,1686275294.33,-28.32,-1000.0,-372.559,-9.277,2000.223,352.26087735391377
974,1686275294.33,16.113,-502.441,11.23,-0.977,2000.227,358.24761590575497
975,1686275294.34,2.441,-68.359,118.164,-66.895,2000.231,353.0626991024287
976,1686275294.34,-44.434,-400.391,-66.406,-96.191,2000.235,359.33018901435776
977,1686275294.34,-41.992,-528.809,-30.762,-57.617,2000.239,350.4854773484275
978,1686275294.35,6.836,-251.465,80.566,-14.648,2000.242,363.7779674717714
979,1686275294.35,19.531,-152.344,54.199,-40.527,2000.246,358.7301048045816
980,1686275294.35,-43.457,-771.484,-243.164,-77.637,2000.25,359.6195011110103
981,1686275294.36,-53.223,-501.465,-18.555,-48.34,2000.254,365.06570874399534
982,1686275294.36,6.348,104.98,195.801,2.441,2000.258,356.1852563229363
983,1686275294.37,24.902,-27.344,61.523,-8.301,2000.262,349.47169615955727
984,1686275294.37,-26.855,-431.641,-38.574,-63.477,2000.264,356.3722595004358
985,1686275294.37,-71.777,-349.121,68.848,-63.477,2000.268,360.9609233445905
986,1686275294.38,-22.949,62.5,163.086,-13.672,2000.272,363.06481207946746
987,1686275294.38,23.926,-152.832,13.672,-2.441,2000.276,358.347179849965
988,1686275294.38,-11.719,-616.211,-75.684,-48.34,2000.28,363.667776579428
989,1686275294.39,-49.316,-469.727,7.812,-63.477,2000.283,352.05338802071697
990,1686275294.39,-19.531,-299.316,55.664,-18.066,2000.287,356.1276929372119
991,1686275294.4,31.25,-463.867,-23.926,9.766,2000.291,349.82282801438254
992,1686275294.4,1.465,-681.641,-97.168,-38.574,2000.295,354.1920645360557
993,1686275294.4,-52.734,-212.891,71.777,-88.867,2000.299,365.7312842690641
994,1686275294.41,-41.504,-35.645,95.703,-56.641,2000.303,353.6947992005793
995,1686275294.41,16.113,-523.926,-64.941,6.348,2000.307,358.79437994989644
996,1686275294.41,17.578,-462.891,33.691,-8.789,2000.309,353.01436485149884
997,1686275294.42,-43.945,-35.156,136.719,-68.848,2000.313,356.37145427254205
998,1686275294.42,-62.5,-127.441,37.109,-52.734,2000.317,367.73651932081515
999,1686275294.42,-14.16,-671.875,-168.457,9.766,2000.321,351.66481550769953
1000,1686275294.43,14.648,-474.121,4.395,6.836,2000.325,358.45361399220707
1001,1686275294.43,-25.879,-261.23,67.871,-59.082,2000.328,359.2099362569569
1002,1686275294.44,-65.43,-536.133,-69.336,-66.406,2000.332,358.6642404584905
1003,1686275294.44,-29.785,-834.473,-222.656,9.766,2000.336,354.1850868027546
1004,1686275294.44,25.391,-412.109,15.137,23.438,2000.34,352.33858017594383
1005,1686275294.45,-5.859,101.074,166.992,-42.48,2000.344,355.1662764004084
1006,1686275294.45,-72.754,-150.391,24.902,-77.148,2000.348,356.7397614305809
1007,1686275294.46,-49.805,-315.918,72.266,-30.273,2000.352,349.62895658055885
1008,1686275294.46,20.508,-79.59,136.719,15.137,2000.354,358.8228704864603
1009,1686275294.46,-3.906,22.461,105.957,-25.879,2000.358,364.2702619463129
1010,1686275294.47,-64.453,-212.891,32.227,-75.195,2000.362,344.2458501052431
1011,1686275294.47,-50.781,-297.363,75.195,-36.133,2000.366,357.32595598730666
1012,1686275294.47,5.371,-129.883,98.633,25.879,2000.369,352.19029060024513
1013,1686275294.48,2.93,-317.871,35.645,-5.859,2000.373,351.13101553448183
1014,1686275294.48,-59.082,-645.996,-90.332,-57.617,2000.377,351.6053813083641
1015,1686275294.48,-94.727,-937.988,-312.988,-37.598,2000.381,352.16285602466604
1016,1686275294.49,-29.297,-519.531,-47.363,7.812,2000.385,347.09157063822863
1017,1686275294.49,17.578,-27.832,159.668,3.906,2000.389,353.30777383295174
1018,1686275294.5,-40.039,-380.859,-62.5,-47.852,2000.393,357.51818538783783
1019,1686275294.5,-75.684,-616.211,-70.312,-64.941,2000.397,361.0070805988497
1020,1686275294.5,-27.832,-169.922,133.789,-20.996,2000.412,363.8341662319087
1021,1686275294.51,25.391,72.754,142.09,5.371,2000.416,349.3191529955922
1022,1686275294.51,-9.277,-581.055,-188.965,-25.391,2000.42,353.65493126620737
1023,1686275294.52,-63.965,-577.637,-49.316,-62.988,2000.424,347.2987374477265
1024,1686275294.52,-32.227,-38.574,172.363,-24.414,2000.427,355.4997167183733
1025,1686275294.52,30.762,-350.098,-27.344,29.785,2000.431,353.50312075201697
1026,1686275294.53,2.441,-852.539,-258.301,-8.789,2000.435,347.2386018608251
1027,1686275294.53,-62.5,-574.707,-49.316,-76.172,2000.439,362.2600517495407
1028,1686275294.53,-72.266,-308.105,65.918,-60.059,2000.443,347.97198916767167
1029,1686275294.54,-20.508,-471.191,-42.969,-5.859,2000.447,360.8969854630423
1030,1686275294.54,-0.977,-550.781,-25.879,-8.301,2000.451,356.7234041088283
1031,1686275294.55,-57.129,-208.496,73.73,-64.941,2000.455,347.8067796274087
1032,1686275294.55,-79.59,-35.645,100.098,-64.453,2000.458,355.89164430809893
1033,1686275294.55,-27.832,-201.172,69.824,-1.953,2000.462,348.7973322061916
1034,1686275294.56,6.348,-302.734,73.73,6.836,2000.466,351.49503947486704
1035,1686275294.56,-39.062,-134.766,78.125,-57.617,2000.47,343.82052269183384
1036,1686275294.56,-89.355,-56.152,113.281,-87.891,2000.474,354.08724370947994
1037,1686275294.57,-62.5,-508.301,-38.086,-31.25,2000.478,364.94404207509996
1038,1686275294.57,-10.254,-746.094,-108.887,9.277,2000.482,354.2524200946009
1039,1686275294.58,-25.391,-175.293,111.816,-41.992,2000.486,355.4814977142518
1040,1686275294.58,-68.359,-8.301,104.004,-84.473,2000.49,361.28085807780263
1041,1686275294.58,-57.617,-379.883,-41.016,-45.898,2000.494,356.4570567260608
1042,1686275294.59,-3.418,-404.297,15.137,6.836,2000.497,354.804173966321
1043,1686275294.59,-2.93,-389.648,7.324,-20.508,2000.501,350.08528763588885
1044,1686275294.61,-55.664,-513.672,-25.879,-76.172,2000.504,360.2218349375211
1045,1686275294.61,-73.73,-798.34,-200.684,-41.992,2000.508,354.4626273353458
1046,1686275294.62,-28.809,-774.414,-148.926,18.555,2000.512,353.7997366107947
1047,1686275294.62,12.695,-173.828,125.0,2.93,2000.516,350.57661894307927
1048,1686275294.62,-33.691,-142.09,48.828,-53.711,2000.52,351.8478045108278
1049,1686275294.63,-80.078,-721.191,-161.621,-59.082,2000.523,353.6675914226414
1050,1686275294.63,-34.18,-579.59,-25.391,-10.254,2000.527,352.81104892452595
1051,1686275294.64,11.23,4.883,171.387,-1.953,2000.531,357.10538271116064
1052,1686275294.64,-34.668,-169.922,47.852,-51.758,2000.535,357.6048092956057
1053,1686275294.64,-98.145,-800.781,-245.117,-71.289,2000.539,349.8645223683226
1054,1686275294.65,-57.617,-441.406,-5.371,-26.855,2000.543,360.9543284058111
1055,1686275294.65,15.625,88.379,184.57,8.789,2000.547,352.1865542427378
1056,1686275294.65,-8.789,-160.645,49.316,-24.902,2000.55,350.4737314281825
1057,1686275294.66,-75.684,-545.41,-10.742,-61.035,2000.554,357.4788595623485
1058,1686275294.66,-75.684,-370.605,69.336,-33.203,2000.558,347.54287704076467
1059,1686275294.66,2.93,41.504,173.828,20.508,2000.562,355.4697132523351
1060,1686275294.67,17.578,-203.125,-9.277,-4.395,2000.566,344.39490628424403
1061,1686275294.67,-53.223,-839.844,-165.039,-71.289,2000.569,355.2411563439123
1062,1686275294.68,-74.219,-603.027,0.488,-70.801,2000.573,350.29528751334897
1063,1686275294.68,-12.207,19.043,154.785,1.953,2000.577,354.73596866760556
1064,1686275294.68,24.902,-323.73,-20.996,20.508,2000.581,359.1330440279852
1065,1686275294.69,-32.715,-729.492,-111.816,-35.156,2000.585,349.71612397719474
1066,1686275294.69,-66.406,-343.262,39.551,-50.293,2000.589,342.3049234950676
1067,1686275294.7,-18.066,-346.68,-2.93,-4.883,2000.593,350.31849120455877
1068,1686275294.7,22.461,-651.855,-83.496,10.254,2000.594,353.78350468472644
1069,1686275294.7,-17.578,-528.32,-1.465,-42.969,2000.598,357.7729851941749
1070,1686275294.71,-69.336,-233.887,59.082,-81.055,2000.602,349.66304033161396
1071,1686275294.71,-38.574,-236.816,34.668,-30.273,2000.606,356.98068659351793
1072,1686275294.71,21.973,-469.238,-67.871,29.785,2000.61,352.16665891401345
1073,1686275294.72,-1.465,-515.137,-31.738,-20.996,2000.614,353.33686515111907
1074,1686275294.72,-67.383,-366.699,49.805,-82.52,2000.618,357.08468553425234
1075,1686275294.72,-63.477,-222.656,77.637,-39.062,2000.622,353.21254719014865
1076,1686275294.73,-6.348,-780.273,-210.938,24.414,2000.625,346.86467148262113
1077,1686275294.73,6.348,-595.215,-30.273,-10.742,2000.629,343.79958075883974
1078,1686275294.74,-36.133,0.488,160.645,-72.754,2000.633,356.22061862982264
1079,1686275294.74,-62.988,-148.926,79.59,-64.941,2000.637,346.5222811657259
1080,1686275294.74,-20.508,-250.488,128.906,-14.648,2000.639,353.418393909208
1081,1686275294.75,10.742,-103.516,98.145,-8.789,2000.643,339.23159370454033
1082,1686275294.75,-39.551,-62.988,82.031,-61.523,2000.647,353.82385866520167
1083,1686275294.76,-72.266,-247.559,24.902,-72.754,2000.651,362.0012819071219
1084,1686275294.76,-27.832,-281.25,73.73,-19.043,2000.655,358.32706561617573
1085,1686275294.76,11.23,-388.184,18.066,16.113,2000.659,355.3141113554381
1086,1686275294.77,-6.836,-450.684,37.598,-29.785,2000.663,358.5317611469367
1087,1686275294.77,-58.594,-562.5,-72.266,-76.172,2000.666,346.99739802497794
1088,1686275294.77,-63.965,-957.52,-306.641,-23.438,2000.67,342.93036252689114
1089,1686275294.78,3.418,-353.516,55.664,13.184,2000.674,348.7745901275336
1090,1686275294.78,8.301,30.762,152.344,-27.832,2000.678,348.1046424342025
1091,1686275294.79,-63.965,-591.797,-116.211,-70.312,2000.682,343.4766587745784
1092,1686275294.79,-67.383,-471.191,20.02,-49.805,2000.684,348.6404756697
1093,1686275294.79,8.301,72.754,188.477,-1.953,2000.687,341.56867190155884
1094,1686275294.8,21.484,62.988,101.074,-16.113,2000.691,337.45283568460513
1095,1686275294.8,-36.133,-593.75,-198.242,-60.547,2000.695,350.74400632829213
1096,1686275294.8,-62.988,-521.973,-29.297,-66.895,2000.699,346.2555722734438
1097,1686275294.81,-15.625,-192.383,110.84,-21.973,2000.703,344.08785705036274
1098,1686275294.81,22.461,-426.27,-16.602,-2.441,2000.707,352.16089115475415
1099,1686275294.82,-27.832,-785.645,-208.496,-45.898,2000.711,348.67871273197795
1100,1686275294.82,-70.801,-559.082,-60.547,-75.684,2000.715,357.3566761898601
1101,1686275294.82,-41.992,-186.523,119.141,-35.156,2000.719,351.50203931879986
1102,1686275294.83,0.0,-187.012,99.121,-2.441,2000.723,346.4714911244558
1103,1686275294.83,-20.02,-508.301,6.836,-39.062,2000.726,347.96441577493977
1104,1686275294.83,-73.242,-213.379,102.051,-79.59,2000.729,357.04810184290864
1105,1686275294.84,-61.035,71.777,130.371,-52.734,2000.733,349.30419614619655
1106,1686275294.84,2.441,-121.094,67.383,-9.277,2000.737,356.6917271983923
1107,1686275294.84,4.395,-152.344,123.047,-32.715,2000.741,346.51811554449426
1108,1686275294.85,-49.316,-61.035,102.051,-86.914,2000.744,358.13024044322407
1109,1686275294.85,-61.523,-253.418,40.527,-72.754,2000.748,351.17342061305703
1110,1686275294.86,-13.184,-570.312,-43.457,-5.859,2000.752,350.7609502971237
1111,1686275294.86,2.441,-677.246,-74.707,-8.789,2000.756,346.58436959252276
1112,1686275294.86,-39.551,-123.047,126.465,-79.59,2000.76,348.3436480048723
1113,1686275294.87,-70.801,83.984,141.113,-96.68,2000.764,352.4111934754937
1114,1686275294.87,-32.715,-273.438,35.645,-35.645,2000.768,357.34617329890693
1115,1686275294.88,3.418,-452.148,53.711,-21.484,2000.772,338.8377188556784
1116,1686275294.88,-39.551,-355.957,60.547,-65.918,2000.778,347.0587169329201
1117,1686275294.88,-85.449,-51.758,120.605,-89.844,2000.782,361.6973402935763
1118,1686275294.89,-66.895,-500.488,-81.543,-47.363,2000.786,348.4510711414708
1119,1686275294.89,-23.926,-719.727,-65.918,-13.672,2000.789,351.695329411029
1120,1686275294.9,-45.41,-24.902,208.984,-69.336,2000.793,356.4570558285312
1121,1686275294.9,-99.121,-213.379,63.477,-105.469,2000.797,346.9692297424337
1122,1686275294.9,-93.262,-828.613,-179.199,-62.5,2000.801,347.2447981804118
1123,1686275294.91,-27.344,-364.258,67.871,-17.09,2000.805,341.01747850006797
1124,1686275294.91,-10.742,92.773,181.641,-40.039,2000.809,347.8000418361507
1125,1686275294.91,-65.43,-126.465,111.816,-97.168,2000.813,345.3313536646366
1126,1686275294.92,-79.59,-207.52,148.438,-90.82,2000.817,354.3493339723107
1127,1686275294.92,-32.715,75.195,189.453,-37.598,2000.821,359.5727026257632
1128,1686275294.94,-2.93,268.066,198.73,-46.387,2000.835,345.17283910897805
1129,1686275294.94,-54.688,-50.781,83.496,-103.027,2000.839,345.1280442221888
1130,1686275294.95,-103.516,-437.988,53.223,-104.98,2000.843,353.0717461146195
1131,1686275294.95,-55.664,-90.82,152.344,-49.316,2000.847,346.82096650857665
1132,1686275294.95,-4.395,210.449,201.172,-30.273,2000.851,351.88882834794185
1133,1686275294.96,-39.062,-313.477,0.977,-69.824,2000.855,351.24770569361175
1134,1686275294.96,-105.957,-931.152,-299.316,-84.961,2000.859,362.2959860764316
1135,1686275294.96,-79.59,-314.941,51.27,-52.246,2000.862,342.3032009805607
1136,1686275294.97,-3.906,198.242,219.238,-14.648,2000.866,349.91317252273325
1137,1686275294.97,-16.602,-110.84,52.734,-48.34,2000.87,350.82895686684753
1138,1686275294.98,-71.777,-221.191,81.543,-90.82,2000.874,350.05340626288915
1139,1686275294.98,-72.754,-282.715,73.242,-59.082,2000.878,344.4533413746235
1140,1686275294.98,-21.484,-20.508,150.391,-18.066,2000.88,351.4070323343863
1141,1686275294.99,-11.719,-319.336,-1.465,-28.809,2000.884,354.6608969026584
1142,1686275294.99,-73.73,-470.215,41.016,-85.938,2000.887,338.7790216514078
1143,1686275295.0,-102.051,72.754,191.895,-97.168,2000.891,342.6607872924579
1144,1686275295.0,-48.34,42.969,104.492,-41.992,2000.895,355.32916691785414
1145,1686275295.0,-19.043,-428.223,-69.824,-26.367,2000.899,366.93710260493134
1146,1686275295.01,-69.824,-569.336,-43.945,-71.777,2000.903,352.6610848315701
1147,1686275295.01,-112.305,-220.703,136.23,-90.82,2000.907,348.31020531902095
1148,1686275295.02,-71.289,-43.945,140.625,-42.969,2000.911,354.9983116930863
1149,1686275295.02,-19.043,-754.395,-187.012,-1.953,2000.915,352.5510676657822
1150,1686275295.02,-40.527,-516.113,19.531,-61.035,2000.919,354.08214126014775
1151,1686275295.03,-87.891,90.82,182.617,-114.258,2000.923,340.79860538012167
1152,1686275295.03,-70.312,-70.312,83.984,-59.57,2000.924,345.1841455278515
1153,1686275295.03,-13.184,-144.043,141.113,-14.16,2000.928,352.14936588616047
1154,1686275295.04,-21.484,-13.184,136.719,-52.246,2000.932,344.73635099425206
1155,1686275295.04,-79.102,41.504,112.305,-99.121,2000.936,342.13529974454053
1156,1686275295.04,-88.379,-163.086,25.391,-76.66,2000.94,345.99332840997977
1157,1686275295.05,-43.945,-455.078,17.09,-21.484,2000.944,352.15140388248835
1158,1686275295.05,-26.855,-359.863,38.574,-39.062,2000.948,343.74404477158964
1159,1686275295.06,-82.031,-196.777,65.918,-96.191,2000.951,352.20661935397516
1160,1686275295.06,-114.746,-513.672,-39.551,-85.938,2000.955,345.4106532607828
1161,1686275295.06,-61.523,-907.227,-294.434,-17.09,2000.959,357.00394374380244
1162,1686275295.07,-20.996,-405.273,-15.137,-10.742,2000.963,358.98353396408385
1163,1686275295.07,-58.594,-249.023,63.965,-64.941,2000.967,347.7349864495218
1164,1686275295.09,-101.562,-587.891,-109.375,-82.031,2000.984,348.57739937988697
1165,1686275295.09,-69.336,-264.16,69.824,-37.109,2000.988,345.18682656410596
1166,1686275295.1,-8.301,148.926,195.312,2.441,2000.992,346.53410074083985
1167,1686275295.1,-23.438,46.387,112.793,-30.762,2000.996,349.2374330977728
1168,1686275295.1,-82.52,-591.797,-154.297,-62.5,2001.0,355.90185572426174
1169,1686275295.11,-69.824,-717.773,-94.727,-32.227,2001.004,351.94942076479873
1170,1686275295.11,-6.836,-215.332,97.656,-3.906,2001.008,344.43497540055284
1171,1686275295.12,-2.441,-47.363,94.727,-32.715,2001.011,350.19174012248385
1172,1686275295.12,-52.734,-529.785,-23.926,-75.684,2001.015,348.67765456058316
1173,1686275295.12,-66.406,-701.172,-204.59,-73.242,2001.015,351.42306608907853
1174,1686275295.12,-80.566,-194.824,78.125,-87.402,2001.019,344.99958830288216
1175,1686275295.12,-80.566,-568.848,-73.242,-69.824,2001.019,335.65975952509143
1176,1686275295.13,-40.527,-120.117,27.832,-30.273,2001.023,337.68653963856957
1177,1686275295.13,-15.137,-89.355,127.93,-10.742,2001.023,348.9383668223127
1178,1686275295.13,-7.812,-340.82,-7.324,-7.324,2001.027,347.4376878570112
1179,1686275295.13,6.836,-202.148,31.25,-8.789,2001.027,349.83666687505763
1180,1686275295.13,-35.645,-225.098,65.918,-61.035,2001.031,350.0312000055724
1181,1686275295.14,-84.473,-328.125,3.906,-89.355,2001.035,340.97511562706427
1182,1686275295.14,-70.312,-456.543,-25.879,-45.41,2001.039,342.49179912227504
1183,1686275295.14,-14.16,-498.047,-9.277,-3.906,2001.043,345.8349401155394
1184,1686275295.15,-18.066,-358.887,71.289,-39.551,2001.046,343.53861298804463
1185,1686275295.15,-78.613,-41.016,95.703,-95.215,2001.05,344.8015113491327
1186,1686275295.16,-81.055,-41.992,100.098,-72.266,2001.054,345.8398770319759
1187,1686275295.16,-29.297,-529.785,-99.609,-10.742,2001.058,346.05740567171716
1188,1686275295.18,-31.25,-1000.0,-367.676,-23.926,2001.074,349.0419008531196
1189,1686275295.18,-68.848,-467.773,-8.301,-102.051,2001.078,352.5893383053939
1190,1686275295.19,-80.078,-78.613,117.676,-97.168,2001.082,346.11601370672327
1191,1686275295.19,-39.551,-511.23,-157.715,-20.996,2001.086,341.5359010433882
1192,1686275295.19,-11.719,-298.34,11.23,-18.555,2001.09,346.88615655294996
1193,1686275295.2,-50.781,-208.496,79.102,-69.824,2001.094,351.0496602973564
1194,1686275295.2,-92.285,-462.402,-53.223,-84.473,2001.098,347.2245709782434
1195,1686275295.2,-65.918,-832.52,-220.215,-32.227,2001.102,345.1344130591756
1196,1686275295.21,-13.184,-536.621,7.324,-17.09,2001.105,349.782326351837
1197,1686275295.21,-20.996,56.152,152.344,-20.02,2001.119,349.600817760362
1198,1686275295.21,-27.832,89.844,154.297,-68.359,2001.109,346.02725803266645
1199,1686275295.21,-30.762,206.055,160.645,-55.664,2001.123,351.43469806180923
1200,1686275295.22,-81.543,-62.5,45.41,-90.82,2001.113,347.0414364951251
1201,1686275295.22,-91.309,-141.602,-1.953,-93.75,2001.127,343.5361977077604
1202,1686275295.22,-76.66,-219.727,76.66,-53.223,2001.117,345.3854569846342
1203,1686275295.22,-95.703,-453.125,-16.113,-62.5,2001.131,349.1209657544615
1204,1686275295.22,-22.949,-136.719,114.746,-10.254,2001.135,346.2291586203932
1205,1686275295.23,0.488,-135.742,66.406,-17.578,2001.139,348.58244965192125
1206,1686275295.23,-63.477,-540.527,-70.801,-64.941,2001.143,353.86672942390294
1207,1686275295.24,-99.121,-627.441,-75.684,-63.477,2001.146,346.178627158023
1208,1686275295.24,-39.551,-126.465,107.91,-16.113,2001.15,344.39918354731344
1209,1686275295.24,-3.906,159.18,179.688,-9.277,2001.154,345.9751439658308
1210,1686275295.25,-60.547,-368.164,-79.102,-48.828,2001.158,340.0046302684285
1211,1686275295.25,-109.375,-890.137,-266.113,-58.594,2001.162,355.157425485799
1212,1686275295.25,-63.965,-276.855,49.316,-26.367,2001.162,351.81581922290667
1213,1686275295.26,-4.883,105.957,137.207,-4.395,2001.166,356.46749551555394
1214,1686275295.26,-27.344,-458.496,-143.555,-36.133,2001.17,344.03464738044437
1215,1686275295.26,-81.543,-330.078,11.23,-85.938,2001.174,348.2007101542175
1216,1686275295.27,-73.73,61.523,170.41,-64.941,2001.178,351.6571458702188
1217,1686275295.27,-16.113,-306.641,-20.996,-8.789,2001.182,341.38635232329625
1218,1686275295.28,-16.113,-838.379,-250.0,-31.738,2001.186,337.35274913566246
1219,1686275295.28,-71.289,-612.305,-62.988,-94.727,2001.19,351.1318362653372
1220,1686275295.28,-76.66,33.203,164.551,-81.543,2001.194,335.75928380171246
1221,1686275295.29,-11.23,-7.812,58.594,-22.461,2001.198,355.98762226930984
1222,1686275295.29,-3.906,-776.855,-251.953,-20.02,2001.202,353.2722006875037
1223,1686275295.3,-60.059,-540.527,-35.156,-87.402,2001.205,342.5279854385775
1224,1686275295.3,-75.195,58.105,148.926,-104.492,2001.208,343.08296737931624
1225,1686275295.3,-28.809,-58.105,45.898,-45.898,2001.212,345.0143341227983
1226,1686275295.31,9.277,-198.73,101.562,-27.832,2001.216,345.06346496857356
1227,1686275295.31,-39.062,-46.875,114.258,-75.195,2001.22,355.1977480751648
1228,1686275295.31,-98.633,65.43,114.746,-104.98,2001.224,351.80485792076973
1229,1686275295.32,-67.871,-387.695,-39.062,-47.852,2001.228,349.0796328640219
1230,1686275295.32,-5.371,-638.184,-86.426,-3.906,2001.232,351.1142916143481
1231,1686275295.32,-17.09,-144.043,57.617,-64.941,2001.235,342.98447431215067
1232,1686275295.33,-70.801,-223.633,-22.949,-102.051,2001.239,347.24640488283717
1233,1686275295.33,-69.824,-608.398,-113.77,-52.734,2001.243,352.91781992820813
1234,1686275295.34,-14.16,-582.52,-68.848,3.418,2001.247,350.9209344314703
1235,1686275295.34,-10.254,-341.309,14.16,-22.461,2001.251,346.09041691441456
1236,1686275295.36,-56.152,-202.148,22.949,-83.496,2001.254,348.725639436763
1237,1686275295.36,-70.312,-552.246,-133.789,-61.035,2001.258,350.85919103724945
1238,1686275295.37,-20.508,-492.188,-7.324,-15.137,2001.262,343.50706857072765
1239,1686275295.37,4.395,62.012,163.574,-36.133,2001.266,350.5818043034108
1240,1686275295.37,-56.152,-44.434,59.57,-85.449,2001.27,347.8779001680231
1241,1686275295.38,-92.285,-659.668,-166.504,-75.684,2001.274,348.1081339798182
1242,1686275295.38,-38.086,-583.008,-76.172,-20.508,2001.278,341.79508822458075
1243,1686275295.38,15.137,24.902,149.902,-15.625,2001.281,347.684954543918
1244,1686275295.39,-19.043,-69.824,51.758,-62.5,2001.285,344.16950649126846
1245,1686275295.39,-79.59,-755.371,-271.484,-79.102,2001.289,354.1130108581189
1246,1686275295.4,-62.988,-510.742,-79.102,-50.293,2001.293,355.9187756031922
1247,1686275295.4,2.441,-144.531,79.59,-12.695,2001.297,344.34259709680435
1248,1686275295.4,1.953,-271.484,-7.324,-37.109,2001.299,344.63926721032135
1249,1686275295.41,-60.547,-539.062,-41.992,-84.473,2001.303,342.23936479563963
1250,1686275295.41,-70.801,-238.281,71.289,-63.965,2001.307,353.91012903989315
1251,1686275295.42,-5.859,49.805,123.535,-8.789,2001.311,340.657601905602
1252,1686275295.42,4.883,-162.598,-3.418,-22.949,2001.314,353.47991077250947
1253,1686275295.42,-60.547,-551.758,-108.887,-72.754,2001.318,350.0585151132516
1254,1686275295.43,-84.961,-437.988,16.113,-66.895,2001.322,345.82955757055066
1255,1686275295.43,-24.414,-7.812,123.047,-20.996,2001.326,346.00112916377446
1256,1686275295.43,9.277,-380.371,-62.5,-10.742,2001.33,341.14142645139907
1257,1686275295.44,-43.945,-721.68,-125.0,-58.105,2001.334,338.72671302929785
1258,1686275295.44,-86.914,-265.625,43.945,-85.938,2001.338,348.0604468479583
1259,1686275295.45,-43.945,-297.363,-0.488,-34.18,2001.342,347.66131571160184
1260,1686275295.45,1.465,-591.309,-131.348,8.789,2001.346,347.01188104983555
1261,1686275295.45,-35.156,-680.176,-135.742,-41.992,2001.35,354.4955292036315
1262,1686275295.46,-86.426,-303.223,81.543,-102.051,2001.354,349.7086311026466
1263,1686275295.46,-62.988,-56.641,94.238,-62.5,2001.358,348.66329245980126
1264,1686275295.46,-15.625,-565.43,-186.523,-1.953,2001.362,345.4262313505185
1265,1686275295.47,-26.855,-710.449,-138.184,-36.621,2001.366,344.30184924175387
1266,1686275295.47,-73.73,-406.738,22.461,-87.402,2001.37,345.0139230603536
1267,1686275295.48,-84.961,-258.301,28.809,-63.965,2001.374,340.48719698261965
1268,1686275295.48,-30.762,-747.07,-213.379,0.488,2001.378,343.9569084796763
1269,1686275295.48,-5.371,-432.129,-17.578,-25.879,2001.381,349.27214425323984
1270,1686275295.49,-53.223,106.445,126.953,-94.727,2001.385,340.6262777676915
1271,1686275295.49,-81.055,-125.977,34.668,-83.008,2001.389,346.42961302913443
1272,1686275295.49,-33.203,-205.566,104.004,-20.996,2001.389,350.8106553279409
1273,1686275295.5,-2.93,25.391,110.352,-13.184,2001.393,340.82486454954494
1274,1686275295.5,-50.293,114.746,98.145,-62.5,2001.397,348.73609422525965
1275,1686275295.5,-96.68,-178.711,4.883,-83.984,2001.401,335.3840830537007
1276,1686275295.51,-60.059,-471.191,-26.367,-36.621,2001.405,346.2703070968631
1277,1686275295.51,-14.16,-481.445,-26.855,0.488,2001.409,335.0317927034425
1278,1686275295.52,-35.645,-277.832,33.691,-48.828,2001.412,336.3949775303646
1279,1686275295.52,-82.52,-375.977,-63.965,-83.008,2001.416,354.4030174664896
1280,1686275295.52,-79.59,-919.434,-333.008,-24.414,2001.42,342.12824020935744
1281,1686275295.53,-12.207,-332.52,14.648,3.418,2001.424,351.5553074918304
1282,1686275295.53,3.418,104.492,145.02,-39.551,2001.428,345.32164300503774
1283,1686275295.54,-54.688,-529.785,-157.227,-76.172,2001.432,352.557282813477
1284,1686275295.54,-70.312,-556.152,-78.613,-55.664,2001.434,344.66550898980813
1285,1686275295.54,-5.371,28.32,142.09,-11.719,2001.438,350.1278393004616
1286,1686275295.55,18.066,-97.168,11.23,-24.902,2001.442,348.65204735534377
1287,1686275295.55,-39.062,-453.125,-97.656,-80.078,2001.446,350.9588807836888
1288,1686275295.55,-72.266,-199.219,30.762,-76.172,2001.45,346.1941941588216
1289,1686275295.56,-23.926,-234.375,33.203,-14.648,2001.454,349.2488527284591
1290,1686275295.56,19.531,-455.078,-14.648,3.418,2001.458,345.37086881420277
1291,1686275295.56,-40.039,-875.0,-297.852,-42.969,2001.462,351.24237409379793
1292,1686275295.57,-92.773,-767.578,-174.316,-90.332,2001.465,358.7417944677727
1293,1686275295.57,-45.898,14.16,170.898,-53.711,2001.469,350.71974584864086
1294,1686275295.58,6.348,8.301,63.965,-12.695,2001.473,358.7730063182519
1295,1686275295.58,-15.625,-231.445,-13.672,-51.27,2001.477,353.13332671481896
