,timestamps,TP9,AF7,AF8,TP10,Secondary Timestamp,emg_signal
0,1686362287.03,-36.133,280.762,-12.695,-64.941,1363.952,340.52559045628226
1,1686362287.03,-36.621,63.477,-40.039,-86.914,1363.956,358.6817571697418
2,1686362287.03,-43.457,-353.516,-30.762,-46.387,1363.959,360.6587539191688
3,1686362287.04,-31.738,-115.234,14.648,23.438,1363.963,357.8381783172387
4,1686362287.04,-4.883,220.215,-14.16,11.719,1363.967,345.31066858725757
5,1686362287.05,-5.859,-71.289,-67.383,-78.125,1363.971,339.85905676941644
6,1686362287.05,-11.719,-860.84,-74.707,-125.0,1363.975,344.3769361830305
7,1686362287.05,-15.625,-591.797,56.641,-103.027,1363.979,342.08889967936454
8,1686362287.06,-26.855,600.098,42.48,-92.773,1363.983,358.49670239739214
9,1686362287.06,-35.156,413.086,-29.785,-136.719,1363.987,352.91687218013146
10,1686362287.06,-41.016,115.723,9.277,-184.082,1363.991,344.9990128370353
11,1686362287.07,-31.25,299.805,-3.906,-138.184,1363.995,359.06726293485224
12,1686362287.07,-20.508,258.301,-26.367,-72.754,1363.981,347.0807171350265
13,1686362287.08,-28.809,-17.578,-20.02,-96.68,1363.985,347.38017264804563
14,1686362287.08,-58.594,-68.359,1.953,-149.414,1363.989,341.4476972536525
15,1686362287.08,-75.195,137.207,-9.277,-145.996,1363.993,333.145837325602
16,1686362287.09,-41.992,125.488,-32.227,-97.656,1363.997,341.36044683726817
17,1686362287.09,-22.949,-238.281,-33.203,-83.008,1364.0,348.6166058587028
18,1686362287.1,-47.363,-204.102,4.395,-134.766,1364.004,351.6457312365074
19,1686362287.1,-46.875,21.973,-19.043,-178.223,1364.008,343.030651356695
20,1686362287.1,-19.531,-148.926,-18.555,-167.48,1364.012,349.38540367227864
21,1686362287.11,-4.883,-95.703,4.883,-144.531,1364.016,345.5618057565465
22,1686362287.11,-0.977,161.621,0.977,-153.809,1364.02,357.210154503727
23,1686362287.12,-14.648,188.965,-13.672,-153.809,1364.024,347.6763626601757
24,1686362287.13,-18.555,32.227,-29.785,-102.539,1364.027,347.06541502662793
25,1686362287.14,11.719,-565.918,-31.25,-69.336,1364.031,354.0084424653805
26,1686362287.14,8.301,-559.082,20.508,-104.492,1364.035,348.1051361193536
27,1686362287.14,-16.602,255.859,27.832,-156.25,1364.039,343.9153126872297
28,1686362287.15,-26.855,178.711,-55.176,-132.812,1364.043,339.5502975472708
29,1686362287.15,-17.09,-584.961,-20.508,-62.988,1364.047,346.7117573793066
30,1686362287.16,-18.066,-136.719,73.242,-29.297,1364.051,335.891998567778
31,1686362287.16,-48.828,610.352,11.23,-33.691,1364.054,352.3111386671992
32,1686362287.16,-69.824,43.945,-52.246,-37.109,1364.058,345.434809757347
33,1686362287.17,-69.824,-257.812,-54.688,-24.902,1364.062,341.3980521130936
34,1686362287.17,-51.758,152.344,18.066,-22.949,1364.066,343.8992847455139
35,1686362287.17,-38.574,360.352,-2.93,-85.938,1364.07,350.7463236774487
36,1686362287.18,-46.875,-137.695,-28.809,-149.902,1364.072,347.4871753807543
37,1686362287.18,-41.016,-279.297,20.02,-97.656,1364.076,358.1668856101143
38,1686362287.18,-8.301,337.402,21.973,-20.996,1364.08,345.57214236953155
39,1686362287.19,0.0,285.156,-12.695,-18.555,1364.084,345.616697012637
40,1686362287.19,-14.16,-104.98,-33.691,-62.988,1364.088,354.19982922792286
41,1686362287.2,-14.648,-305.664,-12.207,-60.547,1364.092,345.51944095350615
42,1686362287.2,-16.602,-2.93,25.391,-31.738,1364.095,366.09005487719304
43,1686362287.2,-23.438,297.363,-22.949,-49.805,1364.099,362.49888596743546
44,1686362287.21,-36.621,-442.871,-53.223,-68.359,1364.103,341.31804943180975
45,1686362287.21,-48.34,-459.473,36.133,-37.109,1364.107,350.27508285267913
46,1686362287.22,-41.504,439.941,23.926,-10.742,1364.111,342.4937535401494
47,1686362287.22,-44.434,268.555,-34.668,-42.969,1364.115,345.8676181208628
48,1686362287.22,-62.012,-198.242,-13.184,-78.613,1364.118,340.0378678137309
49,1686362287.22,-64.453,-110.352,6.348,-55.664,1364.122,351.7779761626839
50,1686362287.23,-56.641,15.625,-0.488,10.742,1364.126,342.01615162145634
51,1686362287.23,-51.27,-50.781,-24.414,20.02,1364.13,343.7273742262223
52,1686362287.24,-41.016,-548.34,-27.832,-38.086,1364.133,335.388025462032
53,1686362287.24,-30.273,-448.73,32.227,-78.613,1364.137,344.9390154633727
54,1686362287.24,8.789,256.348,7.324,-55.176,1364.141,360.40790531342765
55,1686362287.25,42.48,62.012,-55.664,11.719,1364.145,360.8278458828709
56,1686362287.25,20.508,-235.352,-5.371,14.648,1364.149,341.7003968591618
57,1686362287.26,-36.133,206.543,57.617,-79.59,1364.153,355.1902363708034
58,1686362287.26,-44.434,405.273,-24.902,-123.535,1364.157,357.9983633254297
59,1686362287.26,-9.277,111.816,21.484,-99.609,1364.161,341.98326039284257
60,1686362287.27,-2.441,104.004,43.945,-124.512,1364.177,360.42555725670155
61,1686362287.27,-26.367,239.258,-18.555,-172.363,1364.181,351.4320228348209
62,1686362287.27,-54.688,77.637,-32.715,-176.758,1364.185,341.5351183444826
63,1686362287.28,-41.016,-256.836,12.695,-133.789,1364.189,353.14973763953236
64,1686362287.28,-19.531,-112.305,29.297,-111.816,1364.192,353.68533209541107
65,1686362287.29,-49.316,-82.52,-36.133,-132.812,1364.196,360.9290201547577
66,1686362287.29,-70.801,-140.625,-5.859,-122.559,1364.2,348.1645858537029
67,1686362287.29,-62.012,-541.016,-33.203,-72.266,1364.204,341.3525498227767
68,1686362287.3,-41.504,-500.488,11.23,-42.969,1364.208,339.25586811807227
69,1686362287.3,-37.109,461.426,33.691,-58.105,1364.212,341.6893066221544
70,1686362287.3,-46.875,260.742,-35.645,-79.59,1364.216,341.1981199859566
71,1686362287.31,-40.039,-73.73,-11.719,-69.336,1364.22,331.4527482994857
72,1686362287.31,-20.508,109.375,10.742,-27.344,1364.207,351.8687444891116
73,1686362287.32,-13.184,228.027,-9.766,-34.668,1364.211,348.29915252165625
74,1686362287.32,-33.203,-185.059,-56.152,-79.102,1364.215,350.95713930009265
75,1686362287.32,-40.527,-550.293,7.812,-75.195,1364.219,355.69452829019167
76,1686362287.33,-21.484,-33.203,52.734,-59.57,1364.223,350.03083414473167
77,1686362287.33,-22.461,145.996,-15.137,-57.129,1364.227,349.65002154084453
78,1686362287.34,-40.527,-301.27,-55.176,-58.105,1364.231,340.0071295517561
79,1686362287.34,-53.223,-389.16,-7.324,-44.922,1364.235,356.6896436984257
80,1686362287.34,-36.133,176.27,50.781,4.395,1364.238,346.40979639807017
81,1686362287.35,-11.719,409.668,-12.207,41.504,1364.242,340.93810459320343
82,1686362287.35,-20.996,-209.961,-63.965,24.414,1364.246,356.5669848676399
83,1686362287.35,-38.574,-749.023,4.395,16.113,1364.25,359.4414928500315
84,1686362287.36,-30.762,20.996,77.637,19.043,1364.254,355.96150594229596
85,1686362287.36,-5.859,399.902,-5.859,-1.465,1364.258,357.68429626763043
86,1686362287.36,-15.625,-52.734,-14.648,-68.848,1364.262,351.2304114857054
87,1686362287.37,-42.969,-90.332,20.508,-104.492,1364.266,347.5843518686505
88,1686362287.37,-41.992,31.25,-17.09,-63.477,1364.27,353.3110577275472
89,1686362287.38,-23.438,-123.047,-32.227,-41.016,1364.274,342.4918205668471
90,1686362287.38,-23.926,-630.371,-18.066,-90.332,1364.278,339.8007486276307
91,1686362287.38,-51.27,-539.062,19.043,-121.582,1364.282,349.6655812409025
92,1686362287.39,-67.383,100.586,2.93,-101.074,1364.285,335.38921490401384
93,1686362287.39,-52.246,-13.672,-30.273,-69.824,1364.289,342.7582555434382
94,1686362287.4,-44.434,-145.996,28.32,-84.473,1364.293,336.38505391450303
95,1686362287.4,-48.34,42.48,25.879,-136.23,1364.297,365.06199653717294
96,1686362287.4,-48.34,198.73,-12.695,-125.488,1364.311,335.92250750779067
97,1686362287.4,-39.551,-20.996,-20.996,-87.402,1364.315,352.60940915997054
98,1686362287.41,-27.344,-292.969,-33.203,-96.68,1364.319,359.3147750474683
99,1686362287.41,-32.715,-138.184,-11.23,-127.93,1364.322,346.3082400642044
100,1686362287.42,-39.551,53.223,-23.438,-130.371,1364.326,354.3332064133261
101,1686362287.42,-21.973,-270.996,-56.152,-90.332,1364.33,345.41301353829
102,1686362287.42,9.766,-916.992,-46.875,-64.453,1364.334,354.5010664042145
103,1686362287.43,-8.301,-479.492,38.086,-101.074,1364.338,346.84418387319175
104,1686362287.43,-48.828,412.109,15.625,-145.508,1364.342,342.24303087925233
105,1686362287.44,-44.434,50.293,-23.438,-109.863,1364.346,343.0544429295959
106,1686362287.44,-34.18,-115.723,-14.648,-67.383,1364.35,359.8473040883745
107,1686362287.44,-44.922,-27.832,2.441,-93.262,1364.354,338.98212179441066
108,1686362287.45,-62.012,54.688,18.555,-164.062,1364.348,353.2457267357909
109,1686362287.45,-74.707,-360.352,-10.742,-209.473,1364.352,346.49280564062303
110,1686362287.46,-57.129,-419.434,42.969,-187.5,1364.356,336.2471732040437
111,1686362287.46,-30.273,173.828,37.109,-142.09,1364.36,334.5385021975457
112,1686362287.46,-29.785,58.594,-21.973,-120.117,1364.364,332.87707856293724
113,1686362287.47,-34.18,-512.695,7.324,-103.516,1364.367,343.5131699138814
114,1686362287.47,-16.113,-419.434,97.168,-63.965,1364.371,348.5766124187758
115,1686362287.48,14.648,169.922,27.344,-30.762,1364.375,338.919292922796
116,1686362287.48,13.672,29.785,-39.062,-48.828,1364.379,349.440683704794
117,1686362287.48,-6.836,-433.594,-3.418,-89.355,1364.383,342.93951624814997
118,1686362287.49,2.441,-264.16,33.203,-94.238,1364.387,338.80883623989854
119,1686362287.49,26.855,150.391,0.0,-75.195,1364.391,347.7383756795716
120,1686362287.51,23.926,-47.363,-23.926,-110.352,1364.403,350.70163793854476
121,1686362287.51,-11.23,-433.105,-20.996,-149.902,1364.407,350.55772641087975
122,1686362287.51,-18.066,-480.469,-1.465,-123.047,1364.41,342.5750791185992
123,1686362287.52,-5.371,-160.156,33.203,-78.613,1364.414,341.1738238275264
124,1686362287.52,-18.066,19.531,-3.906,-108.887,1364.418,344.8327136134129
125,1686362287.53,-29.785,-785.156,-69.824,-147.949,1364.422,341.3303363412007
126,1686362287.53,-21.484,-756.348,73.73,-144.043,1364.426,341.1182143394589
127,1686362287.53,-1.465,376.953,99.609,-114.746,1364.43,347.0137113704288
128,1686362287.54,15.137,263.184,-22.949,-84.473,1364.434,334.3483127903843
129,1686362287.54,-2.93,-30.273,-9.766,-121.582,1364.438,332.53749437110395
130,1686362287.54,-26.367,104.004,16.113,-125.0,1364.442,340.9594938169268
131,1686362287.55,-11.719,35.156,-5.859,-59.57,1364.446,339.7021250808815
132,1686362287.55,6.348,-181.641,15.625,-30.762,1364.447,346.9735870761226
133,1686362287.56,1.465,-203.613,26.855,-62.5,1364.451,346.0607326270912
134,1686362287.56,-16.113,-57.129,-5.371,-107.422,1364.455,348.88291512082196
135,1686362287.56,-18.066,-159.18,-5.371,-106.445,1364.459,355.053521797191
136,1686362287.57,-3.418,-423.828,-26.367,-66.895,1364.463,336.88540344318477
137,1686362287.57,-5.859,-498.535,-4.395,-67.383,1364.467,341.2672695686927
138,1686362287.58,-41.992,-250.488,10.742,-110.352,1364.471,341.5510939574259
139,1686362287.58,-51.758,-20.996,-26.855,-81.055,1364.475,347.31755476506396
140,1686362287.58,-31.25,-604.004,-53.223,6.836,1364.479,355.6475879689749
141,1686362287.59,-28.809,-636.23,7.324,2.441,1364.482,349.1933774384989
142,1686362287.59,-33.203,215.332,16.113,-49.316,1364.486,345.1468405214114
143,1686362287.59,-42.48,5.859,-20.508,-59.082,1364.49,339.37586955509965
144,1686362287.6,-18.066,-243.652,12.207,-14.648,1364.492,355.22227043813456
145,1686362287.6,-0.488,-9.277,13.184,-15.137,1364.496,341.91428860462463
146,1686362287.6,-48.34,-110.352,-22.461,-103.027,1364.5,342.13883145227146
147,1686362287.61,-69.336,-415.039,-41.504,-137.695,1364.504,345.0617392698958
148,1686362287.61,-37.109,-571.289,-6.836,-94.727,1364.508,345.8269951550775
149,1686362287.62,-0.488,-322.754,20.508,-73.242,1364.512,342.6075264270743
150,1686362287.62,-4.883,-54.199,-3.906,-93.75,1364.516,351.7800841270371
151,1686362287.62,-49.316,-213.867,-67.871,-100.586,1364.519,345.55059008992805
152,1686362287.63,-55.664,-781.738,-51.758,-54.688,1364.523,341.6014455274219
153,1686362287.63,-30.273,-178.223,92.285,7.324,1364.527,339.22828589011783
154,1686362287.64,-49.316,530.762,4.395,-25.879,1364.531,339.5657768141009
155,1686362287.64,-77.637,-42.48,-15.625,-77.637,1364.535,338.73915716872966
156,1686362287.64,-75.195,-130.859,36.133,-68.359,1364.537,346.38764772520335
157,1686362287.64,-53.223,170.41,3.418,-39.062,1364.541,344.91026141156755
158,1686362287.65,-49.316,119.141,-13.184,-33.203,1364.545,351.38324878342416
159,1686362287.65,-69.824,-248.535,-13.184,-80.566,1364.549,349.38027264054915
160,1686362287.66,-66.895,-283.203,-0.977,-113.281,1364.552,343.9886258695094
161,1686362287.66,-30.273,-202.637,-19.531,-56.152,1364.556,344.9970774684945
162,1686362287.66,0.488,-165.039,-12.207,-20.996,1364.56,343.78126316816014
163,1686362287.67,-18.555,-559.082,-37.109,-79.102,1364.564,349.30070133342144
164,1686362287.67,-54.199,-575.684,-3.418,-147.949,1364.568,358.43707941353955
165,1686362287.68,-43.457,53.711,15.137,-157.227,1364.572,345.68134569852987
166,1686362287.68,-19.043,85.449,-20.02,-118.164,1364.576,331.55676824536044
167,1686362287.68,-28.809,-106.934,5.371,-125.977,1364.58,342.07884142068707
168,1686362287.69,-28.809,-17.578,33.203,-168.457,1364.582,341.79707728114556
169,1686362287.69,-16.602,179.199,-1.465,-180.664,1364.586,333.00158149665697
170,1686362287.69,1.465,-143.555,-42.48,-156.25,1364.59,342.6773865862749
171,1686362287.7,11.23,-398.926,8.301,-137.695,1364.593,338.7234691355313
172,1686362287.7,-27.344,-60.059,19.043,-141.113,1364.597,337.1263026750511
173,1686362287.71,-47.363,3.906,-34.18,-95.703,1364.601,341.42655488276966
174,1686362287.71,-22.461,-263.672,-45.898,-34.668,1364.605,337.1471652286569
175,1686362287.71,-20.996,-376.953,-29.297,-41.992,1364.609,341.4125913675352
176,1686362287.72,-32.715,145.02,57.617,-83.008,1364.613,351.72099226116364
177,1686362287.72,-31.25,380.371,-2.93,-105.957,1364.617,340.8273273046009
178,1686362287.72,-5.371,35.156,-11.23,-106.934,1364.621,348.8956495203836
179,1686362287.73,15.137,-55.664,2.441,-124.512,1364.625,348.5330635601877
180,1686362287.73,11.719,35.156,-19.531,-173.34,1364.637,340.8228011594171
181,1686362287.74,9.766,200.684,-23.926,-186.523,1364.641,342.75492517884845
182,1686362287.74,7.324,-254.883,-30.273,-147.949,1364.645,344.91132212249084
183,1686362287.75,10.254,-245.117,27.344,-126.465,1364.648,343.61111064092756
184,1686362287.75,14.648,270.996,-16.113,-150.391,1364.652,343.83668051561835
185,1686362287.75,0.488,43.945,-41.016,-149.902,1364.656,336.4343367116625
186,1686362287.76,-6.836,-571.777,-38.574,-87.402,1364.66,344.68262567680017
187,1686362287.76,-5.371,-389.16,1.953,-65.43,1364.664,341.869795912951
188,1686362287.76,2.441,505.371,8.301,-84.473,1364.668,341.5695328626694
189,1686362287.77,-5.371,278.32,-52.734,-109.375,1364.672,339.4065725369107
190,1686362287.77,-24.902,-26.367,-24.902,-112.305,1364.676,332.2114906219733
191,1686362287.78,-14.648,311.523,-18.555,-49.805,1364.687,351.6234452281028
192,1686362287.78,-23.926,158.691,2.441,-63.477,1364.68,338.55272829662755
193,1686362287.78,-23.926,74.707,-41.992,-79.59,1364.69,345.10646352953347
194,1686362287.78,-53.711,-266.602,-37.598,-88.379,1364.694,339.4183786900623
195,1686362287.79,-42.48,-208.984,-11.719,-57.129,1364.698,346.9376546305473
196,1686362287.79,-13.672,70.312,-14.16,-32.715,1364.702,330.6322308273632
197,1686362287.8,-6.348,78.613,-70.801,-46.875,1364.706,348.4320809178244
198,1686362287.8,-16.113,-740.234,-90.82,-63.965,1364.71,352.8855222679292
199,1686362287.8,-25.391,-594.727,55.176,-45.898,1364.714,348.7976850397702
200,1686362287.81,-22.461,658.691,57.129,-43.945,1364.718,343.8247580817803
201,1686362287.81,-30.762,544.922,-26.855,-67.383,1364.722,337.1831636049744
202,1686362287.82,-31.25,206.543,-9.277,-90.82,1364.726,347.6642052746157
203,1686362287.82,-23.438,354.004,-10.742,-84.473,1364.73,351.73669382981035
204,1686362287.82,8.301,343.262,-15.137,-42.969,1364.733,353.186934755151
205,1686362287.83,21.484,116.699,-5.371,-31.25,1364.737,364.0862510346142
206,1686362287.83,-8.301,63.477,4.883,-62.5,1364.741,343.1640381162623
207,1686362287.83,-9.766,198.73,-31.25,-72.266,1364.745,343.6897429613127
208,1686362287.84,5.859,118.164,-33.203,-31.25,1364.748,345.68991749177223
209,1686362287.84,13.672,-125.0,-40.039,-7.812,1364.752,348.062721516167
210,1686362287.85,6.836,-225.098,-33.691,-38.574,1364.756,354.1234818859697
211,1686362287.85,-7.324,8.789,-16.113,-62.5,1364.76,347.0315204253917
212,1686362287.85,-9.766,300.781,-36.133,-29.297,1364.764,348.6619305440323
213,1686362287.86,2.441,-370.605,-65.43,16.113,1364.768,333.55013702257634
214,1686362287.86,-0.977,-445.312,-2.441,4.883,1364.772,342.0876655923694
215,1686362287.86,-22.949,459.961,-5.371,-41.504,1364.776,344.61439530136255
216,1686362287.88,-19.531,251.953,-44.922,-44.922,1364.777,339.2579273838775
217,1686362287.88,5.859,59.57,-24.902,-42.48,1364.781,351.0972828221756
218,1686362287.89,20.02,43.945,-32.227,-64.941,1364.785,360.08380752926513
219,1686362287.89,14.648,82.031,-14.16,-72.754,1364.789,335.5428037361179
220,1686362287.9,0.977,145.02,-41.016,-26.855,1364.793,355.83221037848404
221,1686362287.9,10.742,-684.57,-61.035,30.762,1364.797,347.208326388392
222,1686362287.9,26.367,-326.66,3.906,12.695,1364.801,353.4414643905959
223,1686362287.91,26.367,517.578,-15.137,-50.293,1364.804,353.79525639470427
224,1686362287.91,12.695,-69.824,-73.73,-66.406,1364.808,338.8517834507117
225,1686362287.92,7.812,-234.375,-35.156,-37.598,1364.812,349.8356815406823
226,1686362287.92,-5.859,431.152,25.391,-41.016,1364.816,342.11444349011356
227,1686362287.92,-24.414,481.934,-46.387,-48.828,1364.82,350.55001755281427
228,1686362287.93,-24.414,-54.199,-12.207,-38.086,1364.823,350.5972522722727
229,1686362287.93,-16.113,-65.918,40.039,-16.602,1364.827,344.99250610053275
230,1686362287.93,-4.883,255.859,-15.137,10.742,1364.831,344.25315427909976
231,1686362287.94,-11.719,215.82,-33.691,0.488,1364.835,338.9507815693446
232,1686362287.94,-29.785,-180.176,-42.48,-41.504,1364.839,343.2451662563996
233,1686362287.95,-58.594,-370.605,-27.832,-30.273,1364.842,327.0266598189078
234,1686362287.95,-40.527,-46.387,4.395,-1.953,1364.846,348.49711889797123
235,1686362287.95,-5.859,284.668,-29.297,-18.066,1364.85,347.76763178043063
236,1686362287.96,-22.461,-421.875,-70.801,-41.992,1364.854,356.62023132567066
237,1686362287.96,-34.18,-521.484,7.812,-67.383,1364.858,351.97455960685096
238,1686362287.96,-4.883,204.59,19.043,-35.156,1364.862,344.4153542206819
239,1686362287.97,11.719,168.945,-20.508,6.348,1364.866,348.0552997992837
240,1686362287.97,-16.113,-76.66,0.488,-17.09,1364.867,343.85406256157677
241,1686362287.98,-20.02,40.039,3.418,-50.781,1364.871,330.62405067462527
242,1686362287.98,3.906,56.641,-31.25,-59.082,1364.875,351.6762294299994
243,1686362287.98,17.09,-146.484,-34.668,-58.594,1364.879,352.3374535551024
244,1686362287.99,14.648,-187.012,-27.832,-100.586,1364.883,356.2906719556581
245,1686362287.99,-11.23,-160.156,-12.695,-139.16,1364.886,348.8905087787122
246,1686362288.0,-13.184,70.801,-3.418,-90.82,1364.89,344.87957955533693
247,1686362288.0,30.273,33.203,-64.453,-8.789,1364.894,359.09519387201885
248,1686362288.0,43.945,-550.293,-56.641,20.996,1364.898,356.1112604750958
249,1686362288.01,12.207,-63.477,42.969,-5.371,1364.902,344.6146745019543
250,1686362288.01,-7.812,428.711,-34.668,3.418,1364.906,343.4285975100158
251,1686362288.01,1.953,32.227,-23.438,43.945,1364.91,342.5668346115086
252,1686362288.02,16.602,-162.109,-4.883,39.551,1364.918,358.5604160119793
253,1686362288.02,20.996,-71.289,-3.906,0.488,1364.922,350.91032140371374
254,1686362288.03,11.719,87.891,-35.645,-23.438,1364.926,336.05829499565436
255,1686362288.03,1.953,-328.613,-45.41,-17.09,1364.93,343.1932256866884
256,1686362288.04,-13.672,-397.461,5.859,-19.531,1364.934,356.67106184301895
257,1686362288.04,-42.969,-182.617,-32.715,-45.41,1364.938,323.2439094496927
258,1686362288.04,-52.734,-206.055,-35.156,-51.758,1364.942,349.64500123481525
259,1686362288.05,-16.602,-598.145,-33.691,-7.324,1364.946,341.11223572296296
260,1686362288.05,21.973,-478.027,-1.465,-0.488,1364.95,346.05529566038854
261,1686362288.05,30.762,333.008,-10.742,-47.363,1364.954,341.11729087749836
262,1686362288.06,15.137,53.711,-47.363,-53.223,1364.957,340.99938210471214
263,1686362288.06,10.742,3.906,-2.93,7.812,1364.957,354.4520435019737
264,1686362288.06,1.953,-221.191,-19.043,-15.137,1364.961,330.31291776493373
265,1686362288.06,1.953,67.871,-28.809,-29.297,1364.961,349.542447106394
266,1686362288.07,-21.484,-400.879,-64.941,-93.75,1364.965,345.79713701507006
267,1686362288.07,-12.695,-685.059,-23.926,-111.816,1364.969,340.20497071540035
268,1686362288.08,25.391,-187.988,-0.977,-95.215,1364.973,339.92601093369433
269,1686362288.08,46.875,-112.793,-41.992,-80.078,1364.977,344.75485040720775
270,1686362288.08,24.902,-375.977,-63.477,-120.117,1364.981,348.21127290257584
271,1686362288.09,-3.906,-895.996,-90.332,-124.023,1364.985,335.80785005435587
272,1686362288.09,-11.23,-666.992,49.805,-64.453,1364.988,341.29650513867864
273,1686362288.1,5.371,404.297,41.992,-63.965,1364.992,331.58566023559786
274,1686362288.1,3.906,158.691,-31.25,-104.492,1364.996,349.0930987884212
275,1686362288.1,-5.859,-155.762,27.832,-108.398,1365.0,334.89914557235795
276,1686362288.11,16.113,74.219,26.367,-62.988,1365.004,352.437666991083
277,1686362288.11,27.344,58.594,0.488,-12.695,1365.008,340.061388352173
278,1686362288.12,21.484,-238.77,-16.602,-10.254,1365.012,346.08059470277186
279,1686362288.12,7.324,-278.32,1.465,-27.344,1365.016,343.6821851996184
280,1686362288.12,3.906,-207.52,-29.297,-0.977,1365.02,345.4015276454677
281,1686362288.13,21.484,-354.98,-25.391,35.645,1365.024,343.4789941742599
282,1686362288.13,34.668,-714.355,-30.273,30.273,1365.028,338.90975747199434
283,1686362288.13,24.902,-762.207,34.18,6.348,1365.032,343.04364883781136
284,1686362288.14,23.926,45.41,54.199,-11.23,1365.036,349.26122582631365
285,1686362288.14,47.852,128.906,-25.879,16.602,1365.039,351.73093001206144
286,1686362288.15,55.664,-165.527,-4.883,30.273,1365.043,351.2771523139796
287,1686362288.15,40.527,-76.66,1.953,-30.273,1365.047,340.00177513487057
288,1686362288.15,28.32,-46.875,-10.742,-43.457,1365.061,355.9284067644776
289,1686362288.16,39.551,-217.773,-31.25,-4.395,1365.065,339.0213148049897
290,1686362288.16,68.359,-530.762,-41.504,17.09,1365.068,348.7410293437289
291,1686362288.16,64.453,-428.711,-14.648,-16.113,1365.072,336.5265174075599
292,1686362288.17,42.48,-159.668,-20.02,-80.566,1365.076,350.9726821008917
293,1686362288.17,45.898,-379.395,-56.152,-81.543,1365.08,339.4521349973044
294,1686362288.18,51.27,-962.402,-50.293,-52.246,1365.084,345.576853781813
295,1686362288.18,27.832,-580.566,24.414,-118.164,1365.088,349.31204762383203
296,1686362288.18,-1.465,121.094,14.16,-189.941,1365.092,342.7337974665312
297,1686362288.19,-5.371,-364.746,-52.734,-160.645,1365.096,340.80977168307345
298,1686362288.19,-6.836,-373.047,-27.344,-108.887,1365.1,344.9842579652908
299,1686362288.19,-7.812,189.941,15.625,-118.164,1365.104,344.6299913385306
300,1686362288.2,-40.039,43.945,-40.527,-165.039,1365.105,339.3876101313073
301,1686362288.2,-67.871,-405.273,-9.277,-150.879,1365.109,346.8749610844121
302,1686362288.2,-53.223,-305.664,44.922,-78.125,1365.113,346.3307276009088
303,1686362288.21,-27.832,-3.418,-2.441,-32.227,1365.117,343.07703069718764
304,1686362288.21,-32.715,-141.113,-56.152,-60.059,1365.121,338.54454059417446
305,1686362288.22,-47.852,-643.555,-20.02,-70.312,1365.125,354.5047065408868
306,1686362288.22,-30.273,-547.363,76.172,-35.645,1365.129,340.7057705522001
307,1686362288.22,-6.836,26.855,23.926,-12.695,1365.133,351.9193313247464
308,1686362288.23,-9.277,-23.926,-41.992,-23.926,1365.137,341.3953108269402
309,1686362288.23,-22.461,-529.785,-20.996,-56.641,1365.141,341.812523887765
310,1686362288.24,-12.207,-464.355,20.02,-45.898,1365.145,339.0710044237843
311,1686362288.24,-2.93,-173.828,3.418,-42.48,1365.148,326.701815886298
312,1686362288.26,-13.672,-178.711,-1.465,-105.469,1365.152,334.82605709358467
313,1686362288.26,-23.926,-441.406,4.395,-155.762,1365.156,341.39348216966494
314,1686362288.26,-32.715,-526.855,0.0,-136.23,1365.16,328.56537590533367
315,1686362288.27,-26.855,-178.711,-6.836,-95.215,1365.164,354.5593156512317
316,1686362288.27,-21.973,-53.711,-35.645,-100.586,1365.168,343.7166125341372
317,1686362288.28,-47.363,-805.664,-62.988,-142.09,1365.171,339.5915344058061
318,1686362288.28,-54.199,-570.801,53.711,-116.699,1365.175,341.5860696932375
319,1686362288.28,-30.762,333.984,44.922,-51.27,1365.179,342.4056807380661
320,1686362288.29,-16.602,-54.688,-36.133,-58.594,1365.183,347.5847161169104
321,1686362288.29,-9.766,-282.227,-30.762,-112.793,1365.187,346.23814620386133
322,1686362288.3,-16.602,-4.883,5.371,-112.305,1365.191,346.3574650797183
323,1686362288.3,-19.531,-31.738,-7.812,-68.359,1365.195,336.0142421811381
324,1686362288.3,-6.836,-268.555,6.836,-56.641,1365.198,343.83481110024815
325,1686362288.3,-4.395,-433.105,34.668,-89.844,1365.202,347.7642954648161
326,1686362288.31,-13.672,-328.125,11.23,-122.559,1365.206,343.3592742043417
327,1686362288.31,-17.09,-145.996,-10.254,-104.004,1365.21,336.1795079066898
328,1686362288.32,10.742,-465.332,-3.906,-58.105,1365.213,329.8115831978695
329,1686362288.32,35.156,-687.988,25.391,-20.996,1365.217,338.6463296796416
330,1686362288.32,-3.418,-283.203,19.531,-52.734,1365.221,327.1727864501287
331,1686362288.33,-39.062,5.371,-4.395,-88.379,1365.225,326.64948734685385
332,1686362288.33,-21.973,-564.453,-41.992,-67.383,1365.229,333.32842464137633
333,1686362288.34,-2.93,-563.965,24.902,-82.52,1365.233,326.9953008096335
334,1686362288.34,-14.648,156.25,29.297,-143.066,1365.237,344.8914457958239
335,1686362288.34,-45.41,-74.219,-24.902,-179.688,1365.241,346.1365256653125
336,1686362288.36,-43.945,-230.469,11.719,-167.48,1365.257,342.498151367646
337,1686362288.36,-24.902,-0.977,18.066,-159.18,1365.261,334.6598672872795
338,1686362288.37,-23.926,-147.461,-22.461,-205.566,1365.265,343.121464739213
339,1686362288.37,-55.176,-482.91,-36.133,-223.633,1365.269,345.65494748831475
340,1686362288.38,-63.477,-719.238,-9.766,-152.832,1365.272,343.4595362921237
341,1686362288.38,-30.273,-415.527,55.176,-73.73,1365.276,330.4658402258449
342,1686362288.38,-22.461,213.867,51.758,-47.852,1365.28,332.75955338405885
343,1686362288.39,-49.805,56.152,-45.898,-65.918,1365.284,344.301590451259
344,1686362288.39,-57.617,-666.016,-26.855,-31.738,1365.288,321.0909186139913
345,1686362288.4,-30.762,-75.684,114.258,20.996,1365.292,338.2016114160587
346,1686362288.4,-34.18,502.441,11.23,-1.465,1365.296,335.149401289091
347,1686362288.4,-60.059,-4.395,2.441,11.719,1365.3,332.7394684156258
348,1686362288.41,-60.059,-115.234,52.246,88.379,1365.302,337.403092011245
349,1686362288.41,-38.086,161.133,28.809,127.93,1365.306,324.0403900669526
350,1686362288.41,-28.32,186.523,3.418,90.332,1365.31,338.54900403896806
351,1686362288.42,-51.27,-77.148,6.836,27.832,1365.314,345.8386913105745
352,1686362288.42,-66.895,-105.469,22.949,11.719,1365.318,342.0779136445388
353,1686362288.43,-52.246,-92.285,-5.371,27.832,1365.322,348.1343957596982
354,1686362288.43,-33.203,-205.078,8.789,20.996,1365.325,334.2295109610219
355,1686362288.43,-29.297,-240.723,34.18,-31.25,1365.329,348.5085005253633
356,1686362288.44,-56.152,-625.488,42.969,-74.219,1365.346,352.21086700574
357,1686362288.44,-38.086,-6.836,48.34,-69.824,1365.333,356.666088810912
358,1686362288.44,-54.199,408.691,68.848,-75.684,1365.35,351.44732932013045
359,1686362288.44,-36.621,244.629,21.484,-50.781,1365.337,336.91372303102685
360,1686362288.44,-36.621,247.559,-27.344,-52.246,1365.354,354.60733297050774
361,1686362288.44,-14.648,253.418,2.441,-31.25,1365.341,363.3284618229141
362,1686362288.45,-33.691,-206.543,26.855,-66.406,1365.358,357.840201392594
363,1686362288.45,-24.902,-528.32,-38.574,-47.852,1365.345,363.2121485404703
364,1686362288.45,-33.691,109.375,40.527,-112.305,1365.362,359.02987159605823
365,1686362288.46,-29.785,183.105,-15.137,-97.168,1365.365,369.4837291511874
366,1686362288.46,-16.113,-100.586,-33.691,-79.102,1365.369,372.22007989058187
367,1686362288.46,3.906,30.273,-26.855,-112.305,1365.373,370.54973038994814
368,1686362288.47,-8.301,326.66,-2.441,-173.828,1365.377,360.55991073297605
369,1686362288.47,-22.461,161.621,-15.625,-212.891,1365.381,368.9414741462109
370,1686362288.48,-11.719,-236.816,-48.34,-161.133,1365.385,388.62047639810913
371,1686362288.48,5.371,-689.453,0.0,-104.98,1365.389,378.62635647831
372,1686362288.48,15.625,21.973,102.539,-130.371,1365.378,366.6712212678564
373,1686362288.49,-1.465,504.395,-5.859,-147.949,1365.382,380.21836104041535
374,1686362288.49,-20.508,-2.93,-9.277,-118.164,1365.386,384.0326344461497
375,1686362288.49,-8.789,119.629,38.574,-78.125,1365.39,378.99137741061867
376,1686362288.5,0.0,274.414,-26.855,-75.195,1365.394,376.61609840511187
377,1686362288.5,-14.648,-55.664,-54.199,-104.492,1365.398,388.98510199507814
378,1686362288.51,-22.949,-688.477,-22.461,-78.125,1365.402,391.3912067494486
379,1686362288.51,-10.254,-534.18,25.879,-20.996,1365.406,388.7391763862583
380,1686362288.51,-18.066,368.652,20.996,-15.137,1365.41,391.705584327509
381,1686362288.52,-38.086,168.457,-43.457,-39.551,1365.414,394.79328537672876
382,1686362288.52,-44.434,-198.242,-1.953,-54.688,1365.418,384.8541719265975
383,1686362288.52,-28.809,-61.523,18.555,-43.945,1365.421,400.79998402369984
384,1686362288.53,-19.531,-20.996,-8.301,-52.734,1365.436,401.031640738723
385,1686362288.53,-41.504,-46.875,-26.855,-104.004,1365.44,398.78232355434943
386,1686362288.54,-63.477,-559.57,-10.254,-119.141,1365.444,400.2459527983187
387,1686362288.54,-58.105,-379.883,42.969,-80.078,1365.447,415.121567177458
388,1686362288.54,-43.457,181.152,1.465,-75.195,1365.451,401.6084741967159
389,1686362288.55,-40.039,-166.504,-57.617,-111.328,1365.455,400.3183030609241
390,1686362288.55,-44.922,-854.004,-39.062,-125.977,1365.459,396.67338072941476
391,1686362288.55,-40.527,-421.387,74.219,-88.379,1365.463,407.6059795348456
392,1686362288.56,-23.926,414.551,15.137,-24.902,1365.467,397.9586236897766
393,1686362288.56,-25.391,29.785,-43.945,-22.949,1365.471,401.3129481907907
394,1686362288.57,-43.457,-161.133,-7.324,-72.266,1365.475,400.17954379698267
395,1686362288.57,-55.664,20.508,8.789,-60.059,1365.479,400.2224649597597
396,1686362288.57,-51.758,-14.648,-8.789,-12.695,1365.496,407.07046823422735
397,1686362288.58,-48.828,-261.719,-1.953,-21.973,1365.5,404.2526246209671
398,1686362288.58,-70.312,-501.953,-3.906,-73.242,1365.504,410.31200186851987
399,1686362288.58,-95.703,-408.203,-9.277,-113.77,1365.508,410.53548963636376
400,1686362288.59,-82.52,-94.727,-5.371,-96.191,1365.512,406.1883441929491
401,1686362288.59,-54.688,-582.031,-59.082,-55.664,1365.516,407.63090247040446
402,1686362288.6,-58.105,-770.508,15.625,-69.824,1365.52,401.2351171544421
403,1686362288.6,-61.523,6.348,50.293,-100.098,1365.524,417.6288141692911
404,1686362288.6,-53.223,52.246,-23.926,-60.547,1365.527,413.7153772557824
405,1686362288.61,-44.434,-252.93,-11.719,-35.645,1365.531,416.043460662141
406,1686362288.61,-49.316,-156.25,17.578,-100.098,1365.535,411.3956349752893
407,1686362288.62,-65.918,-73.242,-1.953,-167.48,1365.539,394.8052427762215
408,1686362288.63,-65.43,-306.641,-10.742,-162.109,1365.527,407.08657460467276
409,1686362288.64,-38.086,-372.559,16.113,-102.539,1365.531,400.653681209746
410,1686362288.64,-26.855,-376.953,16.602,-91.309,1365.535,412.30981419689937
411,1686362288.64,-53.223,-346.191,8.789,-140.137,1365.539,399.3567108117175
412,1686362288.65,-64.941,-402.344,-37.598,-138.672,1365.543,399.5063882244535
413,1686362288.65,-49.805,-852.051,-21.484,-75.684,1365.547,399.89104479193657
414,1686362288.66,-38.086,-544.922,70.801,-70.801,1365.551,392.03384557578767
415,1686362288.66,-57.617,10.742,21.973,-132.812,1365.555,402.32558767801413
416,1686362288.66,-68.359,-241.211,-54.199,-151.367,1365.558,394.52192517767963
417,1686362288.67,-49.316,-480.957,-24.902,-117.188,1365.562,407.2724129097327
418,1686362288.67,-27.832,-27.344,45.41,-99.609,1365.566,406.8462578723272
419,1686362288.67,-29.297,109.375,12.207,-103.516,1365.57,391.38320438000835
420,1686362288.69,-61.035,-501.953,-35.156,-114.746,1365.587,387.93038883572274
421,1686362288.7,-61.035,-758.789,18.555,-116.699,1365.591,401.6193967076535
422,1686362288.7,-21.484,-52.734,65.43,-93.75,1365.595,385.93431032046044
423,1686362288.7,-20.02,62.012,0.0,-82.031,1365.599,387.66465583442726
424,1686362288.71,-45.41,-362.793,-14.16,-101.074,1365.603,388.73439364928186
425,1686362288.71,-40.039,-605.957,1.953,-81.543,1365.607,389.07334033594014
426,1686362288.72,-21.484,-322.754,26.367,-53.223,1365.611,383.70841383416104
427,1686362288.72,-32.227,-86.426,20.508,-72.754,1365.615,386.3421394382015
428,1686362288.72,-42.48,-242.188,19.531,-100.586,1365.617,390.3409038375842
429,1686362288.72,-55.176,-687.988,-35.645,-117.676,1365.619,389.1221350992263
430,1686362288.72,-52.734,-86.426,37.109,-96.191,1365.621,374.7798256307507
431,1686362288.73,-71.289,-754.395,32.715,-127.93,1365.622,369.88877129160613
432,1686362288.73,-51.758,-192.871,8.789,-40.039,1365.625,382.98172157527887
433,1686362288.73,-55.176,121.582,90.82,-107.91,1365.626,372.433768852149
434,1686362288.73,-34.18,-384.277,6.348,-15.625,1365.629,368.6325057907168
435,1686362288.73,-35.645,105.469,1.465,-100.098,1365.63,390.44200452418
436,1686362288.74,-39.062,-544.922,38.574,-96.68,1365.633,375.79762408254237
437,1686362288.74,-63.477,-458.008,64.941,-151.367,1365.636,372.31122458607484
438,1686362288.74,-59.082,-181.641,39.062,-134.766,1365.64,373.1895141873806
439,1686362288.75,-38.086,-291.504,-0.977,-97.168,1365.644,377.20151249630794
440,1686362288.75,-33.203,-270.02,10.254,-104.004,1365.648,373.7075795758864
441,1686362288.76,-33.691,64.941,46.875,-163.574,1365.652,378.176276518273
442,1686362288.76,-27.344,-61.523,30.273,-153.809,1365.656,377.7197546361869
443,1686362288.76,-8.789,-483.887,-18.066,-86.914,1365.66,380.1145158250873
444,1686362288.77,-4.395,-810.547,26.855,-88.867,1365.662,364.05925989700296
445,1686362288.77,-29.297,-111.328,122.559,-151.367,1365.666,369.82386329156145
446,1686362288.77,-41.992,281.738,32.227,-161.133,1365.67,377.31434745573455
447,1686362288.78,-30.762,-75.195,32.227,-93.75,1365.674,365.0040328679441
448,1686362288.78,-18.555,-7.324,41.992,-43.457,1365.677,367.666694308202
449,1686362288.79,-31.25,-136.719,12.207,-31.25,1365.681,381.0374879776322
450,1686362288.79,-46.875,-196.777,33.203,-31.738,1365.685,348.2949812418354
451,1686362288.79,-42.969,-580.078,-0.488,-14.16,1365.689,369.5798708584463
452,1686362288.8,-30.273,-577.637,68.359,34.18,1365.693,373.5316373857375
453,1686362288.8,-27.344,334.473,103.027,10.254,1365.697,369.7632793554571
454,1686362288.8,-40.527,234.863,18.066,-26.367,1365.701,359.25356713720686
455,1686362288.81,-39.551,-70.801,51.27,0.977,1365.705,358.5278612190628
456,1686362288.83,-22.461,0.977,61.035,19.043,1365.726,364.4858710063415
457,1686362288.83,-18.066,24.414,41.016,-18.066,1365.73,360.34201962116805
458,1686362288.84,-40.039,-76.172,7.812,-82.031,1365.734,353.3281072161574
459,1686362288.84,-50.293,-687.5,1.953,-69.824,1365.737,356.9703235506476
460,1686362288.84,-44.922,-372.07,96.68,-33.203,1365.741,361.2187063421231
461,1686362288.85,-38.574,297.852,65.918,-48.828,1365.745,357.9683776777477
462,1686362288.85,-36.621,-3.906,-14.16,-103.516,1365.749,364.5437104029155
463,1686362288.85,-47.363,-412.598,26.367,-136.23,1365.753,365.4460443266276
464,1686362288.86,-61.035,186.523,47.852,-67.871,1365.754,355.5094281144706
465,1686362288.86,-33.203,93.262,115.234,-116.699,1365.757,361.9048724986543
466,1686362288.86,-73.73,190.43,21.973,-44.434,1365.758,353.36970549747446
467,1686362288.86,-4.395,543.457,40.527,-83.008,1365.761,355.3936880411103
468,1686362288.86,-72.754,-71.777,23.438,-73.73,1365.762,354.39319511389147
469,1686362288.87,-13.184,87.891,10.254,-94.727,1365.765,356.58192716310214
470,1686362288.87,-83.008,-250.488,38.574,-106.934,1365.766,345.18089032377935
471,1686362288.87,-38.574,-65.43,42.48,-108.887,1365.769,363.55698132674513
472,1686362288.87,-80.566,-79.102,10.742,-100.586,1365.769,348.68641138350705
473,1686362288.88,-58.105,-51.758,1.465,-56.641,1365.773,328.3458225479357
474,1686362288.88,-34.18,-145.508,33.203,-43.457,1365.777,346.4520111238793
475,1686362288.88,-43.457,73.242,41.992,-68.359,1365.781,346.53057391972044
476,1686362288.89,-73.73,200.684,17.09,-77.637,1365.785,335.4591350435057
477,1686362288.89,-64.453,259.277,6.348,-40.527,1365.789,323.78263783284206
478,1686362288.9,-43.457,-436.523,-35.156,-20.996,1365.793,329.1091127909146
479,1686362288.9,-45.898,-698.242,52.246,-66.406,1365.797,325.0973289661388
480,1686362288.9,-59.082,292.969,101.562,-107.91,1365.811,307.2487241384172
481,1686362288.9,-47.852,365.234,10.254,-84.961,1365.815,309.65428256124216
482,1686362288.91,-14.16,-53.223,27.344,-21.484,1365.819,322.88634261080176
483,1686362288.91,-7.812,178.223,69.336,-22.461,1365.823,319.82655407471736
484,1686362288.92,-21.484,365.234,15.625,-50.293,1365.827,311.1336672132967
485,1686362288.92,-11.23,-5.371,-37.598,-27.832,1365.831,312.05335128194736
486,1686362288.92,10.742,-778.32,-20.508,2.441,1365.835,305.8601710088074
487,1686362288.93,12.695,-425.781,90.332,-13.672,1365.839,301.43254774752023
488,1686362288.93,-3.906,675.293,93.262,-61.523,1365.843,288.9050006761795
489,1686362288.94,-18.066,282.715,-7.812,-82.031,1365.846,293.75340321037027
490,1686362288.94,-21.973,10.742,7.324,-57.617,1365.85,291.67659425110344
491,1686362288.94,-25.879,414.551,46.387,-39.551,1365.854,269.27503070736446
492,1686362288.95,-39.062,380.371,0.488,-66.406,1365.855,273.9289535230022
493,1686362288.95,-49.805,2.441,31.25,-90.82,1365.859,285.5371785888563
494,1686362288.96,-55.176,-33.691,61.523,-73.242,1365.863,265.2783386767073
495,1686362288.96,-64.453,232.422,28.809,-50.781,1365.867,269.69869875639444
496,1686362288.96,-81.543,214.355,-7.812,-85.938,1365.871,277.13063682114796
497,1686362288.97,-102.539,-400.391,3.906,-116.699,1365.875,257.12925858121054
498,1686362288.97,-92.285,-354.492,103.516,-90.82,1365.879,250.91163845166395
499,1686362288.97,-62.012,302.734,62.988,-50.781,1365.883,244.32579547292423
500,1686362288.98,-49.805,230.957,5.371,-62.012,1365.887,253.9819196616752
501,1686362288.98,-65.43,-530.273,0.488,-107.91,1365.89,247.320011237822
502,1686362288.99,-82.031,-436.035,78.125,-108.887,1365.894,251.06482416629112
503,1686362288.99,-80.078,447.754,65.918,-69.824,1365.898,250.73096933849487
504,1686362289.01,-81.055,251.953,0.0,-67.871,1365.902,235.4363874555073
505,1686362289.01,-106.934,-42.969,21.973,-120.117,1365.906,241.66727581522346
506,1686362289.01,-108.398,-134.277,14.648,-105.957,1365.91,243.6846879086199
507,1686362289.02,-60.059,-49.316,36.621,-43.457,1365.913,248.50240379192172
508,1686362289.02,-37.109,179.688,20.02,-39.551,1365.917,225.1785678203704
509,1686362289.03,-59.082,-653.32,-56.641,-65.918,1365.921,239.5946705829984
510,1686362289.03,-67.383,-490.723,68.848,-82.52,1365.925,229.5055351001827
511,1686362289.03,-51.758,587.891,87.402,-90.82,1365.929,230.1802622758391
512,1686362289.04,-46.875,221.191,-11.23,-86.914,1365.933,243.53376248618915
513,1686362289.04,-57.617,-8.789,17.09,-88.867,1365.937,227.4177816643359
514,1686362289.04,-67.383,232.91,39.551,-66.406,1365.941,241.982201116354
515,1686362289.05,-56.641,58.594,15.137,10.742,1365.945,238.09408236255905
516,1686362289.05,-34.18,-341.309,-1.465,52.734,1365.947,249.71570971523528
517,1686362289.06,-40.039,-275.879,31.738,-4.395,1365.951,241.11887278167765
518,1686362289.06,-54.199,235.84,47.363,-62.5,1365.955,238.57982666424425
519,1686362289.06,-57.129,154.297,-2.441,-45.41,1365.959,248.7876044432446
520,1686362289.07,-49.805,-119.141,5.371,-6.348,1365.963,249.51259431435494
521,1686362289.07,-39.551,-240.723,11.719,-3.906,1365.966,245.7144634909057
522,1686362289.08,-55.176,-135.742,32.227,-62.988,1365.97,244.63071296587398
523,1686362289.08,-59.082,134.766,27.344,-100.586,1365.974,242.5956478557265
524,1686362289.08,-34.18,-459.473,-22.461,-76.66,1365.978,259.7078933225961
525,1686362289.09,-22.949,-489.258,52.734,-61.523,1365.982,240.5509499266941
526,1686362289.09,-42.969,349.609,54.199,-75.684,1365.986,262.0081862002127
527,1686362289.09,-58.105,135.742,-9.277,-55.664,1365.99,255.83732726185897
528,1686362289.1,-26.367,-100.586,23.926,-4.883,1365.995,263.76570821303994
529,1686362289.1,1.953,25.879,33.203,12.695,1365.999,268.4305926823192
530,1686362289.1,-14.16,-77.637,21.484,-43.945,1366.003,270.9120155420904
531,1686362289.11,-34.18,-200.684,9.766,-113.77,1366.007,274.4601740099218
532,1686362289.11,-33.203,-633.789,0.488,-99.609,1366.011,274.7189836977638
533,1686362289.12,-18.555,-542.48,53.711,-68.359,1366.015,267.2239789282538
534,1686362289.12,-14.16,276.855,63.965,-90.332,1366.019,271.3180573643353
535,1686362289.12,-40.527,168.945,-29.297,-122.07,1366.023,267.34314284411727
536,1686362289.13,-60.059,-451.172,-7.812,-104.98,1366.027,280.40991406476286
537,1686362289.13,-41.992,75.195,111.328,-56.152,1366.03,279.6304274053606
538,1686362289.14,-28.809,456.543,8.301,-61.035,1366.034,285.3929725751382
539,1686362289.14,-49.316,-41.016,-1.465,-121.094,1366.038,268.5049601877827
540,1686362289.14,-71.777,-143.066,55.176,-129.883,1366.041,277.5834883417613
541,1686362289.14,-71.777,121.094,27.832,-94.727,1366.045,281.59134859305294
542,1686362289.15,-67.383,140.625,1.953,-95.215,1366.049,290.0849813763361
543,1686362289.15,-70.312,-181.641,0.488,-124.023,1366.053,284.75749902648914
544,1686362289.16,-81.055,-394.531,27.832,-122.559,1366.057,288.83674459517306
545,1686362289.16,-75.684,-289.551,28.809,-65.918,1366.061,286.82844698348555
546,1686362289.16,-51.758,-75.195,27.344,4.395,1366.065,298.60515432455134
547,1686362289.17,-61.035,-507.324,-30.762,-7.812,1366.069,296.4807391731684
548,1686362289.17,-82.031,-754.883,40.527,-61.523,1366.072,288.146930357364
549,1686362289.18,-68.848,165.527,101.562,-37.598,1366.076,309.1870755226465
550,1686362289.18,-40.527,313.477,-2.441,-4.395,1366.08,296.0291930367287
551,1686362289.18,-39.551,-12.207,-0.488,-44.434,1366.084,291.9607942788229
552,1686362289.19,-53.711,27.832,17.09,-87.891,1366.082,296.05118116386825
553,1686362289.19,-51.758,48.34,1.465,-71.289,1366.086,299.2879544694839
554,1686362289.19,-49.316,-217.285,-15.137,-12.695,1366.09,309.2255046605087
555,1686362289.2,-45.41,-534.668,46.875,24.902,1366.094,288.7120521267197
556,1686362289.2,-50.781,-199.219,46.875,-14.16,1366.098,311.15700465605477
557,1686362289.21,-69.824,-111.328,-22.461,-52.734,1366.102,314.24912280996773
558,1686362289.21,-62.012,-325.195,-33.691,-21.484,1366.105,315.60055000657604
559,1686362289.21,-42.48,-766.602,-37.598,9.277,1366.109,304.38551605380934
560,1686362289.22,-43.457,-451.172,62.5,-20.508,1366.113,309.64466063009775
561,1686362289.22,-41.504,368.164,38.574,-36.621,1366.117,311.70934229387973
562,1686362289.22,-40.527,29.297,-6.348,-0.488,1366.121,323.4111850934663
563,1686362289.23,-26.855,-120.117,10.254,27.832,1366.125,323.9895485496345
564,1686362289.23,-14.16,159.668,9.277,19.043,1366.129,315.7552160507446
565,1686362289.24,-35.645,81.543,-23.926,-42.48,1366.133,317.2824236677584
566,1686362289.24,-41.992,-271.484,-4.883,-65.918,1366.137,338.0529642251714
567,1686362289.24,-28.32,-245.605,28.32,-23.926,1366.141,324.4477231244332
568,1686362289.25,-13.184,-43.457,-22.461,-20.508,1366.145,323.3404062058639
569,1686362289.25,-22.461,-241.211,-29.297,-72.754,1366.149,335.31723237526995
570,1686362289.26,-38.086,-766.602,-28.32,-60.059,1366.153,333.46604469346096
571,1686362289.26,-11.23,-645.996,21.484,2.441,1366.156,331.66986026006214
572,1686362289.26,7.812,146.484,28.32,-35.645,1366.16,344.5639828256775
573,1686362289.27,-20.508,-51.27,-30.762,-122.559,1366.164,331.7391993569245
574,1686362289.27,-46.875,-559.57,3.418,-128.906,1366.168,334.4343997967403
575,1686362289.28,-49.805,-238.281,50.293,-84.473,1366.172,344.86065244778524
576,1686362289.28,-44.434,192.383,10.254,-67.383,1366.186,339.0346904380207
577,1686362289.28,-52.734,-53.223,-12.207,-97.168,1366.19,332.6701293904276
578,1686362289.28,-67.383,-513.184,5.859,-124.512,1366.194,331.86638110905363
579,1686362289.29,-64.453,-373.047,24.414,-99.609,1366.198,336.7269002299937
580,1686362289.29,-37.109,-64.941,-10.742,-62.988,1366.202,336.5649462751419
581,1686362289.3,-22.949,-340.82,-52.246,-87.402,1366.205,351.38798992276674
582,1686362289.3,-28.809,-946.777,-41.992,-134.766,1366.209,359.7558028226963
583,1686362289.3,-23.926,-638.184,37.109,-124.512,1366.213,342.18029097375575
584,1686362289.31,4.883,271.973,45.898,-99.121,1366.217,350.19794464975166
585,1686362289.31,6.348,14.648,-30.273,-119.629,1366.221,345.9168853810895
586,1686362289.32,-22.461,-243.652,-12.695,-167.48,1366.225,347.9440039011437
587,1686362289.32,-33.203,-106.445,-1.953,-176.27,1366.229,354.15671222098143
588,1686362289.32,-25.879,-230.469,-17.09,-112.793,1366.223,346.3272584994594
589,1686362289.33,-18.066,-563.965,-7.324,-64.453,1366.227,362.1251585153045
590,1686362289.33,-29.297,-568.848,11.719,-82.52,1366.231,340.5174909831472
591,1686362289.34,-41.016,-89.844,21.484,-86.426,1366.235,356.05069182668905
592,1686362289.34,-33.691,-122.07,-18.066,-53.223,1366.239,344.07136927600277
593,1686362289.34,-21.484,-623.047,-3.418,-28.32,1366.243,358.21916274005855
594,1686362289.35,-31.738,-587.402,58.594,-71.289,1366.246,342.33771903607004
595,1686362289.35,-51.758,-131.348,24.902,-130.371,1366.25,345.39447049670486
596,1686362289.35,-41.992,-166.504,-17.09,-100.586,1366.254,342.5224008873427
597,1686362289.36,-21.484,-542.969,0.0,-46.875,1366.258,348.3290206874407
598,1686362289.36,-21.973,-350.098,59.57,-83.496,1366.262,349.8265633429031
599,1686362289.37,-55.176,25.879,11.23,-157.227,1366.266,346.5198159402547
600,1686362289.4,-89.844,-244.629,-19.531,-135.742,1366.306,326.86454835088017
601,1686362289.4,-69.336,-433.105,16.113,-70.801,1366.31,345.5936447398707
602,1686362289.4,-41.016,-408.691,24.902,-61.523,1366.314,332.81765184596827
603,1686362289.41,-57.129,-488.281,19.043,-83.008,1366.318,335.1373895694518
604,1686362289.41,-58.594,-465.332,1.465,-85.938,1366.322,340.03695140613485
605,1686362289.42,-21.484,-840.82,-53.223,-25.879,1366.326,331.31682697843513
606,1686362289.42,-16.113,-306.641,23.438,-43.945,1366.32,332.30363769101984
607,1686362289.42,-42.48,-339.355,39.551,-42.969,1366.324,347.0371042831044
608,1686362289.42,1.465,-842.773,46.875,4.395,1366.33,339.67715338583645
609,1686362289.42,-3.418,122.559,98.145,-25.879,1366.334,341.41626839351835
610,1686362289.42,-39.551,-180.664,12.695,-31.25,1366.328,344.1343071304742
611,1686362289.43,-16.602,101.562,-13.184,-6.348,1366.338,341.43150877673895
612,1686362289.43,-35.645,-215.332,19.531,-56.641,1366.332,364.3925958262644
613,1686362289.43,-11.719,-152.832,6.348,44.922,1366.342,360.0537445942862
614,1686362289.43,-65.918,-463.379,-10.254,-87.891,1366.336,341.00158735972144
615,1686362289.44,-4.395,169.434,32.715,74.707,1366.346,366.2193371056883
616,1686362289.44,-79.102,-654.297,9.277,-51.27,1366.34,357.1986835465644
617,1686362289.44,-7.812,107.422,-7.324,16.113,1366.349,367.8995019593173
618,1686362289.44,-55.664,-436.523,17.578,12.695,1366.344,366.6929811169126
619,1686362289.44,-43.457,-329.59,-0.488,21.973,1366.348,377.5610644161145
620,1686362289.45,-62.988,-441.406,19.043,-22.461,1366.352,369.96219259057875
621,1686362289.45,-78.613,-323.73,34.668,-34.18,1366.356,399.6313353957243
622,1686362289.46,-70.801,-21.484,25.391,-17.09,1366.359,391.7495514251599
623,1686362289.46,-64.453,-53.223,-1.465,-39.551,1366.363,407.48470053015234
624,1686362289.47,-79.102,-501.465,20.508,-98.633,1366.367,421.9507659905581
625,1686362289.48,-92.285,-393.555,45.41,-120.605,1366.371,435.8106005377799
626,1686362289.48,-75.195,-258.789,9.766,-84.961,1366.375,459.46570635471403
627,1686362289.48,-40.039,-315.43,23.926,-62.012,1366.379,456.3470301987592
628,1686362289.49,-35.645,-664.062,-36.133,-89.844,1366.383,460.6727881465455
629,1686362289.49,-54.199,-1000.0,25.879,-103.027,1366.386,454.0172999433139
630,1686362289.5,-53.711,-114.258,128.906,-87.402,1366.39,479.6230978914201
631,1686362289.5,-34.18,203.125,-12.695,-51.758,1366.394,480.35866132812544
632,1686362289.5,-23.926,-425.781,-2.93,-30.762,1366.398,485.5332772218055
633,1686362289.51,-32.715,16.113,98.145,-59.082,1366.402,482.7289786171701
634,1686362289.51,-37.598,390.137,17.578,-65.918,1366.406,503.81946899894746
635,1686362289.51,-21.973,-23.926,18.555,-52.734,1366.41,490.90479041451795
636,1686362289.52,-13.672,-98.633,48.34,-55.176,1366.412,499.3990674196029
637,1686362289.52,-42.969,143.066,26.855,-78.125,1366.416,506.9069615086038
638,1686362289.52,-73.242,34.18,-9.766,-94.727,1366.42,503.93795163772796
639,1686362289.53,-65.918,-248.535,12.695,-47.852,1366.424,514.5940012804001
640,1686362289.53,-46.387,-233.887,37.109,-3.906,1366.428,505.99415206396037
641,1686362289.54,-53.223,-271.484,-1.465,-21.973,1366.432,518.5635838154485
642,1686362289.54,-68.848,-285.645,5.859,-67.383,1366.436,509.29288942590875
643,1686362289.54,-70.801,-649.414,-10.742,-46.875,1366.439,511.94741437677885
644,1686362289.55,-45.41,-575.684,57.129,5.859,1366.443,528.1102525642178
645,1686362289.55,-39.062,252.93,54.688,-16.113,1366.447,521.8881856183268
646,1686362289.56,-58.594,0.488,-36.133,-68.848,1366.451,518.950608755781
647,1686362289.56,-54.199,-450.195,18.066,-75.684,1366.455,514.3763709091573
648,1686362289.56,-25.879,-68.848,72.754,-48.828,1366.457,521.5691684178939
649,1686362289.56,-16.113,292.969,12.695,-30.762,1366.461,510.97038198309303
650,1686362289.57,-36.621,-160.645,-41.016,-29.785,1366.465,524.9889751842117
651,1686362289.57,-56.152,-631.836,41.992,-16.602,1366.469,516.4888673071151
652,1686362289.58,-46.387,-146.973,84.473,28.809,1366.473,516.1400718912093
653,1686362289.58,-23.926,130.859,1.953,33.691,1366.477,512.2512688220042
654,1686362289.58,-20.508,-210.449,-41.992,-20.508,1366.48,499.3407050261391
655,1686362289.59,-29.297,-592.773,26.367,-37.109,1366.484,511.59074634653626
656,1686362289.59,-20.02,-101.074,107.91,-7.324,1366.488,500.73545350225163
657,1686362289.6,5.371,480.957,21.484,14.648,1366.492,494.5437661507059
658,1686362289.6,15.137,81.055,-11.719,-12.695,1366.496,497.58434106985055
659,1686362289.6,0.488,-105.957,-2.441,-57.129,1366.5,495.2973398588069
660,1686362289.61,-6.348,81.055,-5.859,-41.016,1366.508,485.10940367995363
661,1686362289.61,22.461,-26.855,-21.973,10.254,1366.512,497.2529997113793
662,1686362289.62,29.297,-439.453,3.418,-5.859,1366.516,478.4273595119907
663,1686362289.62,7.812,-340.82,72.266,-57.617,1366.52,483.4423909223594
664,1686362289.62,12.695,106.934,34.668,-44.434,1366.524,469.61844435577876
665,1686362289.63,40.527,-8.789,-9.766,1.465,1366.528,463.42224620525974
666,1686362289.63,39.551,-507.324,2.441,21.484,1366.532,467.9127968144748
667,1686362289.64,10.742,-510.254,32.227,-14.16,1366.536,459.3095234125371
668,1686362289.64,-3.906,198.73,60.059,-44.434,1366.539,461.84837094897426
669,1686362289.64,10.254,179.688,11.719,8.789,1366.543,439.8619436101164
670,1686362289.65,31.738,42.48,-4.883,63.965,1366.547,437.8243118764049
671,1686362289.65,8.789,204.102,8.789,-21.973,1366.561,449.4106021711438
672,1686362289.65,25.879,148.926,20.508,38.086,1366.551,456.2585008340344
673,1686362289.66,14.16,37.598,-13.672,-20.996,1366.565,446.56278599128905
674,1686362289.66,35.645,-246.094,3.906,14.16,1366.569,423.4054834717954
675,1686362289.66,38.086,-223.633,20.508,-6.836,1366.573,414.7661606366138
676,1686362289.67,13.184,-54.199,-13.672,-48.34,1366.577,422.4027198064112
677,1686362289.67,3.418,-67.871,-29.785,-24.414,1366.581,392.73727438599974
678,1686362289.68,31.738,-702.148,-39.551,35.645,1366.585,382.98283121038406
679,1686362289.68,48.828,-846.191,47.363,16.113,1366.589,398.15514409741905
680,1686362289.68,33.203,250.0,69.824,-73.242,1366.592,391.6186413950327
681,1686362289.69,25.879,411.133,-25.391,-94.727,1366.596,374.1005217223619
682,1686362289.69,38.086,206.543,-7.812,-45.898,1366.6,359.2975797083884
683,1686362289.69,34.668,471.68,4.883,-48.828,1366.604,366.6036482189517
684,1686362289.7,18.555,341.309,-31.25,-106.934,1366.605,353.31733687080595
685,1686362289.7,0.977,-58.594,0.977,-111.328,1366.609,334.0713226565068
686,1686362289.7,2.441,-50.293,41.992,-41.504,1366.613,338.1934419048519
687,1686362289.71,18.555,277.832,9.766,-12.207,1366.617,338.4367825868246
688,1686362289.71,11.719,211.914,-38.574,-62.5,1366.621,304.0025358208787
689,1686362289.72,-17.578,-389.648,-13.672,-82.52,1366.625,302.6880441815768
690,1686362289.72,-24.902,-495.117,51.27,-38.574,1366.629,308.8137245604032
691,1686362289.72,3.906,69.336,7.812,7.324,1366.633,295.81013043252995
692,1686362289.73,19.043,381.836,-25.391,-19.043,1366.637,290.18477964959175
693,1686362289.73,-9.766,-368.652,-51.758,-47.363,1366.641,277.48175016345357
694,1686362289.74,-20.02,-529.297,20.02,-4.395,1366.644,285.37428225710926
695,1686362289.74,15.625,431.641,32.227,52.734,1366.648,264.0082035327642
696,1686362289.76,35.156,371.094,-25.391,30.273,1366.652,251.22751562857087
697,1686362289.76,22.461,45.41,-8.789,-39.551,1366.656,243.17618053799853
698,1686362289.76,18.066,-130.371,-10.254,-22.461,1366.66,252.70298606799628
699,1686362289.77,30.273,-1.465,0.0,21.484,1366.664,249.46294066890937
700,1686362289.77,28.809,243.652,-23.926,20.508,1366.668,246.42471580060624
701,1686362289.78,9.766,-654.297,-70.801,1.465,1366.671,255.06508097225012
702,1686362289.78,-0.977,-552.246,21.484,0.0,1366.675,248.31363161878105
703,1686362289.78,12.207,534.18,24.414,14.648,1366.679,239.78692161272483
704,1686362289.79,25.879,184.57,-70.312,12.207,1366.683,242.6116644493716
705,1686362289.79,24.902,-160.156,-51.27,-23.926,1366.687,252.1125492427457
706,1686362289.8,7.812,263.184,8.789,-77.637,1366.691,241.9477805156287
707,1686362289.8,-5.371,384.766,-21.484,-45.898,1366.695,237.67146946281122
708,1686362289.8,0.488,-11.23,-21.484,4.395,1366.726,250.31904901357544
709,1686362289.8,-3.418,-117.188,-1.953,-11.719,1366.73,233.91370888245095
710,1686362289.81,-27.344,208.984,-11.719,-50.293,1366.734,239.86925072212884
711,1686362289.81,-31.738,168.457,-26.367,-19.043,1366.737,241.11944745056957
712,1686362289.82,5.859,-44.434,-29.785,31.25,1366.741,255.45169760079978
713,1686362289.82,27.832,-261.719,-32.227,-0.977,1366.745,254.5779824096867
714,1686362289.82,18.066,-186.523,-18.066,-57.129,1366.749,253.68347471491717
715,1686362289.83,-2.441,179.199,-25.391,-53.711,1366.753,248.22140633277235
716,1686362289.83,-4.395,-395.508,-62.5,16.113,1366.757,257.61491359831507
717,1686362289.84,7.812,-462.891,7.812,66.895,1366.761,252.94785112896335
718,1686362289.84,-8.301,355.957,1.953,28.809,1366.765,245.61277424436267
719,1686362289.84,-31.25,64.453,-35.156,-11.719,1366.769,256.201966447926
720,1686362289.85,-27.344,-266.113,31.25,23.926,1366.742,241.64559289607433
721,1686362289.85,-24.414,122.07,33.203,58.105,1366.746,248.81428321489577
722,1686362289.85,-31.25,214.355,-34.18,46.387,1366.75,257.9144747760152
723,1686362289.86,-43.945,-163.086,-44.922,31.738,1366.754,257.242295337938
724,1686362289.86,-36.133,-395.996,-8.789,62.988,1366.757,266.669562877634
725,1686362289.87,-3.418,-199.707,12.207,111.816,1366.761,256.2319790219713
726,1686362289.87,-8.789,304.199,6.348,95.215,1366.765,269.68237917268
727,1686362289.87,-35.156,199.707,-53.223,41.992,1366.769,273.8744681341074
728,1686362289.88,-30.273,-330.078,-23.926,14.648,1366.773,255.69942741757296
729,1686362289.88,-3.906,123.047,52.734,20.02,1366.777,275.5888761507528
730,1686362289.88,18.066,571.777,-20.508,25.391,1366.781,264.1674832784207
731,1686362289.89,3.418,9.277,-50.781,-13.184,1366.785,263.81916908872034
732,1686362289.89,-20.508,-195.801,-12.207,-40.039,1366.79,268.93036016005703
733,1686362289.9,0.488,185.547,-8.789,7.812,1366.794,267.3842450725375
734,1686362289.9,21.973,108.398,-45.898,47.852,1366.798,272.51728607642696
735,1686362289.9,1.953,-380.371,-41.992,39.062,1366.802,276.08748651202063
736,1686362289.91,-25.879,-421.387,-10.254,21.484,1366.806,274.08668552886417
737,1686362289.91,-24.414,20.508,-11.23,23.926,1366.81,285.36856362763444
738,1686362289.92,-8.301,124.023,-14.648,20.02,1366.814,286.07554732593246
739,1686362289.92,-9.766,-218.262,-30.762,-18.066,1366.818,264.13545977682236
740,1686362289.92,-24.414,-315.43,-0.977,-54.688,1366.821,278.72753189902215
741,1686362289.93,-10.254,483.398,20.508,-35.645,1366.825,288.4670803827564
742,1686362289.93,37.109,432.617,-25.391,8.301,1366.829,289.1486528765308
743,1686362289.93,63.965,160.645,-8.301,14.16,1366.833,293.6651884816101
744,1686362289.94,48.828,279.297,8.301,-24.902,1366.832,294.34856292668894
745,1686362289.94,31.738,352.539,-20.508,-53.711,1366.836,294.66441427952634
746,1686362289.94,32.715,79.102,-47.363,-5.859,1366.84,306.32175405657057
747,1686362289.95,37.598,-314.941,5.371,-1.465,1366.844,295.21532195144005
748,1686362289.95,19.043,-115.723,12.695,-90.332,1366.848,311.2705995390572
749,1686362289.96,4.883,69.824,-27.832,-112.793,1366.851,297.2925942698223
750,1686362289.96,23.926,54.688,-24.414,-38.086,1366.855,302.03776560065376
751,1686362289.96,48.34,-525.879,-29.297,29.785,1366.859,297.75899004218365
752,1686362289.97,47.363,-224.121,47.852,14.16,1366.863,299.34442641227025
753,1686362289.97,28.32,698.242,17.09,-13.184,1366.867,306.2311372435136
754,1686362289.98,31.25,347.168,-19.043,4.395,1366.871,304.8528466177584
755,1686362289.98,57.617,217.773,-1.465,21.484,1366.875,313.2491331528462
756,1686362289.98,65.43,489.258,-22.949,-2.93,1366.879,300.1880306067022
757,1686362289.99,39.551,350.586,-41.016,-48.34,1366.883,309.8541380885776
758,1686362289.99,30.762,-0.977,3.906,-23.438,1366.887,309.3356325127893
759,1686362289.99,53.223,115.234,32.227,60.059,1366.891,310.9873868209737
760,1686362290.0,58.594,332.52,-35.645,87.402,1366.895,308.8072240865637
761,1686362290.0,39.062,109.863,-49.316,36.133,1366.899,314.74279841311795
762,1686362290.01,28.809,-546.875,-41.504,12.695,1366.903,317.22115760366427
763,1686362290.01,45.41,-553.711,6.348,36.621,1366.907,321.15574918695603
764,1686362290.01,57.129,467.285,25.391,32.715,1366.911,324.36283508747727
765,1686362290.02,43.945,539.062,-60.059,-44.434,1366.915,325.75259012058075
766,1686362290.02,18.066,-90.82,-54.199,-103.027,1366.919,313.23069709279883
767,1686362290.02,18.066,8.301,2.93,-40.527,1366.922,328.42906517146486
768,1686362290.03,38.086,458.984,-12.207,21.973,1366.936,327.8512968100048
769,1686362290.03,40.527,296.875,-32.715,1.465,1366.94,334.9749254609931
770,1686362290.03,20.508,-125.977,-8.789,-24.902,1366.944,332.3358057460651
771,1686362290.04,5.859,-13.184,13.672,-10.254,1366.948,331.79585373776644
772,1686362290.04,28.809,299.316,-17.09,24.414,1366.952,323.5921532820106
773,1686362290.05,52.246,111.816,-51.758,14.648,1366.956,331.3224044125595
774,1686362290.05,32.715,-731.445,-65.918,-35.156,1366.959,334.0409766770348
775,1686362290.05,21.973,-501.953,13.672,-51.27,1366.963,323.8949917838097
776,1686362290.06,51.27,507.812,28.809,-16.602,1366.967,331.047617083533
777,1686362290.06,51.27,111.816,-49.805,-8.301,1366.971,328.6100472953907
778,1686362290.06,12.207,38.574,-24.902,-40.527,1366.975,333.5594915883855
779,1686362290.07,-0.977,438.477,10.742,-37.109,1366.979,327.18939037847815
780,1686362290.07,9.766,452.637,-21.484,-5.371,1366.981,329.24743271156643
781,1686362290.08,18.066,30.273,-3.418,-20.508,1366.985,336.9824517853866
782,1686362290.08,7.324,-90.332,24.902,-62.5,1366.989,336.7968156439168
783,1686362290.08,-19.043,252.441,-1.465,-53.223,1366.992,335.4445214634476
784,1686362290.09,-20.996,243.164,-43.457,-4.883,1366.996,341.992629278099
785,1686362290.09,-15.625,-305.176,-34.668,30.762,1367.0,343.53347711233533
786,1686362290.1,-24.902,-366.211,39.062,6.348,1367.004,333.06175747804946
787,1686362290.1,-30.762,225.586,15.137,-40.527,1367.008,349.115545206547
788,1686362290.1,-25.879,223.145,-34.18,-46.875,1367.012,341.1616550741581
789,1686362290.11,-0.977,-204.59,-11.719,-48.34,1367.016,344.26065386787985
790,1686362290.11,15.625,-50.781,42.969,-83.496,1367.02,333.39223643481847
791,1686362290.12,10.742,274.414,-4.395,-114.746,1367.024,344.3377956431951
792,1686362290.15,-2.93,-74.707,-25.879,-81.055,1367.042,342.2308064377134
793,1686362290.15,6.348,-265.625,36.133,-24.414,1367.046,344.2189848569313
794,1686362290.15,25.879,-138.184,36.133,-19.043,1367.05,353.6039437275982
795,1686362290.16,11.719,80.078,17.09,-53.711,1367.054,350.72354989391647
796,1686362290.16,-18.066,126.465,-22.461,-61.035,1367.058,345.5469786230167
797,1686362290.17,-10.254,-613.281,-31.25,-15.137,1367.061,350.29652828072796
798,1686362290.17,6.348,-367.188,71.777,-8.789,1367.065,336.232866607146
799,1686362290.17,-10.254,532.715,46.387,-58.105,1367.069,360.54382774044444
800,1686362290.18,-30.762,-79.102,1.465,-68.359,1367.072,346.34507903005255
801,1686362290.18,-25.391,70.312,-50.293,-62.012,1367.073,348.83761385751694
802,1686362290.18,-33.691,-146.484,35.156,-59.57,1367.076,347.48560503733216
803,1686362290.18,-29.297,-341.797,-24.414,-23.926,1367.077,339.0572536735343
804,1686362290.18,2.93,45.41,-5.371,-15.625,1367.08,343.47833101817383
805,1686362290.18,-19.043,203.613,49.805,-17.09,1367.081,364.33125701478104
806,1686362290.19,27.832,-66.895,-16.113,-18.066,1367.084,353.49874143937245
807,1686362290.19,-12.695,375.488,-9.277,-38.086,1367.085,355.78192528714635
808,1686362290.19,25.879,-424.805,-11.23,-60.547,1367.087,352.4003709627466
809,1686362290.2,12.695,-582.52,26.855,-77.148,1367.091,354.48989547399935
810,1686362290.2,10.742,-4.883,39.551,-19.531,1367.095,346.6032732270175
811,1686362290.2,11.719,249.023,-15.625,22.461,1367.099,357.1570880344134
812,1686362290.21,-20.996,-140.625,-7.812,-36.621,1367.103,336.12103577331015
813,1686362290.21,-51.27,-113.77,34.668,-82.52,1367.107,361.038660616779
814,1686362290.22,-36.133,190.918,18.066,-51.758,1367.111,356.51979383922315
815,1686362290.22,-10.254,97.656,-20.508,-17.09,1367.115,357.2651779227461
816,1686362290.22,-3.418,-552.734,-9.766,-17.578,1367.117,353.4872528392451
817,1686362290.22,-10.742,-459.961,62.5,-24.414,1367.121,339.05398024713327
818,1686362290.23,-20.02,26.855,31.738,-12.207,1367.125,355.7524713283172
819,1686362290.23,1.953,-124.023,-5.371,3.418,1367.129,341.7013202753561
820,1686362290.24,9.766,-387.695,11.23,-20.508,1367.133,353.43623394815967
821,1686362290.24,-18.555,-305.664,34.18,-76.172,1367.137,358.3106214170319
822,1686362290.24,-27.344,-2.93,22.461,-77.148,1367.141,355.7711818339844
823,1686362290.25,-5.859,-20.02,-12.207,-24.902,1367.144,354.4966238418243
824,1686362290.25,-5.859,-633.789,-29.785,-20.996,1367.148,347.90299952951386
825,1686362290.26,-44.434,-386.23,77.637,-97.656,1367.152,349.4280901241396
826,1686362290.26,-64.941,459.473,59.57,-134.277,1367.156,353.4226852242374
827,1686362290.26,-45.41,145.508,16.602,-107.91,1367.16,358.18125022198257
828,1686362290.27,-20.02,42.969,53.711,-112.793,1367.162,354.57958735384364
829,1686362290.27,-36.133,302.734,44.434,-115.234,1367.166,362.53828831932617
830,1686362290.27,-65.43,2.441,-0.488,-100.098,1367.17,355.1295217307633
831,1686362290.28,-59.082,-306.152,26.367,-86.914,1367.174,368.56651929947316
832,1686362290.28,-29.785,-75.195,44.434,-38.574,1367.178,352.7021253321882
833,1686362290.29,-19.043,-130.371,3.906,-25.879,1367.182,348.6864010993553
834,1686362290.29,-37.109,-177.246,23.926,-78.125,1367.186,356.3691368355707
835,1686362290.29,-55.176,-587.891,11.719,-52.734,1367.19,352.60548483866995
836,1686362290.3,-47.363,-634.277,66.406,-4.395,1367.193,352.0546044324888
837,1686362290.3,-42.969,289.551,100.098,-30.762,1367.197,365.14349272478614
838,1686362290.3,-72.754,274.902,18.066,-56.641,1367.201,358.76655071356896
839,1686362290.31,-88.379,-315.918,28.809,-49.316,1367.205,363.22358223620864
840,1686362290.31,-71.777,-161.133,107.91,-36.133,1367.207,352.83596166541247
841,1686362290.32,-60.059,283.203,73.242,-28.809,1367.211,347.8179952671612
842,1686362290.32,-69.336,-66.895,-4.395,-48.34,1367.215,355.1197254622623
843,1686362290.32,-65.918,-546.387,71.777,-55.176,1367.219,345.059759395926
844,1686362290.33,-46.387,-166.504,121.582,-13.184,1367.222,364.1829339172153
845,1686362290.33,-27.832,119.141,46.387,25.391,1367.226,353.5148166917948
846,1686362290.34,-31.25,-130.859,10.742,12.695,1367.23,352.9730209238677
847,1686362290.34,-55.176,-502.441,58.594,2.441,1367.234,364.1489716968467
848,1686362290.34,-58.594,-55.176,146.973,20.996,1367.238,351.23322402536144
849,1686362290.35,-30.762,508.301,85.449,28.809,1367.242,363.2911249551265
850,1686362290.35,-28.809,13.672,9.277,16.113,1367.246,358.89932350219874
851,1686362290.35,-44.922,-207.52,30.273,-22.461,1367.25,357.43635455570865
852,1686362290.36,-49.316,189.453,84.961,-31.25,1367.253,356.19154085821566
853,1686362290.36,-30.762,284.668,47.363,3.418,1367.257,359.654892640783
854,1686362290.36,-13.672,-156.25,49.316,-21.484,1367.261,347.5395704537797
855,1686362290.37,-26.367,-238.281,110.84,-78.125,1367.265,346.70556442928404
856,1686362290.37,-31.25,70.801,65.43,-56.641,1367.269,355.5482721564643
857,1686362290.38,-37.598,-71.777,31.25,-26.855,1367.273,347.476835639614
858,1686362290.38,-36.621,-580.566,28.32,-34.668,1367.277,360.940682833406
859,1686362290.38,-31.25,-588.379,75.684,-68.848,1367.281,355.42443968947816
860,1686362290.39,-45.898,216.797,110.84,-83.496,1367.284,347.7730353901313
861,1686362290.39,-34.668,279.785,43.457,-24.414,1367.288,353.8037455058143
862,1686362290.4,-22.949,48.828,61.523,5.859,1367.292,352.3242600222939
863,1686362290.4,-38.574,141.602,101.562,-35.645,1367.296,343.01004990956136
864,1686362290.4,-55.664,171.875,68.359,-60.059,1367.317,369.083059991272
865,1686362290.41,-54.688,-71.777,34.668,-31.738,1367.321,366.884484997238
866,1686362290.41,-37.598,-586.426,56.641,1.465,1367.325,369.70191751771154
867,1686362290.41,-25.391,-232.422,137.207,-23.438,1367.329,359.56143811032507
868,1686362290.42,-37.598,346.191,94.238,-62.012,1367.333,354.2834793374271
869,1686362290.42,-55.176,-6.836,25.879,-27.344,1367.337,351.39437724160456
870,1686362290.43,-57.617,-753.418,27.344,50.781,1367.341,349.6711535279204
871,1686362290.43,-54.688,-366.211,136.719,46.875,1367.345,359.8236221829535
872,1686362290.43,-62.988,608.887,145.02,-30.762,1367.349,361.18542858321064
873,1686362290.44,-81.055,218.262,51.27,-43.457,1367.353,369.07355751453974
874,1686362290.44,-68.359,23.438,80.078,7.324,1367.356,352.51696208367076
875,1686362290.44,-44.434,326.66,124.512,37.598,1367.36,362.71286276705234
876,1686362290.45,-60.059,303.223,82.52,21.973,1367.355,349.8064637195186
877,1686362290.45,-83.008,-89.355,81.055,-10.254,1367.359,354.6601941235899
878,1686362290.46,-72.754,-105.957,114.746,19.043,1367.363,356.3989435770514
879,1686362290.46,-61.523,28.809,82.52,62.012,1367.367,341.85467582949474
880,1686362290.46,-71.777,75.195,87.402,37.598,1367.371,355.8755101118063
881,1686362290.47,-84.961,-432.129,11.719,25.879,1367.375,354.65826821124296
882,1686362290.47,-79.102,-684.57,75.195,68.359,1367.379,350.2241842978796
883,1686362290.47,-51.27,309.57,162.109,60.059,1367.383,355.7957648414187
884,1686362290.48,-43.457,320.312,62.988,-11.23,1367.387,349.19351478125554
885,1686362290.48,-60.547,-54.199,83.984,-49.805,1367.39,358.0374229855166
886,1686362290.49,-67.871,132.812,95.703,-23.926,1367.394,362.4716200377789
887,1686362290.49,-54.199,356.445,68.848,15.625,1367.398,359.89931704974504
888,1686362290.51,-38.574,161.621,50.293,7.324,1367.402,345.3499927805569
889,1686362290.51,-51.27,-36.133,67.383,-54.688,1367.406,377.0240410514445
890,1686362290.51,-80.566,-116.211,77.148,-96.68,1367.41,357.0003045464709
891,1686362290.52,-69.824,-66.406,104.492,-81.055,1367.414,359.23048373008965
892,1686362290.52,-49.805,218.75,89.844,-70.312,1367.418,352.4218043541109
893,1686362290.53,-71.777,-579.59,7.324,-107.91,1367.421,359.7729132317934
894,1686362290.53,-91.309,-690.43,107.422,-151.367,1367.425,357.745110616478
895,1686362290.53,-69.824,390.137,168.945,-160.156,1367.429,361.45620483991326
896,1686362290.54,-41.992,342.773,65.918,-133.301,1367.433,346.8680808856012
897,1686362290.54,-46.875,-145.02,59.082,-147.949,1367.437,343.26101979330866
898,1686362290.54,-69.336,216.309,155.762,-216.797,1367.441,346.9349010409904
899,1686362290.55,-75.684,466.797,115.234,-219.238,1367.445,355.40970255708766
900,1686362290.56,-53.223,84.473,81.055,-142.09,1367.47,341.4137458612203
901,1686362290.56,-26.367,-9.766,116.699,-111.816,1367.474,354.4637465597689
902,1686362290.56,-38.574,312.012,126.953,-159.668,1367.477,360.0806793537919
903,1686362290.57,-59.082,207.031,97.656,-138.672,1367.481,355.2919260665142
904,1686362290.57,-50.293,-70.312,107.91,-87.891,1367.485,349.72353631783454
905,1686362290.58,-41.504,-192.871,115.234,-109.863,1367.489,358.7017166162762
906,1686362290.58,-56.641,-29.785,133.789,-188.477,1367.493,343.08484741229404
907,1686362290.58,-71.289,296.875,139.16,-231.934,1367.497,348.0749814897755
908,1686362290.59,-66.895,-361.328,44.922,-177.246,1367.501,350.0134200336176
909,1686362290.59,-50.781,-584.473,108.887,-127.441,1367.505,353.8998501129359
910,1686362290.59,-50.293,440.43,193.848,-175.781,1367.509,352.5866032217379
911,1686362290.6,-82.031,20.996,107.422,-200.684,1367.492,348.9687606497797
912,1686362290.6,-73.242,389.648,105.469,-239.258,1367.513,355.02097363600325
913,1686362290.6,-57.129,230.469,145.508,-118.164,1367.496,340.11157391143416
914,1686362290.6,-51.27,215.332,113.281,-104.492,1367.5,350.1021552341831
915,1686362290.61,-72.754,-36.133,100.586,-106.445,1367.504,345.1041280133137
916,1686362290.61,-71.777,-260.254,131.836,-79.59,1367.507,350.19027579664345
917,1686362290.62,-48.828,-164.062,174.805,-45.41,1367.511,338.29026341871236
918,1686362290.62,-47.363,355.469,187.988,-34.18,1367.515,346.29867850335285
919,1686362290.62,-64.453,290.039,109.863,-62.988,1367.519,349.8433945173493
920,1686362290.63,-83.008,-6.348,100.586,-49.805,1367.523,350.7499018949812
921,1686362290.63,-74.219,332.52,175.293,-1.465,1367.527,350.72890547435907
922,1686362290.64,-38.086,521.484,158.203,-6.348,1367.531,346.3190560449704
923,1686362290.64,-48.34,-12.207,62.5,-50.293,1367.535,349.7020644414416
924,1686362290.64,-90.332,-662.598,99.121,-52.734,1367.538,349.2179865422637
925,1686362290.65,-89.844,89.844,234.375,-10.742,1367.542,350.8962901223198
926,1686362290.65,-54.199,645.02,150.391,20.996,1367.546,354.1299251667309
927,1686362290.65,-44.434,221.191,113.77,-19.043,1367.55,354.17243544178814
928,1686362290.66,-60.059,149.902,131.836,-105.469,1367.554,349.1983486370854
929,1686362290.66,-68.359,133.301,116.699,-119.141,1367.558,345.76275443249153
930,1686362290.67,-56.641,159.18,141.113,-84.473,1367.562,348.7924326248277
931,1686362290.67,-45.898,-212.402,88.379,-87.402,1367.566,357.0722149021786
932,1686362290.67,-58.594,-345.703,114.258,-123.535,1367.57,346.2775314183001
933,1686362290.68,-51.758,461.426,187.988,-107.422,1367.573,346.242672128852
934,1686362290.68,-27.344,482.91,133.301,-49.316,1367.577,335.0083354287564
935,1686362290.68,-36.133,239.746,129.395,-66.895,1367.581,363.8274543422888
936,1686362290.69,-71.289,321.777,149.902,-137.207,1367.585,348.7635472099548
937,1686362290.69,-84.473,324.707,123.047,-146.484,1367.589,347.07904753117737
938,1686362290.69,-64.453,78.125,106.445,-75.684,1367.593,340.24884146428053
939,1686362290.7,-61.523,-342.773,142.09,-16.602,1367.597,359.68663204913753
940,1686362290.7,-88.379,-84.961,173.34,-29.297,1367.601,350.10403018837525
941,1686362290.71,-103.516,240.234,143.555,-55.664,1367.605,334.0844267974024
942,1686362290.71,-91.797,144.531,124.023,-33.203,1367.608,350.4463818854594
943,1686362290.71,-76.66,-403.809,86.426,-21.973,1367.612,343.24573378384315
944,1686362290.72,-77.637,-99.609,192.383,-78.125,1367.616,336.4146940598561
945,1686362290.72,-87.402,813.965,203.125,-147.949,1367.62,346.03877181546306
946,1686362290.72,-84.473,416.016,111.816,-128.906,1367.624,352.5138925535015
947,1686362290.73,-62.012,264.648,149.414,-80.566,1367.628,349.2187215991474
948,1686362290.73,-38.086,536.621,176.758,-88.379,1367.641,350.1206335130507
949,1686362290.74,-62.988,451.172,136.719,-116.699,1367.645,338.3582681607933
950,1686362290.74,-94.727,105.957,126.465,-92.285,1367.649,353.57404178700364
951,1686362290.74,-75.195,144.043,162.598,-47.363,1367.653,344.92801981818826
952,1686362290.75,-55.664,240.234,146.484,-63.477,1367.657,342.1394956953415
953,1686362290.75,-59.57,64.941,126.465,-150.879,1367.661,339.71772557925914
954,1686362290.76,-63.965,-407.227,77.148,-178.223,1367.665,349.393164718898
955,1686362290.76,-49.316,-573.73,156.25,-95.703,1367.668,342.29832751808425
956,1686362290.76,-25.879,448.73,237.793,-64.453,1367.672,347.3265752172069
957,1686362290.77,-34.668,659.668,123.535,-93.75,1367.676,337.7721581715908
958,1686362290.77,-60.059,266.113,128.418,-121.094,1367.68,347.5775076314169
959,1686362290.78,-62.5,331.543,167.969,-97.168,1367.684,347.39908005324486
960,1686362290.78,-49.316,525.879,164.551,-59.082,1367.686,342.61362290928537
961,1686362290.78,-42.969,354.98,129.883,-68.359,1367.69,336.59299881640857
962,1686362290.78,-63.477,-95.215,112.305,-98.633,1367.694,328.2634568675749
963,1686362290.79,-77.148,61.523,166.992,-104.492,1367.697,348.65338398986813
964,1686362290.79,-61.523,397.949,150.879,-54.199,1367.701,345.1146396440857
965,1686362290.8,-52.246,206.055,91.309,-35.645,1367.705,344.8644540103658
966,1686362290.8,-61.523,-644.531,50.293,-67.383,1367.709,344.66464234913485
967,1686362290.8,-70.801,-596.191,157.227,-90.82,1367.713,336.27629771845073
968,1686362290.81,-52.734,632.324,230.469,-59.57,1367.717,351.5314214238335
969,1686362290.81,-42.969,526.855,83.496,-54.199,1367.721,352.31142366967686
970,1686362290.82,-61.523,-353.027,82.52,-111.816,1367.725,341.17617962160233
971,1686362290.82,-83.984,136.23,212.402,-136.23,1367.729,351.52616727506336
972,1686362290.82,-70.801,724.121,163.574,-105.957,1367.723,343.9619042908047
973,1686362290.83,-40.039,354.98,125.0,-71.289,1367.727,340.75212248426925
974,1686362290.83,-54.199,278.809,141.602,-100.586,1367.731,343.4473633804665
975,1686362290.84,-89.355,422.852,138.184,-154.785,1367.735,339.28198919597247
976,1686362290.84,-98.633,333.496,113.77,-130.859,1367.739,351.104221840952
977,1686362290.84,-83.496,-217.285,91.797,-73.73,1367.743,331.8430928067126
978,1686362290.85,-83.008,-237.793,154.297,-96.68,1367.747,343.2057800565164
979,1686362290.85,-103.027,370.117,175.293,-149.902,1367.75,347.2642310463847
980,1686362290.85,-103.027,354.004,117.188,-151.855,1367.754,338.06125806569275
981,1686362290.86,-85.938,-162.598,106.445,-109.375,1367.758,340.184087213541
982,1686362290.86,-77.637,-74.219,166.992,-83.496,1367.762,344.80076547137213
983,1686362290.87,-81.055,474.121,166.016,-114.258,1367.766,345.5178153841301
984,1686362290.9,-80.078,313.965,100.098,-125.488,1367.792,356.6250025187171
985,1686362290.9,-54.688,-189.941,102.051,-80.566,1367.796,340.8415358985717
986,1686362290.9,-25.391,-151.855,154.297,-49.316,1367.8,346.93061045560205
987,1686362290.91,-37.598,229.004,149.902,-101.562,1367.804,334.16861510349634
988,1686362290.91,-70.312,348.633,122.07,-158.691,1367.808,339.5380367124838
989,1686362290.92,-61.035,-511.23,45.898,-108.887,1367.812,347.841761213616
990,1686362290.92,-36.133,-751.953,159.18,-58.594,1367.815,350.06783000043794
991,1686362290.92,-47.852,509.277,237.305,-111.816,1367.819,335.43420453266253
992,1686362290.92,-77.148,-77.148,80.078,-65.918,1367.822,333.016918667307
993,1686362290.93,-61.035,560.059,122.559,-138.672,1367.823,354.26388745464277
994,1686362290.93,-88.379,-309.57,133.789,-56.152,1367.826,339.084535065941
995,1686362290.93,-55.664,234.863,122.559,-66.406,1367.827,335.3515134394328
996,1686362290.93,-70.801,348.633,193.359,-69.336,1367.83,338.720245283501
997,1686362290.94,-48.34,508.301,167.969,3.418,1367.831,339.8830723346897
998,1686362290.94,-45.41,417.969,127.441,-116.699,1367.834,333.67767117191994
999,1686362290.94,-56.152,556.641,145.996,-21.484,1367.835,335.8833021576021
1000,1686362290.94,-56.641,-13.184,85.938,-130.859,1367.838,328.2834073117931
1001,1686362290.94,-83.984,-286.621,104.004,-115.723,1367.842,337.857891609675
1002,1686362290.95,-74.219,44.434,172.852,-86.914,1367.845,337.7025214656049
1003,1686362290.95,-39.551,371.094,148.438,-46.387,1367.849,344.2273152006827
1004,1686362290.96,-34.668,32.715,113.281,-46.387,1367.853,334.4170829522619
1005,1686362290.96,-52.246,-17.09,163.086,-41.016,1367.857,356.9343695572523
1006,1686362290.96,-46.387,305.664,156.25,4.395,1367.861,354.16718657490276
1007,1686362290.97,-11.23,360.352,121.094,49.805,1367.865,349.2371626907703
1008,1686362290.97,-16.602,-365.723,77.637,64.453,1367.867,351.9335844736917
1009,1686362290.98,-54.688,-409.668,128.906,44.922,1367.871,335.62350567525397
1010,1686362290.98,-63.477,177.734,132.812,43.945,1367.875,337.9613197590117
1011,1686362290.98,-43.457,165.527,122.07,84.961,1367.879,335.8752961689134
1012,1686362290.99,-34.18,-376.465,89.844,76.172,1367.882,338.77834964058377
1013,1686362290.99,-46.875,-446.289,129.883,-8.789,1367.886,344.98047333859813
1014,1686362291.0,-51.27,419.434,182.617,-41.016,1367.89,350.9078003524883
1015,1686362291.0,-42.969,430.176,96.68,4.883,1367.894,326.8203122127389
1016,1686362291.0,-42.48,-114.746,98.633,11.719,1367.898,333.3664203358692
1017,1686362291.01,-64.941,281.738,188.477,-45.898,1367.902,330.1100121819071
1018,1686362291.01,-79.102,649.414,125.0,-71.289,1367.906,342.16890791642004
1019,1686362291.01,-75.684,208.008,86.426,-45.898,1367.91,334.0650599940984
1020,1686362291.02,-57.129,146.973,122.559,-41.016,1367.912,331.2700598841596
1021,1686362291.02,-54.199,460.449,138.672,-72.266,1367.916,340.3858215724819
1022,1686362291.02,-85.938,373.047,97.168,-96.191,1367.92,335.5392678266952
1023,1686362291.03,-90.82,61.523,92.285,-40.039,1367.924,348.0247352584551
1024,1686362291.03,-73.242,40.039,121.582,14.16,1367.928,339.6368738114237
1025,1686362291.04,-71.289,62.5,103.516,-34.18,1367.932,341.98618878507745
1026,1686362291.04,-89.844,75.195,109.863,-92.773,1367.936,341.6736439891577
1027,1686362291.04,-95.215,-366.699,56.152,-77.637,1367.94,336.77186654544505
1028,1686362291.05,-55.176,-516.602,127.93,-35.156,1367.944,336.61312013716537
1029,1686362291.05,-37.598,497.559,211.914,-32.227,1367.948,353.6122247005161
1030,1686362291.06,-62.012,625.488,104.492,-40.039,1367.951,338.84206465055075
1031,1686362291.06,-76.172,281.25,93.75,-33.203,1367.955,345.89639646064626
1032,1686362291.06,-59.082,398.926,151.855,-7.324,1367.957,337.9867794572171
1033,1686362291.06,-42.48,522.949,128.906,-28.809,1367.961,342.47524952924323
1034,1686362291.07,-67.871,152.832,69.336,-115.723,1367.965,337.3772805827519
1035,1686362291.07,-96.191,-307.617,114.746,-162.598,1367.969,342.61625374344663
1036,1686362291.08,-79.102,138.184,165.527,-112.793,1367.973,347.7037035196043
1037,1686362291.08,-48.34,424.316,109.863,-71.289,1367.977,333.00082981522763
1038,1686362291.08,-40.527,185.059,80.566,-111.328,1367.98,335.3620114663995
1039,1686362291.09,-65.918,-253.418,84.473,-138.672,1367.984,329.93641696527845
1040,1686362291.09,-90.332,18.555,172.852,-98.145,1367.988,333.7869873615723
1041,1686362291.1,-92.285,797.852,173.34,-60.059,1367.992,333.23597047587526
1042,1686362291.1,-101.074,431.152,53.711,-104.98,1367.996,334.94439004629413
1043,1686362291.1,-116.699,53.223,66.895,-153.32,1368.0,340.9967132450456
1044,1686362291.11,-106.934,489.258,149.902,-115.234,1368.004,353.61123472675786
1045,1686362291.11,-82.031,660.156,128.906,-78.125,1368.008,334.7275646177768
1046,1686362291.12,-75.195,252.93,95.703,-101.074,1368.012,347.96047645472675
1047,1686362291.12,-93.262,179.688,125.977,-130.371,1368.016,352.6465510509805
1048,1686362291.12,-100.098,420.41,110.352,-117.188,1368.02,341.55422898209963
1049,1686362291.13,-76.172,254.395,74.219,-51.27,1368.024,343.47674840482614
1050,1686362291.13,-62.012,-186.523,54.199,-11.23,1368.028,326.0303111738393
1051,1686362291.13,-71.777,-183.594,105.469,-50.781,1368.032,335.67969472967377
1052,1686362291.14,-94.727,593.262,144.531,-60.547,1368.035,344.7842838011888
1053,1686362291.14,-99.121,583.008,78.613,-40.527,1368.039,340.4254218006496
1054,1686362291.15,-74.707,207.52,62.988,-52.246,1368.043,341.3297677569471
1055,1686362291.15,-72.266,294.434,110.352,-112.793,1368.047,340.4183082253452
1056,1686362291.17,-83.496,594.238,130.371,-164.062,1368.063,354.1393154619755
1057,1686362291.17,-82.031,514.16,64.453,-123.047,1368.067,335.1921429741595
1058,1686362291.17,-71.289,-256.348,46.387,-58.594,1368.071,338.3994520805569
1059,1686362291.18,-59.57,-40.527,153.32,-83.496,1368.075,334.06229469030603
1060,1686362291.18,-66.406,677.246,111.816,-152.832,1368.079,343.12913648944976
1061,1686362291.19,-70.801,339.355,32.715,-149.414,1368.083,337.1029834582898
1062,1686362291.19,-62.012,-393.555,32.715,-106.934,1368.087,332.79793442119717
1063,1686362291.19,-55.176,-78.613,112.305,-103.516,1368.09,327.59846289809616
1064,1686362291.2,-60.547,885.254,142.578,-120.605,1368.094,344.40921786886264
1065,1686362291.2,-70.801,555.176,57.129,-110.352,1368.098,339.1267900555463
1066,1686362291.2,-59.082,366.699,70.801,-63.965,1368.102,356.3604549244454
1067,1686362291.21,-36.133,676.758,105.957,-24.902,1368.106,333.7247405912766
1068,1686362291.21,-46.875,667.48,65.918,-46.875,1368.11,344.71474349285825
1069,1686362291.22,-70.801,-9.277,6.836,-97.168,1368.114,348.14337035971766
1070,1686362291.22,-64.453,-83.496,72.266,-81.543,1368.118,352.78535955328385
1071,1686362291.22,-49.805,648.438,139.16,-35.156,1368.122,345.40633296022037
1072,1686362291.23,-56.641,662.598,74.219,-70.801,1368.126,344.482710964563
1073,1686362291.23,-89.844,134.277,38.086,-121.582,1368.13,340.6501277019461
1074,1686362291.24,-102.539,39.062,89.844,-96.191,1368.134,340.85945468323456
1075,1686362291.24,-73.242,508.789,113.77,-51.27,1368.138,349.61440092478625
1076,1686362291.24,-58.105,709.473,75.195,-33.691,1368.141,340.9129555513893
1077,1686362291.25,-77.637,-101.562,-0.977,-52.246,1368.145,335.7371455645709
1078,1686362291.25,-88.867,-368.164,74.707,-31.738,1368.149,340.5701269962643
1079,1686362291.26,-61.035,673.828,134.277,24.414,1368.153,347.1033454930899
1080,1686362291.26,-46.875,677.246,48.34,18.555,1368.152,340.7220821687645
1081,1686362291.26,-62.012,378.418,61.035,-29.785,1368.156,342.37904571954425
1082,1686362291.26,-70.801,270.508,74.219,-51.27,1368.16,329.0402971662388
1083,1686362291.27,-48.34,170.41,58.105,-6.836,1368.164,344.02312209284486
1084,1686362291.27,-21.973,317.383,45.41,45.41,1368.168,344.36905901957766
1085,1686362291.28,-35.645,-192.383,42.969,43.945,1368.172,335.63092513759767
1086,1686362291.28,-62.988,21.484,121.582,12.695,1368.176,342.379062191385
1087,1686362291.28,-62.988,854.492,125.977,23.438,1368.18,343.91578861745876
1088,1686362291.29,-40.039,642.578,38.086,50.781,1368.184,340.5053641011282
1089,1686362291.29,-22.949,-241.699,18.066,29.297,1368.188,351.7543338778634
1090,1686362291.3,-36.133,68.359,136.719,12.207,1368.192,345.1896401966152
1091,1686362291.3,-46.387,915.039,111.816,0.0,1368.195,335.5360489205118
1092,1686362291.3,-41.992,525.879,51.758,0.977,1368.197,346.2322923707428
1093,1686362291.3,-28.809,416.504,83.008,-15.625,1368.201,345.1254205506161
1094,1686362291.31,-30.273,655.273,75.195,-81.055,1368.205,341.34923572938595
1095,1686362291.31,-42.969,574.707,50.781,-85.449,1368.209,344.2483484923439
1096,1686362291.32,-42.48,298.34,42.48,-13.672,1368.213,351.03120646638416
1097,1686362291.32,-32.715,137.207,68.848,14.16,1368.217,333.4435722270062
1098,1686362291.32,-43.457,231.934,78.125,-49.805,1368.22,341.99791662750863
1099,1686362291.33,-73.242,389.648,69.824,-96.68,1368.224,338.49831209980664
1100,1686362291.33,-67.383,-43.945,16.602,-83.984,1368.228,325.632993969503
1101,1686362291.34,-31.25,-206.543,78.613,-77.148,1368.232,334.31930644910534
1102,1686362291.34,-19.531,750.0,147.461,-120.605,1368.236,346.02507195154834
1103,1686362291.34,-42.969,783.691,49.316,-170.898,1368.24,339.3903683120051
1104,1686362291.35,-44.922,465.332,66.895,-168.457,1368.242,347.17929542490947
1105,1686362291.35,-19.531,669.922,104.004,-105.469,1368.246,345.2655970511473
1106,1686362291.35,-19.043,532.227,40.039,-88.867,1368.25,338.31219893066566
1107,1686362291.36,-43.457,202.637,19.043,-118.652,1368.254,344.59466281271517
1108,1686362291.36,-54.199,-3.418,68.848,-96.191,1368.258,365.76880068834697
1109,1686362291.37,-39.551,136.23,83.008,-29.785,1368.262,344.32329587589174
1110,1686362291.37,-33.203,664.551,74.707,-17.09,1368.266,344.6564814214811
1111,1686362291.37,-50.293,601.074,-2.441,-72.754,1368.269,334.22089809641267
1112,1686362291.38,-67.871,-102.051,2.93,-88.379,1368.273,350.2344667458452
1113,1686362291.38,-54.688,205.566,119.141,-48.828,1368.277,356.62822444106223
1114,1686362291.38,-23.926,927.246,86.426,-21.973,1368.281,350.7903719771694
1115,1686362291.39,-33.203,476.074,-6.836,-61.523,1368.285,346.3285858318581
1116,1686362291.39,-60.547,105.957,8.789,-109.375,1368.287,344.6544953141313
1117,1686362291.4,-49.805,597.168,85.938,-124.512,1368.291,336.33355352241233
1118,1686362291.4,-32.715,690.43,41.992,-143.066,1368.295,337.5815473621297
1119,1686362291.4,-39.062,393.066,39.551,-169.922,1368.299,339.7234880327999
1120,1686362291.41,-72.266,321.777,53.223,-203.613,1368.303,342.5899363488943
1121,1686362291.41,-97.168,253.906,15.625,-184.082,1368.307,348.0992958169568
1122,1686362291.42,-86.426,296.875,29.785,-93.262,1368.31,340.8626833189964
1123,1686362291.42,-83.008,-22.461,13.184,-41.016,1368.314,342.9625327600948
1124,1686362291.42,-97.656,-122.559,46.387,-49.316,1368.318,339.4047027592649
1125,1686362291.43,-101.074,683.105,77.637,-41.504,1368.322,339.2776714365098
1126,1686362291.43,-87.891,672.852,16.602,18.555,1368.326,332.8905442137042
1127,1686362291.43,-78.125,166.016,11.23,34.18,1368.33,350.4740706860686
1128,1686362291.44,-98.633,238.281,54.199,-49.805,1368.332,350.82411740824557
1129,1686362291.44,-111.816,577.637,41.016,-109.863,1368.336,337.84013183423156
1130,1686362291.44,-78.125,385.742,2.93,-80.078,1368.34,346.42845422673435
1131,1686362291.45,-48.34,-323.73,18.066,-52.734,1368.344,352.49245464654274
1132,1686362291.45,-59.082,-103.516,77.637,-101.562,1368.348,343.3647283800873
1133,1686362291.46,-65.918,542.969,56.641,-166.992,1368.352,361.62916028552144
1134,1686362291.46,-56.152,310.547,-6.836,-177.734,1368.356,353.2508305817662
1135,1686362291.46,-42.969,27.832,28.809,-149.414,1368.36,353.8198658505341
1136,1686362291.47,-35.156,422.852,100.098,-149.902,1368.364,348.79332338266613
1137,1686362291.47,-52.246,813.965,38.086,-176.758,1368.367,346.8353242112485
1138,1686362291.48,-50.781,410.645,-4.883,-131.348,1368.371,348.3310314091914
1139,1686362291.48,-21.973,290.527,18.066,-48.828,1368.375,344.26752491583204
1140,1686362291.5,-20.02,541.992,39.062,-39.062,1368.398,351.5868960162057
1141,1686362291.5,-41.992,474.121,-2.441,-45.41,1368.401,346.0860972808144
1142,1686362291.51,-57.617,-145.508,-19.043,-52.246,1368.405,351.6660084514064
1143,1686362291.51,-49.805,-92.773,51.27,-42.969,1368.409,343.5656479717093
1144,1686362291.51,-43.945,533.203,33.203,-55.176,1368.413,350.85969225283344
1145,1686362291.52,-57.617,322.754,-12.695,-140.625,1368.417,358.3409886564355
1146,1686362291.52,-83.984,-338.379,-18.555,-173.34,1368.421,345.15846393774183
1147,1686362291.52,-88.867,-250.977,56.152,-119.141,1368.425,354.58472568545295
1148,1686362291.53,-87.891,539.062,46.387,128.906,1368.436,351.2840057800141
1149,1686362291.53,-65.43,714.355,93.75,-81.055,1368.429,342.44981981628786
1150,1686362291.53,-83.008,436.523,4.883,127.93,1368.44,341.64807112702266
1151,1686362291.53,-65.918,649.414,0.0,-83.496,1368.433,349.98467888226475
1152,1686362291.53,-91.797,-14.648,13.672,83.008,1368.444,353.42387047569105
1153,1686362291.54,-81.543,257.324,3.418,-57.617,1368.437,345.33621672745096
1154,1686362291.54,-71.289,53.223,55.176,66.895,1368.448,353.4114407565886
1155,1686362291.54,-92.773,329.59,52.246,32.227,1368.44,353.05555906349184
1156,1686362291.54,-34.18,371.094,47.363,51.758,1368.452,344.35495230974146
1157,1686362291.55,-11.23,127.441,-1.465,11.719,1368.456,353.4874885817033
1158,1686362291.55,-22.461,-41.992,44.922,-68.848,1368.46,343.12717214027066
1159,1686362291.55,-58.105,379.395,100.586,-102.051,1368.463,349.7090654906647
1160,1686362291.56,-52.246,614.258,41.992,-64.453,1368.467,351.2827057162282
1161,1686362291.56,-40.527,351.074,-19.043,-70.312,1368.471,342.07592368716297
1162,1686362291.56,-62.988,-567.871,-48.34,-81.055,1368.475,343.96078454466465
1163,1686362291.57,-83.496,-333.008,67.871,-77.637,1368.479,345.24474145463756
1164,1686362291.57,-63.477,830.566,78.613,-51.758,1368.48,359.3281193053736
1165,1686362291.58,-29.785,545.41,30.273,-8.301,1368.484,342.1635373015405
1166,1686362291.58,-41.992,346.68,59.082,-11.23,1368.488,344.45938618107124
1167,1686362291.58,-70.801,560.547,51.758,-44.434,1368.492,355.61468415169094
1168,1686362291.59,-71.777,476.562,4.883,-38.086,1368.496,352.086978158679
1169,1686362291.59,-44.922,-77.637,0.977,6.836,1368.5,354.3114565668538
1170,1686362291.6,-35.645,-67.383,65.43,-8.789,1368.504,343.81427781275687
1171,1686362291.6,-49.805,341.309,32.227,-47.363,1368.508,352.51243742933895
1172,1686362291.6,-44.922,406.738,10.742,-27.832,1368.512,348.1421284891041
1173,1686362291.61,-21.973,-79.102,-6.348,7.812,1368.515,352.2584999621911
1174,1686362291.61,-14.16,-105.469,47.363,-43.945,1368.519,359.90500675597565
1175,1686362291.62,-25.879,692.383,55.176,-165.527,1368.523,361.9864850261288
1176,1686362291.63,-45.41,481.445,-1.465,-220.703,1368.527,360.1447661439821
1177,1686362291.64,-44.922,274.902,26.367,-192.871,1368.531,339.46004035980593
1178,1686362291.64,-25.391,243.652,39.062,-138.672,1368.535,352.2131793334023
1179,1686362291.64,-30.762,319.824,36.621,-131.348,1368.539,347.44376652607264
1180,1686362291.65,-51.27,445.312,10.254,-157.715,1368.543,344.49425851558937
1181,1686362291.65,-55.664,-430.176,-33.691,-105.469,1368.547,342.70118808757604
1182,1686362291.66,-47.363,-267.09,56.641,-68.359,1368.55,351.70115830059854
1183,1686362291.66,-46.875,849.121,81.543,-122.07,1368.554,349.3290229302141
1184,1686362291.66,-64.453,479.492,-15.625,-142.578,1368.558,359.87053872100296
1185,1686362291.67,-71.777,55.664,-21.973,-92.285,1368.562,353.10297731790115
1186,1686362291.67,-58.105,342.285,50.781,-23.438,1368.566,363.71756461345683
1187,1686362291.67,-54.199,656.25,50.781,19.043,1368.57,357.4389845455335
1188,1686362291.68,-82.031,223.145,-3.418,34.18,1368.572,360.5708476124022
1189,1686362291.68,-109.375,-43.945,22.949,27.832,1368.576,358.54233557035536
1190,1686362291.68,-99.609,430.176,53.711,35.645,1368.58,353.8357262775647
1191,1686362291.69,-85.449,581.055,29.785,35.156,1368.584,346.98115966216307
1192,1686362291.69,-88.379,6.836,-12.695,-27.344,1368.588,351.445609110504
1193,1686362291.7,-87.402,-332.52,24.414,-72.754,1368.592,355.96905886102246
1194,1686362291.7,-76.172,236.816,66.895,-66.406,1368.596,342.3385315588925
1195,1686362291.7,-58.594,612.305,23.926,-57.129,1368.6,354.7836223673631
1196,1686362291.71,-64.453,-64.941,-28.32,-84.473,1368.604,358.39242944676204
1197,1686362291.71,-79.102,-292.48,37.109,-105.957,1368.607,363.3058328055899
1198,1686362291.71,-58.105,574.707,69.824,-76.172,1368.611,356.63734506634626
1199,1686362291.72,-30.762,479.98,-7.812,-31.25,1368.615,348.4261435055384
1200,1686362291.72,-27.344,107.91,9.766,-59.57,1368.617,358.73026450645415
1201,1686362291.72,-45.898,274.902,43.457,-94.238,1368.621,353.38933417347505
1202,1686362291.73,-60.059,257.324,13.184,-75.195,1368.625,352.6648672844944
1203,1686362291.73,-47.852,184.082,7.812,-45.898,1368.629,350.8113071177229
1204,1686362291.74,-40.527,-287.598,-0.977,-44.922,1368.633,358.1821490760489
1205,1686362291.74,-62.988,-316.406,45.41,-100.098,1368.637,351.1402062429343
1206,1686362291.74,-62.988,491.699,63.477,-108.887,1368.64,358.0853202366754
1207,1686362291.75,-37.598,489.746,-4.883,-43.945,1368.644,344.9198211786786
1208,1686362291.75,-18.066,-14.648,19.043,-17.578,1368.648,358.3667696105131
1209,1686362291.76,-15.625,330.566,108.398,-66.406,1368.652,349.55628739584165
1210,1686362291.76,-41.504,745.605,49.805,-79.59,1368.656,361.67961384072606
1211,1686362291.76,-35.645,349.609,5.859,-28.32,1368.66,366.7836682629385
1212,1686362291.78,-0.977,252.441,21.973,27.832,1368.677,356.55227106737476
1213,1686362291.78,3.906,459.961,40.527,37.598,1368.681,354.04278282490515
1214,1686362291.79,-19.531,363.77,1.953,-15.625,1368.685,351.4735818073817
1215,1686362291.79,-37.109,-180.176,-3.418,-43.457,1368.689,355.72472592683846
1216,1686362291.8,-24.414,-145.02,47.852,-41.016,1368.693,359.2296381617555
1217,1686362291.8,-13.184,259.277,40.039,-62.988,1368.697,347.69898019345396
1218,1686362291.8,-27.832,244.629,25.391,-100.098,1368.701,366.7625926848291
1219,1686362291.81,-29.785,-232.422,-11.23,-86.426,1368.704,351.95777641885223
1220,1686362291.81,-18.066,285.645,53.711,21.484,1368.707,349.66032298233915
1221,1686362291.81,-1.953,-212.402,48.34,-35.645,1368.708,355.50774086361076
1222,1686362291.82,-2.93,460.449,27.344,40.039,1368.711,346.3936618712646
1223,1686362291.82,15.625,692.383,85.449,-40.039,1368.712,351.2042596264789
1224,1686362291.82,-15.137,146.973,-18.555,-21.973,1368.715,343.07541884493907
1225,1686362291.82,-4.395,559.082,-1.465,-100.098,1368.716,359.7210112549372
1226,1686362291.82,-48.828,-265.137,49.316,-68.359,1368.719,350.473346863534
1227,1686362291.82,-23.438,155.762,-0.977,-70.801,1368.72,352.0113505199825
1228,1686362291.83,-36.621,99.609,89.844,-16.113,1368.723,365.6528797416177
1229,1686362291.83,2.441,395.996,29.785,48.828,1368.727,353.57282983988733
1230,1686362291.84,-1.953,141.602,6.348,47.852,1368.73,358.4208401993956
1231,1686362291.84,-34.18,98.145,22.461,-37.598,1368.734,351.30742835867824
1232,1686362291.84,-28.32,414.551,53.711,-68.359,1368.738,353.6840799987948
1233,1686362291.85,7.324,564.453,32.715,7.324,1368.742,359.59368816626227
1234,1686362291.85,10.742,220.215,-37.598,31.25,1368.746,364.01276754855695
1235,1686362291.85,-17.09,-625.488,-28.809,-14.16,1368.75,368.1686898238302
1236,1686362291.86,-34.18,-73.73,99.121,-19.531,1368.753,351.77089200024
1237,1686362291.86,-24.902,762.207,37.109,-1.953,1368.757,339.6253719437521
1238,1686362291.86,-7.812,295.898,25.879,-3.418,1368.761,349.65437295813547
1239,1686362291.87,-12.695,220.703,73.73,-27.344,1368.765,365.75970563677197
1240,1686362291.87,-29.785,371.094,2.441,-44.922,1368.769,348.5787615562451
1241,1686362291.88,-27.344,174.805,-8.789,-3.418,1368.773,359.9740646625391
1242,1686362291.88,-5.859,-264.16,-13.184,28.32,1368.777,346.700306818355
1243,1686362291.88,-5.371,-306.641,3.906,-6.348,1368.781,348.8815779847127
1244,1686362291.89,-22.461,333.496,58.105,-48.828,1368.785,343.1554073276141
1245,1686362291.89,-7.324,476.562,16.602,-40.039,1368.789,350.77266130875665
1246,1686362291.9,13.672,125.0,4.395,-9.766,1368.792,360.8415947365683
1247,1686362291.9,6.836,193.359,40.039,-36.621,1368.796,356.09932066045985
1248,1686362291.9,-24.902,488.281,21.484,-126.465,1368.811,360.4776702678425
1249,1686362291.91,-42.48,281.738,-10.254,-152.344,1368.815,346.59929330860416
1250,1686362291.91,-28.32,-34.668,-8.789,-91.797,1368.819,362.9414167429576
1251,1686362291.91,-5.371,192.871,39.551,-93.75,1368.823,345.36066236581036
1252,1686362291.92,10.742,371.582,-6.836,-131.348,1368.826,366.84708923466184
1253,1686362291.92,0.0,33.203,-43.945,-123.535,1368.83,356.84496159871003
1254,1686362291.93,14.16,-583.496,-20.02,-58.105,1368.834,358.2266406283038
1255,1686362291.93,39.062,-183.105,61.523,-23.926,1368.838,360.5514087152953
1256,1686362291.93,26.367,735.84,47.852,-87.402,1368.842,350.8063622369052
1257,1686362291.94,4.395,307.129,-29.785,-110.352,1368.846,375.5021956086022
1258,1686362291.94,0.488,-58.594,-18.066,-67.871,1368.85,353.41300855694567
1259,1686362291.94,19.043,198.242,24.414,-46.387,1368.854,359.9548470229329
1260,1686362291.96,20.02,476.074,3.906,-68.848,1368.866,356.31090255327416
1261,1686362291.97,-14.16,22.461,-16.602,-107.422,1368.87,350.2778898108646
1262,1686362291.97,-18.066,-248.047,20.996,-59.57,1368.874,362.4548533253237
1263,1686362291.98,7.812,247.07,34.668,23.438,1368.878,344.079528075101
1264,1686362291.98,9.766,456.055,-0.977,11.23,1368.882,343.89166440623467
1265,1686362291.98,0.977,-298.34,-50.293,-39.062,1368.886,366.1245417095165
1266,1686362291.99,6.836,-629.395,20.508,-32.715,1368.89,355.27408547248734
1267,1686362291.99,24.902,325.684,77.148,18.555,1368.894,353.94060420504934
1268,1686362292.0,40.039,470.215,-14.16,63.965,1368.898,358.70802410370527
1269,1686362292.0,31.738,62.5,-21.973,41.016,1368.901,367.58894357244264
1270,1686362292.0,9.766,92.773,6.836,10.742,1368.905,361.61004774673023
1271,1686362292.01,21.973,177.246,-12.695,134.277,1368.916,351.76955247492623
1272,1686362292.01,17.09,295.898,-4.883,83.984,1368.909,359.05719125764955
1273,1686362292.01,1.953,-115.723,-13.672,55.176,1368.92,361.4296731497472
1274,1686362292.01,-12.695,-226.074,1.953,-26.367,1368.924,362.9670800387171
1275,1686362292.02,-20.02,85.938,2.441,-24.414,1368.928,347.37367271940997
1276,1686362292.02,-5.371,195.312,-31.25,6.836,1368.931,360.30201085854026
1277,1686362292.03,16.113,-260.742,-14.648,-11.719,1368.935,358.1077881992125
1278,1686362292.03,21.484,-89.844,24.902,-26.855,1368.939,352.9295880115166
1279,1686362292.03,20.996,312.012,1.465,29.785,1368.943,346.4732910439206
1280,1686362292.04,31.738,201.66,-45.898,112.305,1368.947,361.8033062674892
1281,1686362292.04,37.109,-693.848,-79.59,172.852,1368.951,353.50887634654947
1282,1686362292.04,19.531,-665.527,47.852,162.109,1368.955,357.35311426380264
1283,1686362292.05,12.695,460.449,45.41,151.855,1368.959,345.2000390514601
1284,1686362292.05,25.391,359.863,-24.902,191.406,1368.947,358.6569210813343
1285,1686362292.06,39.551,188.965,23.926,193.359,1368.951,357.43076994478963
1286,1686362292.06,40.039,359.375,2.441,148.926,1368.955,363.0715002432952
1287,1686362292.06,36.621,142.578,-34.18,112.305,1368.959,342.79723094614724
1288,1686362292.07,42.48,-364.258,-24.414,99.609,1368.963,354.7202414419806
1289,1686362292.07,42.48,-465.332,8.301,93.262,1368.967,349.0741985680077
1290,1686362292.08,25.391,76.172,22.949,34.668,1368.971,348.36813127265344
1291,1686362292.08,18.066,349.609,-7.324,-17.578,1368.975,352.337719843028
1292,1686362292.08,23.926,-327.637,-39.062,-5.371,1368.979,361.6395016502453
1293,1686362292.09,27.832,-367.188,25.879,5.859,1368.983,361.5119644836836
1294,1686362292.09,8.789,447.754,9.766,-37.598,1368.986,365.48186250410936
1295,1686362292.09,-20.02,231.934,-43.945,-111.816,1368.99,363.438478063211
