,timestamps,TP9,AF7,AF8,TP10,Secondary Timestamp,emg_signal
0,1686066509.67,-25.391,187.988,170.41,-10.254,814.567,336.37297809344
1,1686066509.67,-72.266,301.27,123.047,-39.551,814.571,322.2712890397791
2,1686066509.68,5.371,187.012,135.254,-6.836,814.575,324.3741592347556
3,1686066509.68,72.266,-49.316,123.047,33.691,814.579,321.8724049472724
4,1686066509.68,7.324,-13.672,78.125,5.859,814.582,317.2888933129513
5,1686066509.69,-79.102,-86.914,20.996,-36.621,814.586,329.04560312395716
6,1686066509.69,-18.555,-279.297,-53.223,-11.23,814.59,326.16220545275564
7,1686066509.7,71.289,-764.648,-242.188,39.062,814.594,326.38868145881685
8,1686066509.7,28.32,-373.047,24.902,15.625,814.598,328.8008059676275
9,1686066509.7,-66.895,371.582,228.027,-34.668,814.602,333.18776603709216
10,1686066509.71,-41.016,17.578,20.508,-13.184,814.606,314.5249957824492
11,1686066509.71,61.523,106.445,111.328,21.973,814.61,316.7445898364563
12,1686066509.74,64.941,484.863,233.398,21.484,814.639,324.01757473046695
13,1686066509.75,-20.996,369.141,145.508,-5.371,814.643,328.79041303062087
14,1686066509.75,-54.688,-197.754,-31.738,-20.02,814.647,322.6418236223156
15,1686066509.75,25.879,-174.805,76.66,1.953,814.651,322.8190859492246
16,1686066509.76,58.594,374.512,218.75,12.695,814.655,328.57430688815
17,1686066509.76,57.129,533.203,275.879,13.184,814.666,314.10704172467155
18,1686066509.76,-25.391,40.527,65.43,-1.953,814.659,334.21230740566637
19,1686066509.76,31.738,359.375,139.648,12.695,814.67,320.95886489965864
20,1686066509.77,-75.684,-606.445,-241.699,-12.207,814.662,320.75562427806324
21,1686066509.77,-65.918,-60.059,-16.113,-20.996,814.674,339.56961556856436
22,1686066509.77,-10.254,-1000.0,-434.57,17.578,814.666,321.7763954090218
23,1686066509.77,-59.57,39.062,69.824,-22.949,814.678,333.2628279169135
24,1686066509.77,53.711,-298.828,39.551,19.043,814.67,332.5807648116906
25,1686066509.77,38.574,362.793,210.938,5.371,814.682,325.81641356278595
26,1686066509.78,4.395,361.816,171.387,-14.648,814.674,307.0129538495957
27,1686066509.78,53.711,30.273,35.645,10.742,814.686,315.0889496724388
28,1686066509.78,-74.219,-52.734,-20.996,-44.434,814.678,321.20573316626485
29,1686066509.78,-43.945,-550.781,-176.27,-20.508,814.69,339.4138226556035
30,1686066509.78,-37.598,106.934,143.066,-33.203,814.682,326.6466274061985
31,1686066509.78,-69.824,-199.219,32.715,-36.133,814.694,323.6188558993278
32,1686066509.79,30.762,162.598,149.902,4.883,814.698,330.94997532107976
33,1686066509.79,68.359,-183.594,-36.133,34.18,814.702,323.3664584727879
34,1686066509.8,-16.602,-272.461,-45.41,-4.395,814.706,322.53221086106464
35,1686066509.8,-79.102,73.73,117.188,-41.504,814.709,325.65312353333513
36,1686066509.82,-6.836,278.32,175.781,-14.648,814.714,328.68768357207153
37,1686066509.82,79.102,-158.691,-36.621,33.203,814.718,318.12695047679205
38,1686066509.82,20.996,-972.168,-370.117,22.461,814.721,327.3570786502804
39,1686066509.83,-80.566,-564.453,-70.801,-29.785,814.725,322.98764479435687
40,1686066509.83,-42.48,175.781,195.312,-26.855,814.729,334.5363403507867
41,1686066509.84,60.547,-398.926,-123.047,32.227,814.733,327.4501086791561
42,1686066509.84,40.527,-716.797,-182.617,38.574,814.737,316.6207928346807
43,1686066509.84,-57.617,97.656,152.832,-28.809,814.741,321.80859231784416
44,1686066509.85,-62.5,132.324,94.238,-34.668,814.745,336.0602186802031
45,1686066509.85,-70.312,-225.586,-48.828,-41.016,814.757,347.7156692729469
46,1686066509.85,39.062,8.789,120.605,7.324,814.749,320.841839269449
47,1686066509.85,19.531,-250.977,83.984,-12.207,814.761,327.3786014056062
48,1686066509.86,57.129,269.531,195.312,13.184,814.753,324.94026009402154
49,1686066509.86,75.195,134.766,192.871,6.836,814.765,329.0451662647098
50,1686066509.86,-35.156,103.516,41.016,-22.949,814.757,327.81154092205094
51,1686066509.86,-1.465,353.516,164.551,-16.113,814.769,329.51450724436614
52,1686066509.87,-74.219,-25.391,11.23,-33.203,814.773,324.6022050962529
53,1686066509.87,-12.207,-333.984,-80.078,-7.812,814.777,333.0454887807302
54,1686066509.87,68.848,-50.293,120.117,18.555,814.781,333.9759792734231
55,1686066509.88,25.879,418.457,274.902,-7.324,814.785,329.1080502495837
56,1686066509.88,-63.965,-109.375,-69.824,-39.062,814.789,334.79271366444345
57,1686066509.88,-42.48,-718.262,-292.48,-20.996,814.793,330.35520643347934
58,1686066509.89,61.035,38.574,139.648,2.441,814.796,325.4057520425337
59,1686066509.89,53.711,467.773,226.562,-10.742,814.8,324.9600127419808
60,1686066509.91,-48.34,-7.812,36.133,-43.945,814.807,322.8863281422289
61,1686066509.91,-55.664,-244.141,-16.602,-45.41,814.81,341.02661291381713
62,1686066509.92,41.016,-101.562,55.176,-1.465,814.814,332.2333031173519
63,1686066509.92,69.336,34.18,144.531,8.301,814.818,318.3297334256635
64,1686066509.92,-23.926,-398.926,-153.809,-13.672,814.822,330.18885855196106
65,1686066509.93,-72.754,-1000.0,-427.734,-17.09,814.826,332.38162133126326
66,1686066509.93,8.301,-336.426,48.828,0.977,814.83,313.4112550613485
67,1686066509.94,72.266,421.387,225.586,12.207,814.834,321.06525435869065
68,1686066509.94,12.695,-76.66,-22.461,-10.742,814.838,335.25484630217466
69,1686066509.94,-66.895,-188.477,40.527,-34.668,814.842,340.54120532155946
70,1686066509.95,-14.16,276.855,168.457,-9.766,814.846,315.3771233465937
71,1686066509.95,73.73,286.133,109.375,34.18,814.849,332.57055396797705
72,1686066509.95,33.691,133.301,107.422,18.066,814.849,329.17648827945345
73,1686066509.96,-60.059,126.465,120.605,-22.461,814.853,320.66047525277463
74,1686066509.96,-49.316,226.562,143.555,-18.066,814.857,328.4297186341815
75,1686066509.96,55.176,146.484,104.492,21.484,814.861,318.7143471288974
76,1686066509.97,61.523,-144.043,20.02,23.438,814.864,321.00910829478727
77,1686066509.97,-42.969,-287.109,-9.766,-11.23,814.868,333.1040055330143
78,1686066509.98,-66.895,-295.898,-73.242,-13.184,814.872,324.9707206638815
79,1686066509.98,35.156,-289.062,-76.66,18.066,814.876,326.2121303921392
80,1686066509.98,73.73,-777.832,-239.746,37.598,814.88,317.7745891229555
81,1686066509.99,-21.973,-439.453,-47.852,-13.672,814.884,328.4935857972118
82,1686066509.99,-74.707,134.277,99.121,-43.457,814.888,333.2946063672241
83,1686066510.0,10.742,-123.047,5.371,4.395,814.892,333.5435290811414
84,1686066510.0,79.102,142.578,155.762,31.25,814.894,328.0422393228597
85,1686066510.0,10.742,385.254,192.871,2.441,814.898,329.5848018218239
86,1686066510.0,-72.754,31.738,57.129,-25.879,814.901,336.20533888649675
87,1686066510.01,-26.855,-597.168,-175.293,2.93,814.905,332.1653653847044
88,1686066510.01,74.219,-437.5,-83.984,40.527,814.909,333.59101410923364
89,1686066510.02,42.48,18.066,93.75,20.996,814.913,314.7320204908867
90,1686066510.02,-58.105,-175.293,-4.395,-17.09,814.917,321.48740330240355
91,1686066510.02,-44.434,-669.922,-252.441,0.977,814.921,327.07016740089693
92,1686066510.03,55.664,-693.848,-152.832,31.738,814.925,307.35426646159755
93,1686066510.03,65.43,306.152,263.184,6.348,814.929,326.4421616889039
94,1686066510.04,-36.621,336.426,93.262,-22.949,814.933,333.7801275425324
95,1686066510.04,-65.918,-103.027,12.207,-23.926,814.937,331.1017248074713
96,1686066510.04,32.715,200.684,193.848,5.859,814.939,328.96374265411856
97,1686066510.05,76.66,592.285,270.508,18.555,814.943,332.38500820204223
98,1686066510.05,-6.348,265.625,83.496,-17.09,814.947,324.5924211847815
99,1686066510.06,-66.895,-121.582,-27.832,-49.805,814.951,327.4192763668915
100,1686066510.06,-2.441,124.023,139.16,-24.902,814.955,321.6622933434982
101,1686066510.06,73.73,234.863,176.27,9.277,814.959,323.5506596113511
102,1686066510.07,18.555,-140.137,-13.672,-4.883,814.963,332.8433037846401
103,1686066510.07,-73.242,-679.688,-218.75,-27.344,814.967,334.31564391911337
104,1686066510.07,-31.738,-223.633,45.898,-22.461,814.97,319.3034750629428
105,1686066510.08,56.641,300.781,211.426,8.301,814.974,318.7062408694042
106,1686066510.08,35.645,-191.895,-52.246,9.277,814.978,330.57098216633403
107,1686066510.09,-55.176,-346.191,-125.977,-29.297,814.982,328.6142725349429
108,1686066510.09,-51.758,128.906,113.281,-37.109,814.984,319.97935176873443
109,1686066510.09,51.27,424.805,216.797,2.441,814.988,326.1081389982257
110,1686066510.1,65.43,-221.191,-56.641,20.508,814.991,318.2230728494819
111,1686066510.1,-40.039,-687.012,-179.688,-12.207,814.995,329.2174502360124
112,1686066510.1,-79.102,-40.039,90.332,-41.016,814.999,325.35410786716443
113,1686066510.11,16.602,89.844,127.93,-3.906,815.003,317.9562123750377
114,1686066510.11,68.848,-499.023,-119.141,31.25,815.007,318.27911704408723
115,1686066510.11,-12.695,-678.711,-182.617,-6.836,815.011,327.9714198470677
116,1686066510.12,-83.496,101.074,147.461,-52.246,815.015,320.1403683424984
117,1686066510.12,-16.113,228.516,117.188,-24.902,815.019,333.41269621645245
118,1686066510.13,65.918,173.828,122.559,25.391,815.023,324.3429821250694
119,1686066510.13,14.648,240.723,138.672,15.625,815.027,317.7693102835038
120,1686066510.14,-78.125,19.043,34.668,-20.02,815.034,322.92355059578716
121,1686066510.14,-47.363,-92.773,4.883,-12.207,815.038,324.8944941360624
122,1686066510.14,47.852,-165.527,67.383,20.996,815.042,325.6562369461379
123,1686066510.15,29.785,130.371,174.805,10.254,815.046,321.8281730951305
124,1686066510.15,-57.129,299.316,143.555,-29.785,815.05,321.8961994114179
125,1686066510.16,-56.641,-218.75,-79.59,-23.926,815.054,325.4764392983558
126,1686066510.16,43.945,-653.809,-160.156,21.484,815.058,322.769504615174
127,1686066510.16,64.941,-81.055,119.141,25.391,815.062,327.42241622251186
128,1686066510.17,-33.203,368.652,180.176,-13.672,815.066,317.99693007499354
129,1686066510.17,-72.754,-123.047,-39.062,-27.832,815.069,324.3581788758598
130,1686066510.17,20.02,-115.234,40.039,0.977,815.073,314.4086244686288
131,1686066510.18,3.906,351.074,158.203,0.0,815.088,323.41676072811583
132,1686066510.18,76.172,376.953,237.305,25.391,815.077,326.50468628874154
133,1686066510.18,-64.941,-144.043,-56.152,-28.32,815.092,324.11400571814914
134,1686066510.18,-8.301,-378.418,-66.406,-3.418,815.095,317.970431228106
135,1686066510.19,78.125,-152.344,83.008,32.715,815.099,327.1638951153567
136,1686066510.19,33.691,53.223,125.488,11.23,815.103,325.9529522598563
137,1686066510.2,-63.965,-380.371,-150.879,-19.531,815.107,312.769873992955
138,1686066510.2,-45.41,-1000.0,-507.324,1.465,815.111,324.67652877365816
139,1686066510.2,45.41,-425.293,-60.547,20.02,815.115,317.3007418197098
140,1686066510.21,38.574,363.77,217.773,4.883,815.119,334.69509483627627
141,1686066510.21,-56.152,54.199,36.621,-26.855,815.123,335.03726970756315
142,1686066510.22,-70.801,20.508,77.637,-33.691,815.127,317.0913195467893
143,1686066510.22,29.297,321.777,170.898,-0.977,815.131,312.84710873224583
144,1686066510.24,60.547,318.359,152.344,14.16,815.147,333.12948427999845
145,1686066510.24,-31.738,47.852,62.012,-14.648,815.151,324.0824833183716
146,1686066510.24,-87.891,43.945,72.754,-35.645,815.155,325.7679519713035
147,1686066510.25,-3.906,319.336,209.961,-13.184,815.159,324.2588521148793
148,1686066510.25,66.406,224.121,144.043,10.254,815.163,321.46303825968903
149,1686066510.26,-1.465,-260.254,-47.363,0.0,815.167,319.68189592725184
150,1686066510.26,-82.52,-426.27,-96.68,-25.879,815.171,320.2263968439183
151,1686066510.26,-39.551,-104.004,50.293,-12.695,815.174,323.46836626642784
152,1686066510.27,57.129,55.664,57.129,22.461,815.178,330.35072333828947
153,1686066510.27,25.879,-643.555,-213.867,17.578,815.182,325.9596645574287
154,1686066510.28,-76.172,-358.398,19.043,-35.645,815.186,331.50974397626555
155,1686066510.28,-58.594,200.195,174.805,-29.785,815.19,325.686361786432
156,1686066510.28,46.387,61.523,107.422,24.414,815.179,316.75168198712953
157,1686066510.29,51.758,158.691,134.277,20.02,815.183,324.17173356885445
158,1686066510.29,-47.363,-19.531,17.578,-18.066,815.187,324.6111370373522
159,1686066510.29,-68.848,-206.543,-34.668,-29.297,815.19,340.8233792026361
160,1686066510.3,24.902,-460.449,-116.211,8.789,815.194,320.2974314738638
161,1686066510.3,55.664,-727.051,-198.242,34.18,815.198,322.9201800921729
162,1686066510.31,-34.668,-120.605,74.219,-15.625,815.202,330.53345512585696
163,1686066510.31,-91.309,98.145,82.52,-44.922,815.206,330.2864029232822
164,1686066510.31,-22.461,-373.535,-46.387,-17.578,815.21,334.050924103593
165,1686066510.32,49.805,-140.137,99.609,6.348,815.214,312.5291122537314
166,1686066510.32,-3.418,406.738,203.125,-15.137,815.218,316.60282389610853
167,1686066510.32,-88.867,183.105,52.734,-45.898,815.222,327.4091170514602
168,1686066510.34,-49.316,-545.898,-175.781,-20.508,815.239,324.1617314995879
169,1686066510.35,48.828,-316.406,26.855,12.695,815.243,322.82398010916427
170,1686066510.35,33.691,447.754,232.91,-6.836,815.247,320.00164156118524
171,1686066510.35,-68.848,108.887,17.578,-41.016,815.251,334.6214763315959
172,1686066510.36,-71.777,-250.977,-86.426,-34.668,815.255,338.5386954238624
173,1686066510.36,32.227,-165.039,38.086,2.441,815.258,330.9580878005886
174,1686066510.37,48.34,178.223,200.195,5.371,815.262,325.5830649714025
175,1686066510.37,-47.852,-11.719,-7.324,-27.344,815.266,322.25710510238116
176,1686066510.37,-99.121,-548.34,-190.43,-37.109,815.269,336.87033655992735
177,1686066510.37,-85.449,-690.43,-284.668,-32.715,815.27,338.33952500749297
178,1686066510.38,-21.973,138.184,162.109,-13.672,815.273,345.4261824888567
179,1686066510.38,5.859,-148.438,69.824,-9.766,815.274,328.8266006134699
180,1686066510.38,60.059,234.863,164.551,17.578,815.276,349.7144708192046
181,1686066510.38,59.082,309.57,200.684,3.906,815.278,334.75233849526245
182,1686066510.38,12.207,-468.262,-149.902,4.883,815.28,340.9295867866258
183,1686066510.38,-31.25,-356.934,-154.297,-16.113,815.282,342.47974197619806
184,1686066510.39,-79.59,-618.164,-194.336,-28.32,815.284,337.5141713554725
185,1686066510.39,-41.992,-128.418,62.988,-17.578,815.288,337.71341060893997
186,1686066510.4,61.523,-32.227,60.059,20.996,815.292,334.4160405550386
187,1686066510.4,43.945,-121.094,4.883,7.812,815.296,336.5212414880693
188,1686066510.4,-53.711,-86.426,22.461,-33.691,815.3,351.4506203770477
189,1686066510.41,-56.641,225.586,150.391,-32.715,815.304,352.42730430088966
190,1686066510.41,42.969,375.0,159.668,4.883,815.308,347.1128862881164
191,1686066510.42,55.664,-309.57,-87.402,29.297,815.312,343.6524969219682
192,1686066510.42,-44.434,-544.434,-65.43,-6.836,815.319,351.04214709547483
193,1686066510.42,-86.426,-74.219,74.707,-40.527,815.323,350.4449225062603
194,1686066510.43,6.836,-28.32,61.523,-3.418,815.327,345.4422998234294
195,1686066510.43,68.848,-66.895,125.488,22.461,815.331,362.0666807570118
196,1686066510.44,-8.789,38.086,105.957,-10.254,815.335,365.0323569327235
197,1686066510.44,-75.195,-127.93,-86.914,-36.621,815.338,352.1432059673149
198,1686066510.44,-6.348,-317.383,-133.301,-10.742,815.342,354.6731485720264
199,1686066510.45,81.543,-466.309,-82.52,32.227,815.346,348.75610172674556
200,1686066510.45,38.086,-11.23,106.445,5.859,815.35,348.92206799770497
201,1686066510.46,-59.082,317.871,145.996,-46.875,815.354,359.1375769168013
202,1686066510.46,-45.41,-99.609,-10.742,-34.668,815.358,336.55748267922434
203,1686066510.46,54.199,431.152,208.496,10.254,815.358,354.86498734139076
204,1686066510.46,58.594,44.434,89.844,11.23,815.362,355.7167560553462
205,1686066510.47,-47.363,332.031,134.277,-25.391,815.362,351.64443946679745
206,1686066510.47,-58.105,-255.371,-51.27,-25.391,815.366,363.3215818505297
207,1686066510.47,36.621,-459.961,-30.762,10.254,815.37,359.04241835316446
208,1686066510.48,69.824,60.547,140.137,16.602,815.374,365.4385310787077
209,1686066510.48,-5.371,-12.207,15.625,-4.395,815.378,365.05235172059866
210,1686066510.49,-64.941,-622.559,-282.227,-21.484,815.382,356.79586804688097
211,1686066510.49,-6.836,-1000.0,-421.387,-7.812,815.386,363.38832559557557
212,1686066510.49,57.617,-348.145,-9.277,10.254,815.39,364.08591631674557
213,1686066510.5,-8.789,339.844,160.156,-14.16,815.393,352.90087826875117
214,1686066510.5,-85.938,-25.391,-1.465,-45.898,815.397,363.45228438514937
215,1686066510.5,-23.926,107.91,126.953,-17.578,815.401,357.58185680153844
216,1686066510.51,80.078,480.957,213.867,27.344,815.417,365.9542328405285
217,1686066510.51,49.805,306.152,95.703,15.137,815.421,374.2962702468783
218,1686066510.52,-51.758,-71.289,4.883,-22.461,815.425,369.3616478315651
219,1686066510.52,-35.645,61.035,97.168,-12.695,815.429,367.6237573591742
220,1686066510.52,67.871,347.168,199.219,29.297,815.432,362.0188666300351
221,1686066510.53,62.988,10.742,39.551,39.062,815.436,381.6039827721789
222,1686066510.53,-42.48,-763.672,-285.645,4.395,815.44,371.3308467466308
223,1686066510.54,-66.406,-527.832,-76.172,-20.508,815.444,367.8831740913413
224,1686066510.54,33.203,340.332,243.652,11.23,815.448,373.01469404396073
225,1686066510.54,74.219,110.352,4.883,32.715,815.452,381.1156439331238
226,1686066510.55,-16.113,-387.695,-150.391,0.488,815.456,369.57699624134807
227,1686066510.55,-77.148,18.555,106.445,-25.879,815.46,386.0586115201667
228,1686066510.55,2.441,291.992,153.32,3.906,815.463,379.53890091034407
229,1686066510.56,75.684,194.336,134.766,38.574,815.467,393.14578509322723
230,1686066510.56,12.695,-124.512,19.043,18.066,815.471,375.86183965793055
231,1686066510.56,-71.289,-220.215,-21.484,-26.367,815.475,362.9298463237437
232,1686066510.57,-22.461,188.965,171.875,-18.066,815.479,377.4966815070351
233,1686066510.57,70.312,-287.109,-62.988,29.297,815.483,374.58276449729925
234,1686066510.58,38.574,-818.848,-238.281,22.949,815.487,370.48650965227415
235,1686066510.58,-49.316,-74.219,89.355,-22.949,815.491,364.786144597256
236,1686066510.58,-38.574,122.559,35.156,-18.066,815.494,381.60964549925444
237,1686066510.59,46.387,-422.363,-87.402,23.438,815.498,381.47481450688696
238,1686066510.59,54.688,-228.027,92.773,23.926,815.502,367.6266438546156
239,1686066510.6,-30.273,338.867,168.945,-24.414,815.506,376.83435925078896
240,1686066510.61,-62.5,34.18,-4.395,-34.18,815.523,381.28147296786545
241,1686066510.62,27.832,-100.586,43.457,8.789,815.527,381.2620898726778
242,1686066510.62,74.219,237.793,178.223,33.691,815.531,380.27160940826946
243,1686066510.62,-8.789,320.312,138.672,-7.324,815.535,384.3839380987923
244,1686066510.63,-71.289,-36.621,-24.414,-36.621,815.539,376.0194900069921
245,1686066510.63,-4.883,-455.566,-127.93,-0.977,815.543,376.2658524097477
246,1686066510.64,77.148,-244.141,48.34,27.832,815.547,361.77350295878904
247,1686066510.64,19.043,233.398,193.848,2.93,815.55,374.91257788100893
248,1686066510.64,-74.707,-148.926,-110.352,-25.391,815.554,370.65338544797396
249,1686066510.65,-36.133,-616.211,-225.098,-6.836,815.558,371.0038602808962
250,1686066510.65,58.594,78.613,165.039,15.137,815.562,379.0425936302951
251,1686066510.66,34.668,245.117,117.188,7.812,815.566,379.94649620405073
252,1686066510.66,-68.848,-487.793,-196.289,-25.391,815.568,358.40341231544903
253,1686066510.66,-72.754,-535.156,-172.852,-31.25,815.572,363.44084874322436
254,1686066510.66,45.41,26.367,108.887,12.695,815.576,356.4096076498218
255,1686066510.67,79.59,69.824,99.609,31.25,815.579,349.89349704210133
256,1686066510.67,-17.578,-452.637,-166.016,5.859,815.583,360.10477208768754
257,1686066510.68,-55.176,-847.168,-312.5,5.859,815.587,361.27326647695827
258,1686066510.68,43.945,-109.863,82.52,38.086,815.591,347.665745447391
259,1686066510.68,101.074,442.383,219.727,53.711,815.595,335.0371839949401
260,1686066510.69,24.902,9.766,-5.371,29.297,815.599,345.77895003706413
261,1686066510.69,-41.504,-125.977,-3.906,-9.766,815.603,354.6389930050718
262,1686066510.7,27.344,316.406,181.152,10.742,815.607,333.0818222389939
263,1686066510.7,112.305,426.27,149.414,57.129,815.611,341.1530353208641
264,1686066510.72,57.129,-180.664,-36.621,55.664,815.628,330.34328897093377
265,1686066510.72,-34.668,-397.461,-66.406,18.555,815.632,314.8730633192709
266,1686066510.72,-3.906,-47.363,56.152,14.16,815.636,316.07999270615494
267,1686066510.73,86.914,104.492,105.957,46.387,815.64,322.219517618246
268,1686066510.73,77.637,-71.777,53.223,50.781,815.644,315.17672455148056
269,1686066510.74,-23.438,-280.762,-29.297,16.602,815.647,306.812221051369
270,1686066510.74,-29.785,-95.215,56.641,15.137,815.651,298.41494724622567
271,1686066510.74,78.613,58.594,97.168,60.059,815.655,318.6772952953617
272,1686066510.75,57.617,-222.656,-64.453,14.648,815.644,311.4764064933226
273,1686066510.75,83.984,-301.758,-25.879,47.363,815.659,307.8006080429497
274,1686066510.75,-7.812,304.688,190.43,-16.113,815.648,308.06403993166117
275,1686066510.75,-22.949,-18.066,121.582,-12.695,815.663,313.17075553587694
276,1686066510.76,-80.078,71.777,53.223,-42.969,815.652,296.8387275826397
277,1686066510.76,-54.688,311.035,147.949,-19.043,815.667,292.4953299737833
278,1686066510.76,-23.926,-606.445,-217.773,-16.113,815.656,299.756536497108
279,1686066510.76,22.949,-148.438,-72.754,8.301,815.671,295.1992967025781
280,1686066510.76,63.965,-595.703,-147.461,16.602,815.659,302.6519230309286
281,1686066510.77,14.16,-71.777,91.797,0.977,815.663,301.8452125462937
282,1686066510.77,-77.148,-107.422,-8.301,-29.785,815.667,302.066651882987
283,1686066510.77,-47.852,-599.121,-232.422,-7.324,815.671,301.75438236824294
284,1686066510.78,51.27,-451.172,-92.773,30.762,815.675,288.7237590766435
285,1686066510.78,45.41,406.738,216.797,10.254,815.679,292.4697459156932
286,1686066510.79,-53.223,297.852,64.941,-22.949,815.683,296.22247886770765
287,1686066510.79,-62.988,-191.406,-77.148,-20.996,815.687,284.61949150707625
288,1686066510.79,35.156,66.406,112.305,10.254,815.69,288.49476046696157
289,1686066510.8,64.941,507.324,238.281,26.367,815.694,296.2230248079726
290,1686066510.8,-20.996,223.145,41.016,7.812,815.698,293.1417482558615
291,1686066510.8,-75.195,-459.961,-156.25,-7.812,815.702,279.9152433898118
292,1686066510.81,10.254,-171.387,59.082,16.113,815.706,275.4381135337382
293,1686066510.81,83.008,238.77,172.363,39.062,815.71,282.4307092308155
294,1686066510.82,21.973,-145.508,-27.832,15.137,815.714,283.6173143660511
295,1686066510.82,-65.43,-851.562,-395.996,-6.836,815.717,281.4757443090886
296,1686066510.82,-29.785,-474.609,-133.789,0.488,815.721,293.33984871276925
297,1686066510.83,69.336,511.719,272.461,22.461,815.725,288.81646906997827
298,1686066510.83,45.41,236.816,47.852,20.508,815.729,275.83961255357895
299,1686066510.84,-51.758,-183.594,-84.961,-13.672,815.733,285.80752740181913
300,1686066510.84,-37.598,116.211,104.98,-24.414,815.734,288.08160168022954
301,1686066510.84,63.477,436.523,190.43,5.371,815.737,279.75432575672653
302,1686066510.84,66.895,72.754,63.965,15.625,815.741,284.99747465085767
303,1686066510.85,-36.621,-239.746,0.977,-17.578,815.745,289.0070684183954
304,1686066510.85,-67.383,3.418,42.969,-32.227,815.749,287.6697774551475
305,1686066510.86,30.762,58.594,76.172,0.977,815.753,292.61345705635205
306,1686066510.86,82.031,-442.383,-123.535,31.25,815.757,283.2684835702508
307,1686066510.86,-6.348,-824.707,-295.898,-4.883,815.761,288.5109442389658
308,1686066510.87,-73.242,-116.211,18.066,-55.176,815.765,281.27902624798776
309,1686066510.87,7.812,119.141,79.102,-19.531,815.769,282.25316148960906
310,1686066510.88,77.148,-206.055,-4.395,15.137,815.773,290.99759098249024
311,1686066510.88,17.09,-15.137,78.613,-9.277,815.777,288.6434070106716
312,1686066510.88,-69.336,295.41,144.043,-41.016,815.783,296.36796645323676
313,1686066510.89,-34.668,88.379,48.34,-26.367,815.787,290.30476088023903
314,1686066510.89,50.293,33.691,81.055,9.277,815.791,281.06331342333385
315,1686066510.9,19.043,309.57,168.945,-5.859,815.795,299.6714508654873
316,1686066510.9,-75.195,271.484,109.863,-47.363,815.799,301.820919930885
317,1686066510.9,-64.941,-158.203,-72.266,-38.086,815.803,293.0220072395776
318,1686066510.91,38.574,-683.105,-202.637,12.207,815.807,287.54872620173353
319,1686066510.91,47.363,-163.574,71.289,4.395,815.81,289.7973535824751
320,1686066510.92,-46.387,360.352,168.945,-44.434,815.814,298.79917487091427
321,1686066510.92,-78.613,-99.609,-31.738,-53.223,815.818,286.8382675173928
322,1686066510.92,8.789,-72.754,31.738,-12.695,815.822,297.0766753997336
323,1686066510.93,-14.648,110.84,48.828,-24.902,815.853,293.91132044723383
324,1686066510.93,62.5,371.094,197.754,1.953,815.826,297.11545026810825
325,1686066510.93,-86.914,-472.656,-133.301,-39.551,815.857,293.15434704080474
326,1686066510.94,-20.508,-560.547,-78.125,-17.578,815.861,303.2022681444206
327,1686066510.94,62.5,-18.066,105.957,13.184,815.865,308.3268630239319
328,1686066510.94,7.324,301.27,155.762,-11.719,815.869,299.0929968396882
329,1686066510.95,-88.379,-350.098,-176.27,-41.504,815.873,296.09202064416365
330,1686066510.95,-53.711,-1000.0,-516.602,-19.043,815.876,299.8167427300969
331,1686066510.96,47.363,-417.969,-101.074,3.418,815.88,308.69648150897945
332,1686066510.96,39.551,354.492,172.852,-16.113,815.884,304.43121063406494
333,1686066510.96,-62.012,-25.391,-29.785,-45.41,815.888,310.2640982272305
334,1686066510.97,-69.824,-22.949,42.48,-37.598,815.892,303.1155207178179
335,1686066510.97,34.18,388.672,196.289,0.0,815.896,316.8460673149421
336,1686066510.99,56.641,366.699,119.141,8.301,815.928,303.9263896695894
337,1686066510.99,-35.156,31.738,7.324,-20.996,815.932,303.07891540431086
338,1686066511.0,-75.195,-159.18,-35.645,-33.691,815.936,317.78995824869787
339,1686066511.0,6.836,-14.16,86.914,-5.859,815.939,313.38564072877637
340,1686066511.0,56.641,176.758,94.238,18.066,815.943,327.86926966826496
341,1686066511.01,-19.531,-507.324,-216.797,-11.23,815.947,311.2666987953
342,1686066511.01,-87.402,-568.848,-145.996,-52.734,815.951,318.87495312164094
343,1686066511.01,-28.809,143.066,141.113,-43.457,815.955,335.73856451492657
344,1686066511.02,53.711,100.586,33.203,-0.488,815.959,321.3500880177254
345,1686066511.02,8.301,-143.066,-74.219,-2.441,815.963,323.07273388687156
346,1686066511.03,-84.961,59.57,86.426,-46.387,815.967,332.50568378507137
347,1686066511.03,-49.805,190.918,126.465,-36.133,815.971,326.19495491063776
348,1686066511.05,52.246,-201.172,-88.867,17.09,815.947,336.16288493341045
349,1686066511.05,41.016,-464.844,-145.996,12.207,815.951,330.818284864732
350,1686066511.06,-62.012,-129.883,25.879,-37.109,815.954,325.1000566622541
351,1686066511.06,-72.754,-186.523,-104.98,-38.086,815.958,335.86735672545746
352,1686066511.06,24.902,-502.93,-183.105,-0.977,815.962,339.4860058967946
353,1686066511.07,48.34,-611.328,-145.508,9.766,815.966,341.8571243821893
354,1686066511.07,-36.133,-249.512,-2.93,-20.508,815.97,334.6014686181521
355,1686066511.08,-88.379,-160.156,-62.012,-40.039,815.974,340.4093628767948
356,1686066511.08,-19.043,-180.664,-26.855,-8.789,815.974,330.4573568410651
357,1686066511.08,-10.742,-599.121,-260.742,-6.836,815.978,335.0236861323649
358,1686066511.08,68.359,167.969,152.832,12.695,815.978,328.2219499693787
359,1686066511.08,57.129,-597.168,-138.184,20.02,815.982,340.7837362738039
360,1686066511.08,19.531,437.5,195.312,-15.137,815.982,337.59916365925164
361,1686066511.09,-8.789,290.527,201.172,-11.23,815.986,329.6851352376129
362,1686066511.09,-64.941,44.434,-8.301,-41.504,815.986,336.0662978431615
363,1686066511.09,-83.984,187.988,44.922,-32.715,815.99,337.33500999773463
364,1686066511.09,-56.641,-303.711,-73.242,-21.973,815.989,335.5684932147569
365,1686066511.1,32.715,-133.789,88.379,8.301,815.993,335.62137478018303
366,1686066511.1,54.199,131.836,183.105,5.859,815.997,330.7667486106621
367,1686066511.1,-41.992,-122.07,-33.691,-24.414,816.001,342.0565481196442
368,1686066511.11,-69.336,-557.617,-170.41,-20.996,816.005,347.53080948218883
369,1686066511.11,41.992,51.758,164.551,8.301,816.009,329.74051845879336
370,1686066511.12,84.473,553.711,250.977,18.066,816.013,339.12640331517576
371,1686066511.12,-13.672,23.926,-38.086,-7.324,816.017,330.1266867883002
372,1686066511.12,-75.684,-1000.0,-528.809,-18.066,816.019,335.6756370139224
373,1686066511.13,9.766,-616.211,-192.383,5.371,816.023,329.13656219451116
374,1686066511.13,83.984,181.152,210.449,21.484,816.027,319.6576804984582
375,1686066511.13,12.207,-388.672,-143.066,6.836,816.031,315.2842459132512
376,1686066511.14,-52.246,-646.973,-253.418,-17.578,816.035,333.0464867123441
377,1686066511.14,-0.977,-190.43,5.859,-13.672,816.039,322.3478406940882
378,1686066511.15,72.754,134.766,137.695,14.648,816.042,324.8035136035428
379,1686066511.15,48.828,-337.891,-106.934,24.902,816.046,348.9256612092868
380,1686066511.15,-49.316,-652.832,-180.664,-13.184,816.05,328.3332945422776
381,1686066511.16,-41.016,153.32,157.715,-26.367,816.054,319.236232066773
382,1686066511.16,62.988,280.273,125.977,22.461,816.058,315.7858910651671
383,1686066511.16,70.801,-59.082,16.602,38.574,816.062,340.1001892441411
384,1686066511.17,-30.273,18.555,53.223,-2.441,816.064,322.4118256470225
385,1686066511.17,-66.895,314.941,148.926,-24.902,816.068,324.1396994030098
386,1686066511.18,25.879,177.734,111.328,5.371,816.072,326.1517529820152
387,1686066511.18,75.684,112.305,131.348,29.297,816.075,345.55134248862237
388,1686066511.18,-11.23,265.137,137.207,1.465,816.079,344.70197955126525
389,1686066511.19,-77.637,-35.645,-12.695,-27.832,816.083,343.9357196232165
390,1686066511.19,-2.441,-291.504,-88.867,-4.395,816.087,341.1300070708578
391,1686066511.19,81.055,-537.109,-100.098,30.762,816.091,361.74094969858743
392,1686066511.2,21.484,-137.695,78.613,-0.977,816.095,356.7899360883116
393,1686066511.2,-71.777,340.82,162.598,-45.41,816.099,356.1448805395695
394,1686066511.21,-43.457,9.766,21.484,-20.996,816.103,379.7246122499399
395,1686066511.21,46.875,73.242,98.145,16.113,816.107,376.4343616529926
396,1686066511.21,39.062,332.031,173.34,4.395,816.11,374.6118722743819
397,1686066511.22,-65.43,25.391,-16.113,-37.598,816.114,394.05235288551023
398,1686066511.22,-73.73,-633.789,-300.781,-26.855,816.118,397.28476483404876
399,1686066511.22,34.18,-719.727,-169.922,18.066,816.122,395.74766091571496
400,1686066511.23,46.875,65.918,177.246,17.578,816.126,386.26571024030403
401,1686066511.23,-44.922,38.574,-4.395,-15.137,816.13,414.974974587531
402,1686066511.24,-76.172,-684.57,-329.59,-20.996,816.134,413.23239044347986
403,1686066511.24,10.742,-609.375,-161.133,13.672,816.138,417.9627467366955
404,1686066511.24,75.684,369.141,250.0,21.484,816.142,404.8966605095894
405,1686066511.25,2.93,423.828,117.676,-2.441,816.146,439.2876349956194
406,1686066511.25,-76.172,-84.961,-30.762,-33.691,816.149,443.5990806790022
407,1686066511.26,-14.648,-22.461,77.148,-15.625,816.153,435.0222649255564
408,1686066511.27,68.848,470.703,232.422,21.484,816.171,460.6430540921893
409,1686066511.28,22.949,354.492,85.938,3.418,816.174,458.43559463025395
410,1686066511.28,-68.848,-60.059,-33.203,-37.598,816.178,460.0923574221947
411,1686066511.29,-47.363,-85.449,46.875,-26.855,816.182,487.2698059883737
412,1686066511.29,47.852,80.078,127.93,16.602,816.186,465.3734159394374
413,1686066511.29,41.504,7.324,87.402,19.043,816.19,482.8264273150791
414,1686066511.3,-52.734,-772.461,-332.031,-4.883,816.194,456.67088340876467
415,1686066511.3,-57.129,-621.582,-212.891,-12.207,816.198,482.9271933260347
416,1686066511.3,11.23,274.902,148.438,-7.324,816.213,475.7804299590575
417,1686066511.3,37.109,309.57,199.707,14.16,816.202,497.1497237661915
418,1686066511.31,76.172,150.391,105.957,24.414,816.217,496.77615283113124
419,1686066511.31,61.035,241.211,88.867,30.273,816.206,483.2575685473275
420,1686066511.31,-1.953,-201.66,-15.625,-0.977,816.22,482.35881083024964
421,1686066511.31,-29.785,-3.906,19.531,-5.859,816.21,486.71864622175315
422,1686066511.31,-75.684,-158.203,-4.395,-42.969,816.224,471.3657201390529
423,1686066511.32,-79.102,133.789,108.398,-35.645,816.213,489.0795206648606
424,1686066511.32,-18.555,144.531,88.379,-27.344,816.228,492.47145916904793
425,1686066511.32,68.359,-188.965,-17.578,14.16,816.232,485.52640614835036
426,1686066511.33,28.32,-431.641,-58.594,-0.977,816.236,485.0576387884354
427,1686066511.33,-76.66,-201.66,16.113,-38.574,816.24,482.70300920292163
428,1686066511.33,-53.711,122.559,137.207,-30.273,816.244,492.0039497003163
429,1686066511.34,56.641,-317.871,-82.52,21.484,816.248,496.7437543157831
430,1686066511.34,52.734,-1000.0,-354.492,31.25,816.252,491.9491200845457
431,1686066511.34,-48.34,-338.379,-8.789,-26.367,816.256,485.8826681119285
432,1686066511.36,-65.918,115.723,92.773,-48.828,816.259,469.8913924749395
433,1686066511.37,26.367,57.129,79.59,-6.348,816.263,479.36460217368966
434,1686066511.37,70.801,357.91,180.176,14.648,816.267,463.6422096523477
435,1686066511.37,-19.531,362.305,148.926,-15.625,816.27,480.6159871177827
436,1686066511.38,-84.473,9.766,7.812,-44.922,816.274,478.94108146979016
437,1686066511.38,5.371,-368.652,-74.219,-11.719,816.278,465.15944050975094
438,1686066511.39,79.59,-43.945,129.883,21.973,816.282,463.06816848215425
439,1686066511.39,6.348,419.922,224.121,-7.324,816.286,461.9460837053164
440,1686066511.39,-71.777,-83.496,-88.379,-34.668,816.29,445.8991792209735
441,1686066511.4,-24.902,-829.59,-311.523,-11.719,816.294,448.83342643927847
442,1686066511.4,62.988,-135.254,123.047,13.184,816.298,455.17151370459726
443,1686066511.4,41.992,483.887,218.262,-6.836,816.302,454.55534134308164
444,1686066511.41,-55.176,-24.902,-4.883,-44.922,816.307,447.6948162356059
445,1686066511.41,-47.852,-132.812,36.133,-30.762,816.311,440.22767106315297
446,1686066511.42,55.176,43.945,133.301,17.578,816.315,433.26249987780767
447,1686066511.42,58.105,196.777,191.406,9.766,816.319,427.1393291183693
448,1686066511.42,-42.969,-255.859,-90.82,-31.738,816.323,432.8602594464076
449,1686066511.43,-64.941,-881.348,-347.168,-35.156,816.326,416.2812179759494
450,1686066511.43,34.668,-208.008,38.086,-4.883,816.33,422.776736136458
451,1686066511.44,77.148,451.66,237.305,8.301,816.334,427.322193802418
452,1686066511.44,-10.254,-304.199,-158.691,-15.137,816.338,398.6632231735206
453,1686066511.44,-74.707,-687.988,-203.125,-41.016,816.342,408.99070751289213
454,1686066511.45,-4.883,221.68,203.613,-27.832,816.346,408.04848947906913
455,1686066511.45,69.336,264.648,128.906,9.277,816.35,404.47358744801267
456,1686066511.45,18.555,-113.77,6.348,-6.348,816.349,405.2126866439625
457,1686066511.46,-61.523,-19.531,53.711,-47.852,816.353,390.0827091964013
458,1686066511.46,-29.297,236.328,134.277,-41.016,816.357,386.3410204354508
459,1686066511.46,62.5,191.406,104.492,-1.953,816.36,381.7265979169261
460,1686066511.47,40.527,-133.789,46.387,2.93,816.364,367.99052194006293
461,1686066511.47,-57.617,-290.527,-3.418,-36.133,816.368,376.9506203530621
462,1686066511.48,-52.246,-267.09,4.395,-33.691,816.372,365.41189478506016
463,1686066511.48,48.34,-170.898,24.902,13.672,816.376,337.7801322228094
464,1686066511.48,61.523,-722.168,-230.957,20.508,816.38,348.371294316928
465,1686066511.49,-42.48,-533.691,-72.754,-29.785,816.384,350.18450405954917
466,1686066511.49,-82.031,210.449,164.551,-56.641,816.388,333.93938676809313
467,1686066511.5,13.184,51.758,33.691,-20.02,816.392,328.5596668731083
468,1686066511.5,57.617,114.746,79.102,12.207,816.396,331.5368172973798
469,1686066511.5,-25.879,269.043,134.277,-17.578,816.4,325.2532756193712
470,1686066511.51,-90.82,-40.039,-10.254,-55.664,816.404,312.9935741278548
471,1686066511.51,-27.832,-626.465,-250.977,-22.461,816.408,305.0062203459791
472,1686066511.52,50.781,-680.664,-121.582,19.043,816.412,309.9605255051122
473,1686066511.52,6.836,-108.887,105.957,-9.277,816.416,283.6984883555625
474,1686066511.52,-78.613,-89.355,7.324,-48.828,816.42,275.6063015026763
475,1686066511.53,-53.223,-603.027,-196.289,-33.203,816.424,287.4695810190996
476,1686066511.53,47.852,-519.043,-120.117,13.672,816.428,298.9842240895888
477,1686066511.53,44.434,435.059,243.164,4.883,816.432,278.4319702230875
478,1686066511.54,-57.129,291.016,70.312,-33.691,816.435,264.87472791461636
479,1686066511.54,-66.895,-130.859,-7.324,-36.133,816.439,270.09991636292375
480,1686066511.56,32.715,199.707,179.688,1.953,816.456,262.6293682749539
481,1686066511.56,61.523,544.434,248.047,22.949,816.46,238.20239430806618
482,1686066511.57,-34.668,213.379,70.801,-14.16,816.464,234.6640975692336
483,1686066511.57,-77.637,-158.203,-62.012,-36.621,816.467,242.74834274638624
484,1686066511.57,13.184,-33.203,69.824,-6.348,816.471,237.52765965102557
485,1686066511.58,69.336,-15.137,125.0,12.207,816.475,221.8037416011115
486,1686066511.58,-1.953,-150.391,24.902,-9.766,816.479,229.8541359707789
487,1686066511.58,-74.707,-820.801,-383.789,-23.438,816.483,228.40571092918037
488,1686066511.59,-43.457,139.648,131.348,-29.785,816.484,223.5561721089058
489,1686066511.59,-21.973,-658.203,-212.891,-12.695,816.487,212.6378159252328
490,1686066511.59,57.129,406.25,187.5,9.277,816.488,216.75678607550233
491,1686066511.59,64.453,382.812,270.508,6.836,816.491,215.39302204552942
492,1686066511.6,50.293,-66.895,34.668,15.137,816.492,230.92480763972745
493,1686066511.6,21.973,218.75,76.66,1.953,816.495,231.6036832531266
494,1686066511.6,-58.594,-413.574,-35.645,-22.949,816.495,222.80664929567644
495,1686066511.6,-70.801,-126.953,-26.367,-33.691,816.499,218.179914017553
496,1686066511.6,-70.312,33.691,103.027,-33.203,816.499,207.22191413416928
497,1686066511.61,33.203,84.961,104.492,0.0,816.503,209.34228629471147
498,1686066511.61,61.523,-394.043,-41.992,22.949,816.507,209.4834871093086
499,1686066511.61,-32.227,-611.328,-80.566,-10.254,816.511,213.70226967553683
500,1686066511.62,-86.426,-114.746,80.078,-39.062,816.515,201.65862872075823
501,1686066511.62,0.0,312.988,193.359,0.977,816.519,208.67656236434888
502,1686066511.63,62.012,-282.715,-92.285,32.715,816.523,216.35162641046534
503,1686066511.63,-12.695,-992.188,-317.383,9.277,816.527,204.147503310139
504,1686066511.63,-88.379,-272.949,32.715,-33.691,816.531,200.0616814925577
505,1686066511.64,-36.621,94.238,86.914,-12.695,816.534,208.91760091106673
506,1686066511.64,55.664,83.008,112.305,19.531,816.538,202.18378493684776
507,1686066511.65,23.926,353.516,208.496,-2.93,816.542,202.04242685077222
508,1686066511.65,-73.73,259.766,94.238,-36.133,816.546,216.45976664891637
509,1686066511.65,-59.082,-179.688,-48.34,-27.344,816.55,200.6444333392712
510,1686066511.66,45.898,-620.605,-103.516,19.531,816.554,209.43100837346782
511,1686066511.66,46.387,-113.77,120.605,9.766,816.558,207.60084558309126
512,1686066511.66,-51.27,397.461,204.59,-39.551,816.562,209.88288914441662
513,1686066511.67,-70.312,-122.07,-63.477,-39.062,816.566,203.21089195549484
514,1686066511.67,27.344,-284.18,-57.129,-3.906,816.57,203.72150173494794
515,1686066511.68,-24.414,388.672,179.688,-37.598,816.588,204.535589896157
516,1686066511.68,66.406,235.352,189.941,0.977,816.574,203.2696451976192
517,1686066511.68,-83.984,-122.559,-7.812,-55.176,816.592,211.7209252312172
518,1686066511.68,-3.418,-417.48,-62.5,-19.531,816.596,213.44670663203803
519,1686066511.69,68.359,52.734,147.461,4.883,816.6,210.08465763490875
520,1686066511.69,0.488,398.926,235.352,-20.508,816.604,208.93169431472833
521,1686066511.7,-88.867,-320.312,-153.32,-37.109,816.607,202.20878110524856
522,1686066511.7,-41.504,-1000.0,-367.676,-20.02,816.611,211.35167744568994
523,1686066511.7,55.664,-107.422,128.906,6.348,816.615,227.07898608090832
524,1686066511.71,24.414,425.293,203.125,-2.93,816.619,211.6874877719179
525,1686066511.71,-76.66,1.953,53.223,-41.504,816.623,223.02608153854808
526,1686066511.72,-73.242,27.344,127.441,-43.945,816.627,224.95109070339868
527,1686066511.72,30.762,364.746,198.73,-3.418,816.631,215.24575774239585
528,1686066511.72,49.805,182.617,121.582,13.672,816.632,217.47359065926372
529,1686066511.73,-51.758,-319.336,-47.363,-19.531,816.636,227.42351750414898
530,1686066511.73,-86.914,-169.434,49.805,-43.457,816.64,230.6705672124282
531,1686066511.74,20.508,323.242,231.934,-6.348,816.644,225.46165402368484
532,1686066511.74,65.43,247.07,133.301,24.414,816.648,227.3022438443279
533,1686066511.74,-22.949,-319.336,-84.473,-5.859,816.652,228.4136782912463
534,1686066511.75,-83.984,-346.68,-4.883,-49.316,816.656,225.35936808019315
535,1686066511.75,-14.16,166.016,203.613,-24.414,816.659,239.5028641922299
536,1686066511.76,63.477,69.824,42.969,30.273,816.663,228.95819157009527
537,1686066511.76,11.719,-480.957,-100.098,20.508,816.667,226.02095993114662
538,1686066511.76,-70.801,-168.945,100.098,-16.113,816.671,226.92086939772625
539,1686066511.77,-31.25,177.246,138.672,-12.207,816.675,235.4298494162388
540,1686066511.78,68.848,47.363,80.566,20.508,816.679,251.9856736650401
541,1686066511.79,44.434,68.359,96.191,19.531,816.682,241.00230252112019
542,1686066511.79,-59.082,-98.633,1.465,-19.531,816.686,238.52636327484944
543,1686066511.79,-53.711,-288.574,-27.344,-27.832,816.69,245.37783617133883
544,1686066511.8,50.781,-479.004,-91.797,11.23,816.694,262.5706209406853
545,1686066511.8,65.43,-934.57,-265.137,28.32,816.698,255.70941871165013
546,1686066511.81,-41.992,-385.254,20.508,-22.949,816.702,249.26682983848355
547,1686066511.81,-87.402,113.281,113.77,-43.457,816.706,249.23881056812857
548,1686066511.81,10.254,-214.844,6.348,3.418,816.71,251.47530523371825
549,1686066511.82,69.336,0.0,137.207,30.762,816.714,253.09831364347397
550,1686066511.82,-1.953,426.758,216.797,-7.324,816.718,260.4880393868761
551,1686066511.82,-74.219,132.324,42.969,-47.363,816.721,263.66384351325036
552,1686066511.83,-15.137,-85.449,49.316,-21.973,816.724,264.7450881191586
553,1686066511.83,64.453,243.164,189.941,17.09,816.727,256.55705352791165
554,1686066511.84,15.137,464.355,221.191,-2.93,816.731,269.0970494244708
555,1686066511.84,-73.242,113.281,67.383,-35.645,816.735,259.51028411294965
556,1686066511.84,-46.875,-260.254,-74.707,-26.367,816.739,281.9119286283825
557,1686066511.85,51.27,-146.484,77.148,11.719,816.743,260.18798123079375
558,1686066511.85,44.434,-71.777,115.723,10.254,816.747,264.1264023395859
559,1686066511.85,-57.617,-359.863,-131.836,-28.809,816.751,279.26993921947223
560,1686066511.86,-73.73,-913.086,-408.203,-28.809,816.755,273.90532211742715
561,1686066511.86,29.297,-457.031,-46.387,-5.371,816.759,270.99764535364676
562,1686066511.87,61.523,412.598,250.977,-4.883,816.763,274.2742577376699
563,1686066511.87,-27.832,73.73,20.02,-29.297,816.767,271.38715789307037
564,1686066511.87,-83.008,-159.668,-6.836,-50.293,816.769,281.0002992050304
565,1686066511.88,3.418,270.02,182.129,-29.297,816.772,273.554631003886
566,1686066511.88,75.195,255.371,177.246,15.137,816.776,272.1651400871014
567,1686066511.88,-0.488,-472.168,-144.531,8.789,816.78,280.3715730907138
568,1686066511.89,-88.867,-707.52,-238.281,-42.969,816.784,283.44950255218083
569,1686066511.89,-32.227,-261.23,22.461,-34.668,816.788,286.1185598614838
570,1686066511.9,63.477,-20.996,127.441,9.766,816.792,292.3514401387937
571,1686066511.9,22.461,-458.008,-142.09,-4.395,816.796,291.12493170345465
572,1686066511.9,-72.266,-831.543,-315.43,-42.969,816.8,291.42952791856203
573,1686066511.91,-50.293,-21.973,94.727,-39.551,816.804,274.3293237345097
574,1686066511.91,52.246,408.691,211.426,2.441,816.808,278.3321716925139
575,1686066511.92,58.105,41.504,42.48,13.672,816.811,288.62081102870656
576,1686066511.92,-40.039,-73.242,46.875,-19.043,816.814,282.8070366193952
577,1686066511.92,-66.406,210.938,167.48,-36.133,816.818,302.0388172714797
578,1686066511.93,35.645,178.711,127.441,-0.977,816.822,293.5579441507121
579,1686066511.93,78.613,119.141,129.883,21.484,816.826,289.6746564776789
580,1686066511.93,-14.16,140.625,105.469,-16.602,816.83,296.1159157269191
581,1686066511.94,-71.777,-128.418,-26.367,-36.621,816.834,289.67062050778543
582,1686066511.94,12.695,-277.832,-35.645,-1.465,816.838,291.10133785592376
583,1686066511.94,84.961,-519.043,-75.684,26.855,816.842,306.6844408442987
584,1686066511.95,20.508,-140.137,91.797,0.488,816.846,299.28235863366973
585,1686066511.95,-62.5,261.719,151.855,-32.715,816.849,299.6415615235579
586,1686066511.96,-21.484,-233.887,-44.922,-9.766,816.853,295.06594248499835
587,1686066511.96,69.824,-175.293,36.133,24.902,816.857,291.5226880377169
588,1686066511.96,41.504,331.543,187.012,13.672,816.887,300.00198870866893
589,1686066511.97,-48.828,357.91,181.641,-26.367,816.891,303.1528263148016
590,1686066511.97,-41.016,-375.977,-142.09,-14.16,816.895,318.4448091136962
591,1686066511.97,53.223,-635.742,-168.945,31.738,816.899,312.82662774277986
592,1686066511.98,60.547,216.309,188.477,20.02,816.903,311.895843574768
593,1686066511.98,-39.062,65.43,38.086,-20.996,816.907,315.22637206189444
594,1686066511.99,-73.73,-700.195,-289.551,-23.926,816.911,294.24578619341804
595,1686066511.99,21.973,-699.707,-187.012,15.625,816.915,328.31491848014804
596,1686066511.99,71.777,249.512,230.469,19.531,816.919,313.5951112202981
597,1686066512.0,-15.625,323.242,104.98,-16.602,816.922,311.00937221487095
598,1686066512.0,-73.242,-145.508,-61.523,-41.992,816.926,306.51024992409907
599,1686066512.0,2.441,73.73,107.91,-12.207,816.93,310.0484672660223
600,1686066512.02,77.148,431.152,226.562,18.066,816.924,312.13048399089587
601,1686066512.03,24.414,115.723,68.848,6.348,816.928,315.2057978426261
602,1686066512.03,-63.477,-394.531,-90.332,-26.367,816.932,305.1863969142055
603,1686066512.04,-20.996,-109.863,69.824,-21.973,816.936,317.0435047278759
604,1686066512.04,73.73,416.992,241.699,15.625,816.94,305.6925381393952
605,1686066512.04,42.969,14.16,19.531,13.184,816.944,313.5014790557267
606,1686066512.05,-60.059,-596.68,-192.871,-20.508,816.948,321.7061191000309
607,1686066512.05,-54.688,-224.121,15.625,-26.367,816.952,320.33760982632094
608,1686066512.06,51.758,358.887,227.051,8.789,816.955,337.49166556729665
609,1686066512.06,62.012,163.574,58.594,21.484,816.959,314.214933808267
610,1686066512.06,-37.598,-185.059,-70.312,-8.301,816.963,315.4433903324688
611,1686066512.07,30.762,292.48,171.875,-12.207,816.968,317.12313902064625
612,1686066512.07,-67.383,54.199,107.422,-32.715,816.967,322.14921907580487
613,1686066512.07,74.219,73.73,94.238,20.508,816.972,325.1550316482662
614,1686066512.08,-12.207,-302.246,-23.926,-0.977,816.976,307.5154224525798
615,1686066512.08,-73.242,-396.973,-101.562,-24.902,816.98,315.0702157791364
616,1686066512.08,-6.348,-245.605,-12.207,9.277,816.984,323.73533166925847
617,1686066512.09,73.73,-491.699,-86.426,41.016,816.987,324.6423780233156
618,1686066512.09,31.25,-460.449,-90.82,11.23,816.991,317.6308718526758
619,1686066512.09,-66.895,54.199,62.5,-31.25,816.995,319.4780699396049
620,1686066512.1,-42.969,174.805,97.168,-15.625,816.999,327.5716644667609
621,1686066512.1,64.453,-297.852,-60.059,26.367,817.003,325.67582132906307
622,1686066512.11,58.105,-1000.0,-394.043,34.18,817.007,325.0132646228261
623,1686066512.11,-43.457,-464.355,-96.191,-15.625,817.011,330.8684868777307
624,1686066512.11,-50.781,31.25,62.988,-30.273,817.009,334.2786974802369
625,1686066512.12,46.875,-161.133,49.316,3.418,817.013,326.03447659581127
626,1686066512.12,73.242,204.59,175.781,12.207,817.016,307.01628507504284
627,1686066512.12,-23.438,414.551,152.344,-9.277,817.02,327.4265190674909
628,1686066512.13,-70.801,50.781,33.691,-23.926,817.024,317.4538183217856
629,1686066512.13,18.066,-263.672,-41.504,0.0,817.028,309.3727326846704
630,1686066512.14,71.289,-147.949,41.992,25.391,817.032,330.12307227111285
631,1686066512.14,1.465,70.801,141.113,-4.883,817.036,332.74783534204147
632,1686066512.14,-81.055,-57.129,18.066,-42.48,817.04,316.9448400422895
633,1686066512.15,-22.949,-810.059,-315.918,-6.348,817.044,319.01075360686076
634,1686066512.15,71.777,-372.07,1.465,19.531,817.048,318.77341738906404
635,1686066512.16,27.344,424.316,213.867,-6.348,817.052,311.0349127930796
636,1686066512.16,-75.195,-41.504,-9.277,-28.809,817.053,332.4046597369683
637,1686066512.16,-48.828,-131.348,47.363,-21.484,817.057,326.5011577017851
638,1686066512.16,57.129,133.789,142.578,11.23,817.061,327.92249964924116
639,1686066512.17,46.875,51.758,111.816,9.277,817.065,314.3300785981879
640,1686066512.17,-49.805,-451.172,-178.711,-22.461,817.069,321.85193181988933
641,1686066512.18,-69.824,-810.059,-338.379,-30.762,817.073,330.58723758622676
642,1686066512.18,31.738,-105.957,76.66,-6.836,817.077,331.96607292950483
643,1686066512.18,74.219,451.172,242.188,13.672,817.081,327.4045899466968
644,1686066512.19,-18.066,-343.262,-177.246,-7.812,817.085,318.3532265668482
645,1686066512.19,-69.336,-766.113,-229.492,-24.902,817.089,319.7910479374866
646,1686066512.2,15.137,165.039,197.754,-2.93,817.093,327.2292219727943
647,1686066512.2,70.312,434.57,155.762,17.09,817.096,330.02646941927196
648,1686066512.2,0.0,-87.891,-30.762,-5.859,817.098,337.8667465943124
649,1686066512.21,-83.008,-182.617,18.066,-41.504,817.102,314.1681584989832
650,1686066512.21,-33.203,228.516,157.715,-26.367,817.106,327.70788059946597
651,1686066512.21,60.547,256.348,135.254,17.09,817.11,321.79223661336266
652,1686066512.22,26.367,137.207,109.375,0.977,817.114,337.0447205156547
653,1686066512.22,-71.777,-199.707,-72.266,-38.574,817.118,328.8722716354377
654,1686066512.23,-54.688,-283.691,-89.355,-34.18,817.122,326.4476683325328
655,1686066512.23,49.805,-35.156,34.668,0.977,817.126,319.8956215072203
656,1686066512.23,46.387,-465.332,-113.77,11.23,817.13,316.5536051554492
657,1686066512.24,-52.734,-217.773,30.273,-25.391,817.134,321.30195457744463
658,1686066512.24,-72.754,197.754,108.398,-28.32,817.137,335.045108547427
659,1686066512.24,27.344,-181.641,-57.617,5.859,817.141,329.3642697201576
660,1686066512.25,66.406,-102.539,44.922,19.043,817.144,314.86616932607535
661,1686066512.25,-27.832,199.219,125.488,-18.066,817.148,320.60605480188684
662,1686066512.26,-83.984,-103.516,-45.898,-42.48,817.152,325.8426441644676
663,1686066512.26,-2.93,-625.977,-206.543,4.395,817.156,315.26058162060565
664,1686066512.26,64.941,-617.676,-141.113,28.32,817.16,322.8535944990609
665,1686066512.27,4.883,-132.324,67.871,-13.672,817.164,328.54908269052174
666,1686066512.27,-74.219,-157.715,-33.203,-49.805,817.168,329.0866305004719
667,1686066512.27,-33.203,-644.043,-264.648,-19.531,817.172,318.6168243825539
668,1686066512.28,57.617,-589.355,-130.371,24.902,817.176,315.1411285678849
669,1686066512.28,37.598,333.984,234.375,-1.465,817.18,326.2198576817268
670,1686066512.29,-55.176,252.441,55.176,-43.457,817.184,316.48355037837644
671,1686066512.29,-50.293,-104.98,16.602,-41.504,817.187,314.76782417396043
672,1686066512.3,44.922,222.168,206.543,0.0,817.195,319.6100372443957
673,1686066512.3,54.199,457.031,206.055,8.301,817.199,330.193737936864
674,1686066512.3,-40.039,-9.766,8.301,-25.879,817.203,335.31011436281517
675,1686066512.31,-80.078,-417.48,-101.562,-38.086,817.207,322.47239988861213
676,1686066512.31,10.254,-15.137,102.539,-19.531,817.211,326.4543238239863
677,1686066512.32,68.848,150.879,143.555,-2.93,817.214,336.386194854498
678,1686066512.32,-14.648,-303.711,-86.426,-14.16,817.218,317.8860253249781
679,1686066512.32,-88.867,-770.996,-258.301,-37.598,817.222,331.3752648177265
680,1686066512.33,-17.578,-270.996,40.527,-25.879,817.226,310.19972380567486
681,1686066512.33,73.242,453.613,257.324,9.277,817.23,310.08018642724215
682,1686066512.33,19.043,123.047,38.574,0.488,817.234,326.6586331984535
683,1686066512.34,-69.824,-228.027,-46.387,-24.414,817.238,325.0561173155428
684,1686066512.35,-29.785,74.219,151.855,-17.578,817.293,324.61832316208387
685,1686066512.36,68.848,342.285,213.379,18.555,817.297,323.8162422963975
686,1686066512.36,51.758,-34.18,40.527,24.414,817.301,321.3156565931846
687,1686066512.36,-46.875,-261.23,-58.105,-17.578,817.305,331.20450773116625
688,1686066512.37,-49.316,-111.816,6.836,-29.297,817.309,322.54335708715354
689,1686066512.37,46.387,-55.176,77.148,8.789,817.313,338.7489859891821
690,1686066512.38,66.406,-362.793,-59.082,28.32,817.317,327.1535357011448
691,1686066512.38,-39.551,-1000.0,-447.754,-5.371,817.321,331.2475707041386
692,1686066512.38,-82.031,-597.168,-176.758,-38.086,817.324,320.5394202372928
693,1686066512.39,18.066,166.504,167.48,-13.672,817.328,326.99649474463786
694,1686066512.39,74.707,234.863,165.039,8.301,817.332,322.0235148845962
695,1686066512.4,-3.906,253.418,147.949,-15.137,817.336,334.6619417171607
696,1686066512.4,-78.125,273.926,112.305,-45.41,817.304,321.4828634924766
697,1686066512.4,-8.789,102.539,80.078,-20.02,817.308,317.40054341530504
698,1686066512.41,70.312,27.832,90.82,14.16,817.312,317.8799283755613
699,1686066512.41,17.578,296.875,172.852,-7.812,817.316,331.1711536760769
700,1686066512.42,-69.824,212.402,116.211,-41.504,817.32,314.9165282938237
701,1686066512.42,-41.504,-262.207,-55.176,-24.902,817.324,316.0760718768928
702,1686066512.42,42.48,-189.941,-0.488,8.789,817.328,340.78692176401074
703,1686066512.43,-40.527,318.359,168.945,-42.48,817.337,321.6642256149893
704,1686066512.43,29.297,37.109,95.703,-3.906,817.332,319.6088269656238
705,1686066512.43,-88.867,-254.395,-75.684,-49.805,817.341,327.9890232368432
706,1686066512.43,-64.941,87.402,119.141,-44.922,817.335,320.97014500463257
707,1686066512.44,-7.324,-549.805,-124.023,-8.789,817.345,316.05628913882316
708,1686066512.44,-84.961,-122.559,-30.273,-51.758,817.339,320.92546007565875
709,1686066512.44,54.199,96.68,170.41,16.602,817.349,327.0545154639601
710,1686066512.44,13.672,-628.906,-192.871,-14.648,817.343,317.17280941007346
711,1686066512.44,-17.578,304.199,138.672,-5.371,817.353,326.9568479553683
712,1686066512.44,48.828,-86.426,107.91,-7.812,817.347,315.54132101638453
713,1686066512.45,-93.262,-462.891,-151.367,-32.715,817.357,325.19283374621114
714,1686066512.45,-32.227,-490.234,-19.531,-15.137,817.361,321.03531605191995
715,1686066512.45,59.57,256.836,201.66,7.324,817.364,317.2781156024441
716,1686066512.46,28.32,386.23,183.105,-13.672,817.368,333.18741680298933
717,1686066512.46,-66.406,-354.98,-151.855,-41.504,817.372,322.09236825236513
718,1686066512.47,-59.57,-1000.0,-532.227,-17.578,817.376,334.6607551930386
719,1686066512.47,37.598,-627.93,-116.211,13.184,817.38,315.39877430023404
720,1686066512.48,40.039,197.754,176.27,-5.371,817.382,323.08465597991574
721,1686066512.48,-59.082,66.895,4.883,-42.969,817.386,320.3905289536882
722,1686066512.48,-73.73,49.316,70.312,-41.504,817.39,322.57730418290106
723,1686066512.49,23.438,423.828,198.242,-11.719,817.394,331.0312882933103
724,1686066512.49,56.641,393.066,147.949,0.977,817.398,324.3689853810551
725,1686066512.5,-30.273,-178.223,-40.039,-22.949,817.402,322.7664705293926
726,1686066512.5,-87.402,-241.211,1.465,-47.363,817.406,328.2248348996018
727,1686066512.5,-11.23,292.969,200.684,-10.254,817.409,320.158598502379
728,1686066512.51,65.918,250.977,83.984,32.227,817.413,327.90805404247305
729,1686066512.51,4.883,-320.312,-63.965,8.301,817.417,316.35611034996333
730,1686066512.51,-79.59,-145.02,67.383,-35.156,817.421,322.3139007912165
731,1686066512.52,-33.691,99.609,85.449,-25.391,817.425,325.11085415282145
732,1686066512.53,61.523,-49.316,15.625,12.207,817.429,324.6197236972404
733,1686066512.54,38.086,-9.766,35.156,2.93,817.433,328.68153859698884
734,1686066512.54,-61.523,-87.402,5.859,-37.109,817.437,319.6235364080252
735,1686066512.54,-53.223,-60.547,58.594,-33.203,817.44,318.61210291931667
736,1686066512.55,47.852,-253.906,-33.203,18.066,817.444,327.5308619123926
737,1686066512.55,57.129,-939.941,-328.125,34.668,817.448,329.0235944562165
738,1686066512.56,-41.504,-384.766,10.254,-15.625,817.452,329.60583338057114
739,1686066512.56,-73.242,208.496,166.016,-30.273,817.456,329.2589523526471
740,1686066512.56,24.414,-306.152,-67.871,15.137,817.46,326.85561726358225
741,1686066512.57,70.801,-315.43,6.348,31.738,817.464,316.7361525117078
742,1686066512.57,-13.184,364.258,200.684,-9.766,817.468,321.3424746375609
743,1686066512.58,-84.473,184.57,57.129,-35.645,817.472,341.94918645933905
744,1686066512.59,-15.625,-131.348,14.16,-11.719,817.49,330.4873273655593
745,1686066512.6,67.871,191.895,173.34,16.113,817.494,333.88831129544076
746,1686066512.6,8.789,363.77,184.57,-3.906,817.498,332.38327238551216
747,1686066512.61,-83.496,-169.434,-77.637,-32.715,817.502,323.5865225282338
748,1686066512.61,-44.922,-483.887,-138.184,-17.09,817.506,335.09986359820095
749,1686066512.61,58.594,-259.766,42.969,15.625,817.51,331.84284867152155
750,1686066512.62,45.898,143.555,143.555,6.348,817.514,329.5657752671078
751,1686066512.62,-51.27,-23.926,-23.438,-23.926,817.518,331.3157160460385
752,1686066512.62,-63.965,-670.41,-230.957,-12.207,817.522,337.91503708194807
753,1686066512.63,27.832,-94.727,113.77,9.766,817.526,325.39577507625
754,1686066512.63,58.594,560.059,279.785,19.531,817.529,331.06806203364863
755,1686066512.64,-70.801,-180.664,-63.477,-18.555,817.534,335.53461106900033
756,1686066512.64,-28.32,65.918,-6.348,0.977,817.533,328.6225172975943
757,1686066512.64,22.949,277.832,187.988,12.695,817.538,332.97690358747064
758,1686066512.64,76.172,224.121,116.211,31.738,817.542,340.0545173542783
759,1686066512.65,-7.812,-335.449,-75.684,-0.488,817.545,330.5913937133596
760,1686066512.65,-78.613,-398.926,-70.801,-25.391,817.549,321.1409987845139
761,1686066512.66,-9.277,-122.07,51.27,-7.324,817.553,334.804243456672
762,1686066512.66,80.566,-48.828,100.586,19.531,817.557,316.0243772907151
763,1686066512.66,28.32,-242.188,4.395,3.906,817.561,332.4804307861407
764,1686066512.67,-54.688,-1000.0,-395.508,-3.418,817.565,331.4359236308421
765,1686066512.67,-66.895,-178.711,22.461,-37.598,817.565,331.9489275788791
766,1686066512.67,-35.156,110.352,99.609,-32.227,817.569,327.2614808198104
767,1686066512.67,-71.777,-314.941,19.043,-39.062,817.569,329.38657025685626
768,1686066512.68,69.336,315.918,164.062,15.625,817.573,331.87982350487914
769,1686066512.68,40.039,212.402,165.039,7.812,817.573,332.69102060558083
770,1686066512.68,59.082,-272.461,-105.957,33.203,817.577,321.23059242571304
771,1686066512.68,67.871,119.629,116.211,26.855,817.576,329.71705812649924
772,1686066512.68,-35.156,183.105,128.906,-23.438,817.58,309.9298553712435
773,1686066512.69,-73.73,-114.258,-12.695,-34.18,817.584,332.1669763236295
774,1686066512.69,12.695,-297.852,-44.434,-3.906,817.588,334.3735281336812
775,1686066512.7,70.312,-157.227,45.898,22.949,817.592,325.57913575869514
776,1686066512.7,6.348,-62.012,86.426,9.766,817.596,317.8524423722911
777,1686066512.7,-68.359,126.953,118.164,-24.902,817.6,319.9736376992894
778,1686066512.71,-15.625,17.09,17.09,-7.812,817.604,324.0806001116402
779,1686066512.71,72.266,-736.816,-203.613,35.156,817.608,329.1062264645496
780,1686066512.71,32.227,-344.238,50.293,13.672,817.609,322.9535360985723
781,1686066512.72,-56.152,317.871,193.359,-31.25,817.613,318.5986663344673
782,1686066512.72,-38.574,-353.516,-116.211,-8.301,817.617,311.96884654897923
783,1686066512.72,58.594,-381.836,-79.59,34.18,817.62,327.7279722166392
784,1686066512.73,59.57,330.566,193.359,16.602,817.624,332.29217726837106
785,1686066512.73,-39.062,41.504,5.371,-25.391,817.628,321.10333026955635
786,1686066512.74,-52.246,-670.898,-318.848,-24.414,817.632,331.1861575283973
787,1686066512.74,40.039,-649.414,-137.695,1.953,817.636,332.3766417644021
788,1686066512.74,60.059,300.781,264.648,-3.418,817.64,340.2753675706079
789,1686066512.75,-30.273,346.68,111.816,-21.973,817.644,323.51275531941604
790,1686066512.75,-72.754,-218.75,-85.938,-31.25,817.648,334.23974253189124
791,1686066512.76,9.277,-112.793,41.016,-3.906,817.652,316.7923480207641
792,1686066512.76,78.125,457.031,259.766,11.23,817.658,339.48699697244865
793,1686066512.76,14.648,360.352,130.859,-13.184,817.662,319.54368614537077
794,1686066512.77,-70.801,-301.758,-118.164,-33.203,817.666,323.3651009430069
795,1686066512.77,-22.461,-150.879,25.879,-15.625,817.67,332.37706518887677
796,1686066512.78,63.965,397.949,243.164,16.602,817.674,333.37891003811046
797,1686066512.78,23.926,55.176,48.828,12.207,817.678,318.5285020480862
798,1686066512.78,-71.289,-654.297,-218.262,-21.484,817.682,323.00302841448246
799,1686066512.79,-56.152,-367.188,0.488,-27.832,817.686,323.0302364341508
800,1686066512.79,50.293,354.004,246.094,-0.488,817.69,327.59578974779294
801,1686066512.8,56.152,218.262,93.75,2.93,817.693,332.60386344207325
802,1686066512.8,-41.992,-63.965,0.0,-23.926,817.697,328.989187621655
803,1686066512.8,-69.336,111.816,117.676,-40.039,817.701,317.6535243568237
804,1686066512.82,32.227,333.984,172.852,-6.836,817.716,333.43632879224157
805,1686066512.82,77.148,83.984,62.988,15.137,817.72,324.084953364337
806,1686066512.83,-18.066,-404.297,-89.844,-20.508,817.724,327.3124739180217
807,1686066512.83,-78.613,-293.945,-25.879,-45.41,817.728,323.40279694925084
808,1686066512.83,2.93,177.734,163.086,-9.766,817.732,326.7767917643993
809,1686066512.84,84.473,-210.449,-17.09,35.645,817.736,319.16504512240283
810,1686066512.84,21.484,-1000.0,-459.961,29.297,817.74,335.41964391922306
811,1686066512.84,-73.73,-614.746,-197.266,-17.09,817.744,334.1009656151771
812,1686066512.85,-31.738,153.32,143.555,-17.09,817.748,320.94548336857986
813,1686066512.85,74.219,187.988,149.902,26.855,817.751,327.93473294408096
814,1686066512.86,57.617,258.789,164.551,19.043,817.755,330.41424114164425
815,1686066512.86,-45.898,299.316,136.719,-26.367,817.759,341.55219703981294
816,1686066512.86,-48.34,104.492,60.059,-28.32,817.759,325.2625775640053
817,1686066512.87,49.316,55.176,83.496,13.672,817.763,321.5229262398214
818,1686066512.87,60.547,331.543,200.195,24.902,817.767,334.95573812027
819,1686066512.87,-41.504,267.578,83.984,-13.672,817.771,324.70583492936566
820,1686066512.88,-73.242,-197.754,-166.504,-14.16,817.774,328.3221643846566
821,1686066512.88,36.621,-492.188,-117.676,31.738,817.778,327.80375801245606
822,1686066512.89,82.031,-102.051,120.117,31.25,817.782,324.346520383524
823,1686066512.89,-18.066,300.781,146.973,-22.461,817.786,332.87590674138437
824,1686066512.89,-91.797,-22.461,-51.27,-46.387,817.79,333.51538545550005
825,1686066512.9,-19.043,-816.406,-314.941,-3.906,817.794,327.1606703411891
826,1686066512.9,61.523,-367.676,27.832,12.695,817.798,345.94828371065915
827,1686066512.9,12.695,451.172,234.863,-20.996,817.802,318.1532599066668
828,1686066512.91,-69.336,-54.199,-56.152,-44.922,817.804,332.10991429577905
829,1686066512.91,-36.133,-172.363,-30.273,-29.785,817.808,332.39753585119956
830,1686066512.92,58.594,66.406,107.422,17.578,817.812,321.38826749264024
831,1686066512.92,40.039,182.617,185.547,11.719,817.816,331.492992576707
832,1686066512.92,-58.594,-262.695,-90.332,-23.438,817.819,336.2868902446682
833,1686066512.93,-63.477,-842.285,-340.332,-24.902,817.823,325.86608284460937
834,1686066512.93,36.133,-258.789,3.418,-1.465,817.827,331.23482924872513
835,1686066512.93,50.781,153.32,138.184,13.184,817.831,329.5866192083776
836,1686066512.94,-41.504,-438.477,-182.617,-14.16,817.835,333.1161741678789
837,1686066512.94,-79.59,-792.969,-305.176,-27.832,817.839,330.2670183312176
838,1686066512.95,8.789,30.762,107.91,0.977,817.843,331.40293123136803
839,1686066512.95,73.73,184.57,109.375,23.438,817.847,320.95191474115995
840,1686066512.95,-2.441,22.949,59.57,-10.742,817.862,323.45041519579036
841,1686066512.96,-78.125,98.633,96.191,-44.922,817.866,322.6441018392708
842,1686066512.96,-15.137,315.43,191.895,-25.391,817.87,327.0537875130822
843,1686066512.96,71.777,320.312,162.109,10.254,817.874,325.99107949062187
844,1686066512.97,32.227,95.215,76.66,-1.465,817.878,328.4696050702025
845,1686066512.97,-62.5,-211.914,-43.945,-35.156,817.882,327.7708357716405
846,1686066512.98,-45.898,-129.395,8.301,-23.926,817.886,324.26891799655994
847,1686066512.98,52.246,177.734,126.953,16.113,817.889,333.39086840998596
848,1686066512.98,43.945,-472.656,-125.0,12.207,817.893,316.3563081792684
849,1686066512.99,-62.5,-542.48,-101.074,-43.457,817.897,327.9277161655668
850,1686066512.99,-76.172,148.438,132.324,-56.641,817.901,321.4164365717686
851,1686066513.0,33.203,-25.391,5.371,-7.324,817.905,331.9926562217197
852,1686066513.0,69.336,-255.371,-52.734,13.184,817.893,326.0124408733293
853,1686066513.0,-33.691,156.25,145.508,-25.391,817.897,323.244269409732
854,1686066513.0,-80.078,-2.93,9.277,-38.574,817.901,324.2453119592527
855,1686066513.01,14.16,-545.41,-221.191,6.348,817.905,324.1694381024344
856,1686066513.01,71.289,-419.434,-79.102,26.855,817.909,323.902423544646
857,1686066513.02,-6.348,12.207,108.398,-13.184,817.913,319.13779858052936
858,1686066513.02,-80.078,-190.918,-121.094,-39.062,817.917,324.0908930239915
859,1686066513.02,-23.926,-510.742,-167.969,-7.812,817.921,325.0831431495105
860,1686066513.03,68.359,-227.051,68.359,23.438,817.925,332.1644803251719
861,1686066513.03,36.133,410.645,227.539,6.348,817.929,325.40598014951314
862,1686066513.04,-61.523,228.516,56.641,-23.926,817.932,320.08323357524483
863,1686066513.04,-43.945,-451.66,-153.809,-14.648,817.936,328.8273611350622
864,1686066513.04,58.594,-227.539,58.105,22.461,817.941,321.14332077813594
865,1686066513.05,57.129,460.449,252.93,12.695,817.945,316.414938700389
866,1686066513.05,-47.852,150.879,36.133,-20.996,817.949,325.70113218096367
867,1686066513.06,-62.988,-407.227,-141.602,-20.996,817.953,316.2918685836994
868,1686066513.06,46.875,-78.613,59.082,2.93,817.957,310.68995481394444
869,1686066513.06,81.055,215.332,157.227,10.254,817.961,325.0773877289968
870,1686066513.07,-18.555,-147.461,-49.316,-22.949,817.965,329.15718768331357
871,1686066513.07,-82.52,-654.297,-212.891,-29.297,817.969,329.14024906538106
872,1686066513.08,-6.836,-241.699,65.43,-0.977,817.972,318.80961740646086
873,1686066513.08,68.359,457.031,247.559,17.578,817.976,322.8067628661641
874,1686066513.08,7.812,130.371,37.109,-3.418,817.98,319.842218183703
875,1686066513.09,-83.008,-157.715,-33.203,-37.109,817.984,307.12061743327854
876,1686066513.09,-41.504,158.691,148.438,-24.902,817.997,321.8885802949394
877,1686066513.09,46.875,418.945,208.984,12.695,818.001,330.75909775358457
878,1686066513.1,30.762,24.902,75.195,10.254,818.005,321.28528266743064
879,1686066513.1,-54.199,-459.961,-149.414,-28.809,818.009,319.9913122154474
880,1686066513.1,-57.617,-259.766,-94.727,-28.809,818.013,309.78743369386933
881,1686066513.11,46.387,9.766,136.719,19.043,818.017,316.94158971306
882,1686066513.11,61.035,-411.621,-81.055,28.809,818.021,319.8078675155886
883,1686066513.12,-41.016,-1000.0,-402.344,-6.836,818.025,325.08771364932653
884,1686066513.12,-72.754,-380.371,-36.621,-40.527,818.029,324.75097259493776
885,1686066513.12,14.648,311.035,181.641,-15.625,818.032,327.1579944207816
886,1686066513.13,63.477,258.301,145.508,11.719,818.036,317.27627093173993
887,1686066513.13,-10.254,212.402,145.508,-16.602,818.04,329.10023688217495
888,1686066513.13,-75.684,252.93,133.789,-42.969,818.043,322.75531943631773
889,1686066513.14,-7.812,215.332,110.352,-17.09,818.047,314.6005159452923
890,1686066513.14,67.871,174.805,126.953,16.602,818.05,321.184351223102
891,1686066513.15,16.113,296.387,170.41,-3.906,818.054,326.4299950584805
892,1686066513.15,-66.895,81.543,30.762,-34.668,818.058,338.78274730418605
893,1686066513.15,-30.273,-204.102,-44.434,-14.16,818.062,328.5633121900099
894,1686066513.16,56.641,-692.871,-177.246,34.668,818.066,314.0890977257268
895,1686066513.16,35.645,-437.5,-21.973,23.438,818.07,316.4921492601498
896,1686066513.16,-63.477,239.746,170.41,-22.949,818.074,329.46795211699356
897,1686066513.17,-71.289,-146.973,-79.102,-21.484,818.078,327.7859972159399
898,1686066513.17,30.762,-120.605,-40.039,5.859,818.082,323.04865419781146
899,1686066513.18,57.617,422.363,209.961,3.418,818.086,329.99625341453975
900,1686066513.19,-36.133,358.398,131.836,-28.32,818.088,326.14905361806694
901,1686066513.2,-69.824,-98.145,-4.395,-32.227,818.092,323.48090929316
902,1686066513.2,21.973,-307.617,-8.789,-1.953,818.096,315.86139360854577
903,1686066513.2,65.918,49.805,117.676,7.812,818.1,319.6248723821581
904,1686066513.21,-16.602,287.598,182.129,-24.902,818.104,320.6072691579402
905,1686066513.21,-86.426,-419.434,-190.918,-43.457,818.108,324.6040071161562
906,1686066513.22,-24.414,-1000.0,-394.531,-5.371,818.112,336.353937007222
907,1686066513.22,56.641,-389.648,15.625,15.137,818.116,327.9012790091264
908,1686066513.22,15.137,263.672,176.758,-11.23,818.12,324.5288588914912
909,1686066513.23,-80.078,-395.508,-190.43,-30.762,818.124,329.58818202820527
910,1686066513.23,-53.711,-631.836,-171.387,-13.184,818.128,319.8956470917461
911,1686066513.24,52.246,357.422,248.047,15.625,818.131,310.78335032330057
912,1686066513.25,41.504,397.461,116.211,9.277,818.149,330.80494764635387
913,1686066513.26,-58.594,12.695,23.926,-28.32,818.153,321.89072530978746
914,1686066513.26,-69.336,53.711,106.445,-41.504,818.157,328.46441901798465
915,1686066513.26,35.645,363.281,200.195,-7.812,818.161,322.01043936152087
916,1686066513.27,62.988,327.637,158.691,12.695,818.165,338.48876007058243
917,1686066513.27,-37.109,-203.613,-104.492,-14.648,818.168,326.9263670130783
918,1686066513.28,-87.402,-295.41,-96.68,-41.992,818.172,328.95775299676944
919,1686066513.28,4.883,227.539,188.477,-12.695,818.176,317.67312043038214
920,1686066513.28,74.707,-37.109,-17.578,18.066,818.179,333.8349133886532
921,1686066513.28,65.918,212.891,99.121,17.09,818.18,322.0915417058152
922,1686066513.29,25.391,-309.082,-146.484,1.465,818.183,326.7795241664164
923,1686066513.29,-11.719,-630.371,-270.02,-7.324,818.184,315.4720161195399
924,1686066513.29,-80.566,-103.516,14.648,-41.992,818.187,315.09845162338104
925,1686066513.29,-86.914,-567.871,-146.484,-40.039,818.188,335.81262954211786
926,1686066513.29,-49.316,-149.414,7.812,-38.086,818.191,319.259340038237
927,1686066513.3,-26.367,187.5,200.195,-24.902,818.192,310.3439316261896
928,1686066513.3,43.457,-389.16,-92.285,1.465,818.195,332.69624410214004
929,1686066513.3,31.25,-592.285,-156.738,10.742,818.199,324.55868219215444
930,1686066513.31,-65.918,-148.926,37.109,-37.598,818.202,319.26224103622155
931,1686066513.31,-74.707,94.238,50.781,-45.898,818.206,325.95853167812055
932,1686066513.31,23.438,-74.707,21.484,-5.371,818.21,329.98024769480236
933,1686066513.32,49.316,94.727,122.07,9.277,818.214,319.80780315029756
934,1686066513.32,-36.133,349.121,159.18,-18.555,818.218,320.483917603358
935,1686066513.32,-83.984,185.547,75.684,-41.016,818.222,320.2062273605989
936,1686066513.33,-2.93,-577.148,-213.379,0.977,818.224,325.9116898440208
937,1686066513.33,62.5,-616.699,-148.438,22.949,818.228,333.337706131451
938,1686066513.34,-2.93,319.336,231.934,-22.949,818.232,325.9027879072122
939,1686066513.34,-84.961,157.227,54.688,-47.852,818.236,332.39661182492983
940,1686066513.34,-38.086,-213.379,-52.246,-26.855,818.239,346.9264224544893
941,1686066513.35,46.387,-99.609,76.172,3.418,818.243,319.84104296983526
942,1686066513.35,21.973,73.242,167.969,-9.277,818.247,318.9314241870609
943,1686066513.35,-71.777,-75.684,2.441,-42.969,818.251,325.6369548200927
944,1686066513.36,-61.523,-656.25,-214.844,-31.25,818.255,323.2814444459714
945,1686066513.36,44.922,-156.25,107.91,1.465,818.259,324.65773477824814
946,1686066513.37,46.387,448.242,218.75,-3.418,818.263,324.1728679975751
947,1686066513.37,-55.664,-92.773,-49.316,-39.062,818.267,334.0705096267354
948,1686066513.37,-84.473,-246.582,-47.852,-47.852,818.268,323.15634422493497
949,1686066513.38,16.113,241.699,176.758,-10.742,818.272,316.9037865095881
950,1686066513.38,59.57,250.0,165.527,2.93,818.276,333.9614615995175
951,1686066513.38,-39.062,-455.566,-181.152,-17.578,818.28,324.47574833008935
952,1686066513.39,-92.285,-851.562,-380.371,-26.367,818.284,330.06976595982667
953,1686066513.39,-7.812,-357.422,-42.48,-21.484,818.288,329.9529358699302
954,1686066513.4,68.359,98.633,146.973,-0.977,818.292,317.9505754214084
955,1686066513.4,11.719,-420.41,-174.805,-5.859,818.296,332.2913945389318
956,1686066513.4,-76.172,-719.238,-234.863,-36.621,818.299,327.78295518433094
957,1686066513.41,-32.227,151.367,170.41,-32.227,818.303,324.4105464575652
958,1686066513.41,63.965,417.48,165.039,7.812,818.307,322.4366824140091
959,1686066513.42,41.016,208.496,117.188,2.441,818.311,319.48807801311875
960,1686066513.42,-59.082,118.164,122.07,-36.133,818.315,320.4658639864588
961,1686066513.42,-54.199,250.0,153.32,-35.156,818.319,316.5741770832125
962,1686066513.43,51.27,274.902,122.559,7.812,818.323,324.51044670848347
963,1686066513.43,60.059,196.289,145.02,19.043,818.327,319.76143528882875
964,1686066513.43,-44.922,196.777,107.91,-25.879,818.331,319.9096815847068
965,1686066513.44,-78.613,-117.676,-66.895,-37.598,818.335,329.57906652215064
966,1686066513.44,17.09,-196.777,-1.465,-4.395,818.339,332.0084339769344
967,1686066513.44,63.965,-697.266,-190.918,22.949,818.343,327.3904968828308
968,1686066513.45,-24.902,-569.824,-137.207,-11.23,818.347,329.434406796014
969,1686066513.45,-95.215,181.152,145.996,-53.223,818.35,327.72742614774603
970,1686066513.46,-22.949,-10.742,22.949,-21.973,818.354,325.89379389330156
971,1686066513.46,62.012,109.375,100.586,19.043,818.358,329.164756971435
972,1686066513.46,2.441,394.043,203.125,-4.395,818.372,334.8688131074247
973,1686066513.47,-88.379,294.922,120.117,-49.805,818.376,334.2391088783217
974,1686066513.47,-52.734,-212.891,-9.766,-32.227,818.38,331.47605782688214
975,1686066513.47,40.527,-254.395,57.129,-1.953,818.384,333.4236312498896
976,1686066513.48,23.926,211.914,159.668,-6.348,818.388,318.43859649880187
977,1686066513.48,-77.148,-104.492,-52.246,-40.039,818.391,326.86552411261414
978,1686066513.49,-82.031,-714.844,-314.941,-39.551,818.395,338.78854138178724
979,1686066513.49,24.414,-819.824,-281.25,5.371,818.399,321.99992725491745
980,1686066513.49,51.758,-190.918,75.684,6.836,818.403,329.43578526503757
981,1686066513.5,-40.527,107.91,59.57,-26.855,818.407,321.39521054815805
982,1686066513.5,-83.008,-334.961,-107.91,-44.922,818.411,309.2947747375007
983,1686066513.5,4.395,-180.664,70.312,-19.043,818.415,321.4088751117385
984,1686066513.51,59.57,444.336,240.234,-4.395,818.406,326.6717337506614
985,1686066513.51,-6.348,257.324,70.801,-23.926,818.409,334.11771881847744
986,1686066513.52,-75.684,-110.352,-12.207,-45.41,818.413,332.1670241521699
987,1686066513.52,-14.648,72.266,113.281,-32.227,818.417,319.480793801595
988,1686066513.52,71.777,435.059,191.895,4.883,818.421,332.2231887125524
989,1686066513.53,28.809,86.426,42.48,-2.93,818.425,341.09865689173216
990,1686066513.53,-71.289,-575.684,-186.035,-48.828,818.429,336.4330079538628
991,1686066513.54,-50.781,-227.051,32.227,-38.574,818.433,318.65705260097906
992,1686066513.54,58.594,402.832,230.957,9.277,818.437,328.32642129335346
993,1686066513.54,52.246,198.242,47.363,9.277,818.441,330.61196053909515
994,1686066513.55,-49.316,-305.176,-157.715,-21.973,818.445,331.9859498785272
995,1686066513.55,-59.082,-233.398,-29.785,-28.32,818.448,333.012000450419
996,1686066513.55,33.691,253.906,213.867,-3.418,818.463,319.2312962688126
997,1686066513.56,50.781,30.762,3.906,9.277,818.466,317.9892532548323
998,1686066513.56,-43.457,-613.77,-312.012,-25.879,818.47,318.13755381373204
999,1686066513.56,-90.332,-373.047,-76.172,-51.27,818.474,327.94715152499276
1000,1686066513.57,-3.906,176.758,189.453,-27.344,818.478,330.8226192590331
1001,1686066513.57,62.988,-268.066,-82.52,0.0,818.482,315.3663230459785
1002,1686066513.58,-3.418,-964.355,-336.914,0.0,818.486,318.4407078067948
1003,1686066513.58,-86.914,-351.562,-9.766,-45.898,818.49,330.48739699756334
1004,1686066513.58,-28.809,141.602,99.609,-29.297,818.494,335.45872076524427
1005,1686066513.59,74.219,160.645,151.855,16.113,818.498,325.5365712606023
1006,1686066513.59,35.156,252.93,178.711,-12.207,818.502,323.660575533992
1007,1686066513.6,-65.43,251.465,113.77,-53.711,818.505,331.73815557072277
1008,1686066513.61,-48.828,71.289,50.781,-40.039,818.513,319.93858313844606
1009,1686066513.62,45.41,-143.066,25.391,13.184,818.517,319.2996397895655
1010,1686066513.62,47.363,54.199,111.328,11.23,818.521,330.1557822479088
1011,1686066513.63,-49.805,300.293,135.742,-32.715,818.525,333.07224861368445
1012,1686066513.63,-80.566,94.238,23.926,-28.32,818.528,320.37761952373364
1013,1686066513.63,16.113,-504.883,-116.699,14.648,818.532,326.94426564466033
1014,1686066513.64,57.129,-293.945,52.246,6.836,818.536,331.2199795723422
1015,1686066513.64,-27.832,350.098,197.266,-28.32,818.54,323.82738656696176
1016,1686066513.64,-82.031,-35.645,-48.34,-40.527,818.544,332.60318769079186
1017,1686066513.65,-2.441,-499.512,-106.445,-0.977,818.548,334.90732754761285
1018,1686066513.65,66.895,67.871,184.57,24.414,818.552,318.1581015086033
1019,1686066513.66,-76.66,-65.43,-2.441,-41.016,818.567,321.6198507328826
1020,1686066513.66,4.883,410.645,202.148,-12.695,818.556,323.9715495962909
1021,1686066513.66,-29.785,-166.504,-16.113,-19.531,818.571,321.3344806584352
1022,1686066513.66,55.664,20.996,106.445,5.371,818.575,323.1440063423443
1023,1686066513.67,24.902,41.016,115.723,-5.859,818.579,318.5997130914941
1024,1686066513.67,-62.988,-428.711,-143.066,-32.715,818.582,318.2704061261074
1025,1686066513.68,-52.246,-824.707,-270.508,-22.461,818.586,320.7211939497164
1026,1686066513.68,54.199,-127.93,99.609,14.16,818.59,327.3963426606803
1027,1686066513.68,63.477,419.434,253.906,7.812,818.594,320.21620599810916
1028,1686066513.69,-38.574,-297.852,-166.504,-22.949,818.598,332.7867665654142
1029,1686066513.69,-67.383,-1000.0,-398.926,-20.996,818.602,329.53786982065503
1030,1686066513.7,20.02,-106.445,119.629,5.859,818.606,334.4832686640758
1031,1686066513.7,62.5,397.949,180.176,16.113,818.61,329.88509512491237
1032,1686066513.72,-16.113,47.852,16.602,-22.949,818.614,327.8327970319453
1033,1686066513.72,-79.59,-3.418,75.195,-43.945,818.617,321.14476220964036
1034,1686066513.72,-6.348,277.832,185.059,-19.531,818.621,323.9889389651477
1035,1686066513.73,60.059,329.59,163.086,5.371,818.625,326.7660675859077
1036,1686066513.73,0.977,58.594,69.824,-9.277,818.629,328.2103395122669
1037,1686066513.74,-80.566,-261.719,-71.289,-40.527,818.633,317.7088654103425
1038,1686066513.74,-41.504,-294.922,-46.875,-18.066,818.637,313.45384003024475
1039,1686066513.74,58.594,-144.043,37.109,22.461,818.641,330.5754007262515
1040,1686066513.75,64.941,-374.023,-78.125,18.066,818.644,332.0085271234371
1041,1686066513.75,36.133,-435.059,-108.887,9.277,818.645,322.3044404829259
1042,1686066513.75,-31.25,72.266,108.887,-29.297,818.648,312.5740673576665
1043,1686066513.75,-64.941,-234.863,21.484,-33.691,818.649,323.4678709827849
1044,1686066513.76,-66.406,20.996,-2.93,-41.016,818.652,321.6544848688377
1045,1686066513.76,-60.059,233.887,160.645,-37.598,818.653,325.4107392681252
1046,1686066513.76,21.973,-528.32,-173.828,4.883,818.655,323.5042846701703
1047,1686066513.76,46.875,-59.082,-28.32,5.371,818.656,318.5170928624978
1048,1686066513.76,70.312,-458.008,-101.074,12.695,818.659,333.2543231388775
1049,1686066513.77,-3.906,-39.062,66.895,-26.855,818.663,330.61795401824725
1050,1686066513.77,-65.918,-206.055,-45.898,-42.48,818.667,322.9356812113867
1051,1686066513.77,-4.883,-365.723,-56.641,-9.277,818.671,319.12137099086084
1052,1686066513.78,70.312,-38.574,93.262,24.414,818.675,319.26901473968735
1053,1686066513.78,20.02,145.02,132.812,8.789,818.679,328.8745036721494
1054,1686066513.79,-77.148,118.652,90.82,-31.738,818.683,318.7554544109375
1055,1686066513.79,-43.457,-509.766,-204.102,-8.789,818.687,332.65632316916833
1056,1686066513.79,58.105,-696.777,-155.273,29.785,818.689,334.3320140744448
1057,1686066513.8,49.805,292.969,220.703,3.906,818.693,330.7023029343955
1058,1686066513.8,-41.504,239.258,42.48,-28.32,818.696,328.2128494388282
1059,1686066513.8,-60.547,-93.262,-17.09,-34.668,818.7,328.46441172111935
1060,1686066513.81,31.738,186.523,144.531,4.883,818.704,324.42981521212306
1061,1686066513.81,53.223,152.344,102.539,23.438,818.708,324.58225098498616
1062,1686066513.82,-40.527,-204.102,-71.289,-14.648,818.712,325.47636294693945
1063,1686066513.82,-77.637,-659.18,-213.867,-32.715,818.716,320.3934976213377
1064,1686066513.82,4.883,-217.285,64.453,-12.695,818.72,320.9922314216758
1065,1686066513.83,66.406,538.574,259.766,4.395,818.724,326.8424448284216
1066,1686066513.83,-3.418,200.684,39.062,-20.508,818.728,320.79178642451524
1067,1686066513.84,-83.496,-303.711,-160.156,-45.898,818.732,317.5055175949316
1068,1686066513.84,-31.738,-132.812,28.809,-28.32,818.737,326.0967313977455
1069,1686066513.84,49.316,437.988,265.137,-1.953,818.741,316.66025009838785
1070,1686066513.85,6.836,-69.824,-64.941,-15.625,818.745,322.92096018765744
1071,1686066513.85,-87.891,-872.07,-369.141,-41.016,818.749,332.7116292078064
1072,1686066513.85,-70.801,-259.766,-12.207,-35.645,818.752,324.7722665204726
1073,1686066513.86,30.273,179.199,146.973,-10.254,818.756,323.40141315871864
1074,1686066513.86,32.227,-404.297,-129.395,9.277,818.76,329.93176496727455
1075,1686066513.86,-62.012,-653.32,-201.66,-23.926,818.764,330.880502107678
1076,1686066513.87,-71.777,70.801,118.652,-47.363,818.768,317.4629851869412
1077,1686066513.87,34.668,292.48,107.422,2.441,818.772,317.7613476751868
1078,1686066513.88,72.266,222.168,137.207,20.508,818.776,331.9719369052026
1079,1686066513.88,-15.625,213.867,157.227,-13.184,818.78,318.9338416090108
1080,1686066513.9,-63.965,228.027,127.441,-40.039,818.799,313.61987237344977
1081,1686066513.9,20.508,161.133,75.684,-6.836,818.802,318.9018488245003
1082,1686066513.91,74.707,-76.172,22.949,24.902,818.806,315.0037894357843
1083,1686066513.91,2.93,28.809,96.191,-5.371,818.81,324.3283501285426
1084,1686066513.92,-79.59,97.656,46.875,-29.297,818.814,329.015447478569
1085,1686066513.92,-24.902,-125.488,-3.906,-9.766,818.818,323.49993106756375
1086,1686066513.92,74.219,-741.699,-240.723,35.156,818.822,325.49472856241556
1087,1686066513.93,33.691,-620.605,-172.852,21.973,818.826,324.5982012467946
1088,1686066513.93,-67.383,174.316,152.344,-33.691,818.83,319.5616571253505
1089,1686066513.93,-51.758,-47.363,-3.418,-22.949,818.834,320.27057177478963
1090,1686066513.94,53.711,-54.688,31.738,20.508,818.838,328.9892820075903
1091,1686066513.94,57.129,305.664,173.34,18.066,818.842,322.23213951036587
1092,1686066513.94,-39.062,259.766,102.539,-25.879,818.839,321.1800769196316
1093,1686066513.95,-60.547,-107.91,-35.156,-33.691,818.843,328.2472728986519
1094,1686066513.95,42.969,-340.82,-32.227,11.23,818.847,331.42170938604494
1095,1686066513.95,70.312,-17.578,102.051,22.949,818.851,328.8437167233021
1096,1686066513.96,-28.32,116.211,64.453,-15.137,818.854,322.11806838015616
1097,1686066513.96,-71.289,-563.965,-287.598,-17.578,818.858,315.75066688865394
1098,1686066513.97,4.883,-823.242,-283.691,18.555,818.862,312.31221450214576
1099,1686066513.97,75.195,-23.438,146.484,34.668,818.866,318.3886678825987
1100,1686066513.97,19.531,372.559,164.551,2.93,818.87,323.71045732934874
1101,1686066513.98,-63.965,-433.105,-254.883,-25.391,818.874,314.77622211449113
1102,1686066513.98,-31.25,-937.988,-352.539,-5.371,818.878,324.9923672214139
1103,1686066513.98,59.57,61.523,174.805,13.672,818.882,315.90199229688244
1104,1686066513.99,42.48,459.961,168.457,3.906,818.884,321.4871895070539
1105,1686066513.99,-55.176,-16.113,-36.621,-33.691,818.888,318.8156903710495
1106,1686066514.0,-52.246,-13.184,46.875,-37.109,818.892,320.2154974710894
1107,1686066514.0,44.922,375.977,209.473,-2.93,818.895,314.7356572550742
1108,1686066514.0,56.152,347.656,143.555,12.207,818.899,305.0372145319515
1109,1686066514.01,-32.227,-293.945,-148.926,-14.648,818.903,314.508407803463
1110,1686066514.01,-66.406,-454.102,-183.105,-44.922,818.907,313.1574642894403
1111,1686066514.01,19.531,-123.535,32.715,-11.23,818.911,321.35053444607394
1112,1686066514.02,75.684,-66.406,43.945,20.996,818.915,316.95947625233566
1113,1686066514.02,-12.207,-729.492,-308.594,-4.883,818.919,314.69492913503484
1114,1686066514.03,-81.543,-622.07,-191.406,-50.781,818.923,325.07141194575206
1115,1686066514.03,-15.625,203.613,159.668,-40.039,818.927,318.5790793533111
1116,1686066514.06,60.059,158.203,56.641,3.906,818.959,310.555273043323
1117,1686066514.07,13.672,111.328,54.199,-18.066,818.963,334.0167930764517
1118,1686066514.07,-72.266,-85.449,-27.344,-55.664,818.967,308.68776491518213
1119,1686066514.07,-34.18,-51.758,25.879,-30.273,818.971,320.4448319854658
1120,1686066514.08,24.902,-172.852,-28.32,9.766,818.973,321.0613981124264
1121,1686066514.08,60.547,-162.598,3.906,22.461,818.975,324.14118260075617
1122,1686066514.08,71.289,83.496,107.91,32.715,818.977,317.8032016294581
1123,1686066514.08,38.086,-630.371,-194.824,16.602,818.978,322.3625234854294
1124,1686066514.08,-12.207,402.344,183.105,-5.371,818.981,317.8404590513255
1125,1686066514.09,-61.523,-192.871,31.25,-35.645,818.982,319.0339283533999
1126,1686066514.09,-55.176,253.906,173.34,-40.039,818.986,321.1179647027015
1127,1686066514.09,-82.031,61.523,19.531,-30.762,818.985,327.2307680833022
1128,1686066514.09,46.387,-303.223,-94.238,11.719,818.99,322.4800425553701
1129,1686066514.09,-18.555,-110.84,-19.043,-10.742,818.989,314.12358528780516
1130,1686066514.1,61.523,-26.855,74.707,15.625,818.993,323.1753736624657
1131,1686066514.1,63.477,-588.379,-159.18,24.414,818.994,325.5507369161289
1132,1686066514.1,-28.32,11.23,129.883,-20.508,818.998,313.77295869907044
1133,1686066514.1,15.137,100.098,117.188,-6.836,818.997,319.52863566814887
1134,1686066514.1,-73.73,-126.953,-46.875,-42.48,819.001,314.25570441532363
1135,1686066514.1,-68.848,46.387,36.621,-36.621,819.002,313.5302441379897
1136,1686066514.11,-42.48,-395.508,-116.699,-22.949,819.005,334.9926965197687
1137,1686066514.11,65.43,137.207,159.18,17.578,819.009,311.2471264939592
1138,1686066514.12,49.805,489.746,232.422,6.348,819.013,330.87827654931186
1139,1686066514.12,-54.199,-50.781,-64.941,-27.344,819.016,331.7686688332464
1140,1686066514.12,-69.824,-613.281,-318.359,-24.414,819.019,322.8531503528657
1141,1686066514.13,26.367,-79.59,37.598,6.836,819.023,325.872608730058
1142,1686066514.13,65.43,194.824,162.109,26.855,819.027,318.4185112360452
1143,1686066514.14,-28.809,-380.859,-114.746,-7.324,819.031,321.7544038457208
1144,1686066514.14,-83.496,-1000.0,-492.188,-23.926,819.035,311.6784516279143
1145,1686066514.14,3.906,-760.254,-251.953,16.113,819.039,306.66119671221895
1146,1686066514.15,62.5,53.223,185.547,29.785,819.043,314.1335297765535
1147,1686066514.15,-13.672,-358.887,-123.047,1.953,819.047,324.8563950361225
1148,1686066514.15,-81.543,-693.848,-214.355,-26.367,819.051,331.33679098726236
1149,1686066514.16,-19.531,143.555,154.785,-14.16,819.055,317.804712181019
1150,1686066514.16,69.824,439.453,181.641,23.926,819.058,327.3194713370201
1151,1686066514.17,37.109,254.883,117.188,10.742,819.062,316.71904883621016
1152,1686066514.17,-62.012,139.648,103.027,-34.668,819.066,312.20941092137116
1153,1686066514.17,-49.316,273.926,163.574,-27.832,819.07,329.0997995761772
1154,1686066514.18,50.293,289.551,138.672,12.695,819.074,322.8227536568422
1155,1686066514.18,47.363,54.688,116.211,19.043,819.078,335.8616124567416
1156,1686066514.18,-47.363,56.641,71.777,-15.137,819.082,314.2554098733181
1157,1686066514.19,-69.824,-123.047,-31.738,-21.973,819.086,320.25617822563083
1158,1686066514.19,32.715,-151.855,28.809,12.207,819.09,321.59163364580104
1159,1686066514.2,66.895,-537.598,-121.582,32.227,819.093,330.64867612756404
1160,1686066514.2,-27.832,-405.762,-44.434,-18.066,819.097,336.2579186297101
1161,1686066514.2,-82.031,276.367,166.016,-49.316,819.101,328.0143932795417
1162,1686066514.21,7.812,56.152,53.711,-10.742,819.105,327.13613953665237
1163,1686066514.21,75.684,48.34,72.266,13.672,819.109,331.48828628065655
1164,1686066514.21,5.859,311.035,162.109,-8.301,819.109,315.1367438475134
1165,1686066514.22,-69.824,236.816,127.441,-41.016,819.113,320.5412634584753
1166,1686066514.22,-20.996,-215.82,-29.297,-21.973,819.117,330.41385593942255
1167,1686066514.22,66.895,-154.297,42.969,11.23,819.121,320.4857255096646
1168,1686066514.23,35.156,265.625,160.645,-6.836,819.124,333.4073533346729
1169,1686066514.23,-59.082,-116.211,-55.664,-43.457,819.128,317.49257794238736
1170,1686066514.24,-45.41,-619.141,-277.832,-21.484,819.132,322.32925635991074
1171,1686066514.24,52.734,-1000.0,-367.676,35.645,819.136,336.034182024947
1172,1686066514.24,54.199,-266.602,65.43,20.508,819.14,322.0501723204593
1173,1686066514.25,-42.48,285.645,141.113,-29.785,819.144,317.10778614371804
1174,1686066514.25,-66.406,-106.934,-21.973,-30.762,819.148,323.42208039156344
1175,1686066514.26,24.414,103.516,144.531,12.695,819.152,317.99025657077755
1176,1686066514.26,74.707,517.578,231.934,31.25,819.167,325.17895866815815
1177,1686066514.26,-4.883,316.406,76.66,-2.93,819.171,332.0595633167515
1178,1686066514.27,-70.312,-161.621,-40.527,-29.297,819.175,328.80018616899935
1179,1686066514.27,0.977,44.434,134.277,-8.789,819.179,327.7370302258851
1180,1686066514.28,82.031,395.02,202.148,22.949,819.183,321.32227590536127
1181,1686066514.28,25.879,23.438,21.484,10.742,819.187,315.20462463251926
1182,1686066514.28,-62.012,-665.527,-198.73,-20.996,819.19,326.85934609047456
1183,1686066514.29,-25.879,-325.195,8.789,-11.719,819.194,327.5456929132802
1184,1686066514.29,69.336,184.082,173.34,17.09,819.198,320.76652070283274
1185,1686066514.29,49.316,-155.273,-32.227,15.625,819.202,328.136010696306
1186,1686066514.3,-59.57,-326.172,-88.867,-20.996,819.206,314.11998991387895
1187,1686066514.3,-59.082,14.648,89.355,-39.062,819.21,318.5771940033937
1188,1686066514.3,48.828,355.469,207.52,-8.789,819.213,329.28630865898936
1189,1686066514.31,59.082,29.297,-1.465,7.812,819.217,310.8175551523995
1190,1686066514.31,-49.316,-580.078,-271.484,-22.949,819.221,327.3890723477606
1191,1686066514.31,-89.844,-299.316,-55.176,-47.363,819.225,327.12839018197246
1192,1686066514.32,8.789,265.137,195.801,-13.184,819.229,323.8200438328014
1193,1686066514.32,60.547,-238.77,-64.453,20.02,819.233,333.1427821452261
1194,1686066514.33,-17.578,-993.164,-341.309,0.0,819.237,323.9920273473741
1195,1686066514.33,-77.148,-287.598,38.574,-39.551,819.24,317.18958419589086
1196,1686066514.33,-4.883,291.016,160.645,-14.16,819.244,331.29039861324384
1197,1686066514.34,73.242,113.77,107.91,21.484,819.248,330.4913871677984
1198,1686066514.34,20.02,37.109,100.586,-3.418,819.252,317.4032965263541
1199,1686066514.34,-64.941,-18.555,64.453,-35.645,819.256,328.77134471167716
1200,1686066514.35,-33.691,19.043,79.59,-26.367,819.273,328.90985986914205
1201,1686066514.35,64.941,-65.43,44.434,9.766,819.277,317.086067910897
1202,1686066514.36,43.945,97.656,109.375,10.254,819.28,325.18067433501716
1203,1686066514.36,-59.57,322.266,157.715,-31.738,819.284,330.08595739331696
1204,1686066514.37,-62.012,84.473,59.57,-35.645,819.288,327.9530926085298
1205,1686066514.37,36.621,-221.68,-4.883,5.859,819.292,321.6280463828324
1206,1686066514.37,62.5,-14.16,146.484,3.906,819.296,319.6080055864211
1207,1686066514.38,-33.691,307.129,169.434,-35.156,819.3,326.0189412811364
1208,1686066514.38,-75.684,-109.375,-94.727,-42.969,819.304,330.1735564177731
1209,1686066514.38,12.695,-478.027,-70.312,2.441,819.308,316.76910986742996
1210,1686066514.39,73.242,125.977,230.469,19.043,819.312,321.79367231342644
1211,1686066514.39,4.395,444.824,200.195,-9.277,819.316,321.23011521433335
1212,1686066514.44,-72.266,-98.633,-43.457,-22.461,819.336,327.8190289557083
1213,1686066514.44,-11.719,-339.844,-21.484,1.465,819.34,318.99781566411275
1214,1686066514.45,75.684,-107.91,121.094,30.762,819.343,317.46116974842647
1215,1686066514.45,25.391,-5.371,85.449,1.465,819.347,312.9778794326269
1216,1686066514.45,-20.508,-104.492,-21.484,-14.648,819.349,325.86938547238026
1217,1686066514.45,-64.453,-433.105,-184.57,-25.879,819.351,328.48794942538984
1218,1686066514.46,-67.871,-206.543,17.09,-31.738,819.353,331.4917311062942
1219,1686066514.46,-39.551,-1000.0,-382.812,6.348,819.355,321.46892707335843
1220,1686066514.46,19.043,308.594,185.547,-1.953,819.357,328.3478895453264
1221,1686066514.46,52.734,-397.461,34.18,37.598,819.359,325.03506027542863
1222,1686066514.46,84.473,305.176,141.602,24.414,819.361,327.73527884437016
1223,1686066514.46,45.898,304.688,215.82,16.602,819.363,328.3183219653539
1224,1686066514.47,12.207,-100.098,63.965,-0.977,819.365,333.97898427065775
1225,1686066514.47,-53.711,-112.793,-6.836,-32.227,819.367,333.03101885973246
1226,1686066514.47,-62.988,-367.676,-46.875,-24.902,819.369,336.4048520453797
1227,1686066514.47,-61.035,-185.059,33.203,-47.852,819.371,323.8537190054109
1228,1686066514.48,-4.395,-92.773,74.707,-5.859,819.373,326.65258230903095
1229,1686066514.48,48.34,358.887,217.285,-6.836,819.375,317.9870162940796
1230,1686066514.48,79.59,132.812,118.652,24.902,819.376,319.5494212073161
1231,1686066514.48,77.637,429.199,165.527,15.137,819.379,322.9529004384831
1232,1686066514.48,44.922,-145.02,-0.488,12.695,819.38,315.13591171914067
1233,1686066514.49,-55.664,4.883,92.285,-37.109,819.384,325.3960193243526
1234,1686066514.49,-51.27,190.918,116.699,-32.715,819.388,335.2611722195955
1235,1686066514.5,60.547,-36.621,21.973,24.414,819.392,321.7533755193768
1236,1686066514.5,70.312,-197.754,-50.293,25.391,819.394,327.1560985129521
1237,1686066514.5,-39.062,72.754,94.727,-28.32,819.398,322.08295593905575
1238,1686066514.51,-59.57,-73.73,20.508,-40.039,819.402,320.66245211859336
1239,1686066514.51,46.875,-468.262,-122.07,9.277,819.406,323.97987759443214
1240,1686066514.51,85.449,-956.055,-340.82,38.086,819.409,325.7788779723239
1241,1686066514.52,-9.277,-816.895,-215.82,-6.836,819.413,325.4523661849723
1242,1686066514.52,-72.266,-300.781,-10.742,-48.34,819.417,330.2150584207537
1243,1686066514.52,0.977,-604.004,-222.656,-9.277,819.421,326.89365606553093
1244,1686066514.53,68.359,-786.133,-159.668,24.902,819.425,328.1038022624767
1245,1686066514.53,9.277,117.188,195.312,-3.906,819.429,315.0304044228676
1246,1686066514.54,-63.965,265.625,88.379,-26.367,819.433,319.1258505209816
1247,1686066514.54,-18.066,-31.738,54.199,-12.695,819.437,331.96165315977584
1248,1686066514.54,73.73,303.711,219.238,20.996,819.44,324.5612335864974
1249,1686066514.55,55.664,557.617,236.816,14.648,819.444,319.1674370562012
1250,1686066514.55,-41.504,225.098,74.219,-19.043,819.448,320.65579429424145
1251,1686066514.56,-50.781,-114.746,-0.488,-14.648,819.452,311.98291066664444
1252,1686066514.56,47.852,173.34,152.344,23.926,819.455,327.9075218208487
1253,1686066514.56,60.059,240.234,170.898,23.438,819.459,328.9772312685663
1254,1686066514.57,-41.016,-137.695,-22.949,-12.207,819.463,333.9214779993389
1255,1686066514.57,-73.242,-641.113,-189.453,-20.996,819.467,328.29802013668643
1256,1686066514.57,20.02,-227.539,74.707,-1.953,819.471,332.02017447505244
1257,1686066514.58,68.359,280.762,198.242,11.23,819.475,322.8366897790153
1258,1686066514.58,-10.254,-198.242,-77.148,-13.184,819.479,318.4529065258479
1259,1686066514.59,-70.801,-442.383,-124.023,-38.086,819.483,324.84806280361903
1260,1686066514.59,-6.836,154.297,176.27,-19.531,819.484,324.0367598524344
1261,1686066514.59,63.477,552.734,272.949,9.766,819.488,320.22867455517655
1262,1686066514.6,12.695,-117.676,-58.105,3.418,819.492,318.30107430306964
1263,1686066514.6,-71.777,-480.469,-153.32,-26.855,819.496,316.2101450241173
1264,1686066514.6,-46.875,87.891,124.023,-27.344,819.5,314.8208293402327
1265,1686066514.61,44.434,182.617,151.855,16.113,819.503,326.83495607019523
1266,1686066514.61,29.785,-437.012,-123.047,20.996,819.507,322.7779167649748
1267,1686066514.61,-72.266,-774.414,-258.301,-20.508,819.511,328.2249025856422
1268,1686066514.62,-69.336,-0.977,145.02,-31.738,819.515,331.1295434588309
1269,1686066514.62,42.969,394.531,196.289,20.02,819.519,319.50161627991923
1270,1686066514.63,62.012,205.078,141.113,28.809,819.523,320.8145378635483
1271,1686066514.63,-31.738,-117.188,12.695,-16.113,819.527,326.1434320331556
1272,1686066514.64,-68.359,-86.914,10.254,-27.832,819.535,318.1128775485558
1273,1686066514.64,33.203,170.41,119.629,5.371,819.539,324.86627264973345
1274,1686066514.64,87.891,4.883,63.477,32.715,819.543,319.31476665835686
1275,1686066514.65,3.418,19.043,69.336,9.766,819.547,339.27686920277756
1276,1686066514.65,-64.941,162.598,104.492,-20.996,819.551,317.3266822672977
1277,1686066514.66,-5.859,-57.129,56.641,-2.93,819.554,327.8515034099253
1278,1686066514.66,75.684,-552.246,-63.477,36.133,819.558,323.74963900256535
1279,1686066514.66,22.949,-200.684,93.262,8.301,819.562,322.18370795059707
1280,1686066514.67,-78.125,262.207,120.117,-42.48,819.566,316.3230024935332
1281,1686066514.67,-43.945,-106.445,-24.902,-24.902,819.57,330.5589804783053
1282,1686066514.67,50.781,-23.438,86.914,12.207,819.574,316.4217211646388
1283,1686066514.68,30.762,352.051,187.988,-1.465,819.578,328.7432709163465
1284,1686066514.69,-69.336,285.156,122.559,-44.434,819.593,317.77222586118626
1285,1686066514.7,-79.102,-179.199,-46.875,-37.109,819.597,317.13338168547597
1286,1686066514.7,23.438,-343.262,-43.945,12.207,819.601,320.3180215882206
1287,1686066514.71,55.176,-105.957,103.027,25.391,819.605,313.3213024413486
1288,1686066514.71,-34.668,-61.035,59.082,-8.789,819.608,334.04853517513715
1289,1686066514.71,-81.055,-469.727,-199.707,-25.879,819.612,326.6058779705314
1290,1686066514.72,-0.488,-1000.0,-457.031,16.602,819.616,325.57086179339194
1291,1686066514.72,66.406,-533.691,-86.914,23.438,819.62,312.75502700691
1292,1686066514.72,-4.395,254.395,185.059,-28.32,819.624,308.91380642168167
1293,1686066514.73,-86.914,-23.438,-16.113,-53.223,819.628,329.9757309213835
1294,1686066514.73,-35.645,39.551,46.875,-32.715,819.632,333.2769586869628
1295,1686066514.74,46.387,422.852,212.891,5.371,819.636,330.60121121203196
