,timestamps,TP9,AF7,AF8,TP10,Secondary Timestamp,emg_signal
0,1685400541.67,11.23,193.848,94.727,9.277,4742.582,311.21943783983306
1,1685400541.67,1.953,-168.457,-92.285,4.395,4742.586,308.47565323427676
2,1685400541.68,-16.602,-481.445,-172.363,-7.324,4742.59,310.8553134767663
3,1685400541.68,-20.996,-5.371,96.191,-12.695,4742.594,302.10137993435615
4,1685400541.69,1.465,434.57,174.316,-2.93,4742.598,308.27122375485817
5,1685400541.69,4.395,-99.609,-52.734,1.465,4742.601,312.939850226709
6,1685400541.69,-12.207,-594.727,-259.766,-11.23,4742.605,310.23125465408674
7,1685400541.7,-13.672,-217.285,-53.223,-10.742,4742.609,310.0597074743995
8,1685400541.7,-0.977,344.727,228.027,0.488,4742.613,311.3986332247853
9,1685400541.7,-1.465,-178.223,-70.801,-8.789,4742.617,306.9541641595959
10,1685400541.71,-26.367,-651.855,-200.195,-20.996,4742.621,304.5978022728153
11,1685400541.71,-38.086,117.676,131.348,-25.391,4742.625,305.79844820808376
12,1685400541.73,-24.414,264.16,87.402,-15.625,4742.627,311.8277301421386
13,1685400541.73,-7.324,133.301,126.465,-7.812,4742.631,308.78055430593537
14,1685400541.74,-16.113,170.41,106.934,-13.672,4742.635,304.96661896672543
15,1685400541.74,-34.668,220.215,89.844,-20.02,4742.639,314.01776164817255
16,1685400541.75,-20.02,172.852,80.566,-2.441,4742.643,314.708422992009
17,1685400541.75,5.859,-168.945,-31.25,8.301,4742.647,309.3742747742537
18,1685400541.75,2.441,-66.406,61.523,-0.977,4742.651,310.39698008152413
19,1685400541.76,-20.996,211.914,109.375,-2.441,4742.654,311.0637225776257
20,1685400541.76,-37.598,-50.293,-53.223,-10.254,4742.658,305.1811049725204
21,1685400541.76,-25.391,-692.383,-269.043,-5.371,4742.662,304.4106784176413
22,1685400541.77,-5.371,-392.09,-25.391,1.465,4742.666,305.9654967404192
23,1685400541.77,-10.254,328.613,170.898,-11.23,4742.67,307.39959502836473
24,1685400541.79,-22.949,-184.082,-165.039,-1.465,4742.687,309.66268026402895
25,1685400541.79,-1.465,-500.977,-175.781,15.625,4742.691,304.76832737355755
26,1685400541.8,8.301,148.438,176.758,2.93,4742.695,308.97244572513654
27,1685400541.8,-8.301,435.059,165.039,-7.324,4742.699,305.7299585881443
28,1685400541.81,-20.508,-10.742,-45.898,-11.719,4742.702,309.93874105054846
29,1685400541.81,-7.812,-390.625,-139.648,-4.883,4742.706,310.3560218916743
30,1685400541.81,6.348,-79.102,59.082,-6.348,4742.71,309.3665315200435
31,1685400541.82,5.371,380.859,210.938,-19.043,4742.714,311.2403171441148
32,1685400541.82,-12.695,-282.715,-163.086,-27.832,4742.718,305.5587846329987
33,1685400541.82,-30.762,-367.188,-106.934,-27.344,4742.723,310.57970383765695
34,1685400541.82,-29.297,-684.082,-253.418,-24.902,4742.722,307.56033286862714
35,1685400541.83,-39.062,-280.273,1.465,-27.344,4742.727,304.9388437750836
36,1685400541.83,-12.207,61.035,128.906,-9.277,4742.726,315.30921943491916
37,1685400541.83,-14.648,270.996,154.297,-5.859,4742.731,307.0879017204016
38,1685400541.83,-2.441,88.379,41.504,-5.371,4742.73,308.5797620920798
39,1685400541.83,-2.93,276.855,94.238,-11.23,4742.735,305.97695931405974
40,1685400541.84,-19.531,-8.789,-11.23,-33.203,4742.739,311.8311518128636
41,1685400541.84,-33.203,-244.629,-111.328,-37.598,4742.743,307.364618584261
42,1685400541.85,-15.625,6.348,30.273,-22.461,4742.746,309.8286256158428
43,1685400541.85,7.324,189.453,100.586,-9.766,4742.75,308.6198541740715
44,1685400541.85,1.465,-134.766,-6.836,-19.043,4742.754,302.46107118231123
45,1685400541.86,-5.859,0.977,68.359,-31.25,4742.758,310.98839505971915
46,1685400541.86,3.418,305.664,148.438,-16.113,4742.762,310.4382059588898
47,1685400541.86,16.113,187.012,72.266,-6.348,4742.766,307.9426365365268
48,1685400541.87,4.395,-590.332,-203.613,-17.09,4742.766,309.389181284619
49,1685400541.87,-20.508,-632.812,-194.824,-34.668,4742.769,310.12786037753307
50,1685400541.87,-17.09,16.113,42.969,-36.621,4742.773,308.6428567831935
51,1685400541.88,6.348,-13.672,-4.883,-10.742,4742.777,308.69154560851274
52,1685400541.88,-4.883,-116.211,-63.477,-12.207,4742.781,309.3222939105361
53,1685400541.89,-31.738,-85.449,-29.785,-33.203,4742.785,301.6111384225767
54,1685400541.89,-33.203,-169.922,-129.395,-32.227,4742.789,310.7534980340205
55,1685400541.89,-26.367,-295.41,-129.395,-17.09,4742.793,308.27027835890703
56,1685400541.9,-9.277,-969.727,-365.723,-6.836,4742.797,310.90638332129
57,1685400541.9,-18.066,-469.238,-119.141,-21.973,4742.801,312.04701572029285
58,1685400541.9,-23.926,240.723,125.488,-15.625,4742.805,308.08561520576967
59,1685400541.91,-19.043,92.285,91.797,-5.859,4742.809,304.7540089439255
60,1685400541.91,-10.742,274.414,163.086,-13.184,4742.81,304.23895679044097
61,1685400541.91,-5.859,476.074,162.598,-24.902,4742.814,302.2297655301614
62,1685400541.92,-17.578,284.18,64.941,-23.926,4742.818,309.1726253920769
63,1685400541.92,-20.508,-27.832,13.184,-4.395,4742.821,304.2136578231864
64,1685400541.93,-0.488,9.766,85.449,1.465,4742.825,301.32399822063127
65,1685400541.93,3.906,28.32,50.293,-1.953,4742.829,311.6738604237359
66,1685400541.93,-24.414,-35.156,6.836,-16.113,4742.833,306.8707718464884
67,1685400541.94,-29.297,-641.602,-268.066,-18.555,4742.837,305.7894841501866
68,1685400541.94,-9.277,-649.902,-176.758,-8.301,4742.841,306.63190216628817
69,1685400541.94,-12.695,365.723,237.793,-18.555,4742.845,302.2862799602512
70,1685400541.95,-27.832,216.797,37.109,-32.715,4742.849,308.7295233509778
71,1685400541.95,-29.297,28.32,-2.93,-20.508,4742.853,308.7045098553413
72,1685400541.96,-8.789,120.117,91.309,0.0,4742.852,308.2224048740715
73,1685400541.96,-1.465,197.266,125.977,-13.672,4742.856,312.24275035267505
74,1685400541.96,-14.16,39.062,-39.551,-35.645,4742.86,312.6509774569032
75,1685400541.97,-23.926,-439.453,-166.504,-23.438,4742.863,310.2293503494957
76,1685400541.97,-17.578,70.801,125.0,-10.742,4742.867,312.151723981077
77,1685400541.98,-10.254,258.301,135.742,-18.066,4742.871,309.0919692349329
78,1685400541.98,-12.207,-342.773,-121.582,-20.02,4742.875,305.8127323297293
79,1685400541.98,-41.016,-892.578,-335.938,-22.461,4742.879,310.0760559564247
80,1685400541.99,-50.781,-149.414,48.828,-23.926,4742.883,312.2716818569376
81,1685400541.99,-16.113,516.602,217.285,-8.789,4742.887,309.35133213730353
82,1685400541.99,-8.301,219.727,51.758,-16.113,4742.891,310.2971849033949
83,1685400542.0,-27.344,153.32,51.27,-30.762,4742.895,305.91879698591544
84,1685400542.0,-24.902,347.168,143.555,-31.738,4742.911,306.43371103254583
85,1685400542.0,0.488,345.703,114.258,-14.16,4742.915,308.14518506414066
86,1685400542.01,11.23,227.051,112.305,-3.418,4742.919,310.1750901130242
87,1685400542.01,-16.602,205.566,110.352,-20.02,4742.922,309.1069728538247
88,1685400542.02,-39.551,178.711,47.852,-15.625,4742.926,304.2690332936934
89,1685400542.02,-13.672,-4.883,18.555,7.812,4742.93,307.9799084923657
90,1685400542.02,-1.953,-533.691,-115.234,13.184,4742.934,305.12889276702583
91,1685400542.03,-30.273,-328.125,-20.996,-9.766,4742.938,309.3386340738551
92,1685400542.03,-41.992,223.145,95.703,-24.414,4742.942,307.9147706043392
93,1685400542.04,-16.602,-96.191,-76.172,0.977,4742.946,308.09405059260183
94,1685400542.04,10.742,-221.191,-32.227,10.254,4742.95,307.45590009829345
95,1685400542.04,-3.906,223.145,149.902,-19.531,4742.954,312.0010403070893
96,1685400542.05,-33.691,170.41,21.484,-35.156,4742.956,311.42182855759114
97,1685400542.05,-25.879,-364.258,-229.004,-16.113,4742.959,308.6991333984372
98,1685400542.06,5.859,-414.551,-114.746,-1.465,4742.963,308.6924533277804
99,1685400542.06,4.883,186.523,163.574,-21.484,4742.967,303.3031368151252
100,1685400542.07,-22.461,421.387,125.0,-36.621,4742.971,302.98010879683676
101,1685400542.07,-30.273,-304.688,-188.965,-20.996,4742.975,304.74370655382955
102,1685400542.07,-19.531,-581.055,-177.734,-13.672,4742.979,305.0019947369971
103,1685400542.08,-20.02,251.465,172.852,-31.25,4742.983,305.4992317412627
104,1685400542.08,-33.203,391.113,104.98,-44.434,4742.987,307.76408313663484
105,1685400542.08,-40.039,-122.559,-68.359,-43.457,4742.991,308.0690556718079
106,1685400542.09,-32.227,-51.758,20.02,-26.855,4742.995,309.7651349052567
107,1685400542.09,-29.297,-14.648,-16.602,-23.438,4743.001,310.46329991318225
108,1685400542.09,-25.391,209.473,85.449,-18.066,4742.998,309.05582962993157
109,1685400542.1,-44.922,-262.207,-79.102,-25.879,4743.005,304.2392799490463
110,1685400542.1,-36.621,-57.617,32.715,-18.066,4743.009,305.6313639047102
111,1685400542.1,-3.906,353.516,177.734,-3.418,4743.013,309.85902520682987
112,1685400542.11,6.836,349.121,87.891,-3.418,4743.017,308.53142818857623
113,1685400542.11,-12.207,-450.195,-228.027,-20.508,4743.021,309.47257246564976
114,1685400542.12,-26.367,-591.797,-146.484,-29.297,4743.025,309.32513243491354
115,1685400542.12,-22.461,301.758,211.914,-21.973,4743.029,305.1631680810171
116,1685400542.12,-17.578,234.375,79.59,-12.695,4743.032,310.60826068011875
117,1685400542.13,-30.762,-294.434,-140.137,-20.996,4743.036,306.9346755964648
118,1685400542.13,-31.738,-72.266,4.395,-22.461,4743.04,306.1249386748815
119,1685400542.14,-3.418,367.188,184.082,-6.348,4743.044,309.61147656231486
120,1685400542.15,14.648,17.09,-6.348,-4.395,4743.05,309.25881561750015
121,1685400542.16,1.465,-410.645,-151.855,-15.137,4743.054,307.1178149252838
122,1685400542.16,-16.113,-243.164,-91.309,-20.996,4743.058,303.93619801007696
123,1685400542.16,-18.555,143.066,80.566,-19.043,4743.062,306.79509253089253
124,1685400542.17,-4.883,32.715,-21.484,-13.184,4743.066,307.3463248049486
125,1685400542.17,-10.254,-682.617,-320.312,-23.926,4743.07,307.7590224366474
126,1685400542.18,-30.273,-326.66,-47.363,-46.387,4743.074,305.7387942613912
127,1685400542.18,-20.996,333.496,164.062,-30.273,4743.078,310.1669166929503
128,1685400542.18,-6.348,-114.258,-83.496,-17.578,4743.082,306.3766525178463
129,1685400542.19,-1.465,-406.25,-165.527,-20.508,4743.086,309.1596819652553
130,1685400542.19,-12.207,231.445,133.301,-25.879,4743.09,306.71992126936976
131,1685400542.19,-23.438,239.258,83.008,-26.855,4743.093,304.6545981621493
132,1685400542.2,-0.488,17.578,39.062,-9.766,4743.094,307.2108630784305
133,1685400542.2,4.395,99.121,93.262,-11.719,4743.098,308.76222690008814
134,1685400542.2,-21.484,318.359,128.906,-33.691,4743.102,307.23151551490326
135,1685400542.21,-27.832,168.457,44.434,-34.668,4743.106,306.85695039836924
136,1685400542.21,-8.789,-106.934,-15.137,-15.625,4743.109,307.67294662360285
137,1685400542.22,4.883,-128.418,13.672,-16.602,4743.113,310.4346198987779
138,1685400542.22,-12.695,-164.062,-17.578,-41.504,4743.117,309.5978952467663
139,1685400542.22,-30.273,-163.574,-96.68,-43.945,4743.121,301.52295069820605
140,1685400542.23,-15.625,-685.059,-325.684,-18.555,4743.125,304.38199049049973
141,1685400542.23,-0.977,-645.996,-191.406,-17.09,4743.129,313.16492074463565
142,1685400542.24,-1.953,341.797,216.797,-30.273,4743.133,304.35312879451203
143,1685400542.24,-11.23,171.387,10.254,-36.133,4743.137,303.1288349623158
144,1685400542.24,-13.184,-337.402,-177.734,-33.203,4743.137,304.9490135670567
145,1685400542.24,-14.648,-32.715,54.199,-26.367,4743.141,302.55195588488607
146,1685400542.25,-27.344,378.418,187.988,-31.738,4743.145,299.4739561164585
147,1685400542.25,-39.062,-57.129,-81.543,-33.691,4743.149,301.6238618062245
148,1685400542.26,-24.902,-317.871,-170.898,-18.555,4743.153,302.97341891061785
149,1685400542.26,-2.441,-95.703,22.461,-12.207,4743.157,301.9409565140485
150,1685400542.26,8.301,43.457,84.473,-9.766,4743.16,309.68892785848976
151,1685400542.27,0.977,-215.82,-90.82,-16.113,4743.164,299.5520777748695
152,1685400542.27,-7.324,-1000.0,-491.699,-8.301,4743.168,298.5751087775971
153,1685400542.28,12.207,-579.59,-140.625,3.418,4743.172,299.16293014571
154,1685400542.28,29.785,393.066,233.398,1.953,4743.176,309.15452635992784
155,1685400542.28,3.906,197.266,56.152,-13.184,4743.18,309.07559675170086
156,1685400542.28,-22.461,106.445,57.617,-26.855,4743.182,308.1187705625159
157,1685400542.29,-9.277,385.254,174.805,-10.254,4743.186,312.2676248214946
158,1685400542.29,-2.93,379.883,127.441,-8.301,4743.19,308.8615258312293
159,1685400542.3,-15.625,166.992,98.145,-23.438,4743.194,310.38257614282907
160,1685400542.3,-33.691,118.652,69.824,-34.18,4743.198,308.3024630975203
161,1685400542.3,-25.879,0.488,11.719,-14.16,4743.201,309.8047887490593
162,1685400542.31,-2.93,-50.781,38.574,1.953,4743.205,306.76126755625705
163,1685400542.31,-3.418,-436.035,-65.43,-7.324,4743.209,302.1455194419767
164,1685400542.32,-22.949,-296.875,15.137,-16.113,4743.213,307.69957659498436
165,1685400542.32,-25.391,285.645,145.996,-8.789,4743.217,304.2953553817643
166,1685400542.32,-11.719,9.277,23.438,-0.977,4743.221,310.8567389317623
167,1685400542.33,-7.812,-139.16,31.25,-10.254,4743.225,305.18569014368734
168,1685400542.33,-18.555,-79.59,42.48,-19.531,4743.227,309.68102035441
169,1685400542.34,-35.156,62.988,65.43,-24.414,4743.231,308.43734108594
170,1685400542.34,-29.297,-12.695,-11.23,-6.348,4743.235,304.5488426244084
171,1685400542.34,-13.184,-336.426,-93.262,3.418,4743.239,309.75430981381294
172,1685400542.35,-26.367,116.699,110.84,-14.648,4743.243,311.9681043142013
173,1685400542.35,-38.086,130.859,58.594,-11.719,4743.247,310.46297738290747
174,1685400542.36,-21.973,-443.359,-156.738,2.93,4743.251,312.61974362928504
175,1685400542.36,-14.648,-540.527,-131.836,-3.418,4743.254,307.9295217375125
176,1685400542.36,-12.695,263.184,194.336,-18.066,4743.258,309.9184805177862
177,1685400542.37,-15.625,415.527,130.859,-25.391,4743.262,312.3967644617447
178,1685400542.37,-21.484,58.105,7.324,-18.555,4743.266,306.8300601295177
179,1685400542.37,-2.93,214.355,93.262,3.418,4743.27,304.2746183353741
180,1685400542.38,3.906,310.059,140.625,8.301,4743.286,308.7521515460272
181,1685400542.38,-13.184,12.207,25.391,-8.789,4743.289,306.55614741089397
182,1685400542.39,-19.531,-306.152,-85.938,-0.977,4743.293,304.59407147311117
183,1685400542.39,-8.789,-24.902,89.844,8.301,4743.297,303.9749073235592
184,1685400542.4,-1.465,410.645,182.129,0.0,4743.301,304.21303995458817
185,1685400542.4,-14.16,63.965,0.977,-13.672,4743.305,301.90262579110697
186,1685400542.4,-23.926,-635.254,-193.848,-15.625,4743.309,304.22039275991256
187,1685400542.41,-16.602,-378.418,-17.578,-3.906,4743.313,308.94701596747694
188,1685400542.41,8.789,488.281,250.977,-0.488,4743.317,307.37631004757975
189,1685400542.42,10.742,244.629,58.105,-7.324,4743.321,307.59995537724245
190,1685400542.42,-12.207,-72.266,-19.043,-10.254,4743.325,300.3134333107188
191,1685400542.42,28.809,209.473,121.582,16.113,4743.331,310.72581724258436
192,1685400542.42,6.836,210.938,131.836,9.766,4743.329,307.2457869648366
193,1685400542.42,-10.254,-128.418,-44.434,-29.297,4743.335,304.93566276250766
194,1685400542.43,-38.574,-490.234,-218.75,-44.922,4743.339,315.23880066888285
195,1685400542.43,-34.18,-275.391,-87.891,-29.297,4743.343,310.90687412024727
196,1685400542.44,-16.113,265.625,162.598,-32.715,4743.347,312.62898984480603
197,1685400542.44,3.906,-102.539,-48.34,-33.203,4743.351,311.3821471558603
198,1685400542.44,-15.625,-686.035,-289.551,-45.898,4743.355,305.4327833276628
199,1685400542.45,-38.086,-66.895,69.336,-59.57,4743.359,306.20503668063515
200,1685400542.45,-29.785,451.172,222.168,-53.711,4743.362,307.9147164316723
201,1685400542.46,-23.926,-41.016,-10.254,-45.898,4743.366,307.6791586033872
202,1685400542.46,-27.832,-199.707,-28.32,-52.246,4743.37,307.86455037879045
203,1685400542.46,-45.898,296.387,153.32,-70.312,4743.374,309.77311837374776
204,1685400542.48,-35.645,242.188,87.891,-62.012,4743.377,305.7551163253403
205,1685400542.48,-13.184,133.789,113.281,-51.758,4743.381,305.2377046027372
206,1685400542.49,-19.043,230.957,162.109,-61.035,4743.385,313.3199961713824
207,1685400542.49,-31.25,310.059,123.535,-68.359,4743.389,307.8982859943254
208,1685400542.5,-30.762,177.246,64.453,-58.105,4743.393,308.32098338646796
209,1685400542.5,-11.719,-142.578,35.645,-45.898,4743.396,306.92313351122584
210,1685400542.5,-20.508,-251.465,2.93,-43.945,4743.4,314.6452317952518
211,1685400542.51,-44.434,-68.359,22.949,-49.805,4743.404,305.64149971918886
212,1685400542.51,-28.32,105.469,69.824,-42.969,4743.408,311.1233464841477
213,1685400542.52,6.348,-578.125,-197.754,-22.461,4743.412,306.0300108582345
214,1685400542.52,10.742,-454.102,-65.43,-24.902,4743.416,302.09414728666627
215,1685400542.52,-17.09,372.559,209.473,-42.969,4743.42,305.8350478652729
216,1685400542.52,-26.855,-78.613,-44.922,-44.434,4743.422,306.7607653150521
217,1685400542.53,-11.719,-478.027,-84.473,-28.809,4743.426,309.710720003562
218,1685400542.53,-10.742,99.609,150.391,-20.02,4743.43,302.7082840828306
219,1685400542.54,-6.348,421.875,148.438,-18.066,4743.434,308.26153584975947
220,1685400542.54,-4.395,46.875,-14.648,-12.695,4743.438,306.94943386255073
221,1685400542.54,-7.812,-295.898,-100.098,-21.973,4743.441,309.15427126633347
222,1685400542.55,4.395,39.551,82.52,-24.902,4743.445,307.03654098424465
223,1685400542.55,-3.418,450.195,170.898,-28.809,4743.449,313.8140874099746
224,1685400542.56,-21.973,-247.07,-147.461,-34.18,4743.453,306.6274427830152
225,1685400542.56,-20.508,-899.902,-308.594,-19.531,4743.457,306.11199146611335
226,1685400542.56,10.254,4.395,115.723,1.465,4743.461,308.7583558788167
227,1685400542.57,22.461,491.211,182.617,3.418,4743.465,311.12408448818076
228,1685400542.57,-0.488,123.535,4.395,-8.301,4743.467,307.9207987202565
229,1685400542.57,-2.441,126.465,31.738,-5.371,4743.471,301.0574076588298
230,1685400542.58,20.02,400.391,173.34,0.488,4743.475,311.60999602488056
231,1685400542.58,31.738,395.508,124.512,8.789,4743.479,307.8279348967145
232,1685400542.59,6.348,88.867,16.602,-9.277,4743.482,312.42809913835526
233,1685400542.59,-13.184,-238.77,-114.258,-15.625,4743.486,310.2525864495561
234,1685400542.59,2.441,-29.297,12.207,4.395,4743.49,306.8590504072852
235,1685400542.6,12.695,303.223,127.93,5.371,4743.494,308.00129234702354
236,1685400542.6,3.418,-365.234,-124.023,-15.137,4743.498,305.49793028915155
237,1685400542.6,6.348,-342.773,-22.949,-22.949,4743.502,309.743928143983
238,1685400542.61,5.859,240.234,85.449,-11.23,4743.506,305.5190503630555
239,1685400542.61,6.348,36.621,-3.906,-3.418,4743.51,306.08451109308453
240,1685400542.62,5.371,-444.336,-168.945,-11.23,4743.512,303.6008725606571
241,1685400542.62,-14.16,-299.316,-92.773,-26.855,4743.516,308.2178923175425
242,1685400542.62,-25.391,298.828,137.695,-27.832,4743.52,306.5079192876681
243,1685400542.63,-10.742,30.273,-43.945,-4.883,4743.524,308.3955694893398
244,1685400542.63,-3.418,-177.246,-93.262,-1.465,4743.528,308.6312314741718
245,1685400542.64,-27.832,41.504,48.34,-20.508,4743.532,307.2275303105504
246,1685400542.64,-37.109,8.789,-6.836,-19.531,4743.536,304.95156289070786
247,1685400542.64,-10.742,-359.375,-177.734,-6.836,4743.54,303.7538185414683
248,1685400542.65,0.977,-506.348,-126.465,-6.836,4743.543,304.55092308999184
249,1685400542.65,-11.719,266.602,182.617,-27.344,4743.547,306.51579686946957
250,1685400542.65,-10.742,376.953,94.238,-26.367,4743.551,306.2392612786057
251,1685400542.66,2.441,101.562,44.922,-9.766,4743.555,310.53283066981044
252,1685400542.66,5.371,273.926,121.582,-7.324,4743.561,308.8159551938949
253,1685400542.66,-13.672,311.035,100.586,-25.879,4743.565,310.0347031657851
254,1685400542.67,-35.156,-0.488,-31.738,-32.227,4743.569,307.12083571855237
255,1685400542.67,-33.203,-224.121,-75.195,-20.996,4743.572,306.16005636759945
256,1685400542.68,-9.277,51.27,74.707,-10.254,4743.576,306.1906197091163
257,1685400542.68,-6.348,162.109,93.262,-14.648,4743.58,307.4089343704688
258,1685400542.68,-22.949,-50.293,-38.086,-30.273,4743.584,309.20816995497063
259,1685400542.69,-10.254,-475.586,-143.066,-28.32,4743.588,308.571687788173
260,1685400542.69,12.207,-206.543,50.781,-16.113,4743.592,309.40062364347625
261,1685400542.7,9.766,567.383,252.93,-20.02,4743.596,301.4086010598258
262,1685400542.7,-18.555,210.938,33.691,-28.32,4743.6,309.59525595947383
263,1685400542.7,-37.598,-10.254,-30.273,-21.973,4743.604,312.0858209455187
264,1685400542.72,-24.902,111.328,80.078,-16.602,4743.617,298.98327987131756
265,1685400542.72,-10.254,222.168,139.648,-18.555,4743.621,305.9990899755495
266,1685400542.73,-16.113,73.73,0.0,-19.531,4743.625,308.09292058358227
267,1685400542.73,-23.438,-438.477,-158.203,-20.508,4743.629,306.196032613135
268,1685400542.74,-1.953,-168.945,56.152,-11.23,4743.633,307.5153816804304
269,1685400542.74,17.578,100.098,105.469,3.418,4743.637,308.4000415190692
270,1685400542.74,13.672,-229.98,-87.891,6.836,4743.641,303.9662687316396
271,1685400542.75,-9.277,-827.148,-312.988,-7.324,4743.645,308.44746536738575
272,1685400542.75,-36.133,381.348,132.812,-36.621,4743.661,308.2040282946142
273,1685400542.75,-26.855,-216.309,46.387,-27.832,4743.649,308.28881210692725
274,1685400542.76,-18.555,400.879,138.672,-30.762,4743.665,310.2093569337675
275,1685400542.76,-18.066,476.074,208.008,-24.902,4743.653,308.60965573555677
276,1685400542.76,-23.438,256.348,113.77,-29.297,4743.656,309.2510453512688
277,1685400542.76,-8.301,253.418,136.719,-34.18,4743.668,308.63679462725577
278,1685400542.76,-39.551,185.059,112.793,-43.457,4743.66,307.3421218032518
279,1685400542.76,-8.789,291.504,158.203,-41.992,4743.672,310.9453428568639
280,1685400542.77,-18.066,310.059,98.633,-43.945,4743.676,309.7808704684027
281,1685400542.77,-12.207,71.777,36.133,-29.785,4743.68,309.6304592656972
282,1685400542.78,11.719,-368.164,-69.336,-14.16,4743.684,311.8551719119136
283,1685400542.78,10.742,-213.867,20.996,-20.508,4743.688,310.5238500224258
284,1685400542.78,-5.859,291.504,162.598,-28.32,4743.692,308.7481592478293
285,1685400542.79,0.488,279.297,104.004,-15.137,4743.696,310.16430433703084
286,1685400542.79,13.672,-593.75,-255.371,6.348,4743.7,305.61176365015257
287,1685400542.79,-7.324,-586.426,-194.336,3.906,4743.704,306.5376873205192
288,1685400542.8,-31.25,147.461,132.812,-11.23,4743.706,304.2615880831407
289,1685400542.8,-16.113,-248.047,-124.512,1.953,4743.71,306.86404673181534
290,1685400542.8,9.277,-397.461,-70.312,7.324,4743.714,308.49149552140244
291,1685400542.81,13.672,162.598,168.457,-2.93,4743.718,308.65013879584126
292,1685400542.81,2.441,389.648,124.023,-9.766,4743.722,311.3496892008295
293,1685400542.82,-7.812,-248.047,-139.648,-6.836,4743.726,308.0648031063159
294,1685400542.82,-0.488,-566.895,-184.57,0.0,4743.73,313.1067782906572
295,1685400542.82,-1.953,148.438,151.367,-13.184,4743.734,305.52951806306504
296,1685400542.83,-24.902,497.07,197.754,-30.762,4743.738,304.905697641201
297,1685400542.83,-20.996,-297.852,-138.672,-14.16,4743.742,308.09288337608376
298,1685400542.83,-3.418,-504.883,-135.254,-0.488,4743.745,306.00169758332527
299,1685400542.84,5.371,416.504,227.539,-5.371,4743.749,309.3437168870711
300,1685400542.86,7.324,468.75,143.066,-5.371,4743.766,312.09929215539444
301,1685400542.86,-1.953,37.598,-18.555,-14.648,4743.77,314.46622898001283
302,1685400542.86,0.977,51.27,49.316,-15.137,4743.774,310.2331843398448
303,1685400542.87,21.973,401.367,209.473,1.953,4743.777,312.28054815223464
304,1685400542.87,20.508,370.117,114.258,1.953,4743.781,309.7156385055105
305,1685400542.88,18.066,-209.961,-116.699,-6.836,4743.785,312.2085140428888
306,1685400542.88,18.066,-264.16,-41.016,-7.812,4743.789,309.4126288411783
307,1685400542.88,19.043,265.625,183.105,-8.789,4743.793,312.73589175959836
308,1685400542.89,13.672,222.656,81.055,-5.859,4743.797,311.4558904734353
309,1685400542.89,-18.555,-402.344,-144.043,-11.23,4743.801,314.7367636670043
310,1685400542.89,-37.109,-250.977,-15.625,-14.16,4743.805,311.95389501095565
311,1685400542.9,-20.996,178.223,112.793,-0.488,4743.809,317.1773002844227
312,1685400542.9,0.0,-89.355,-29.785,1.953,4743.797,314.36793745121236
313,1685400542.9,-11.719,-680.664,-218.75,-13.184,4743.801,308.6467175520183
314,1685400542.91,-27.344,-307.129,21.484,-30.762,4743.805,314.32519966836264
315,1685400542.91,-10.254,341.309,180.664,-8.789,4743.809,314.06736511992676
316,1685400542.92,18.555,113.77,13.672,16.602,4743.813,317.4879047305841
317,1685400542.92,6.348,-229.004,-65.43,1.953,4743.817,310.4903328715075
318,1685400542.92,-37.109,-120.605,35.645,-20.02,4743.821,314.7156666880307
319,1685400542.93,-31.738,329.102,222.168,-13.184,4743.824,313.75833385544144
320,1685400542.93,2.441,-150.879,-32.715,1.465,4743.828,317.10278687144245
321,1685400542.94,0.488,-597.656,-170.41,-4.883,4743.832,317.44231544521307
322,1685400542.94,-19.043,140.137,158.203,-14.16,4743.836,309.24531989292603
323,1685400542.94,-23.438,276.367,92.285,-12.695,4743.84,312.23091520646443
324,1685400542.95,-2.93,-9.766,9.766,-0.977,4743.845,310.1688922680183
325,1685400542.95,10.254,99.609,75.684,3.418,4743.849,306.8012478530742
326,1685400542.95,-6.348,76.172,49.316,-14.648,4743.853,311.521098292129
327,1685400542.96,-20.508,-59.082,-4.883,-26.855,4743.857,312.3942642784097
328,1685400542.96,-8.789,-186.035,-39.062,-9.766,4743.86,313.434961597229
329,1685400542.97,-0.977,-253.418,0.488,-7.324,4743.864,313.95336621654434
330,1685400542.97,-17.578,-52.734,88.867,-29.297,4743.868,313.4715417608586
331,1685400542.97,-30.762,28.32,37.598,-30.273,4743.872,315.90378582254925
332,1685400542.98,-22.461,-477.539,-106.934,-8.789,4743.876,312.38339657140733
333,1685400542.98,-11.23,-240.234,65.918,4.883,4743.88,314.9457731829201
334,1685400542.98,-21.973,467.773,223.633,-13.184,4743.884,312.58086712158007
335,1685400542.99,-37.109,122.07,35.156,-36.133,4743.888,312.8144238906727
336,1685400542.99,-23.926,-313.477,-112.305,-18.066,4743.887,310.1587224880694
337,1685400543.0,-2.441,19.043,76.66,-3.418,4743.891,314.08658985490024
338,1685400543.0,-1.953,489.258,231.934,-18.555,4743.895,309.41322654554745
339,1685400543.0,-22.949,-1.465,-79.59,-21.973,4743.899,313.13520491656976
340,1685400543.01,-30.762,-597.656,-229.98,-13.672,4743.903,314.6992646842732
341,1685400543.01,2.441,-260.742,53.223,-5.371,4743.907,312.42242051466764
342,1685400543.02,35.156,-7.812,94.727,0.977,4743.911,313.9213181112764
343,1685400543.02,1.465,-410.645,-154.297,-12.695,4743.915,314.99058072710034
344,1685400543.02,-46.875,-930.176,-341.309,-42.48,4743.918,308.48340002696574
345,1685400543.03,-44.922,-197.266,51.27,-45.41,4743.922,312.79039063620434
346,1685400543.03,-23.438,410.645,200.684,-26.367,4743.926,307.3928659296215
347,1685400543.03,-38.086,160.156,87.891,-29.297,4743.93,310.6683802996084
348,1685400543.04,-73.242,-10.254,41.992,-46.875,4743.932,305.4659326504454
349,1685400543.04,-66.406,88.379,84.473,-29.785,4743.936,310.4620466675418
350,1685400543.04,-45.898,238.281,126.465,-16.113,4743.94,307.00450096018835
351,1685400543.05,-46.875,147.949,123.535,-38.574,4743.944,313.74417149903866
352,1685400543.05,-69.336,121.094,115.234,-46.875,4743.948,313.12471430837724
353,1685400543.06,-75.195,-17.578,37.598,-31.738,4743.952,313.70870096617756
354,1685400543.06,-49.316,-89.844,60.059,-11.719,4743.955,304.45288235267975
355,1685400543.06,-35.156,-609.375,-170.41,4.883,4743.959,308.7529885452722
356,1685400543.07,-46.387,-586.914,-136.719,2.441,4743.963,312.69978430300375
357,1685400543.07,-46.387,206.055,187.012,-0.977,4743.967,314.202147866545
358,1685400543.07,-18.066,126.465,86.426,26.367,4743.971,310.4599210879163
359,1685400543.08,11.23,-45.41,41.504,58.105,4743.975,310.9115738126215
360,1685400543.08,-5.859,-105.957,29.785,46.875,4743.977,305.14779860203265
361,1685400543.08,-15.625,-30.762,73.73,36.621,4743.981,309.7077842740481
362,1685400543.09,21.484,-121.582,-10.254,67.383,4743.985,309.88101648503044
363,1685400543.09,37.109,-422.363,-76.172,80.078,4743.989,307.8051756616565
364,1685400543.1,24.902,2.441,113.281,63.477,4743.993,308.9836752506704
365,1685400543.1,18.066,26.855,51.27,51.758,4743.997,303.3916116502779
366,1685400543.1,24.414,-510.742,-139.16,62.5,4744.001,305.4611534002433
367,1685400543.11,38.574,-622.559,-117.676,69.824,4744.004,302.95614623326327
368,1685400543.11,35.156,149.414,211.426,52.734,4744.008,306.7321303937548
369,1685400543.12,20.996,247.559,118.164,44.922,4744.012,309.8235859360911
370,1685400543.12,19.043,-228.027,-32.227,54.688,4744.016,306.471766887378
371,1685400543.12,25.391,-11.719,110.84,53.711,4744.02,305.27275192229865
372,1685400543.12,31.738,425.293,234.863,41.504,4744.035,305.30599811186664
373,1685400543.13,19.043,261.719,127.441,28.32,4744.039,310.3467770995943
374,1685400543.13,0.977,-137.695,3.906,29.297,4744.043,303.1946576696499
375,1685400543.14,18.066,11.23,108.398,45.898,4744.047,304.00957606446286
376,1685400543.14,33.203,302.246,202.148,35.645,4744.051,307.4069814286388
377,1685400543.14,16.602,-4.883,73.242,19.043,4744.055,310.3850380042449
378,1685400543.15,6.348,-662.598,-194.336,24.414,4744.059,306.8138291125496
379,1685400543.15,7.812,-481.445,-67.871,24.414,4744.063,309.45402294062006
380,1685400543.16,16.602,300.781,246.582,21.484,4744.067,304.0869624473816
381,1685400543.16,20.996,158.203,84.961,16.113,4744.071,305.49310180925715
382,1685400543.16,0.488,-140.137,4.883,7.324,4744.074,301.6074740823043
383,1685400543.17,6.348,57.617,108.887,15.137,4744.078,302.3772498669127
384,1685400543.17,19.531,91.797,120.605,20.02,4744.08,302.46138437576167
385,1685400543.18,14.16,-228.027,-32.715,16.113,4744.084,303.6985017847497
386,1685400543.18,2.441,-771.973,-244.629,19.043,4744.088,301.6088975034682
387,1685400543.18,-2.441,-313.965,35.645,14.648,4744.092,304.5658526187898
388,1685400543.19,7.812,307.129,208.984,10.254,4744.096,303.205917713579
389,1685400543.19,7.324,-336.914,-138.184,13.184,4744.1,301.66999612119764
390,1685400543.2,-9.277,-675.293,-194.824,3.906,4744.104,303.4778796206964
391,1685400543.2,-16.602,4.395,148.926,-11.23,4744.108,303.41034501584534
392,1685400543.2,-4.395,296.387,178.223,3.906,4744.112,300.5903291173765
393,1685400543.21,8.301,-18.066,67.383,21.973,4744.116,301.4935483914777
394,1685400543.21,9.277,-72.266,46.387,11.23,4744.119,302.28646613390094
395,1685400543.21,-2.441,196.777,136.719,-3.418,4744.123,302.7638838534085
396,1685400543.23,1.953,174.316,106.445,6.348,4744.127,299.35185640956513
397,1685400543.23,15.625,58.105,130.371,2.441,4744.131,309.38844978385885
398,1685400543.24,6.348,83.008,126.953,-10.254,4744.135,307.44737049642737
399,1685400543.24,-12.695,-68.359,28.32,-25.879,4744.139,302.98438757685403
400,1685400543.25,-18.066,-7.812,75.195,-27.344,4744.143,305.40136240734165
401,1685400543.25,1.953,-495.117,-158.203,7.324,4744.146,305.19615312572245
402,1685400543.25,2.93,-745.117,-220.703,8.301,4744.15,305.2067014355104
403,1685400543.26,-15.625,-20.02,92.285,-17.578,4744.154,301.8731247183106
404,1685400543.26,-13.672,44.922,45.898,-10.742,4744.158,301.4066254489123
405,1685400543.26,6.348,-80.078,24.902,2.441,4744.162,307.80178149811286
406,1685400543.27,17.09,218.262,167.48,-3.906,4744.166,303.991310105455
407,1685400543.27,-5.859,373.047,156.738,-22.949,4744.17,306.36654913696276
408,1685400543.28,-23.926,-213.867,-134.277,-25.879,4744.172,299.6329420490831
409,1685400543.28,-9.277,-502.441,-152.344,-18.066,4744.176,304.93212870054435
410,1685400543.28,0.488,132.812,180.176,-22.949,4744.18,307.23802471527506
411,1685400543.29,-19.043,390.137,188.965,-26.367,4744.184,299.09811913713963
412,1685400543.29,-38.574,-114.258,-64.941,-34.18,4744.188,299.4224221050791
413,1685400543.3,-28.32,-482.91,-199.219,-33.203,4744.192,303.48488176461063
414,1685400543.3,-5.371,-250.0,-9.766,-18.066,4744.195,309.5796971213757
415,1685400543.3,-1.953,68.848,122.07,-15.625,4744.199,308.845619393938
416,1685400543.31,-21.484,-295.898,-107.422,-27.832,4744.203,307.3471991028578
417,1685400543.31,-23.438,-956.055,-337.891,-25.391,4744.207,306.6504070593967
418,1685400543.31,-5.859,-160.156,67.871,-22.461,4744.211,300.0386533398193
419,1685400543.32,0.977,389.648,198.242,-29.785,4744.215,299.63319133289843
420,1685400543.34,-5.371,51.27,-1.953,-39.551,4744.232,299.87743536803976
421,1685400543.34,-9.766,61.035,45.41,-34.18,4744.236,303.5660065849124
422,1685400543.34,-12.695,332.031,159.18,-26.855,4744.24,299.77550416251216
423,1685400543.35,-9.277,314.941,101.074,-21.484,4744.244,305.4005935474859
424,1685400543.35,-20.508,71.289,59.57,-31.25,4744.248,306.8564291268612
425,1685400543.36,-40.039,-238.281,-53.223,-41.992,4744.252,310.33589912443534
426,1685400543.36,-28.809,-112.305,20.508,-30.762,4744.256,305.38762819052727
427,1685400543.36,-8.301,281.25,169.922,-30.273,4744.259,302.7870641241305
428,1685400543.36,-7.812,-205.078,-71.289,-21.973,4744.262,306.594574347561
429,1685400543.37,-16.602,-515.137,-211.914,-27.832,4744.263,305.3626909313126
430,1685400543.37,-30.273,-93.75,1.953,-34.668,4744.266,311.98054849822046
431,1685400543.37,-29.297,-760.254,-223.633,-26.855,4744.267,306.2398674390706
432,1685400543.37,-29.297,306.152,163.086,-29.785,4744.27,308.56654848113976
433,1685400543.37,-19.043,189.453,165.527,-22.949,4744.271,304.3332794806568
434,1685400543.38,-6.836,3.418,-7.812,-10.742,4744.274,310.1738529394357
435,1685400543.38,0.488,234.863,91.797,-12.695,4744.275,306.4472588530029
436,1685400543.38,-2.441,-374.023,-91.309,-3.906,4744.278,309.67254350430704
437,1685400543.38,-22.949,-147.461,32.715,-18.066,4744.282,310.62422043134853
438,1685400543.39,-28.809,-78.613,-11.23,-20.02,4744.285,308.5443845069889
439,1685400543.39,-5.859,-412.598,-149.902,0.0,4744.289,306.8177809519426
440,1685400543.4,8.789,-407.715,-115.723,-2.93,4744.293,309.0952094240073
441,1685400543.4,-6.836,231.934,150.879,-27.344,4744.297,306.1317727405907
442,1685400543.4,-21.484,318.848,106.934,-29.297,4744.301,312.02002315210814
443,1685400543.41,-8.301,-399.414,-150.391,-5.371,4744.305,310.5118208302855
444,1685400543.41,0.0,-795.41,-214.355,4.395,4744.319,304.05786377017046
445,1685400543.42,-12.207,111.328,137.207,-11.719,4744.323,308.7690601071484
446,1685400543.42,-17.578,309.082,95.703,-20.508,4744.326,306.7331143127865
447,1685400543.42,-12.207,-17.09,45.41,-15.137,4744.33,308.2688496167453
448,1685400543.43,0.977,173.828,131.836,-8.789,4744.334,306.77093733436385
449,1685400543.43,-6.348,116.211,62.5,-17.578,4744.338,307.9742435576047
450,1685400543.44,-34.18,-99.609,-25.391,-32.227,4744.342,308.5646748003655
451,1685400543.44,-37.598,-555.176,-181.152,-24.414,4744.346,311.5656381521828
452,1685400543.44,-17.578,-301.27,2.93,-3.906,4744.35,302.5977952567513
453,1685400543.45,-2.441,499.023,218.75,-11.719,4744.354,308.8244910778744
454,1685400543.45,-13.672,244.629,32.715,-25.879,4744.358,312.7722418237238
455,1685400543.46,-23.926,-30.273,-40.039,-17.09,4744.362,313.67411527272407
456,1685400543.46,-13.184,-1.465,76.172,0.0,4744.356,309.5168327021133
457,1685400543.46,-5.371,37.598,105.469,-1.953,4744.359,307.9916924348292
458,1685400543.46,-18.555,-202.637,-91.797,-22.949,4744.363,317.21009447110737
459,1685400543.47,-37.109,-470.215,-149.414,-37.109,4744.367,313.0671138756801
460,1685400543.47,-36.621,73.242,102.051,-33.203,4744.371,316.258455407058
461,1685400543.48,-11.719,176.27,102.539,-15.625,4744.375,315.7763761740106
462,1685400543.48,-6.348,-297.852,-86.914,-17.09,4744.379,315.5763175569253
463,1685400543.48,-25.879,-992.676,-465.332,-20.996,4744.383,311.4423568958002
464,1685400543.49,-23.438,-551.27,-171.387,-18.555,4744.387,313.4085799439532
465,1685400543.49,2.441,391.113,218.262,-15.137,4744.391,313.45205777417806
466,1685400543.5,0.977,214.844,97.168,-17.578,4744.395,311.62505883358455
467,1685400543.5,-24.414,137.207,75.195,-27.832,4744.399,315.14225988228384
468,1685400543.5,-25.391,368.164,142.09,-37.598,4744.411,311.5380788811349
469,1685400543.5,-8.301,356.445,121.094,-16.113,4744.415,311.2366034243478
470,1685400543.51,-3.906,243.164,124.512,-6.836,4744.419,320.0449916927911
471,1685400543.51,-16.113,194.824,110.352,-24.414,4744.422,311.81809904813315
472,1685400543.52,-21.973,-32.715,-20.02,-24.902,4744.426,313.3560937375772
473,1685400543.52,-12.207,-25.391,44.434,-15.137,4744.43,310.02297731592887
474,1685400543.52,3.418,-527.832,-187.012,1.465,4744.434,308.76448149120813
475,1685400543.53,0.977,-680.176,-182.617,-2.441,4744.438,311.5845803012243
476,1685400543.53,-13.672,182.129,156.738,-24.414,4744.442,315.6737705866751
477,1685400543.54,-6.348,178.711,32.715,-10.254,4744.446,313.55874685691424
478,1685400543.54,-0.488,106.934,47.363,3.906,4744.45,317.5365583984514
479,1685400543.54,-10.254,344.727,146.973,-7.812,4744.454,310.607148775272
480,1685400543.56,-24.902,182.129,78.125,-24.414,4744.457,311.6419669456194
481,1685400543.56,-30.762,-296.387,-136.719,-15.137,4744.461,315.3457729831891
482,1685400543.57,-13.672,-466.309,-104.98,7.324,4744.465,316.57140073578597
483,1685400543.57,-6.348,131.836,173.34,0.488,4744.469,315.87579639697276
484,1685400543.58,-20.508,424.805,156.25,-19.043,4744.473,310.0943671500425
485,1685400543.58,-20.02,-273.926,-162.109,-15.625,4744.477,316.32889593262456
486,1685400543.58,3.418,-676.758,-246.582,-10.742,4744.481,311.742136975422
487,1685400543.59,11.23,-5.859,109.375,-17.578,4744.484,313.3644807850696
488,1685400543.59,-17.09,487.305,207.031,-32.715,4744.488,312.25285243654525
489,1685400543.6,-32.227,-208.008,-153.809,-27.344,4744.492,311.1929858081559
490,1685400543.6,-11.719,-536.621,-207.52,-10.254,4744.496,317.81366971856795
491,1685400543.6,5.371,292.48,185.059,-14.648,4744.5,313.56177844972336
492,1685400543.6,-11.23,387.695,151.367,-22.461,4744.502,313.2314185357203
493,1685400543.61,-29.297,48.828,-15.625,-30.273,4744.506,313.4807819589497
494,1685400543.61,-20.02,108.887,58.594,-25.879,4744.51,315.7006072081494
495,1685400543.62,-6.348,360.84,173.34,-4.883,4744.514,315.02872838890346
496,1685400543.62,-0.977,274.414,78.613,4.883,4744.518,312.35479258280037
497,1685400543.62,-16.602,-229.492,-107.422,-4.883,4744.521,317.6454014649148
498,1685400543.63,-36.133,-254.395,-40.039,-12.695,4744.525,316.53242143627483
499,1685400543.63,-19.531,275.391,178.223,-13.672,4744.529,319.995856514807
500,1685400543.64,-7.324,310.059,128.418,-14.648,4744.533,312.4954519854046
501,1685400543.64,-23.926,-605.469,-302.734,-28.32,4744.537,310.91881349837337
502,1685400543.64,-38.086,-725.586,-261.719,-43.457,4744.541,313.98660962262176
503,1685400543.65,-24.414,267.09,209.473,-30.273,4744.545,312.61478568570885
504,1685400543.65,-2.441,95.703,22.949,-19.531,4744.547,314.2102245411531
505,1685400543.65,-10.254,-371.094,-95.215,-28.809,4744.551,314.6463656027845
506,1685400543.66,-29.297,32.715,104.492,-32.715,4744.555,313.7526349854552
507,1685400543.66,-26.367,380.859,162.598,-14.648,4744.559,312.7730556830855
508,1685400543.67,-3.906,99.609,10.742,-0.488,4744.563,309.9282024731052
509,1685400543.67,-8.789,-292.969,-137.207,-15.625,4744.566,310.8758676532922
510,1685400543.67,-32.227,-194.824,-21.484,-26.367,4744.57,315.16294775853964
511,1685400543.68,-19.043,165.527,134.766,-6.348,4744.574,315.6453841532342
512,1685400543.68,-4.883,-171.875,-68.359,1.465,4744.578,310.9338118827994
513,1685400543.68,-18.066,-589.844,-175.293,-14.648,4744.582,313.86141856529713
514,1685400543.69,-28.809,92.285,126.465,-31.25,4744.586,311.08379784616454
515,1685400543.69,-25.879,212.891,60.059,-18.555,4744.59,313.96612791526763
516,1685400543.7,4.395,-74.707,-24.414,20.02,4744.592,313.12210365115584
517,1685400543.7,9.277,113.77,83.984,12.207,4744.596,319.0295288695345
518,1685400543.7,-34.668,355.957,151.367,-32.227,4744.6,313.5454386313769
519,1685400543.71,-53.711,173.828,57.129,-33.203,4744.604,312.6713597937739
520,1685400543.71,-20.996,-104.004,-1.465,0.488,4744.607,318.58586742164044
521,1685400543.72,5.371,-188.477,-16.602,13.672,4744.611,321.01773044174917
522,1685400543.72,-3.906,15.137,74.219,8.789,4744.615,313.70601815614873
523,1685400543.72,-2.441,157.227,62.5,10.254,4744.619,312.24751066302093
524,1685400543.73,4.395,-473.145,-163.574,27.344,4744.623,314.673348538401
525,1685400543.73,8.789,-325.195,15.625,27.344,4744.627,315.0389602568934
526,1685400543.73,4.883,405.762,218.262,4.395,4744.631,307.9511753366161
527,1685400543.74,-20.508,152.832,39.551,-10.254,4744.635,311.3907051843039
528,1685400543.74,-18.066,-298.828,-148.926,2.441,4744.637,311.4871335551279
529,1685400543.74,9.277,-72.266,11.23,21.484,4744.641,310.84190580651125
530,1685400543.75,2.441,192.871,137.695,5.859,4744.645,313.628760358695
531,1685400543.75,-21.973,-226.074,-134.277,-9.766,4744.649,315.72047876915394
532,1685400543.76,-26.367,-810.547,-346.68,0.0,4744.653,309.12622678035655
533,1685400543.76,-18.066,-559.082,-135.742,5.371,4744.656,315.7485798127617
534,1685400543.76,-11.23,84.473,78.613,0.488,4744.66,311.177151929545
535,1685400543.77,-18.066,-268.066,-139.16,-6.348,4744.664,318.6532725737193
536,1685400543.77,-26.855,-679.688,-241.211,-10.742,4744.668,314.0701267156706
537,1685400543.78,-12.695,79.102,155.762,-3.418,4744.672,316.27139770112217
538,1685400543.78,0.0,394.043,181.152,5.859,4744.676,313.8816935291737
539,1685400543.78,-11.23,87.402,28.32,-3.418,4744.68,318.56206232826264
540,1685400543.78,-35.156,44.434,38.086,-18.555,4744.682,310.34129866848576
541,1685400543.79,-33.203,295.41,156.25,-12.695,4744.686,310.9435267622854
542,1685400543.79,-4.395,315.43,131.348,6.836,4744.69,310.98800250501745
543,1685400543.8,-3.906,106.934,73.242,5.371,4744.694,311.2762599605008
544,1685400543.8,-16.113,62.5,79.102,-3.906,4744.698,306.7722431267837
545,1685400543.8,-18.555,-59.57,18.066,0.0,4744.702,307.7138317772462
546,1685400543.81,-3.418,-95.215,60.059,-4.395,4744.706,310.4261850210756
547,1685400543.81,0.488,-597.656,-175.781,-5.371,4744.71,314.9920491595325
548,1685400543.82,-32.715,-734.863,-237.793,-23.926,4744.713,305.9363062901165
549,1685400543.82,-39.062,106.934,126.465,-37.598,4744.717,305.33227346050853
550,1685400543.82,-15.137,167.969,66.406,-6.348,4744.721,307.39603617479673
551,1685400543.83,-14.16,125.977,74.219,0.0,4744.725,311.2001035443526
552,1685400543.83,-17.578,70.801,62.5,-22.949,4744.727,305.3598921791426
553,1685400543.83,-22.949,24.902,64.453,-28.32,4744.731,301.9406677575029
554,1685400543.84,-16.113,-84.473,-7.812,-18.555,4744.735,307.1479009701819
555,1685400543.84,-3.906,-378.906,-72.754,-6.836,4744.739,299.9687840710414
556,1685400543.85,-13.672,60.547,121.582,-11.719,4744.743,302.62059801744147
557,1685400543.85,-23.926,77.637,40.527,-24.902,4744.747,301.84915059617623
558,1685400543.85,-12.207,-430.176,-178.223,-4.395,4744.751,310.8143770925984
559,1685400543.86,6.348,-720.703,-240.234,14.16,4744.755,302.3243422536474
560,1685400543.86,2.441,-49.805,111.816,-3.906,4744.758,305.25090118609137
561,1685400543.86,-16.602,442.383,177.246,-18.555,4744.762,302.07423979903007
562,1685400543.87,-30.762,-156.738,-56.152,-20.02,4744.766,306.6741051217341
563,1685400543.87,-14.16,-184.082,1.953,-12.207,4744.77,301.1744043629127
564,1685400543.88,3.418,381.836,188.965,-6.348,4744.785,298.32548632302496
565,1685400543.88,-6.836,126.465,53.223,-12.207,4744.789,301.0559421871884
566,1685400543.88,-26.367,-82.031,32.715,-22.461,4744.793,299.48556715401594
567,1685400543.89,-8.789,208.496,165.527,-17.578,4744.797,304.204489650255
568,1685400543.89,8.301,381.836,155.762,-17.578,4744.801,295.2292459862252
569,1685400543.9,-18.555,111.328,57.617,-37.109,4744.805,296.0916425260111
570,1685400543.9,-31.738,-573.73,-178.223,-35.156,4744.809,301.3435602986236
571,1685400543.9,-20.508,-419.434,-62.988,-30.762,4744.813,299.95057084518584
572,1685400543.91,-1.953,414.551,228.516,-29.297,4744.817,296.72931074504856
573,1685400543.91,6.836,258.301,93.262,-28.32,4744.82,298.93137825497223
574,1685400543.91,-11.23,-189.453,-88.867,-40.039,4744.824,297.35614569543947
575,1685400543.92,-15.137,49.316,44.922,-26.855,4744.828,293.7679057601695
576,1685400543.92,0.488,176.758,125.977,-13.672,4744.831,300.3167192367609
577,1685400543.92,-0.488,-133.301,-59.57,-25.879,4744.835,294.10252394322725
578,1685400543.93,-19.043,-666.504,-233.887,-39.062,4744.839,294.9818392297912
579,1685400543.93,-26.367,-321.289,9.766,-39.551,4744.843,301.1342896096295
580,1685400543.94,-7.812,399.902,209.961,-27.832,4744.847,301.39316634158047
581,1685400543.94,-0.488,-116.211,-80.566,-22.949,4744.851,295.93939888553956
582,1685400543.94,-27.832,-541.504,-190.43,-39.062,4744.855,292.74212876297935
583,1685400543.95,-45.41,65.918,126.953,-41.992,4744.859,300.1806118801349
584,1685400543.95,-29.297,388.184,170.41,-12.207,4744.862,302.5127926113128
585,1685400543.96,-9.277,113.281,79.59,-3.418,4744.866,295.1038844556698
586,1685400543.96,-18.555,55.176,75.195,-18.555,4744.87,294.7223015963272
587,1685400543.96,-33.203,262.695,131.348,-30.762,4744.874,297.2232833976543
588,1685400543.98,-19.531,172.363,59.57,-27.344,4744.877,299.73299373469507
589,1685400543.98,0.0,-221.68,-38.574,-19.043,4744.881,291.4162402857098
590,1685400543.99,-9.277,-133.789,59.082,-22.461,4744.885,294.8617954377614
591,1685400543.99,-23.926,280.273,132.812,-24.902,4744.889,295.05897188641126
592,1685400544.0,-18.555,129.883,45.898,-20.02,4744.893,295.66401864589625
593,1685400544.0,1.465,-219.727,-53.711,-10.254,4744.897,297.3763812432374
594,1685400544.0,-5.859,-133.301,30.273,-19.531,4744.901,293.63610233670073
595,1685400544.01,-34.18,207.52,127.441,-39.551,4744.905,296.7203536131103
596,1685400544.01,-35.645,119.629,16.602,-36.133,4744.908,297.57605742810597
597,1685400544.02,-13.184,-416.504,-130.859,-15.625,4744.912,301.1558709600217
598,1685400544.02,-5.859,-166.504,47.852,-15.625,4744.916,296.19502705868365
599,1685400544.02,-17.09,369.141,204.102,-40.527,4744.92,299.9477304769557
600,1685400544.02,-21.973,-126.953,-90.82,-41.992,4744.922,297.78873422037736
601,1685400544.03,-13.672,-582.031,-214.844,-23.438,4744.926,300.7254967737158
602,1685400544.03,-0.488,-23.926,74.219,-18.555,4744.93,295.02072657022626
603,1685400544.04,-6.348,196.777,107.91,-30.762,4744.934,298.85693365090725
604,1685400544.04,-29.785,-316.406,-142.09,-39.062,4744.938,297.054054099547
605,1685400544.04,-26.855,-627.441,-276.855,-29.785,4744.942,297.1609092283788
606,1685400544.05,-4.883,-129.395,35.156,-19.531,4744.946,296.1973593871765
607,1685400544.05,-6.836,380.859,205.566,-25.879,4744.949,302.5663434882819
608,1685400544.06,-32.715,-270.02,-148.438,-41.504,4744.953,298.9084812059871
609,1685400544.06,-22.461,-702.148,-232.91,-19.531,4744.957,296.98650676938166
610,1685400544.06,-0.488,151.855,164.062,-0.977,4744.961,297.55647532897063
611,1685400544.07,-6.836,408.691,169.922,-11.719,4744.965,297.25307811464813
612,1685400544.07,-10.254,33.691,6.836,-7.812,4744.967,296.7038564177348
613,1685400544.07,-7.324,15.137,16.113,0.977,4744.971,300.4427707994622
614,1685400544.08,-0.488,311.523,158.691,-6.836,4744.975,299.22948637275795
615,1685400544.08,5.859,283.203,112.305,-11.23,4744.979,293.6556706044404
616,1685400544.09,-18.555,-52.734,-23.438,-28.809,4744.983,297.8324603381413
617,1685400544.09,-37.598,-326.66,-148.438,-41.016,4744.986,300.02869073031866
618,1685400544.09,-24.902,-321.777,-177.246,-24.902,4744.99,300.26026202005767
619,1685400544.1,-2.93,-104.492,-28.809,2.441,4744.994,300.8087405143123
620,1685400544.1,4.395,-599.121,-216.309,6.348,4744.998,301.34364894833925
621,1685400544.1,-23.438,-731.934,-230.469,-19.043,4745.002,295.7768955588346
622,1685400544.11,-27.832,147.949,143.555,-18.066,4745.006,299.2779741706412
623,1685400544.11,1.465,232.422,80.078,-1.465,4745.01,304.9163097030096
624,1685400544.12,9.766,-131.348,-42.48,-12.207,4745.012,300.30018613269755
625,1685400544.12,-13.184,-78.125,29.297,-35.645,4745.016,300.46544253261175
626,1685400544.12,-24.414,275.391,138.672,-25.391,4745.02,299.5175725555936
627,1685400544.13,-6.348,14.648,-4.395,7.812,4745.024,302.14657980122706
628,1685400544.13,0.488,-395.02,-72.754,4.395,4745.028,301.2070374001241
629,1685400544.14,-20.996,-249.023,12.207,-25.391,4745.032,304.39719429050245
630,1685400544.14,-20.02,48.34,84.961,-18.555,4745.036,297.03677424019554
631,1685400544.14,-1.465,-179.688,-43.457,2.93,4745.04,303.8300079800718
632,1685400544.15,0.0,-707.031,-276.855,1.953,4745.043,300.62952289902825
633,1685400544.15,-14.648,-68.848,28.809,-22.949,4745.047,294.7314987930239
634,1685400544.15,-34.668,329.102,137.695,-36.133,4745.051,299.35232919581154
635,1685400544.16,-27.344,-206.055,-30.273,-14.16,4745.055,304.38512700886326
636,1685400544.16,-8.301,-198.242,13.672,2.93,4745.057,303.88398958085475
637,1685400544.16,-10.254,338.379,151.367,-3.418,4745.061,302.9105878723662
638,1685400544.17,-30.273,205.078,37.598,-17.09,4745.065,299.5160850514354
639,1685400544.17,-26.855,-26.367,-43.945,-18.555,4745.069,302.329010701172
640,1685400544.18,-1.465,152.832,77.637,-1.465,4745.073,302.360323102075
641,1685400544.18,2.93,42.969,52.734,1.953,4745.077,306.409592299232
642,1685400544.18,-24.414,-130.859,-70.801,-19.531,4745.081,304.40067471138553
643,1685400544.19,-31.738,-563.965,-225.098,-14.648,4745.085,302.3931049599572
644,1685400544.19,-13.184,-351.074,-14.648,0.977,4745.089,301.2006132492702
645,1685400544.2,-4.395,438.477,227.539,-14.648,4745.092,300.66715286246716
646,1685400544.2,-17.09,177.734,23.438,-28.809,4745.096,307.59479099287455
647,1685400544.2,-23.926,-204.102,-137.207,-24.414,4745.1,307.13880498173364
648,1685400544.2,-1.465,-187.988,-29.785,-2.441,4745.102,305.93596986189766
649,1685400544.21,13.184,127.441,146.973,0.977,4745.106,299.7879122349667
650,1685400544.21,4.395,82.52,2.441,-18.555,4745.11,307.649520109647
651,1685400544.22,-8.789,-705.566,-293.457,-8.301,4745.114,302.03081977319215
652,1685400544.22,-6.348,-329.59,-16.602,5.371,4745.118,299.55771343257305
653,1685400544.22,7.324,191.406,139.648,6.348,4745.122,304.5118649113938
654,1685400544.23,1.953,-311.035,-118.164,-4.883,4745.125,304.69860718261185
655,1685400544.23,-19.043,-633.789,-232.422,-20.02,4745.129,310.4630465441458
656,1685400544.24,-21.973,-13.672,88.379,-19.043,4745.133,301.2741514047335
657,1685400544.24,-2.441,386.23,192.871,-1.953,4745.137,308.3548541641553
658,1685400544.24,0.977,189.453,77.637,-12.695,4745.141,302.66473792992883
659,1685400544.25,-17.578,109.375,41.992,-30.762,4745.145,303.4911000058074
660,1685400544.25,-26.367,210.938,85.938,-15.625,4745.15,308.00164527258346
661,1685400544.26,-20.996,151.855,60.059,-8.789,4745.154,305.758357346676
662,1685400544.26,-17.578,-228.027,-17.09,-5.859,4745.158,307.81890825218255
663,1685400544.26,-28.809,-120.117,26.855,-15.625,4745.162,306.1653692845343
664,1685400544.27,-41.992,197.754,80.566,-36.621,4745.166,307.8470262111456
665,1685400544.27,-27.832,-20.996,21.484,-21.484,4745.17,307.2505829937169
666,1685400544.28,-6.348,-576.172,-159.18,1.953,4745.174,303.43436810079544
667,1685400544.28,-12.695,-374.512,-39.551,-13.672,4745.178,304.801392682885
668,1685400544.28,-25.391,312.012,144.043,-29.297,4745.182,305.55026491352083
669,1685400544.29,-12.695,135.254,35.156,-14.16,4745.185,310.70756421113714
670,1685400544.29,2.93,4.395,38.574,-6.348,4745.189,295.8849595251383
671,1685400544.29,-5.859,241.211,126.953,-20.02,4745.193,302.87782059152306
672,1685400544.3,-24.414,91.797,22.461,-35.645,4745.221,305.8742565771468
673,1685400544.3,-32.227,-326.66,-224.609,-32.227,4745.225,303.86437139141003
674,1685400544.3,-15.137,-431.152,-118.164,-16.113,4745.229,306.8952224386735
675,1685400544.31,-3.906,105.469,145.02,-12.695,4745.233,302.21577039057456
676,1685400544.31,-15.137,207.031,96.191,-29.297,4745.237,303.9032281559628
677,1685400544.32,-24.902,-390.137,-201.66,-33.691,4745.241,307.2253683923375
678,1685400544.32,-15.625,-873.047,-344.238,-14.16,4745.245,308.13756452069964
679,1685400544.32,-2.441,-139.648,89.844,-10.254,4745.249,307.23235959086077
680,1685400544.33,-11.719,413.086,167.48,-23.926,4745.252,308.4695628566275
681,1685400544.33,-31.738,-8.789,-27.832,-30.762,4745.256,307.88678603925973
682,1685400544.33,-21.973,48.828,44.922,-17.578,4745.26,307.95764286398514
683,1685400544.34,0.0,408.203,170.41,-1.953,4745.264,309.84022037383477
684,1685400544.36,-7.324,377.441,127.93,-14.16,4745.252,306.4988298040103
685,1685400544.36,-28.809,17.09,-18.555,-26.367,4745.256,308.96688474140507
686,1685400544.36,-31.738,35.156,36.133,-17.09,4745.26,307.27388523924304
687,1685400544.37,-15.137,354.492,195.801,-8.301,4745.264,303.8496046708615
688,1685400544.37,-13.184,292.969,108.887,-7.812,4745.268,303.26191866975364
689,1685400544.38,-32.715,-234.375,-115.723,-17.09,4745.272,302.53058875281425
690,1685400544.38,-41.016,-460.449,-165.527,-17.09,4745.276,304.3086977160497
691,1685400544.38,-20.508,-44.922,61.035,2.441,4745.279,306.5446393385955
692,1685400544.39,-9.277,153.809,97.168,-1.465,4745.283,305.19983908218154
693,1685400544.39,-25.391,-304.199,-113.281,-29.297,4745.287,306.20739055749186
694,1685400544.39,-34.18,-227.051,-39.062,-34.668,4745.291,309.60054832219225
695,1685400544.4,-18.066,231.934,131.836,-19.043,4745.295,306.9755516707266
696,1685400544.4,-1.953,76.172,66.895,-18.066,4745.297,308.12739185538476
697,1685400544.4,-20.996,-792.969,-358.398,-28.809,4745.301,309.4713090577871
698,1685400544.41,-47.852,-736.816,-239.746,-38.574,4745.305,311.4588479073679
699,1685400544.41,-32.227,163.574,151.855,-27.344,4745.309,307.80256431749746
700,1685400544.42,-10.742,69.824,18.066,-14.16,4745.313,309.7337724602062
701,1685400544.42,-20.996,-261.23,-84.961,-35.156,4745.316,307.3362309751592
702,1685400544.42,-31.738,-102.051,5.859,-43.457,4745.32,305.9077151452933
703,1685400544.43,-26.367,314.941,177.734,-29.297,4745.324,305.6956436357381
704,1685400544.43,-18.555,-113.281,-44.922,-15.137,4745.328,305.6336255686464
705,1685400544.44,-19.043,-707.52,-233.887,-13.672,4745.332,308.76220855925635
706,1685400544.44,-43.457,-20.02,87.402,-30.762,4745.336,306.83859348294
707,1685400544.44,-49.316,291.016,110.84,-31.25,4745.34,311.6509113372312
708,1685400544.46,-21.973,-94.727,-5.859,-11.23,4745.357,305.7059711303144
709,1685400544.46,-9.766,-13.184,53.711,-5.859,4745.361,306.6088490471238
710,1685400544.47,-24.414,312.988,131.836,-20.02,4745.365,306.7596919135675
711,1685400544.47,-29.297,251.465,78.125,-21.973,4745.369,309.18400563859814
712,1685400544.48,-16.113,-174.316,-68.359,-13.672,4745.373,305.18889304917747
713,1685400544.48,-2.441,-319.336,-54.688,-16.113,4745.377,310.979580451955
714,1685400544.48,-6.348,16.602,86.914,-22.949,4745.381,314.42709176641233
715,1685400544.49,-19.531,177.246,58.594,-14.648,4745.385,319.7000216486969
716,1685400544.49,-26.855,-304.688,-205.566,-29.785,4745.388,309.22605149631664
717,1685400544.49,-18.066,-431.152,-132.324,-4.883,4745.388,318.0470153450072
718,1685400544.49,-6.348,-185.547,-46.387,-18.066,4745.392,310.8316798320411
719,1685400544.5,-5.371,-282.227,19.043,-0.488,4745.392,319.4764219388878
720,1685400544.5,-6.836,281.25,188.965,-26.855,4745.396,314.18980506177917
721,1685400544.5,-6.348,439.941,201.66,-6.836,4745.396,313.8012372710649
722,1685400544.5,-20.02,116.699,-20.508,-28.809,4745.4,309.17230658501154
723,1685400544.5,-27.344,105.469,-21.484,-25.391,4745.4,312.89893345279404
724,1685400544.51,-19.531,-737.793,-329.102,-1.465,4745.404,312.0973512452417
725,1685400544.51,3.906,-509.766,-70.801,-0.977,4745.408,317.24905282848914
726,1685400544.51,9.277,121.582,122.07,-10.742,4745.412,314.4853345617916
727,1685400544.52,-9.766,-134.277,-29.297,-13.184,4745.415,314.06076745141166
728,1685400544.52,-25.879,-255.371,-112.305,-19.043,4745.419,312.5927086863823
729,1685400544.52,-21.973,194.824,89.844,-17.09,4745.423,313.73096949211657
730,1685400544.53,-2.93,494.141,215.82,-17.578,4745.427,313.77954315194467
731,1685400544.53,2.441,-157.715,-101.074,-16.113,4745.431,315.0785490403341
732,1685400544.54,-17.09,-657.227,-230.469,-11.719,4745.432,314.0872636570601
733,1685400544.54,-26.855,147.461,140.625,-13.672,4745.436,319.77903002336643
734,1685400544.54,0.488,270.02,98.633,-3.418,4745.44,313.78811186555265
735,1685400544.55,4.883,-220.703,-64.453,-5.859,4745.444,314.6632102559676
736,1685400544.55,-20.02,-133.301,14.16,-28.32,4745.448,319.83615790866867
737,1685400544.56,-22.949,13.184,23.926,-17.578,4745.452,325.26772848838385
738,1685400544.56,-0.488,-30.762,44.922,8.789,4745.456,322.52645955147887
739,1685400544.56,3.906,-539.062,-183.594,2.93,4745.46,333.5961905495182
740,1685400544.57,-20.508,-590.82,-189.453,-26.367,4745.464,327.0447766269823
741,1685400544.57,-29.297,283.203,173.34,-35.645,4745.468,323.6828120261231
742,1685400544.57,-11.23,240.723,83.984,-19.043,4745.471,332.39015108688835
743,1685400544.58,-8.789,107.91,69.336,-17.09,4745.475,328.43796248744843
744,1685400544.58,-15.625,56.641,26.367,-22.461,4745.477,331.21572710483065
745,1685400544.58,-33.691,68.848,62.012,-32.715,4745.481,337.5764321017062
746,1685400544.59,-36.621,-6.836,-3.418,-25.879,4745.485,335.49016011898783
747,1685400544.59,-6.836,-316.895,-70.801,-9.277,4745.489,333.56982612104997
748,1685400544.6,-3.418,105.957,128.906,-24.414,4745.493,340.5146008766799
749,1685400544.6,-12.207,132.324,37.109,-25.879,4745.497,331.92014838378844
750,1685400544.6,-9.766,-410.156,-212.891,-7.812,4745.501,338.0821448744346
751,1685400544.61,-2.93,-847.656,-298.34,-9.277,4745.505,339.13961548456416
752,1685400544.61,3.418,-156.738,73.242,-19.043,4745.509,339.0618206475038
753,1685400544.62,-20.02,347.168,131.348,-27.344,4745.512,335.87936627050016
754,1685400544.62,-41.504,-9.766,-35.645,-32.715,4745.516,341.3714770692415
755,1685400544.62,-9.766,153.32,93.262,-16.113,4745.52,338.7580068593408
756,1685400544.62,8.301,514.16,220.703,-5.859,4745.536,339.4742581642511
757,1685400544.63,-6.836,378.418,103.027,-11.23,4745.54,337.0407768428231
758,1685400544.63,-9.766,-1.953,-34.18,-6.836,4745.544,339.5504492498119
759,1685400544.64,7.324,113.281,61.035,-4.883,4745.548,341.880096749648
760,1685400544.64,7.812,377.93,176.27,-9.277,4745.551,345.9009481709532
761,1685400544.64,-11.719,175.781,71.777,-5.371,4745.555,340.7842950994047
762,1685400544.65,-24.902,-518.555,-204.59,-6.836,4745.559,338.4635621850352
763,1685400544.65,-13.672,-562.988,-166.992,-6.348,4745.563,343.3079040847887
764,1685400544.66,6.836,163.574,136.719,-4.883,4745.567,345.60337912614165
765,1685400544.66,1.953,235.84,70.801,-15.137,4745.571,339.88219274341736
766,1685400544.66,-17.578,-150.391,-95.215,-20.996,4745.575,338.0492671504361
767,1685400544.67,-21.484,23.438,32.227,-5.371,4745.579,341.4001255308509
768,1685400544.67,-8.789,192.871,106.445,4.883,4745.581,339.46984254167654
769,1685400544.67,-9.766,-99.609,-40.039,-8.301,4745.585,339.9618216276315
770,1685400544.68,-23.926,-425.293,-177.734,-22.461,4745.589,338.16987906337954
771,1685400544.68,-33.203,-21.973,39.551,-27.832,4745.593,345.38464279127015
772,1685400544.69,-19.531,390.137,174.805,-12.207,4745.597,331.3245556914426
773,1685400544.69,-8.301,-137.207,-111.328,-0.488,4745.601,336.7861888587637
774,1685400544.69,-16.602,-407.227,-156.25,-15.625,4745.605,334.93926019776535
775,1685400544.7,-24.414,111.816,99.609,-29.297,4745.609,340.35325748834055
776,1685400544.7,-15.625,384.277,145.508,-19.043,4745.613,338.80083400892227
777,1685400544.7,5.371,-101.074,-41.992,-5.371,4745.616,338.344834544105
778,1685400544.71,-3.906,-499.512,-218.75,-14.648,4745.62,334.7195545724227
779,1685400544.71,-17.578,12.207,14.16,-21.484,4745.624,334.5666406847577
780,1685400544.72,-5.859,301.758,131.348,-9.277,4745.626,335.96980414621873
781,1685400544.72,12.695,-76.172,8.301,10.254,4745.63,331.623286984589
782,1685400544.72,17.09,-95.215,28.32,8.301,4745.634,334.0338872239126
783,1685400544.73,-8.301,294.434,107.422,-13.672,4745.638,334.6129382208595
784,1685400544.73,-16.602,221.191,57.617,-17.578,4745.642,335.77012286344785
785,1685400544.74,4.395,-145.996,-61.523,-2.93,4745.646,332.13162723981895
786,1685400544.74,8.789,-113.281,-1.465,6.836,4745.65,336.4181430023992
787,1685400544.74,-7.324,226.562,130.859,-9.277,4745.654,326.86581206885336
788,1685400544.75,-17.09,90.332,4.883,-17.09,4745.658,327.8596054329685
789,1685400544.75,-6.836,-419.922,-148.438,-6.836,4745.662,332.13732560176567
790,1685400544.76,-0.977,-148.438,26.855,-10.742,4745.665,328.3983761566665
791,1685400544.76,-5.859,354.492,154.785,-17.578,4745.669,326.6368947460248
792,1685400544.78,-25.391,-133.789,-106.445,-20.02,4745.672,326.54428156128057
793,1685400544.78,-21.973,-613.77,-279.297,-16.113,4745.676,328.321875257034
794,1685400544.78,-1.953,-143.066,-2.93,-10.742,4745.68,328.928719084261
795,1685400544.79,0.488,415.039,202.148,-10.254,4745.684,325.3233153087965
796,1685400544.79,-17.09,-53.223,-102.051,-9.277,4745.688,325.46045301012697
797,1685400544.8,-22.461,-759.766,-365.234,-7.812,4745.692,319.6969416436794
798,1685400544.8,11.719,-247.07,-3.418,1.465,4745.696,321.20677017240354
799,1685400544.8,18.066,402.344,211.426,-10.254,4745.7,326.8936999093546
800,1685400544.81,-16.113,-181.152,-141.113,-24.414,4745.703,320.38522716243017
801,1685400544.81,-15.625,-587.891,-229.004,-12.695,4745.707,320.9398328594344
802,1685400544.82,8.301,185.547,150.879,-0.977,4745.711,322.9523351121986
803,1685400544.82,13.184,408.203,151.367,-1.465,4745.715,324.4701823682603
804,1685400544.82,-4.883,62.012,-21.973,-18.066,4745.722,321.19361309433214
805,1685400544.82,-18.555,36.621,26.855,-18.066,4745.726,321.2224978032834
806,1685400544.83,-7.324,271.484,127.93,-12.695,4745.73,324.95060164003706
807,1685400544.83,0.977,150.391,36.621,-18.555,4745.734,319.83116323621203
808,1685400544.84,-12.695,-313.477,-117.188,-21.973,4745.738,317.16734372734936
809,1685400544.84,-27.344,-508.301,-211.426,-28.32,4745.742,312.6804524690375
810,1685400544.84,-18.555,-96.68,0.488,-20.508,4745.746,313.190859141044
811,1685400544.85,1.465,235.352,124.512,-1.953,4745.75,315.3735499010237
812,1685400544.85,-4.395,-411.133,-125.0,-5.859,4745.754,308.7877951615233
813,1685400544.86,-24.414,-406.25,-41.992,-18.555,4745.758,316.8290519273769
814,1685400544.86,-13.184,302.246,150.391,-2.441,4745.761,315.85749669860445
815,1685400544.86,6.348,241.699,72.754,3.418,4745.765,312.9185518363009
816,1685400544.86,-5.371,-166.016,-119.141,-15.625,4745.762,309.70564522542105
817,1685400544.87,-25.391,-134.277,-69.824,-34.668,4745.766,315.41761405978855
818,1685400544.87,-29.297,272.949,155.273,-31.738,4745.77,313.6221355866274
819,1685400544.88,-11.719,65.918,-1.465,-7.324,4745.774,310.5320699633318
820,1685400544.88,7.812,-425.781,-139.16,1.465,4745.778,311.6260206863818
821,1685400544.88,-16.602,-301.27,-22.461,-25.879,4745.782,311.5260799948465
822,1685400544.89,-42.48,-151.855,-74.707,-43.457,4745.785,309.7614363117893
823,1685400544.89,-19.043,-434.082,-218.75,-24.414,4745.789,300.183230478559
824,1685400544.9,-11.23,-855.957,-284.18,-9.277,4745.793,307.87505080705915
825,1685400544.9,-30.762,-206.055,41.504,-30.273,4745.797,311.93004713970635
826,1685400544.9,-36.133,269.043,125.0,-49.316,4745.801,303.17590839950117
827,1685400544.91,-21.484,11.719,0.977,-38.086,4745.805,301.02437624643227
828,1685400544.91,0.0,198.242,86.426,-20.996,4745.807,299.5932420610872
829,1685400544.91,-8.301,459.473,177.734,-30.273,4745.811,302.8359643594648
830,1685400544.92,-34.18,262.207,74.707,-44.434,4745.815,306.7863991931947
831,1685400544.92,-36.133,4.883,11.719,-36.133,4745.819,298.0494113649966
832,1685400544.93,-11.719,138.672,75.684,-14.16,4745.823,306.3214755052855
833,1685400544.93,0.977,74.219,63.477,-9.766,4745.827,301.1381194470129
834,1685400544.93,-15.137,-86.426,2.441,-19.531,4745.831,294.67554787833785
835,1685400544.94,-22.949,-517.09,-177.246,-15.625,4745.834,296.37219588692255
836,1685400544.94,-12.695,-505.859,-94.727,-8.789,4745.838,299.67795468316024
837,1685400544.94,-3.906,224.609,187.5,-17.578,4745.842,300.243962003799
838,1685400544.95,-16.602,251.953,77.148,-34.668,4745.846,299.12210526231786
839,1685400544.95,-28.32,-148.438,-20.02,-27.832,4745.85,295.68776604134194
840,1685400544.97,-20.02,-243.164,-20.02,-14.16,4745.867,293.7139878313848
841,1685400544.97,-17.578,136.23,88.867,-20.508,4745.871,290.9610916007467
842,1685400544.98,-20.508,154.297,30.762,-21.973,4745.875,295.1398372132173
843,1685400544.98,-24.902,-403.32,-180.176,-22.461,4745.879,288.61174535570575
844,1685400544.99,-25.391,18.066,83.496,-21.973,4745.883,289.28171168998915
845,1685400544.99,-7.812,243.652,144.043,-8.301,4745.887,289.7353189671668
846,1685400544.99,-3.418,-297.852,-127.441,-8.789,4745.891,291.6794114984421
847,1685400545.0,-15.137,-592.773,-250.0,-17.578,4745.894,290.42118209975183
848,1685400545.0,-21.973,47.852,76.172,-26.855,4745.898,291.8844624336644
849,1685400545.0,-6.348,431.152,161.133,-19.531,4745.902,284.8169355765185
850,1685400545.01,6.836,119.629,21.973,-16.602,4745.906,287.4174426301737
851,1685400545.01,-8.789,-141.602,-35.156,-29.785,4745.91,285.757386865277
852,1685400545.02,-15.625,109.375,92.773,-29.297,4745.912,288.43637228074226
853,1685400545.02,-1.465,343.262,113.77,-18.066,4745.916,284.5806029565648
854,1685400545.02,4.395,-99.609,-30.762,-8.789,4745.92,285.560365801187
855,1685400545.03,-11.23,-124.023,45.41,-21.484,4745.924,285.3569807510858
856,1685400545.03,-23.926,220.215,77.637,-35.156,4745.928,292.2528673363969
857,1685400545.04,-9.766,-63.477,-42.48,-22.949,4745.931,293.0824999735223
858,1685400545.04,11.23,-222.656,-50.293,-8.789,4745.935,289.1432032091676
859,1685400545.04,9.277,62.988,38.574,-15.137,4745.939,289.43861620273515
860,1685400545.05,-10.742,256.836,115.723,-28.809,4745.943,291.0605579581966
861,1685400545.05,-11.23,84.961,61.035,-15.137,4745.956,292.37098798356874
862,1685400545.05,-13.672,178.711,52.246,-21.484,4745.947,288.89045899917085
863,1685400545.05,-12.695,-301.758,-189.453,-0.488,4745.96,292.8459115780738
864,1685400545.05,3.418,-412.598,-101.074,1.953,4745.951,290.53962174359964
865,1685400545.05,2.441,-711.426,-252.93,2.441,4745.963,290.5252045367386
866,1685400545.06,3.418,-267.09,22.949,-6.836,4745.955,292.1906627301895
867,1685400545.06,-1.465,-206.055,62.5,-11.719,4745.967,296.16375111207583
868,1685400545.06,-27.344,365.723,155.273,-23.926,4745.971,286.4091277946607
869,1685400545.07,-37.598,-318.848,-193.848,-23.926,4745.975,294.2874832283748
870,1685400545.07,-21.973,-489.258,-171.875,-20.508,4745.979,290.7962758386256
871,1685400545.07,-7.812,224.121,165.527,-24.902,4745.983,289.8439997434245
872,1685400545.08,-13.184,510.742,183.105,-39.062,4745.987,284.9727664924975
873,1685400545.08,-24.902,-200.684,-127.93,-34.668,4745.991,291.41992355488395
874,1685400545.08,-10.254,-677.734,-233.887,-10.254,4745.995,292.27847277089234
875,1685400545.09,8.301,194.336,159.668,-4.883,4745.999,289.35445566768215
876,1685400545.11,5.371,470.703,158.203,-16.602,4746.002,288.73121066742164
877,1685400545.11,-16.113,86.914,-21.973,-40.527,4746.006,291.07248028578573
878,1685400545.11,-26.855,90.82,25.879,-38.086,4746.01,297.17216243101586
879,1685400545.12,-10.254,347.656,139.648,-15.137,4746.014,290.73970554874404
880,1685400545.12,3.906,303.223,108.398,-19.531,4746.018,298.34408060490546
881,1685400545.13,-12.695,-496.094,-217.773,-20.02,4746.021,298.7627309068227
882,1685400545.13,-26.855,-645.996,-196.289,-10.742,4746.025,295.34142265017147
883,1685400545.13,-7.324,257.812,187.988,-7.324,4746.029,294.77202171506605
884,1685400545.14,0.977,322.266,98.633,-7.812,4746.033,301.4820161850204
885,1685400545.14,-18.066,-159.668,-89.355,-17.578,4746.037,295.62588307726907
886,1685400545.14,-24.414,-54.688,8.301,-23.926,4746.041,302.52485136340545
887,1685400545.15,-10.742,398.438,176.758,-12.207,4746.045,294.0689717024384
888,1685400545.15,0.0,192.871,54.199,-4.883,4746.047,300.7378270769538
889,1685400545.15,-3.418,-377.441,-141.113,-10.254,4746.051,297.7236238375259
890,1685400545.16,-20.508,-90.82,7.324,-25.391,4746.055,298.0482965402181
891,1685400545.16,-13.184,342.285,169.922,-23.926,4746.059,293.6822554377166
892,1685400545.17,14.648,115.234,36.133,-4.395,4746.063,295.4984443993221
893,1685400545.17,9.277,-257.812,-168.945,-16.113,4746.066,295.1283621233505
894,1685400545.17,-19.043,-215.82,-105.469,-33.203,4746.07,298.8741218589884
895,1685400545.18,-17.578,-65.918,-45.898,-26.367,4746.074,295.12193965847797
896,1685400545.18,-1.465,-297.852,-165.527,-12.695,4746.078,305.230209115739
897,1685400545.18,-9.277,-793.457,-257.324,-14.648,4746.082,299.3582530960793
898,1685400545.19,-24.414,-198.73,30.762,-30.762,4746.086,296.9571157340348
899,1685400545.19,-20.996,273.926,109.375,-23.926,4746.09,301.456210996457
900,1685400545.2,-5.859,72.754,31.25,-12.695,4746.092,302.1112112587687
901,1685400545.2,-6.836,220.703,115.234,-16.602,4746.096,298.6520977155067
902,1685400545.2,-20.508,397.461,167.48,-21.484,4746.1,300.03561093865113
903,1685400545.21,-23.926,180.664,37.109,-16.113,4746.104,295.95733653671857
904,1685400545.21,-18.555,-64.941,18.066,-0.977,4746.108,298.6846467987714
905,1685400545.22,-11.719,-137.695,31.25,1.465,4746.111,297.5642208468435
906,1685400545.22,-10.742,20.508,46.875,-4.395,4746.115,301.9944059581075
907,1685400545.22,-29.297,177.734,54.688,-21.484,4746.119,302.8851295824407
908,1685400545.23,-41.992,-437.012,-152.832,-37.109,4746.123,301.9324170223212
909,1685400545.23,-23.926,-503.906,-67.871,-22.949,4746.127,293.77350129292466
910,1685400545.23,-23.926,148.438,132.812,-32.715,4746.131,299.62976073516995
911,1685400545.24,-44.922,93.262,11.719,-50.293,4746.135,298.65622179860253
912,1685400545.24,-59.082,-465.82,-188.965,-47.363,4746.137,301.08204040473083
913,1685400545.24,-54.199,-221.191,-5.371,-58.594,4746.141,297.5824151514495
914,1685400545.25,-40.039,417.969,216.797,-69.336,4746.145,300.6104831918568
915,1685400545.25,-44.434,70.801,-33.203,-66.895,4746.149,299.6353292570641
916,1685400545.26,-54.688,-501.953,-198.73,-57.617,4746.153,308.56465348678904
917,1685400545.26,-40.039,-262.207,12.695,-44.434,4746.157,302.0554543865302
918,1685400545.26,-16.113,116.699,120.605,-39.551,4746.16,304.71347141319376
919,1685400545.27,-30.762,-198.242,-85.938,-46.387,4746.164,298.7139937552329
920,1685400545.27,-47.852,-644.531,-253.906,-47.852,4746.168,302.1679347361366
921,1685400545.28,-34.668,53.223,102.051,-35.156,4746.172,298.6953177568161
922,1685400545.28,-15.625,437.012,186.035,-33.203,4746.176,303.0328796132011
923,1685400545.28,-11.719,54.688,-6.836,-43.457,4746.18,296.5231113152292
924,1685400545.28,-32.715,-229.004,-152.832,-46.875,4746.182,300.01659527431343
925,1685400545.29,-36.133,105.469,59.57,-41.016,4746.186,298.5365692687052
926,1685400545.29,-4.883,372.559,153.809,-20.508,4746.19,306.93866541944936
927,1685400545.3,-1.465,-62.5,-19.531,-11.719,4746.194,304.07906180400846
928,1685400545.3,-25.391,-210.938,-45.41,-32.227,4746.198,305.46324887095125
929,1685400545.3,-30.273,-130.859,-84.473,-30.762,4746.201,305.41589547330784
930,1685400545.31,-14.648,-97.168,-27.832,-9.766,4746.205,297.1119797977018
931,1685400545.31,-4.395,-430.176,-120.605,-16.113,4746.209,304.4000548513236
932,1685400545.32,-18.555,-405.273,-106.445,-39.062,4746.213,301.119408082074
933,1685400545.32,-35.645,240.723,111.328,-45.41,4746.217,300.1111820912237
934,1685400545.32,-9.277,173.34,53.223,-27.832,4746.221,299.4298142623271
935,1685400545.33,7.812,133.789,75.684,-17.09,4746.225,303.9766003556217
936,1685400545.33,-4.883,42.48,32.715,-24.414,4746.227,303.37369187442306
937,1685400545.34,-18.066,-19.531,9.766,-43.945,4746.231,303.13614382060985
938,1685400545.34,-9.766,-89.355,-41.016,-25.879,4746.235,300.4215175755683
939,1685400545.34,20.996,-662.598,-221.68,2.93,4746.239,303.2763195419261
940,1685400545.35,6.836,-262.695,30.273,-12.695,4746.242,302.2306734248971
941,1685400545.35,-23.438,90.82,59.082,-29.785,4746.246,307.985265434039
942,1685400545.36,-26.367,-445.312,-261.719,-26.855,4746.25,303.50818180129806
943,1685400545.36,-8.301,-599.121,-185.547,-7.324,4746.254,303.3041579927625
944,1685400545.36,-1.953,159.668,187.012,-15.625,4746.258,301.50544700650073
945,1685400545.37,-17.09,411.133,119.141,-33.203,4746.262,303.9893494587942
946,1685400545.37,-20.02,25.879,-25.879,-22.949,4746.266,308.1692330084212
947,1685400545.37,-7.812,74.707,54.688,-10.742,4746.27,295.3437339376472
948,1685400545.39,-8.789,392.09,178.711,-17.578,4746.287,299.9905442348372
949,1685400545.4,-18.066,324.219,93.75,-31.25,4746.291,306.8025274161764
950,1685400545.4,-22.949,0.488,-46.875,-36.133,4746.295,299.3003146965346
951,1685400545.4,-5.859,95.703,48.34,-7.812,4746.299,302.85795943477683
952,1685400545.41,18.066,341.309,147.949,12.207,4746.303,303.76575321043197
953,1685400545.41,5.859,136.23,57.617,-14.16,4746.307,304.5511491540141
954,1685400545.42,-18.066,-587.891,-238.77,-23.438,4746.311,306.2094587229688
955,1685400545.42,-23.926,-566.406,-160.645,-15.625,4746.314,302.2875443823332
956,1685400545.42,-15.625,221.68,129.395,-14.16,4746.332,303.37445534137396
957,1685400545.42,-12.207,331.543,194.824,-16.602,4746.318,302.8302825484319
958,1685400545.42,-13.672,-110.84,-30.762,-14.648,4746.335,302.90410040451854
959,1685400545.43,-7.812,303.711,103.027,-26.855,4746.322,301.8468370102796
960,1685400545.43,-33.691,-447.266,-161.621,-24.414,4746.339,301.42172264593154
961,1685400545.43,-20.508,-216.309,-67.871,-41.504,4746.326,301.00697107108783
962,1685400545.43,-40.527,-115.234,9.277,-28.32,4746.343,308.02119527634426
963,1685400545.43,-29.785,33.203,51.27,-31.738,4746.33,306.83546805438823
964,1685400545.44,-27.344,359.375,177.734,-23.926,4746.347,303.80043941296515
965,1685400545.44,-13.672,-167.48,-108.398,-15.625,4746.351,312.4637148589023
966,1685400545.44,-23.926,-498.047,-207.52,-28.809,4746.355,303.4138927789492
967,1685400545.45,-43.457,7.324,58.105,-41.504,4746.359,303.4785467621691
968,1685400545.45,-33.203,97.168,80.566,-17.578,4746.363,308.94937379213644
969,1685400545.46,-6.836,-282.227,-105.469,-1.953,4746.367,305.8107787517369
970,1685400545.46,-14.648,-805.176,-273.438,-21.484,4746.371,302.81799221897
971,1685400545.46,-41.504,-211.914,15.137,-41.992,4746.375,306.3890292979094
972,1685400545.48,-34.18,273.926,89.355,-30.762,4746.377,305.08514465300055
973,1685400545.48,-15.137,110.84,100.586,-17.578,4746.381,301.31727869652457
974,1685400545.49,-16.113,229.492,155.762,-17.09,4746.385,302.9500963101734
975,1685400545.49,-23.438,335.938,108.398,-17.09,4746.389,306.73410702568344
976,1685400545.5,-23.438,165.039,21.484,-16.113,4746.393,300.8111398861002
977,1685400545.5,-2.93,-203.613,-86.914,-9.766,4746.397,308.1368324185548
978,1685400545.5,1.465,-139.648,10.742,-10.254,4746.4,304.32503238361033
979,1685400545.51,-26.855,251.953,153.809,-34.668,4746.404,305.7494996748646
980,1685400545.51,-36.133,171.387,46.387,-30.273,4746.408,300.9120482364966
981,1685400545.52,-20.508,-349.121,-105.957,-10.254,4746.412,305.05730105728054
982,1685400545.52,-8.301,-358.398,-46.875,-8.789,4746.416,300.21213452068804
983,1685400545.52,-24.414,144.531,124.023,-23.438,4746.42,303.2105409625438
984,1685400545.52,-36.133,22.949,-17.578,-29.785,4746.422,304.01678315612173
985,1685400545.53,-15.137,-701.172,-263.184,-13.184,4746.426,304.68773587166675
986,1685400545.53,1.953,-298.34,11.23,-11.23,4746.43,307.7892689800351
987,1685400545.54,-9.277,436.035,196.777,-22.461,4746.434,304.58039099568526
988,1685400545.54,-25.879,128.906,9.766,-28.809,4746.438,307.239329897195
989,1685400545.54,-16.602,-270.02,-117.676,-24.414,4746.441,299.4427768106845
990,1685400545.55,18.066,30.762,93.75,4.395,4746.445,302.10501957212085
991,1685400545.55,14.16,481.445,220.703,1.953,4746.449,298.76240975706514
992,1685400545.56,-31.25,-133.789,-96.191,-25.391,4746.453,299.6884265243231
993,1685400545.56,-41.016,-641.602,-182.129,-23.926,4746.457,305.04764012989074
994,1685400545.56,-19.043,160.156,176.27,-10.742,4746.461,306.07949105947927
995,1685400545.57,-18.066,488.281,185.059,-24.902,4746.465,304.4063202242271
996,1685400545.57,-36.133,99.609,4.883,-40.039,4746.467,301.96729594727617
997,1685400545.57,-40.527,-243.164,-140.625,-36.621,4746.471,305.8921265840834
998,1685400545.58,-32.715,82.031,71.777,-22.949,4746.475,300.27838352158693
999,1685400545.58,-18.066,407.715,166.016,-11.719,4746.479,309.31560485017917
1000,1685400545.59,-24.902,-86.426,-65.43,-21.973,4746.483,306.60877416252794
1001,1685400545.59,-41.016,-455.566,-208.984,-20.02,4746.487,303.08818364363015
1002,1685400545.59,-28.809,-127.441,-14.648,-3.906,4746.491,312.1239788822735
1003,1685400545.6,-1.465,290.039,143.555,-0.488,4746.494,302.001600680915
1004,1685400545.6,-1.953,-277.832,-94.238,-8.789,4746.498,306.38976577011374
1005,1685400545.6,-26.367,-410.645,-72.266,-16.113,4746.502,306.18687970195026
1006,1685400545.61,-30.762,273.438,127.441,-18.066,4746.506,307.1442372901343
1007,1685400545.61,-23.926,242.188,74.707,-8.789,4746.51,304.1892513296392
1008,1685400545.62,-19.531,-78.613,-31.738,-5.371,4746.512,304.3160917382258
1009,1685400545.62,-26.855,-17.09,38.574,-19.531,4746.516,307.04221578168125
1010,1685400545.62,-38.086,272.461,130.859,-18.066,4746.52,299.5730435763058
1011,1685400545.63,-16.113,72.266,-1.953,2.441,4746.524,303.46790329540295
1012,1685400545.63,3.906,-650.391,-233.398,12.695,4746.528,305.00735428065855
1013,1685400545.64,-20.508,-574.219,-115.234,-13.672,4746.531,306.36363315748457
1014,1685400545.64,-35.156,71.777,91.797,-26.367,4746.535,300.49893804379025
1015,1685400545.64,-14.648,-148.926,-86.914,-7.812,4746.539,300.4679749583498
1016,1685400545.65,-4.883,-536.621,-176.758,5.371,4746.543,297.73008024955044
1017,1685400545.65,-16.602,182.129,157.227,-13.672,4746.547,304.11167616951525
1018,1685400545.65,-32.715,409.18,129.883,-30.273,4746.551,302.91783571076786
1019,1685400545.66,-22.461,72.266,2.93,-9.277,4746.555,304.62730953767567
1020,1685400545.66,4.395,127.441,45.41,-0.488,4746.571,306.4476303521807
1021,1685400545.66,-0.977,394.043,173.34,-9.766,4746.575,306.576818860754
1022,1685400545.67,-19.531,279.297,78.613,-20.02,4746.579,307.17602401085406
1023,1685400545.67,-32.227,14.648,-32.227,-29.297,4746.583,302.55621981163256
1024,1685400545.68,-16.602,125.488,51.27,-9.766,4746.587,306.320878284182
1025,1685400545.68,-3.906,23.926,47.363,-1.465,4746.591,302.8423887697764
1026,1685400545.68,-18.555,-130.371,-20.02,-13.184,4746.595,300.3629427150864
1027,1685400545.69,-28.32,-664.551,-330.566,-3.418,4746.599,304.8215608450038
1028,1685400545.69,-17.578,-688.965,-245.605,3.418,4746.603,301.1417079237346
1029,1685400545.7,-2.93,278.809,214.355,-6.836,4746.607,306.3522638867453
1030,1685400545.7,-11.719,224.121,69.824,-18.555,4746.61,303.3008795604346
1031,1685400545.7,-22.949,-55.664,-37.598,-22.949,4746.614,303.3104829189461
1032,1685400545.71,-7.324,-68.359,40.527,-7.812,4746.602,307.34458189961157
1033,1685400545.71,0.977,176.27,146.973,-4.883,4746.606,308.3402749165552
1034,1685400545.71,-11.23,154.785,12.695,-10.742,4746.61,303.441364084515
1035,1685400545.72,-35.156,-437.5,-212.891,-15.137,4746.614,302.57826164735366
1036,1685400545.72,-38.574,-80.078,13.184,-10.742,4746.617,304.69959841079003
1037,1685400545.73,-12.207,134.766,92.285,4.395,4746.621,305.93718059922213
1038,1685400545.73,-11.719,-253.418,-114.258,0.977,4746.625,302.4900790425288
1039,1685400545.73,-29.297,-212.891,-138.672,-19.043,4746.629,306.3997107940732
1040,1685400545.74,-31.738,66.406,38.086,-15.625,4746.633,305.0533175929272
1041,1685400545.74,-22.461,97.656,66.895,-6.836,4746.637,308.7252580248776
1042,1685400545.74,-13.184,-298.828,-133.301,-9.766,4746.641,308.57884294548893
1043,1685400545.75,-23.438,-703.613,-279.785,-22.949,4746.645,305.1496529211142
1044,1685400545.75,-37.109,-27.344,32.227,-39.551,4746.661,303.1493886863578
1045,1685400545.75,-8.789,304.688,104.98,-19.043,4746.665,305.2528211868457
1046,1685400545.76,11.23,150.879,116.211,-3.418,4746.669,305.9706540958505
1047,1685400545.76,-14.16,200.195,139.16,-25.391,4746.673,304.151978384353
1048,1685400545.77,-30.762,227.539,79.102,-34.668,4746.677,308.2152024560355
1049,1685400545.77,-16.602,-0.977,6.348,-21.484,4746.681,301.8468747161071
1050,1685400545.77,1.953,-601.562,-186.523,-11.23,4746.684,307.3926614827995
1051,1685400545.78,-5.859,-494.629,-87.402,-14.648,4746.688,306.3339397146768
1052,1685400545.78,-32.227,279.785,152.344,-34.18,4746.692,307.584526625855
1053,1685400545.78,-30.273,169.922,36.133,-19.043,4746.696,300.64931288395087
1054,1685400545.79,-1.953,39.551,40.527,-0.488,4746.7,302.1359332666975
1055,1685400545.79,11.23,99.121,77.637,-11.719,4746.704,304.58620884071087
1056,1685400545.8,-12.695,-79.59,-7.812,-20.996,4746.706,297.44512786389384
1057,1685400545.8,-22.949,-237.793,-166.016,-17.09,4746.709,296.3881382721609
1058,1685400545.8,-1.465,-664.062,-236.816,0.977,4746.713,306.17626873649857
1059,1685400545.81,1.953,-260.742,44.434,-10.742,4746.717,298.0191192803143
1060,1685400545.81,-19.043,440.43,210.449,-39.551,4746.721,304.5693397845317
1061,1685400545.82,-34.668,-162.598,-126.465,-28.809,4746.725,298.99736823975127
1062,1685400545.82,-20.508,-470.703,-184.082,-11.23,4746.729,309.39613352090083
1063,1685400545.82,-9.766,256.836,183.594,-14.648,4746.733,301.30291235438136
1064,1685400545.83,-15.625,516.602,202.637,-25.391,4746.737,302.9152511921098
1065,1685400545.83,-18.066,-146.973,-91.797,-23.438,4746.741,305.8947328314544
1066,1685400545.84,-5.859,-317.383,-114.258,-14.16,4746.745,305.6850894129777
1067,1685400545.84,8.789,397.949,197.266,-16.113,4746.749,309.06535606909944
1068,1685400545.86,5.859,437.012,145.508,-18.066,4746.753,304.40892171211016
1069,1685400545.86,-7.812,-75.684,-68.359,-20.02,4746.757,307.66802242292715
1070,1685400545.86,-14.16,-169.922,-33.203,-20.996,4746.761,303.6352358772902
1071,1685400545.87,-15.137,262.207,174.805,-31.25,4746.765,306.1674496498625
1072,1685400545.87,-10.742,428.711,170.898,-44.434,4746.769,304.4543811576263
1073,1685400545.88,-19.043,-406.25,-228.027,-35.645,4746.773,305.5972766538801
1074,1685400545.88,-28.809,-753.418,-253.418,-18.066,4746.777,307.42346847134905
1075,1685400545.88,-11.719,199.707,195.801,-14.16,4746.781,311.26276379259343
1076,1685400545.89,1.465,312.012,97.656,-16.602,4746.785,305.92948666843137
1077,1685400545.89,-13.672,-27.832,17.09,-28.809,4746.789,306.88989434462445
1078,1685400545.9,-28.809,47.363,58.594,-30.762,4746.793,301.62956168467235
1079,1685400545.9,-23.438,263.672,95.215,-24.414,4746.796,303.36765701208606
1080,1685400545.9,-2.93,59.082,45.898,-11.23,4746.797,310.2222584629937
1081,1685400545.9,-7.324,-435.059,-119.629,-20.508,4746.801,307.77452652810894
1082,1685400545.91,-31.738,-144.043,5.371,-41.016,4746.805,305.1935019156315
1083,1685400545.91,-23.926,290.039,155.273,-29.297,4746.809,308.2244657999672
1084,1685400545.92,0.0,43.457,5.371,-24.414,4746.813,310.4606123449362
1085,1685400545.92,-1.953,-277.832,-90.82,-35.156,4746.817,309.4150853312627
1086,1685400545.92,-24.902,-202.637,9.766,-41.504,4746.821,307.8024924650254
1087,1685400545.93,-24.414,151.367,131.348,-37.598,4746.824,306.53973612944935
1088,1685400545.93,0.977,-160.645,-41.016,-19.043,4746.828,308.5958085900686
1089,1685400545.94,4.395,-721.191,-243.652,-16.113,4746.832,306.0968686210488
1090,1685400545.94,-16.602,-25.391,70.312,-42.969,4746.836,305.22027544480676
1091,1685400545.94,-26.855,303.223,126.465,-42.48,4746.84,301.2461728520875
1092,1685400545.94,-10.254,66.406,36.133,-25.391,4746.842,303.0205605963029
1093,1685400545.95,0.977,137.207,80.566,-22.461,4746.846,306.3282871305967
1094,1685400545.95,-4.395,312.012,132.324,-25.391,4746.85,302.15946691892276
1095,1685400545.96,-8.789,220.703,62.012,-23.438,4746.854,305.0395316050772
1096,1685400545.96,-0.488,12.207,30.762,-16.113,4746.857,304.45134387036364
1097,1685400545.96,14.16,-101.074,31.25,-5.859,4746.861,305.16537239332376
1098,1685400545.97,1.465,-57.617,40.527,-16.113,4746.865,307.0635693483261
1099,1685400545.97,-22.461,-23.926,23.438,-38.574,4746.869,300.5942764054973
1100,1685400545.98,-28.32,-660.156,-296.387,-19.043,4746.873,304.55290705369265
1101,1685400545.98,-18.555,-675.293,-200.684,-3.418,4746.877,303.6474482856045
1102,1685400545.98,-18.066,274.414,204.59,-26.367,4746.881,311.4744014581959
1103,1685400545.99,-25.391,176.27,44.434,-31.25,4746.885,305.20871989949836
1104,1685400545.99,-20.02,-269.043,-155.273,-19.531,4746.887,308.1193191458901
1105,1685400545.99,1.953,-185.547,-20.02,-7.324,4746.891,307.1849622406924
1106,1685400546.0,6.348,290.039,195.801,-16.113,4746.895,306.96324206144027
1107,1685400546.0,-25.391,81.055,-4.395,-35.645,4746.899,306.24504220188624
1108,1685400546.01,-40.039,-505.371,-165.527,-35.645,4746.903,305.890805731095
1109,1685400546.01,-23.926,-250.488,25.391,-28.809,4746.907,308.7251930621006
1110,1685400546.01,-7.324,178.223,139.648,-19.043,4746.911,302.423085214513
1111,1685400546.02,-17.578,-93.262,-76.66,-27.344,4746.914,307.7156702547715
1112,1685400546.02,-34.18,-579.102,-220.703,-27.832,4746.918,308.6153929158253
1113,1685400546.02,-26.367,-128.906,68.359,-19.043,4746.922,308.6018277036708
1114,1685400546.03,-4.395,229.004,143.066,-10.254,4746.926,300.72984169846404
1115,1685400546.03,-0.977,-112.305,-3.418,-0.488,4746.93,312.10737136781586
1116,1685400546.04,-18.066,-228.027,-28.809,-11.23,4746.932,304.14344253725596
1117,1685400546.04,-19.043,290.039,158.691,-20.996,4746.936,308.1327837895783
1118,1685400546.04,6.836,311.035,129.395,-9.277,4746.94,309.97516712530984
1119,1685400546.05,2.441,187.012,152.832,-19.043,4746.944,307.81876305998276
1120,1685400546.05,-22.461,155.273,85.449,-30.762,4746.948,307.3227263995125
1121,1685400546.06,-23.926,-31.738,3.906,-17.578,4746.952,304.9878290076338
1122,1685400546.06,-11.23,-57.617,65.918,-9.277,4746.955,305.8078838878415
1123,1685400546.06,2.441,-454.59,-114.746,-8.301,4746.959,310.3789526069715
1124,1685400546.07,-12.695,-420.41,-66.406,-22.461,4746.963,308.7709128448357
1125,1685400546.07,-30.762,291.016,156.738,-39.062,4746.967,306.8521893061125
1126,1685400546.07,-15.137,184.57,63.965,-27.344,4746.971,307.15577308505743
1127,1685400546.08,-8.789,47.852,56.152,-15.625,4746.975,311.4580018048073
1128,1685400546.08,-22.949,4.883,62.988,-24.902,4746.98,310.88477565167386
1129,1685400546.08,-36.133,-126.953,31.25,-33.203,4746.984,307.43973846640785
1130,1685400546.09,-20.996,-212.891,-22.461,-18.066,4746.987,306.341141330807
1131,1685400546.09,0.977,-628.418,-127.441,0.488,4746.991,312.6787666554726
1132,1685400546.1,-0.488,-233.398,78.125,-14.16,4746.995,315.15732747484185
1133,1685400546.1,-14.648,152.832,117.188,-23.438,4746.999,307.4481920376001
1134,1685400546.1,-8.301,-375.977,-164.551,-2.93,4747.003,304.8559310145605
1135,1685400546.11,8.789,-538.086,-95.703,-2.441,4747.007,303.84015675424655
1136,1685400546.11,3.906,184.082,214.355,-11.23,4747.011,304.9659780208995
1137,1685400546.12,-14.16,407.715,139.648,-8.789,4747.015,308.96730681096824
1138,1685400546.12,-21.973,12.695,10.254,-9.277,4747.019,301.1132046344964
1139,1685400546.12,-3.906,132.324,85.938,-1.465,4747.023,302.5780323329466
1140,1685400546.13,6.836,478.027,222.168,-5.859,4747.036,306.5015721447759
1141,1685400546.13,2.441,410.156,124.023,-11.23,4747.04,306.1793006317354
1142,1685400546.13,-14.648,-109.375,-69.336,-14.16,4747.044,307.757588713027
1143,1685400546.14,-11.719,-160.156,8.301,-14.648,4747.048,310.3881692144187
1144,1685400546.14,7.812,288.086,156.25,-9.766,4747.052,305.5529969573116
1145,1685400546.15,-5.859,199.219,104.492,-25.879,4747.056,307.18393020409206
1146,1685400546.15,-24.902,-569.824,-224.609,-23.438,4747.06,313.57643416815705
1147,1685400546.15,-13.184,-712.891,-227.051,-5.859,4747.064,305.46499585725974
1148,1685400546.16,2.93,264.648,221.68,-1.465,4747.068,313.3176312118975
1149,1685400546.16,4.883,352.051,127.441,-1.953,4747.072,306.02120440444946
1150,1685400546.16,-11.719,20.508,41.504,-11.719,4747.076,311.3436354925067
1151,1685400546.17,-18.066,152.832,117.676,-1.465,4747.079,302.1374113576557
1152,1685400546.17,1.953,206.055,97.656,19.043,4747.081,308.5922641238462
1153,1685400546.17,4.395,-52.246,-5.371,10.742,4747.085,310.7555942737542
1154,1685400546.18,-5.859,-399.902,-124.023,-6.348,4747.089,307.6888021741838
1155,1685400546.18,-22.949,-40.039,60.547,-20.996,4747.093,307.2864113892131
1156,1685400546.19,-12.207,373.535,178.223,-9.766,4747.097,308.3514474545158
1157,1685400546.19,10.254,-68.848,-43.457,4.883,4747.101,308.5482418843543
1158,1685400546.19,-2.441,-486.328,-159.668,-5.371,4747.105,307.75538987869123
1159,1685400546.2,-19.043,-249.023,21.484,-20.508,4747.109,308.5164620992527
1160,1685400546.2,-9.277,266.602,187.988,-7.812,4747.112,305.860874417199
1161,1685400546.2,8.789,-79.102,-33.691,6.836,4747.116,306.77260652429555
1162,1685400546.21,0.977,-547.852,-141.602,-6.836,4747.12,311.3297430740994
1163,1685400546.21,-17.09,156.25,182.129,-24.902,4747.124,305.51488334825575
1164,1685400546.23,-8.789,323.73,134.766,-13.184,4747.131,309.484177117139
1165,1685400546.23,13.184,124.023,105.469,7.324,4747.135,306.92344387553254
1166,1685400546.24,12.207,180.664,149.414,-1.953,4747.138,312.382708210347
1167,1685400546.24,-19.531,317.383,140.625,-21.973,4747.142,307.8071754621083
1168,1685400546.25,-36.133,255.859,101.074,-23.438,4747.146,311.3322330552238
1169,1685400546.25,-17.578,-104.004,-6.348,-5.859,4747.15,306.5394882613717
1170,1685400546.25,-1.465,-65.43,53.223,3.906,4747.154,309.86923413865327
1171,1685400546.26,-13.184,147.949,68.848,-22.461,4747.158,304.1905119678418
1172,1685400546.26,-20.02,-34.668,-10.742,-21.973,4747.162,307.6462525127506
1173,1685400546.26,-21.973,-601.562,-140.625,-14.16,4747.166,306.8928427707765
1174,1685400546.27,-40.527,-399.414,-6.836,-44.434,4747.17,304.13508631385133
1175,1685400546.27,-48.34,372.559,227.539,-60.547,4747.174,305.48376287396536
1176,1685400546.28,-62.012,19.043,-20.508,-71.777,4747.172,304.7730940488351
1177,1685400546.28,-69.336,-726.562,-229.98,-76.172,4747.176,307.026054276424
1178,1685400546.28,-68.848,-279.785,55.176,-83.008,4747.18,309.7590354444765
1179,1685400546.29,-83.008,479.004,249.512,-102.539,4747.184,307.17741853296315
1180,1685400546.29,-92.285,76.172,26.367,-98.633,4747.188,308.17552971320765
1181,1685400546.3,-93.262,-364.258,-95.215,-85.449,4747.192,304.52546061739474
1182,1685400546.3,-87.891,-43.945,90.82,-86.914,4747.195,306.98898311050164
1183,1685400546.3,-73.242,468.75,251.953,-92.773,4747.199,311.2317843110645
1184,1685400546.31,-86.426,-88.867,-63.965,-92.285,4747.203,306.0931006391967
1185,1685400546.31,-105.469,-665.527,-211.426,-95.703,4747.207,310.5853367574513
1186,1685400546.31,-76.172,-84.473,120.605,-88.867,4747.211,302.44959207398324
1187,1685400546.32,-53.711,270.996,167.48,-72.266,4747.215,304.0694777281769
1188,1685400546.34,-76.66,-118.164,4.395,-78.125,4747.237,303.6287525386321
1189,1685400546.34,-84.473,-242.188,12.695,-75.684,4747.241,298.9795394423943
1190,1685400546.34,-56.641,293.457,188.477,-57.129,4747.245,305.34152787273507
1191,1685400546.35,-38.574,335.938,146.484,-53.711,4747.249,309.7225379244872
1192,1685400546.35,-36.133,163.086,145.02,-50.293,4747.253,301.40307432644056
1193,1685400546.36,-43.945,-128.906,45.41,-41.504,4747.257,301.9010320121942
1194,1685400546.36,-35.156,-108.887,78.125,-26.367,4747.261,306.46488975476905
1195,1685400546.36,-7.812,231.445,171.875,-10.742,4747.265,302.4606368267717
1196,1685400546.37,24.902,-83.984,73.242,3.906,4747.265,305.45531506524543
1197,1685400546.37,-1.465,-372.07,-102.539,-1.465,4747.269,305.64256085160844
1198,1685400546.37,2.441,-202.148,42.969,-9.277,4747.269,307.229526110588
1199,1685400546.37,-7.324,-463.867,-31.738,-4.395,4747.272,301.26978615344893
1200,1685400546.37,-2.93,26.855,97.656,0.488,4747.273,301.0622411232092
1201,1685400546.38,-7.812,266.602,196.777,-6.836,4747.276,306.6383897659645
1202,1685400546.38,11.719,50.781,65.43,23.926,4747.277,305.22990365306435
1203,1685400546.38,12.695,220.703,110.352,2.441,4747.28,305.24527695662044
1204,1685400546.38,10.254,-281.738,-41.016,22.461,4747.281,307.77788657129156
1205,1685400546.39,1.465,-196.289,34.18,3.906,4747.285,302.11285512014763
1206,1685400546.39,-5.371,22.461,107.91,-2.441,4747.289,308.0157467965137
1207,1685400546.39,-1.953,-128.418,-5.371,8.789,4747.293,306.81435590235833
1208,1685400546.4,20.02,-127.93,-4.883,16.602,4747.296,302.97242065267585
1209,1685400546.4,17.09,341.797,201.172,15.137,4747.3,311.0403002744221
1210,1685400546.4,-3.418,392.09,166.992,13.184,4747.304,306.0571245545189
1211,1685400546.41,10.254,-201.66,-101.562,27.832,4747.308,302.07089145398805
1212,1685400546.41,27.344,-958.984,-303.223,40.039,4747.307,305.3346733975096
1213,1685400546.41,17.09,-215.332,87.402,15.137,4747.311,308.1941770590225
1214,1685400546.42,14.16,373.047,153.32,11.719,4747.315,305.2267760945581
1215,1685400546.42,11.719,-80.078,-17.578,26.367,4747.319,304.59921693631134
1216,1685400546.43,14.648,-41.504,97.656,19.531,4747.323,307.85641703667227
1217,1685400546.43,28.809,128.906,134.277,16.602,4747.327,313.246657005439
1218,1685400546.43,18.555,79.59,98.145,14.648,4747.33,306.7507499346157
1219,1685400546.44,4.883,-540.527,-210.938,21.484,4747.334,308.32155140374886
1220,1685400546.44,15.137,-656.25,-172.363,31.738,4747.338,308.3503131481554
1221,1685400546.44,27.344,373.535,266.113,22.949,4747.342,301.7930902053278
1222,1685400546.45,10.254,354.004,116.211,-1.953,4747.346,308.79875651421906
1223,1685400546.45,-7.812,57.617,40.527,-18.555,4747.35,306.49648261333607
1224,1685400546.46,-0.488,-26.367,75.195,-1.953,4747.352,304.2218333888752
1225,1685400546.46,24.414,168.457,168.945,19.043,4747.356,307.1249581840447
1226,1685400546.46,26.855,230.957,98.633,13.184,4747.36,302.79195596418344
1227,1685400546.47,4.883,-342.285,-58.105,8.789,4747.364,309.1471739642337
1228,1685400546.47,2.441,-38.574,133.789,8.301,4747.368,307.6192043447271
1229,1685400546.48,21.484,177.246,166.504,21.973,4747.372,309.8771683189133
1230,1685400546.48,19.531,-239.746,-57.617,22.949,4747.376,311.14090734986183
1231,1685400546.48,-9.277,-788.086,-249.512,-8.301,4747.379,306.16832249640083
1232,1685400546.49,-23.438,-233.887,94.238,-17.09,4747.383,307.1668187751131
1233,1685400546.49,0.0,464.355,230.957,8.789,4747.387,307.2653899878206
1234,1685400546.49,12.207,150.391,131.348,14.16,4747.391,309.8654090977903
1235,1685400546.5,-6.348,93.262,144.531,-9.277,4747.395,306.8991891150823
1236,1685400546.5,-20.996,333.984,185.059,-10.254,4747.397,305.5114663274026
1237,1685400546.5,-6.836,335.938,180.176,8.301,4747.401,308.66070538821606
1238,1685400546.51,17.09,173.828,178.711,11.23,4747.405,311.2571078358195
1239,1685400546.51,0.488,165.039,163.574,-12.695,4747.409,306.2150413496354
1240,1685400546.52,-17.09,237.305,107.422,-18.555,4747.413,301.5315839057916
1241,1685400546.52,4.395,66.406,95.703,5.371,4747.417,307.7249493286403
1242,1685400546.52,23.438,-548.34,-85.449,19.043,4747.421,304.9454362039651
1243,1685400546.53,7.324,-431.152,-24.414,3.418,4747.425,306.9644268714783
1244,1685400546.53,-20.02,138.184,112.305,-14.648,4747.429,309.52319762111676
1245,1685400546.54,-16.113,-121.582,-0.488,1.953,4747.432,305.00295969869603
1246,1685400546.54,2.441,-198.242,106.934,15.625,4747.436,313.76756249886984
1247,1685400546.54,4.395,205.566,229.004,11.23,4747.44,311.31637266690694
1248,1685400546.54,-3.906,166.504,99.609,5.859,4747.456,306.45406702847725
1249,1685400546.55,-8.301,-303.223,-90.332,3.906,4747.46,311.29274009774684
1250,1685400546.55,8.789,-402.344,6.836,23.438,4747.464,308.6174749835226
1251,1685400546.56,19.043,113.77,206.543,23.926,4747.468,313.0407553655652
1252,1685400546.56,-4.883,453.613,176.758,3.418,4747.472,307.1010775334719
1253,1685400546.56,-13.184,-227.539,-115.723,5.371,4747.476,306.28716784583827
1254,1685400546.57,4.883,-685.547,-136.23,12.207,4747.48,308.86384416335454
1255,1685400546.57,18.066,100.098,212.891,9.277,4747.484,309.54324963593393
1256,1685400546.58,15.625,463.867,209.961,11.719,4747.488,304.91744763736443
1257,1685400546.58,-7.324,16.602,70.801,3.418,4747.492,303.5525878422625
1258,1685400546.58,-7.812,27.344,90.332,3.906,4747.495,311.5280463409431
1259,1685400546.59,18.066,198.73,155.762,20.996,4747.499,303.3273648374133
1260,1685400546.59,14.648,187.012,133.789,8.301,4747.501,309.7360543837102
1261,1685400546.6,-12.695,-211.426,-2.93,-3.906,4747.505,308.77003226729494
1262,1685400546.6,-17.578,-294.434,50.293,0.488,4747.509,306.5160235211667
1263,1685400546.6,10.254,324.219,226.562,9.766,4747.513,307.9975976271448
1264,1685400546.61,19.531,387.207,167.969,7.324,4747.517,309.32327265169266
1265,1685400546.61,3.906,-102.539,13.184,0.0,4747.521,308.55582370189893
1266,1685400546.62,-8.301,-313.965,-11.719,-8.789,4747.525,307.4821360672616
1267,1685400546.62,-3.418,137.695,176.758,-4.395,4747.529,311.4729371073217
1268,1685400546.62,11.23,299.805,170.41,3.418,4747.533,308.64351949385565
1269,1685400546.63,3.418,-297.363,-41.504,2.93,4747.537,309.2810209418832
1270,1685400546.63,-10.742,-284.18,32.227,-3.418,4747.54,311.9799572821878
1271,1685400546.63,-7.812,250.0,201.66,-6.348,4747.544,313.28357535665987
1272,1685400546.65,2.93,60.547,87.891,-0.488,4747.55,315.5429162715963
1273,1685400546.66,-1.953,-501.465,-126.465,-7.324,4747.554,309.1446372619087
1274,1685400546.66,-19.531,-431.152,-26.855,-14.648,4747.558,309.57940980233803
1275,1685400546.66,1.953,158.691,202.637,12.207,4747.562,306.7759404962954
1276,1685400546.67,19.531,96.191,55.176,19.043,4747.566,305.0758957201168
1277,1685400546.67,-6.348,-523.926,-126.465,-14.648,4747.57,314.2035330185001
1278,1685400546.68,-36.621,-299.316,59.082,-42.969,4747.574,307.0818098957473
1279,1685400546.68,-39.062,282.715,215.332,-47.852,4747.578,312.4453323061969
1280,1685400546.68,-18.555,-100.098,-20.02,-23.438,4747.582,310.06866814135856
1281,1685400546.69,-21.973,-467.773,-108.398,-25.879,4747.586,306.8391530362546
1282,1685400546.69,-37.598,133.301,144.043,-47.852,4747.589,306.57450849276114
1283,1685400546.69,-37.109,222.656,113.281,-47.363,4747.593,310.8255267625364
1284,1685400546.7,-24.414,12.207,147.461,-38.574,4747.593,312.7611665548995
1285,1685400546.7,-13.672,140.137,165.039,-30.273,4747.597,309.50646517195565
1286,1685400546.7,-20.996,345.703,170.41,-29.785,4747.601,314.1364707608215
1287,1685400546.71,-21.484,165.039,96.191,-22.461,4747.605,305.60707285450377
1288,1685400546.71,-9.277,-181.152,25.391,-14.648,4747.609,312.82193302960843
1289,1685400546.72,-8.301,-246.094,38.086,-26.367,4747.613,306.349825272837
1290,1685400546.72,-11.23,-149.902,69.336,-30.762,4747.617,310.36823784554974
1291,1685400546.72,-9.277,59.57,117.188,-20.508,4747.621,309.6494915696851
1292,1685400546.73,0.488,-538.574,-237.305,-1.465,4747.625,309.2853303984168
1293,1685400546.73,4.883,-709.961,-208.984,4.883,4747.629,308.7502488963717
1294,1685400546.74,1.953,256.836,232.422,-11.23,4747.633,310.0089368909563
1295,1685400546.74,-14.16,208.008,90.332,-23.438,4747.636,306.928242424499
