,timestamps,TP9,AF7,AF8,TP10,Secondary Timestamp,emg_signal
0,1686275209.482,9.277,172.852,-38.574,-18.066,1915.379,349
1,1686275209.486,-58.105,-635.254,-300.293,-57.129,1915.383,349
2,1686275209.49,-48.828,-404.297,-131.348,-17.578,1915.387,349
3,1686275209.494,21.484,261.23,100.586,27.832,1915.391,350
4,1686275209.498,22.461,199.707,21.484,-4.395,1915.395,350
5,1686275209.502,-44.922,-405.273,-188.477,-48.828,1915.398,350
6,1686275209.506,-51.27,-355.469,-119.141,-32.227,1915.402,349
7,1686275209.509,-10.742,246.582,99.121,-2.93,1915.406,349
8,1686275209.513,2.93,97.168,-34.18,-5.859,1915.41,349
9,1686275209.517,-49.805,-728.516,-338.867,-50.293,1915.414,349
10,1686275209.521,-77.148,-294.434,-110.352,-70.312,1915.418,349
11,1686275209.525,-13.184,135.254,27.832,-19.531,1915.422,349
12,1686275209.527,11.23,-178.223,-80.078,-5.859,1915.424,349
13,1686275209.531,-43.457,-264.16,-98.633,-68.359,1915.428,349
14,1686275209.535,-93.262,56.641,1.465,-99.609,1915.432,349
15,1686275209.539,-58.105,200.684,18.555,-40.527,1915.435,349
16,1686275209.543,0.488,-61.035,-70.312,4.883,1915.439,349
17,1686275209.547,-19.531,-350.586,-201.172,-36.133,1915.443,349
18,1686275209.551,-71.777,-208.496,-94.238,-94.238,1915.447,349
19,1686275209.554,-63.965,168.457,68.848,-66.895,1915.451,349
20,1686275209.558,-5.371,-348.633,-201.66,2.441,1915.455,349
21,1686275209.562,7.812,-562.012,-187.988,-18.555,1915.459,349
22,1686275209.566,-47.363,137.207,57.617,-79.59,1915.463,349
23,1686275209.57,-71.777,201.172,-12.695,-62.988,1915.467,349
24,1686275209.573,-12.695,-145.996,-115.234,5.859,1915.472,349
25,1686275209.577,23.926,-260.254,-107.91,20.02,1915.476,349
26,1686275209.581,-31.25,-224.121,-126.465,-49.316,1915.48,349
27,1686275209.585,-73.242,-252.441,-215.332,-86.914,1915.484,349
28,1686275209.589,-36.621,-747.559,-392.578,-20.996,1915.488,349
29,1686275209.593,6.348,-788.086,-261.23,12.207,1915.492,349
30,1686275209.597,-19.043,-90.82,1.953,-50.293,1915.495,349
31,1686275209.6,-82.031,40.527,-61.523,-88.867,1915.499,349
32,1686275209.604,-63.965,-687.5,-309.57,-27.344,1915.503,349
33,1686275209.608,5.859,-169.434,-18.555,7.324,1915.507,349
34,1686275209.612,-1.953,426.758,109.375,-23.926,1915.511,349
35,1686275209.616,-55.664,49.805,-83.496,-62.012,1915.515,349
36,1686275209.618,-54.199,33.203,10.254,-42.48,1915.532,349
37,1686275209.622,11.23,310.547,87.891,18.555,1915.536,349
38,1686275209.626,24.414,361.328,42.969,1.953,1915.54,349
39,1686275209.63,-39.062,41.992,-95.215,-68.359,1915.544,349
40,1686275209.634,-73.242,-167.969,-90.82,-76.66,1915.548,349
41,1686275209.638,-21.484,-216.797,-87.891,-9.766,1915.552,349
42,1686275209.642,22.949,-139.16,-53.711,0.0,1915.556,349
43,1686275209.645,-27.832,-426.27,-220.215,-56.152,1915.56,348
44,1686275209.649,-87.402,-884.766,-382.324,-62.5,1915.564,348
45,1686275209.653,-38.574,-83.008,16.602,-27.832,1915.568,348
46,1686275209.657,33.203,343.75,98.633,4.395,1915.571,348
47,1686275209.661,7.324,-39.062,-120.605,-21.973,1915.575,348
48,1686275209.663,-59.082,14.648,-65.43,-72.754,1915.559,348
49,1686275209.667,-45.41,-52.734,-79.59,-43.457,1915.563,348
50,1686275209.671,17.578,-167.48,-101.074,12.695,1915.567,348
51,1686275209.675,3.906,-576.66,-270.508,-6.836,1915.57,348
52,1686275209.679,-53.223,-320.312,-108.887,-69.336,1915.574,348
53,1686275209.683,-57.617,0.488,9.277,-46.387,1915.578,348
54,1686275209.687,-2.441,-227.539,-111.328,21.484,1915.582,347
55,1686275209.69,9.766,-836.426,-377.93,25.879,1915.586,347
56,1686275209.694,-38.086,-843.75,-312.5,-36.133,1915.59,347
57,1686275209.698,-49.805,115.723,53.223,-55.664,1915.594,347
58,1686275209.702,-7.324,232.91,18.555,0.488,1915.598,347
59,1686275209.706,18.555,94.238,15.625,1.953,1915.602,347
60,1686275209.707,-10.254,303.223,69.824,-54.688,1915.604,347
61,1686275209.711,-49.805,278.809,12.695,-72.266,1915.608,347
62,1686275209.715,-28.32,25.879,-60.547,-13.184,1915.612,347
63,1686275209.719,29.785,113.77,34.18,31.738,1915.616,347
64,1686275209.723,16.602,217.285,23.926,-6.836,1915.62,347
65,1686275209.727,-45.898,-73.242,-161.133,-54.688,1915.624,347
66,1686275209.731,-50.781,-477.539,-272.949,-19.043,1915.627,347
67,1686275209.734,0.977,-562.5,-150.391,27.832,1915.631,347
68,1686275209.738,15.137,158.203,66.895,-17.09,1915.635,347
69,1686275209.742,-33.691,176.27,-27.344,-67.383,1915.639,347
70,1686275209.746,-62.5,-490.723,-283.691,-40.527,1915.643,347
71,1686275209.75,-14.648,-104.98,-42.48,12.695,1915.647,347
72,1686275209.752,19.043,396.973,137.207,12.695,1915.663,347
73,1686275209.756,-25.879,-65.918,-110.352,-43.945,1915.666,346
74,1686275209.76,-62.988,-676.27,-323.242,-55.664,1915.67,346
75,1686275209.764,-17.09,-192.383,-55.176,-11.23,1915.674,346
76,1686275209.768,36.621,442.871,151.855,5.859,1915.678,346
77,1686275209.772,0.488,-44.434,-120.117,-23.926,1915.682,346
78,1686275209.776,-55.664,-814.453,-375.488,-40.527,1915.686,346
79,1686275209.779,-25.391,-279.785,-48.828,-7.812,1915.69,346
80,1686275209.783,41.504,433.594,139.648,31.738,1915.694,346
81,1686275209.787,18.555,194.824,-58.594,-8.789,1915.698,346
82,1686275209.791,-48.828,37.598,-78.613,-66.406,1915.702,346
83,1686275209.795,-49.805,152.832,-8.301,-38.086,1915.706,346
84,1686275209.801,13.184,70.312,-21.973,9.766,1915.699,346
85,1686275209.805,22.461,-154.785,-82.031,-24.414,1915.703,346
86,1686275209.809,-44.434,-280.762,-118.652,-84.961,1915.707,346
87,1686275209.813,-62.012,61.523,2.93,-70.801,1915.711,346
88,1686275209.817,5.371,252.441,46.875,-10.742,1915.714,346
89,1686275209.821,34.18,-164.551,-133.301,-1.953,1915.718,346
90,1686275209.825,-17.578,-394.043,-214.844,-51.27,1915.722,346
91,1686275209.828,-45.41,39.062,-7.812,-69.336,1915.726,346
92,1686275209.832,-4.883,262.695,51.27,-13.184,1915.73,346
93,1686275209.836,35.156,-309.082,-191.895,29.785,1915.734,346
94,1686275209.84,13.672,-390.137,-121.094,-8.301,1915.738,346
95,1686275209.844,-35.156,171.387,64.941,-53.223,1915.742,346
96,1686275209.857,-26.855,69.824,-23.926,-14.16,1915.753,345
97,1686275209.861,28.32,-374.512,-178.223,41.992,1915.757,345
98,1686275209.865,15.137,-225.098,-134.277,1.953,1915.761,346
99,1686275209.869,-38.086,-107.422,-136.23,-48.828,1915.764,346
100,1686275209.873,-34.18,-24.902,-51.27,-27.832,1915.768,346
101,1686275209.877,16.113,-704.59,-340.82,38.086,1915.772,345
102,1686275209.881,31.738,-1000.0,-448.73,30.762,1915.776,345
103,1686275209.884,-10.254,-186.035,-26.855,-43.457,1915.78,345
104,1686275209.888,-35.645,119.629,3.906,-49.316,1915.784,345
105,1686275209.892,28.809,15.625,-45.898,23.438,1915.788,345
106,1686275209.896,79.59,278.32,77.637,48.828,1915.792,345
107,1686275209.9,7.324,285.645,31.25,-15.625,1915.796,345
108,1686275209.902,-67.383,-8.301,-96.68,-46.387,1915.798,345
109,1686275209.906,-31.25,-6.836,-20.02,4.883,1915.802,345
110,1686275209.91,30.762,63.965,-19.531,38.086,1915.806,345
111,1686275209.914,13.184,101.074,-1.953,-3.906,1915.809,345
112,1686275209.918,-42.48,-56.641,-95.703,-41.504,1915.813,345
113,1686275209.922,-34.18,-270.508,-189.453,0.0,1915.817,345
114,1686275209.926,29.297,-218.262,-107.91,64.941,1915.821,345
115,1686275209.929,43.457,-120.117,-60.059,50.293,1915.825,345
116,1686275209.933,-8.789,-453.125,-271.484,8.301,1915.829,345
117,1686275209.937,-29.785,-859.375,-376.465,43.457,1915.833,345
118,1686275209.941,28.32,-44.434,5.371,91.309,1915.837,345
119,1686275209.945,65.43,338.867,89.355,87.402,1915.841,345
120,1686275209.947,21.973,-174.805,-162.109,42.969,1915.843,345
121,1686275209.951,-3.906,-308.105,-193.848,41.016,1915.847,345
122,1686275209.955,56.152,134.277,28.809,103.027,1915.851,345
123,1686275209.959,102.051,250.977,41.992,133.301,1915.855,346
124,1686275209.963,57.617,-539.062,-306.152,82.52,1915.858,346
125,1686275209.967,9.766,-665.039,-299.316,40.039,1915.862,346
126,1686275209.971,48.828,-38.574,-33.691,79.102,1915.866,346
127,1686275209.974,93.262,103.516,-20.02,114.258,1915.87,345
128,1686275209.978,56.641,-750.488,-333.008,95.703,1915.874,345
129,1686275209.982,3.906,-478.027,-176.27,42.48,1915.878,345
130,1686275209.986,13.672,323.73,82.031,51.758,1915.882,345
131,1686275209.99,64.453,177.246,-15.625,105.957,1915.886,345
132,1686275209.994,67.383,61.523,-4.395,78.613,1915.897,345
133,1686275209.998,17.09,235.84,51.27,20.02,1915.901,345
134,1686275210.002,0.977,282.715,45.41,34.668,1915.905,345
135,1686275210.006,51.27,117.188,-14.648,92.773,1915.909,345
136,1686275210.01,87.891,78.613,12.207,99.609,1915.913,345
137,1686275210.014,48.34,-133.301,-92.773,56.152,1915.916,345
138,1686275210.018,-2.441,-180.176,-169.922,41.504,1915.92,346
139,1686275210.021,28.809,-383.301,-230.469,96.68,1915.924,346
140,1686275210.025,80.078,-529.785,-153.809,116.699,1915.928,346
141,1686275210.029,58.594,175.293,85.449,51.27,1915.932,345
142,1686275210.033,10.742,120.605,-34.18,20.996,1915.936,345
143,1686275210.037,22.461,-457.52,-261.719,67.871,1915.94,345
144,1686275210.037,84.473,-224.609,-80.078,105.957,1915.933,345
145,1686275210.041,84.473,21.973,2.93,66.895,1915.937,345
146,1686275210.045,24.902,-71.777,-77.637,8.301,1915.941,345
147,1686275210.049,8.789,-351.074,-138.184,34.668,1915.945,345
148,1686275210.053,72.754,7.812,-4.883,91.309,1915.949,345
149,1686275210.057,88.379,52.246,-24.902,74.219,1915.953,344
150,1686275210.061,22.461,-252.441,-144.043,17.09,1915.957,344
151,1686275210.064,-1.465,-838.379,-387.207,35.645,1915.961,344
152,1686275210.068,58.105,-681.152,-201.66,102.539,1915.964,344
153,1686275210.072,105.957,226.074,103.027,97.656,1915.968,345
154,1686275210.076,59.57,151.855,-41.504,32.715,1915.972,345
155,1686275210.08,10.742,-3.906,-68.359,11.23,1915.976,345
156,1686275210.083,54.199,215.82,20.996,64.941,1915.979,345
157,1686275210.087,104.98,133.301,1.465,96.68,1915.983,344
158,1686275210.091,78.125,-189.453,-105.469,54.199,1915.987,344
159,1686275210.095,20.508,-204.59,-85.449,6.836,1915.991,344
160,1686275210.099,36.133,126.953,34.668,42.48,1915.995,344
161,1686275210.103,91.797,35.156,-24.902,104.004,1915.999,344
162,1686275210.107,80.566,-424.316,-197.754,88.867,1916.003,344
163,1686275210.11,19.043,-598.633,-191.895,32.715,1916.007,344
164,1686275210.114,17.09,-37.598,-11.719,40.527,1916.011,344
165,1686275210.118,79.102,212.402,24.902,92.285,1916.015,344
166,1686275210.122,93.262,-85.938,-107.91,79.102,1916.018,344
167,1686275210.126,47.363,93.75,-34.18,19.531,1916.022,344
168,1686275210.142,22.949,248.047,26.367,20.508,1916.038,343
169,1686275210.146,65.918,-122.07,-103.516,84.961,1916.042,343
170,1686275210.15,94.727,-571.777,-262.695,104.98,1916.046,343
171,1686275210.154,47.852,-355.469,-139.16,40.527,1916.05,341
172,1686275210.158,2.441,-73.242,-67.383,-0.488,1916.053,341
173,1686275210.162,33.691,-200.195,-97.168,53.223,1916.057,341
174,1686275210.166,78.125,-789.551,-325.195,107.91,1916.061,342
175,1686275210.169,59.57,-558.594,-178.223,46.875,1916.065,342
176,1686275210.173,20.996,213.867,77.148,-4.395,1916.069,342
177,1686275210.173,35.645,325.684,24.902,27.832,1916.082,342
178,1686275210.177,17.09,32.227,-47.852,44.922,1916.086,342
179,1686275210.177,33.203,175.293,7.812,50.293,1916.073,342
180,1686275210.181,87.402,128.418,65.918,106.934,1916.077,344
181,1686275210.181,70.801,83.984,32.227,104.98,1916.09,344
182,1686275210.185,92.773,358.887,87.402,85.938,1916.081,344
183,1686275210.185,101.562,330.566,85.449,96.68,1916.094,344
184,1686275210.189,61.523,291.016,36.133,39.551,1916.098,344
185,1686275210.193,18.555,-254.883,-163.086,40.527,1916.102,344
186,1686275210.197,48.828,-507.812,-148.438,101.562,1916.106,344
187,1686275210.2,93.262,-107.422,-8.301,117.188,1916.11,344
188,1686275210.204,57.129,243.652,48.34,57.129,1916.114,344
189,1686275210.208,4.395,-375.0,-252.441,28.32,1916.117,346
190,1686275210.212,25.391,-888.672,-387.695,84.961,1916.121,346
191,1686275210.216,90.332,27.832,41.992,107.91,1916.125,346
192,1686275210.232,82.031,227.539,17.578,61.523,1916.129,350
193,1686275210.236,25.879,-544.434,-317.871,30.273,1916.133,354
194,1686275210.24,27.832,-201.66,-93.75,52.734,1916.136,354
195,1686275210.244,91.309,342.285,98.145,94.238,1916.14,354
196,1686275210.248,101.562,153.809,-10.742,73.73,1916.144,359
197,1686275210.252,36.621,-685.059,-343.262,37.598,1916.148,359
198,1686275210.256,4.883,-539.551,-217.773,42.969,1916.152,359
199,1686275210.259,62.012,262.207,77.148,78.125,1916.156,359
200,1686275210.263,101.074,85.938,-67.383,89.844,1916.16,365
201,1686275210.267,51.758,-765.625,-367.676,55.176,1916.164,365
202,1686275210.271,13.672,-321.777,-89.844,25.391,1916.168,365
203,1686275210.275,58.594,400.391,131.836,69.824,1916.172,365
204,1686275210.277,105.469,158.203,-43.457,101.562,1916.173,365
205,1686275210.281,78.125,-28.32,-77.148,44.434,1916.177,373
206,1686275210.285,22.949,195.801,27.344,12.207,1916.181,373
207,1686275210.289,41.504,295.41,58.105,55.664,1916.185,373
208,1686275210.293,97.656,19.043,-79.102,86.426,1916.189,380
209,1686275210.297,80.566,-337.402,-220.215,56.152,1916.193,380
210,1686275210.301,18.066,-258.301,-106.445,10.254,1916.197,380
211,1686275210.304,14.16,156.738,40.039,23.926,1916.201,385
212,1686275210.308,69.824,-291.504,-191.406,85.449,1916.205,385
213,1686275210.312,80.566,-591.797,-178.711,77.637,1916.209,385
214,1686275210.316,36.133,83.984,39.062,3.418,1916.212,385
215,1686275210.32,6.836,32.227,-74.219,6.348,1916.216,392
216,1686275210.323,48.34,-585.938,-283.691,84.961,1916.219,392
217,1686275210.327,90.332,-446.289,-148.438,90.332,1916.222,392
218,1686275210.331,47.363,58.105,3.906,16.602,1916.226,397
219,1686275210.335,3.906,39.062,-45.898,-3.418,1916.23,397
220,1686275210.339,25.879,-586.426,-268.555,61.523,1916.234,397
221,1686275210.343,67.871,-511.23,-144.531,85.938,1916.238,402
222,1686275210.347,55.176,-7.324,35.156,20.996,1916.242,402
223,1686275210.35,-2.441,-2.441,-61.523,-17.578,1916.246,402
224,1686275210.354,-6.836,-715.332,-307.617,38.574,1916.25,402
225,1686275210.358,56.152,-255.859,-39.551,76.66,1916.254,402
226,1686275210.362,62.5,379.883,104.492,35.156,1916.258,404
227,1686275210.366,0.488,43.457,-61.523,-16.602,1916.261,404
228,1686275210.368,-15.625,6.348,21.973,2.93,1916.267,404
229,1686275210.372,40.527,168.945,41.992,59.57,1916.271,406
230,1686275210.376,52.734,13.184,-24.414,56.152,1916.275,406
231,1686275210.38,-7.812,-256.348,-105.469,-10.742,1916.278,406
232,1686275210.384,-40.039,-289.551,-113.281,-26.367,1916.282,407
233,1686275210.388,8.301,-185.547,-50.293,31.25,1916.286,407
234,1686275210.392,56.152,-121.094,-42.48,46.875,1916.29,407
235,1686275210.395,14.16,-389.16,-182.129,-7.812,1916.294,407
236,1686275210.399,-40.039,-602.539,-156.738,-37.109,1916.298,407
237,1686275210.403,-12.695,149.414,104.492,-2.441,1916.302,405
238,1686275210.407,35.645,327.148,56.641,38.086,1916.306,405
239,1686275210.411,15.137,-79.102,-83.984,-2.441,1916.31,405
240,1686275210.428,-40.527,-11.23,-41.504,-66.895,1916.324,404
241,1686275210.432,-44.434,-29.785,-16.113,-41.504,1916.328,403
242,1686275210.436,9.766,0.0,33.203,21.484,1916.331,403
243,1686275210.44,21.484,-497.559,-237.305,14.648,1916.335,403
244,1686275210.444,-37.109,-479.98,-168.945,-58.105,1916.339,401
245,1686275210.448,-58.105,-114.258,-8.301,-55.176,1916.343,401
246,1686275210.452,3.906,-225.586,-82.52,13.672,1916.347,401
247,1686275210.455,31.25,-782.715,-318.359,25.879,1916.351,398
248,1686275210.459,-31.738,-514.648,-150.879,-53.711,1916.355,398
249,1686275210.463,-78.613,254.883,114.258,-89.844,1916.359,398
250,1686275210.467,-43.457,186.035,14.648,-30.273,1916.363,398
251,1686275210.471,3.418,123.535,58.105,-0.488,1916.367,394
252,1686275210.473,-24.902,309.082,96.68,-43.945,1916.369,394
253,1686275210.477,-80.566,253.418,34.18,-77.637,1916.373,394
254,1686275210.481,-61.523,-15.137,-24.902,-37.109,1916.377,394
255,1686275210.485,-0.488,86.426,55.176,6.836,1916.381,388
256,1686275210.489,-3.418,271.484,84.473,-28.809,1916.385,388
257,1686275210.493,-66.406,-107.91,-60.547,-72.754,1916.389,388
258,1686275210.497,-69.336,-404.785,-171.387,-41.016,1916.392,380
259,1686275210.5,-3.906,-255.859,-87.891,16.602,1916.396,380
260,1686275210.502,4.395,29.785,87.891,-21.484,1916.413,380
261,1686275210.504,11.719,72.266,49.316,-13.184,1916.4,380
262,1686275210.506,-28.809,-23.926,-47.363,-71.777,1916.417,380
263,1686275210.508,-45.898,259.766,68.848,-76.172,1916.404,380
264,1686275210.51,-82.031,-699.219,-305.664,-75.195,1916.421,380
265,1686275210.512,-78.125,-443.848,-260.254,-51.758,1916.408,370
266,1686275210.514,-49.805,-258.301,-32.227,-34.668,1916.425,370
267,1686275210.516,-39.062,-809.082,-274.902,-0.488,1916.412,370
268,1686275210.518,4.395,341.797,134.277,-16.113,1916.429,370
269,1686275210.522,-17.09,-109.863,-77.148,-51.758,1916.433,370
270,1686275210.526,-75.684,-428.711,-87.402,-87.891,1916.437,358
271,1686275210.529,-62.012,47.852,69.824,-52.734,1916.441,358
272,1686275210.533,-4.395,235.352,76.172,-11.719,1916.444,358
273,1686275210.537,-9.766,-36.621,-46.387,-48.34,1916.448,344
274,1686275210.541,-76.172,-782.715,-309.082,-83.984,1916.452,344
275,1686275210.545,-93.75,-385.254,-13.184,-71.289,1916.456,344
276,1686275210.548,-34.668,375.488,170.41,-31.25,1916.458,344
277,1686275210.552,-22.461,127.441,-19.043,-41.992,1916.462,330
278,1686275210.556,-85.449,-16.602,31.25,-103.516,1916.466,330
279,1686275210.56,-117.188,191.406,84.473,-115.234,1916.47,330
280,1686275210.564,-75.195,320.312,118.164,-64.453,1916.474,318
281,1686275210.568,-44.434,-71.777,-37.598,-41.016,1916.478,318
282,1686275210.572,-93.75,-405.762,-154.785,-101.562,1916.482,318
283,1686275210.575,-138.184,0.977,68.359,-147.461,1916.486,318
284,1686275210.579,-96.191,270.996,120.117,-105.957,1916.489,318
285,1686275210.583,-50.293,-272.461,-122.07,-65.43,1916.493,308
286,1686275210.587,-86.914,-342.773,-27.832,-114.746,1916.497,308
287,1686275210.591,-133.789,149.414,75.684,-152.832,1916.501,308
288,1686275210.608,-119.629,-21.484,-55.176,-109.375,1916.504,292
289,1686275210.612,-68.848,-648.926,-267.09,-49.805,1916.508,292
290,1686275210.616,-66.406,-495.117,-116.211,-86.914,1916.512,292
291,1686275210.62,-127.441,191.895,109.863,-164.551,1916.515,292
292,1686275210.624,-143.555,-26.855,-41.016,-136.719,1916.519,287
293,1686275210.628,-96.68,-616.211,-194.336,-72.754,1916.523,287
294,1686275210.632,-71.289,-299.316,-38.574,-90.82,1916.527,287
295,1686275210.635,-110.352,262.207,125.488,-150.879,1916.531,284
296,1686275210.639,-155.762,-9.766,-23.926,-159.18,1916.535,284
297,1686275210.643,-132.324,-652.344,-197.754,-96.68,1916.539,284
298,1686275210.647,-74.219,-86.426,78.125,-76.172,1916.543,282
299,1686275210.651,-100.098,350.586,131.836,-134.766,1916.547,282
300,1686275210.653,-172.363,-2.93,-23.438,-185.059,1916.562,282
301,1686275210.657,-145.996,0.0,72.266,-143.066,1916.566,282
302,1686275210.661,-75.684,207.031,114.258,-86.914,1916.57,282
303,1686275210.665,-101.562,7.812,39.551,-129.883,1916.574,282
304,1686275210.669,-163.574,-313.965,-48.34,-186.035,1916.578,282
305,1686275210.673,-159.18,-506.836,-108.398,-152.832,1916.582,282
306,1686275210.677,-100.586,-125.977,43.457,-99.609,1916.586,283
307,1686275210.68,-85.938,305.176,136.23,-121.582,1916.59,283
308,1686275210.684,-141.602,-306.152,-154.785,-166.016,1916.594,283
309,1686275210.688,-168.945,-634.766,-156.25,-154.785,1916.598,283
310,1686275210.692,-109.375,137.207,138.672,-101.562,1916.602,283
311,1686275210.696,-80.566,298.34,120.605,-101.562,1916.605,283
312,1686275210.697,-134.766,-220.215,-83.984,-154.785,1916.594,283
313,1686275210.701,-173.828,-355.957,-51.758,-174.316,1916.598,283
314,1686275210.705,-132.812,117.188,155.762,-128.418,1916.602,285
315,1686275210.709,-84.961,248.047,123.535,-91.797,1916.606,285
316,1686275210.713,-109.863,-607.91,-239.746,-123.535,1916.61,285
317,1686275210.717,-168.457,-645.02,-129.395,-169.434,1916.613,288
318,1686275210.721,-160.645,-127.441,71.289,-157.227,1916.617,288
319,1686275210.724,-101.562,-230.957,-30.762,-113.281,1916.621,288
320,1686275210.728,-117.676,-690.43,-198.73,-131.836,1916.625,288
321,1686275210.732,-174.805,-251.953,5.371,-188.965,1916.629,290
322,1686275210.736,-172.852,361.328,194.336,-169.434,1916.633,290
323,1686275210.74,-117.188,74.219,26.855,-101.074,1916.637,290
324,1686275210.742,-111.328,-641.602,-141.113,-119.629,1916.638,290
325,1686275210.746,-159.18,-75.684,88.867,-193.359,1916.642,293
326,1686275210.75,-185.547,164.551,50.293,-182.129,1916.646,293
327,1686275210.754,-138.184,-163.574,-1.465,-118.164,1916.65,293
328,1686275210.758,-101.074,106.934,136.719,-104.98,1916.654,296
329,1686275210.762,-145.996,-35.645,17.578,-157.227,1916.658,296
330,1686275210.766,-179.688,-164.551,-2.441,-192.871,1916.662,296
331,1686275210.769,-145.02,-400.879,-73.242,-131.836,1916.666,296
332,1686275210.773,-97.656,-687.5,-112.793,-99.121,1916.67,299
333,1686275210.777,-108.887,59.57,144.043,-165.527,1916.673,299
334,1686275210.781,-154.297,296.387,131.836,-204.102,1916.677,299
335,1686275210.785,-150.879,-291.504,-107.422,-148.926,1916.681,302
336,1686275210.788,-100.586,-214.355,-2.93,-90.332,1916.698,302
337,1686275210.792,-96.191,27.344,84.961,-131.836,1916.701,302
338,1686275210.796,-142.578,-8.301,54.688,-188.965,1916.705,302
339,1686275210.8,-147.949,-451.172,-151.367,-144.043,1916.709,305
340,1686275210.804,-84.961,-178.711,22.461,-82.52,1916.713,305
341,1686275210.808,-74.219,80.078,130.371,-103.027,1916.717,305
342,1686275210.812,-129.395,-234.863,-6.348,-150.391,1916.721,305
343,1686275210.815,-152.832,-742.188,-198.73,-132.812,1916.725,310
344,1686275210.819,-99.121,-247.559,55.176,-86.426,1916.729,310
345,1686275210.823,-48.828,470.703,242.188,-86.426,1916.733,310
346,1686275210.827,-88.867,100.586,44.434,-129.395,1916.737,315
347,1686275210.831,-151.367,-196.289,4.395,-157.715,1916.74,315
348,1686275210.832,-119.141,177.734,162.109,-113.281,1916.741,315
349,1686275210.836,-53.711,415.527,187.988,-62.5,1916.745,315
350,1686275210.84,-75.195,65.918,56.641,-99.121,1916.749,321
351,1686275210.844,-130.371,-82.031,93.75,-148.926,1916.753,321
352,1686275210.848,-122.559,162.598,149.902,-118.652,1916.757,321
353,1686275210.852,-57.129,65.43,97.656,-68.848,1916.761,321
354,1686275210.856,-49.316,-377.93,-41.992,-82.031,1916.765,327
355,1686275210.859,-111.816,-659.18,-84.473,-116.699,1916.769,327
356,1686275210.863,-111.816,2.93,162.598,-107.422,1916.773,327
357,1686275210.867,-46.387,389.648,196.777,-52.246,1916.777,333
358,1686275210.871,-33.203,-259.277,-47.852,-39.062,1916.781,333
359,1686275210.875,-87.402,-321.777,45.41,-98.633,1916.784,333
360,1686275210.878,-125.0,99.121,161.133,-127.93,1916.788,333
361,1686275210.882,-78.613,-82.52,55.176,-68.359,1916.792,338
362,1686275210.886,-29.785,-661.133,-213.867,-28.32,1916.796,338
363,1686275210.89,-59.082,-561.035,-76.66,-84.961,1916.8,338
364,1686275210.894,-93.262,205.078,194.336,-126.465,1916.803,338
365,1686275210.898,-75.684,-79.59,21.973,-63.965,1916.807,342
366,1686275210.902,-31.738,-708.984,-171.875,-10.254,1916.811,342
367,1686275210.905,-32.715,-105.957,96.191,-58.594,1916.815,342
368,1686275210.909,-83.984,390.625,221.191,-104.004,1916.819,346
369,1686275210.913,-94.238,88.379,113.77,-67.871,1916.823,346
370,1686275210.917,-33.691,-87.891,130.859,-22.461,1916.827,346
371,1686275210.921,-11.719,221.191,171.875,-52.734,1916.831,346
372,1686275210.923,-67.383,333.984,155.273,-111.816,1916.833,346
373,1686275210.927,-92.773,42.48,83.496,-95.703,1916.837,347
374,1686275210.931,-32.227,78.613,154.785,-40.527,1916.841,347
375,1686275210.935,0.977,239.258,169.434,-39.551,1916.845,347
376,1686275210.939,-52.734,36.133,101.562,-90.332,1916.849,346
377,1686275210.943,-104.004,-435.547,-29.297,-97.656,1916.852,346
378,1686275210.947,-77.148,-661.621,-56.152,-40.039,1916.856,346
379,1686275210.95,-21.484,38.574,178.711,-26.367,1916.86,342
380,1686275210.954,-43.457,134.277,96.191,-78.613,1916.864,342
381,1686275210.958,-96.68,-431.641,-73.242,-101.074,1916.868,342
382,1686275210.962,-81.543,-336.914,84.473,-55.176,1916.872,342
383,1686275210.966,-14.648,325.195,243.652,-14.648,1916.876,340
384,1686275210.982,-16.602,233.398,124.023,-49.316,1916.878,339
385,1686275210.986,-87.891,-533.203,-140.625,-95.215,1916.882,339
386,1686275210.99,-93.75,-231.934,67.383,-72.754,1916.886,340
387,1686275210.994,-20.996,402.832,269.043,-21.484,1916.89,340
388,1686275210.998,-1.465,240.234,148.926,-31.738,1916.894,340
389,1686275211.002,-64.453,-524.414,-69.824,-88.867,1916.898,340
390,1686275211.006,-97.168,-536.621,29.785,-91.797,1916.902,352
391,1686275211.009,-38.574,52.734,215.332,-37.109,1916.906,352
392,1686275211.013,2.93,118.652,160.645,-21.484,1916.91,352
393,1686275211.017,-46.875,-701.172,-154.297,-61.523,1916.913,352
394,1686275211.021,-86.426,-341.797,64.453,-92.285,1916.917,367
395,1686275211.025,-45.898,351.074,259.277,-43.457,1916.921,367
396,1686275211.027,11.23,158.691,129.395,1.953,1916.924,367
397,1686275211.031,-15.625,93.262,170.898,-47.852,1916.927,395
398,1686275211.035,-72.754,237.305,196.777,-91.797,1916.931,395
399,1686275211.039,-67.383,235.352,165.039,-48.34,1916.935,395
400,1686275211.043,-13.184,16.113,132.812,1.953,1916.939,395
401,1686275211.047,-10.742,-278.809,79.102,-24.414,1916.943,422
402,1686275211.051,-74.707,-170.41,132.812,-91.797,1916.947,422
403,1686275211.054,-88.379,188.477,212.402,-84.961,1916.951,422
404,1686275211.058,-28.809,-319.336,10.742,-17.578,1916.955,422
405,1686275211.062,-14.16,-757.812,-64.453,-23.926,1916.959,446
406,1686275211.066,-69.824,-7.812,187.012,-83.008,1916.963,446
407,1686275211.07,-94.238,249.023,185.547,-83.008,1916.966,446
408,1686275211.072,-48.828,-382.812,-43.457,-18.066,1916.968,446
409,1686275211.076,-7.812,-499.512,20.996,3.418,1916.972,469
410,1686275211.08,-43.457,98.633,215.332,-77.637,1916.976,469
411,1686275211.084,-96.68,176.27,157.227,-116.699,1916.98,469
412,1686275211.088,-79.59,-533.691,-89.355,-48.34,1916.984,485
413,1686275211.092,-26.367,-504.395,31.738,-7.812,1916.988,485
414,1686275211.096,-36.621,-14.16,178.711,-60.059,1916.992,485
415,1686275211.099,-90.332,14.16,132.324,-113.77,1916.995,485
416,1686275211.103,-95.703,-706.055,-105.957,-66.406,1916.999,498
417,1686275211.107,-30.762,-227.539,125.0,-15.625,1917.003,498
418,1686275211.111,-12.695,473.633,286.133,-47.852,1917.007,498
419,1686275211.115,-79.102,40.039,137.207,-101.074,1917.011,498
420,1686275211.117,-107.91,-152.344,195.312,-87.891,1917.013,507
421,1686275211.121,-52.734,263.184,267.09,-33.691,1917.017,507
422,1686275211.125,-10.742,421.387,234.863,-34.668,1917.021,507
423,1686275211.129,-48.828,57.129,133.301,-93.262,1917.025,512
424,1686275211.133,-91.797,-66.895,168.457,-106.445,1917.029,512
425,1686275211.137,-53.711,-45.41,166.992,-49.805,1917.032,512
426,1686275211.141,-4.395,-43.457,161.621,-30.273,1917.036,514
427,1686275211.144,-38.574,-333.496,61.523,-74.707,1917.04,514
428,1686275211.148,-91.309,-639.648,5.371,-98.633,1917.044,514
429,1686275211.152,-66.895,75.195,232.422,-77.637,1917.048,514
430,1686275211.156,-10.254,349.121,243.164,-30.762,1917.052,514
431,1686275211.16,-35.156,-8.301,116.211,-61.035,1917.056,511
432,1686275211.163,-96.68,8.789,143.555,-120.117,1917.06,511
433,1686275211.167,-92.285,-83.984,146.973,-86.426,1917.064,511
434,1686275211.171,-30.762,-175.293,120.117,-30.273,1917.068,505
435,1686275211.175,-22.949,-642.09,-85.449,-32.227,1917.072,505
436,1686275211.179,-73.242,-527.344,109.375,-83.008,1917.076,505
437,1686275211.183,-89.355,-9.277,233.887,-96.68,1917.08,496
438,1686275211.187,-44.434,-179.688,112.793,-47.363,1917.083,496
439,1686275211.19,-20.02,-670.898,-46.387,-22.461,1917.087,496
440,1686275211.194,-64.453,-241.699,135.254,-83.496,1917.091,496
441,1686275211.198,-97.168,343.262,263.184,-107.422,1917.095,485
442,1686275211.202,-49.805,166.504,189.941,-36.133,1917.099,485
443,1686275211.206,2.93,80.078,216.309,-0.977,1917.103,485
444,1686275211.207,-21.973,240.723,229.98,-47.852,1917.103,485
445,1686275211.211,-65.918,270.02,211.426,-90.82,1917.107,472
446,1686275211.215,-52.734,32.227,145.02,-42.48,1917.111,472
447,1686275211.219,4.395,92.773,218.262,14.648,1917.114,472
448,1686275211.223,8.789,145.508,196.289,-9.277,1917.118,455
449,1686275211.227,-46.875,-107.422,143.066,-57.617,1917.122,455
450,1686275211.231,-67.871,-431.152,62.012,-45.41,1917.126,455
451,1686275211.234,-23.926,-904.785,-143.066,12.207,1917.13,455
452,1686275211.238,-1.953,-175.293,152.832,-20.02,1917.134,455
453,1686275211.242,-50.781,308.594,250.488,-94.727,1917.138,436
454,1686275211.246,-82.52,-122.07,76.66,-86.914,1917.142,436
455,1686275211.25,-33.203,152.832,219.238,-22.461,1917.146,436
456,1686275211.252,-1.953,413.574,286.621,-22.949,1917.162,416
457,1686275211.256,-47.363,-47.363,120.117,-81.055,1917.166,416
458,1686275211.26,-102.539,-688.965,-103.027,-100.586,1917.169,416
459,1686275211.264,-72.754,-276.855,125.0,-62.012,1917.173,416
460,1686275211.268,-17.09,390.625,315.43,-34.18,1917.177,393
461,1686275211.272,-47.852,-43.457,125.977,-74.707,1917.181,393
462,1686275211.276,-115.234,-759.277,-113.77,-104.004,1917.185,393
463,1686275211.279,-105.469,-492.188,55.664,-76.66,1917.189,393
464,1686275211.283,-31.738,242.676,279.785,-40.527,1917.193,371
465,1686275211.287,-27.344,156.25,202.637,-66.895,1917.197,371
466,1686275211.291,-93.262,-267.09,160.156,-114.258,1917.201,371
467,1686275211.295,-104.98,134.277,234.375,-105.469,1917.205,350
468,1686275211.3,-39.551,431.152,264.16,-49.316,1917.197,350
469,1686275211.304,-10.742,179.688,177.734,-43.945,1917.201,350
470,1686275211.308,-69.336,68.848,180.664,-116.699,1917.205,350
471,1686275211.312,-118.164,226.562,226.562,-127.93,1917.209,332
472,1686275211.316,-69.824,298.828,224.609,-60.059,1917.213,332
473,1686275211.32,-31.25,-104.492,150.879,-34.668,1917.216,332
474,1686275211.324,-76.66,-377.441,146.973,-85.938,1917.22,317
475,1686275211.327,-121.094,139.648,254.883,-129.395,1917.224,317
476,1686275211.331,-100.586,357.91,251.465,-95.215,1917.228,317
477,1686275211.335,-45.898,-218.75,103.516,-52.246,1917.232,307
478,1686275211.339,-63.477,-388.672,121.582,-95.215,1917.236,307
479,1686275211.343,-121.582,174.316,261.23,-161.621,1917.24,307
480,1686275211.357,-126.953,155.762,189.453,-132.812,1917.254,300
481,1686275211.361,-82.031,-414.551,-2.441,-65.43,1917.258,300
482,1686275211.365,-74.219,-160.645,164.551,-95.215,1917.261,295
483,1686275211.369,-128.418,280.273,283.691,-164.551,1917.265,295
484,1686275211.373,-149.902,161.133,222.168,-157.715,1917.269,295
485,1686275211.377,-103.516,-694.336,-114.746,-82.52,1917.273,293
486,1686275211.381,-79.102,-1000.0,-202.148,-66.895,1917.277,293
487,1686275211.384,-117.676,-165.039,174.316,-145.02,1917.281,293
488,1686275211.388,-154.297,74.707,208.496,-164.551,1917.285,293
489,1686275211.392,-117.676,-38.086,219.238,-111.328,1917.289,293
490,1686275211.396,-75.195,312.5,285.156,-102.051,1917.293,293
491,1686275211.4,-109.375,372.559,240.723,-153.32,1917.297,293
492,1686275211.402,-172.363,23.438,179.688,-178.711,1917.302,293
493,1686275211.406,-164.551,-44.434,239.746,-139.16,1917.306,294
494,1686275211.41,-103.027,307.617,291.016,-103.516,1917.31,294
495,1686275211.414,-104.004,389.16,237.305,-136.23,1917.314,294
496,1686275211.418,-155.273,0.488,151.855,-181.152,1917.318,294
497,1686275211.422,-164.062,-366.211,140.137,-146.973,1917.322,296
498,1686275211.426,-109.863,-187.988,199.219,-90.82,1917.326,296
499,1686275211.429,-75.684,241.699,270.996,-104.004,1917.329,296
500,1686275211.433,-126.953,-264.16,96.191,-151.855,1917.333,298
501,1686275211.437,-166.992,-688.477,41.016,-148.438,1917.337,298
502,1686275211.441,-106.934,91.797,270.02,-100.586,1917.341,298
503,1686275211.445,-52.246,327.637,263.184,-90.332,1917.345,302
504,1686275211.448,-86.426,-193.359,75.684,-129.883,1917.347,302
505,1686275211.452,-134.277,-339.844,112.793,-147.461,1917.351,302
506,1686275211.456,-103.516,63.965,256.348,-98.633,1917.354,302
507,1686275211.46,-53.223,22.949,175.781,-63.965,1917.358,302
508,1686275211.464,-87.891,-704.102,-93.262,-104.98,1917.362,305
509,1686275211.468,-142.578,-760.742,43.945,-145.508,1917.366,305
510,1686275211.472,-116.699,-38.086,254.395,-112.793,1917.37,305
511,1686275211.475,-47.363,102.539,191.895,-60.059,1917.374,309
512,1686275211.479,-55.176,-638.184,-29.297,-73.73,1917.378,309
513,1686275211.483,-109.863,-217.285,170.41,-130.371,1917.382,309
514,1686275211.487,-109.375,432.617,311.035,-110.84,1917.386,313
515,1686275211.491,-51.27,199.707,203.125,-45.41,1917.39,313
516,1686275211.493,-16.602,113.77,240.723,-40.527,1917.389,313
517,1686275211.497,-61.035,290.039,275.391,-92.285,1917.393,313
518,1686275211.501,-104.492,302.734,245.117,-104.98,1917.397,313
519,1686275211.505,-68.848,88.379,173.34,-42.48,1917.401,317
520,1686275211.509,-19.531,69.336,211.426,-28.32,1917.405,317
521,1686275211.513,-55.664,-54.688,190.43,-90.332,1917.408,317
522,1686275211.517,-104.492,-185.059,182.617,-118.652,1917.412,321
523,1686275211.52,-76.172,-450.684,79.59,-63.965,1917.416,321
524,1686275211.524,-32.227,-855.469,-96.68,-20.996,1917.42,321
525,1686275211.528,-50.781,-68.848,199.707,-83.984,1917.424,325
526,1686275211.532,-105.469,276.367,248.535,-126.953,1917.428,325
527,1686275211.536,-105.469,-75.684,127.441,-81.055,1917.432,325
528,1686275211.538,-48.828,14.16,208.496,-36.621,1917.433,325
529,1686275211.542,-42.969,17.578,214.355,-55.176,1917.437,325
530,1686275211.546,-99.609,19.043,178.711,-102.539,1917.441,329
531,1686275211.55,-115.234,-531.738,-64.941,-82.52,1917.445,329
532,1686275211.554,-54.688,-245.117,146.484,-38.574,1917.449,329
533,1686275211.558,-25.879,151.367,255.859,-37.109,1917.453,332
534,1686275211.562,-70.312,-191.895,120.117,-82.031,1917.457,332
535,1686275211.565,-104.492,-694.336,-38.086,-89.355,1917.461,332
536,1686275211.569,-51.758,-433.105,110.352,-29.297,1917.465,332
537,1686275211.573,11.719,316.406,305.176,-4.883,1917.469,336
538,1686275211.577,-20.996,180.664,216.797,-55.176,1917.473,336
539,1686275211.581,-79.102,-258.301,194.824,-87.891,1917.476,336
540,1686275211.582,-45.898,145.508,266.602,-44.922,1917.508,336
541,1686275211.586,17.578,477.051,293.457,-4.883,1917.512,339
542,1686275211.59,-0.977,159.668,175.293,-42.48,1917.516,339
543,1686275211.594,-62.012,56.641,208.496,-86.426,1917.519,339
544,1686275211.598,-62.988,229.98,269.531,-56.641,1917.523,342
545,1686275211.602,-3.418,48.34,191.406,0.0,1917.527,342
546,1686275211.606,6.836,-348.145,114.258,-11.719,1917.531,342
547,1686275211.609,-51.27,-542.48,85.938,-66.895,1917.535,342
548,1686275211.613,-60.059,108.398,250.488,-66.895,1917.539,345
549,1686275211.617,-9.277,383.789,276.855,-6.836,1917.543,345
550,1686275211.621,13.184,-109.375,133.789,1.953,1917.547,345
551,1686275211.625,-41.016,-173.34,153.809,-76.172,1917.551,348
552,1686275211.627,-98.633,106.445,241.699,-113.281,1917.537,348
553,1686275211.631,-67.383,-12.695,177.734,-49.316,1917.541,348
554,1686275211.635,-26.367,-580.078,-22.949,-15.137,1917.545,348
555,1686275211.639,-57.617,-561.523,133.301,-70.801,1917.549,350
556,1686275211.643,-95.215,206.055,291.504,-116.699,1917.552,350
557,1686275211.647,-75.684,4.883,145.508,-65.918,1917.556,350
558,1686275211.651,-23.926,-693.848,-29.785,6.836,1917.56,350
559,1686275211.654,-20.508,-223.145,186.523,-36.133,1917.564,352
560,1686275211.658,-74.707,370.117,277.344,-104.004,1917.568,352
561,1686275211.662,-83.984,121.582,199.219,-76.172,1917.572,352
562,1686275211.666,-22.949,-104.98,262.695,-11.719,1917.576,354
563,1686275211.67,-10.254,226.074,280.273,-38.086,1917.58,354
564,1686275211.674,-68.848,352.539,227.539,-97.168,1917.581,354
565,1686275211.678,-99.121,-116.699,118.652,-82.031,1917.585,356
566,1686275211.682,-59.57,-651.855,40.527,-25.391,1917.589,356
567,1686275211.686,-15.625,6.348,251.953,-28.809,1917.593,356
568,1686275211.69,-44.922,450.684,288.574,-85.449,1917.597,356
569,1686275211.694,-89.844,-264.16,104.004,-92.773,1917.601,356
570,1686275211.698,-63.965,-571.777,143.555,-34.18,1917.605,357
571,1686275211.701,3.418,204.59,305.664,4.395,1917.609,357
572,1686275211.705,-14.648,390.137,262.207,-35.645,1917.613,357
573,1686275211.709,-76.172,-109.375,123.535,-80.078,1917.617,359
574,1686275211.713,-57.617,-72.266,188.965,-47.852,1917.62,359
575,1686275211.717,4.883,367.188,310.059,8.789,1917.624,359
576,1686275211.732,4.883,237.793,210.449,-14.648,1917.629,360
577,1686275211.736,-65.43,-506.836,-45.41,-62.012,1917.633,362
578,1686275211.74,-77.148,-200.195,148.926,-44.434,1917.636,362
579,1686275211.744,-1.465,279.297,277.832,6.348,1917.64,362
580,1686275211.748,23.438,-36.621,164.062,-5.859,1917.644,364
581,1686275211.752,-49.316,-807.129,-150.879,-71.289,1917.648,364
582,1686275211.756,-94.727,-711.426,-21.484,-87.402,1917.652,364
583,1686275211.759,-46.875,209.961,287.598,-46.875,1917.656,364
584,1686275211.763,0.977,191.406,213.379,-24.414,1917.66,364
585,1686275211.767,-32.227,-71.289,223.633,-67.383,1917.664,366
586,1686275211.771,-83.008,184.082,255.371,-105.469,1917.668,366
587,1686275211.775,-61.035,346.68,266.113,-61.523,1917.672,366
588,1686275211.777,-2.441,204.59,232.91,-11.23,1917.674,368
589,1686275211.781,-12.207,82.52,220.703,-44.434,1917.678,368
590,1686275211.785,-73.242,225.098,252.93,-91.797,1917.682,368
591,1686275211.789,-68.848,290.527,261.23,-57.617,1917.686,370
592,1686275211.793,-8.301,37.109,177.734,-6.348,1917.689,370
593,1686275211.797,-5.371,-236.816,142.09,-28.32,1917.693,370
594,1686275211.801,-61.035,-270.02,166.016,-79.59,1917.697,370
595,1686275211.804,-84.961,-25.879,223.145,-79.59,1917.701,370
596,1686275211.808,-39.062,-286.133,83.984,-20.02,1917.705,372
597,1686275211.812,-40.039,-850.586,-80.566,-22.949,1917.709,372
598,1686275211.816,-99.121,-93.75,200.195,-110.84,1917.713,372
599,1686275211.82,-148.926,273.926,258.301,-140.137,1917.717,374
600,1686275211.822,-125.0,-132.812,126.953,-96.68,1917.719,374
601,1686275211.826,-86.914,-221.191,157.715,-90.82,1917.723,374
602,1686275211.83,-124.023,120.605,263.672,-155.762,1917.726,377
603,1686275211.834,-169.434,146.484,189.941,-182.129,1917.73,377
604,1686275211.838,-160.645,-529.785,-37.109,-130.859,1917.734,377
605,1686275211.842,-128.906,-500.0,98.633,-110.352,1917.738,377
606,1686275211.846,-146.484,20.508,236.328,-176.27,1917.742,379
607,1686275211.849,-205.566,84.473,188.477,-243.652,1917.746,379
608,1686275211.853,-224.609,-704.102,-74.707,-207.52,1917.75,379
609,1686275211.857,-166.016,-511.719,95.703,-150.879,1917.754,379
610,1686275211.861,-137.695,322.266,291.016,-166.504,1917.758,381
611,1686275211.865,-188.477,110.84,175.781,-213.867,1917.762,381
612,1686275211.867,-214.844,-270.02,192.383,-208.984,1917.763,381
613,1686275211.871,-150.391,153.809,269.043,-152.344,1917.767,382
614,1686275211.875,-99.609,395.508,276.367,-131.836,1917.771,382
615,1686275211.879,-153.32,128.906,192.383,-178.711,1917.775,382
616,1686275211.883,-205.078,39.551,208.496,-197.266,1917.779,382
617,1686275211.887,-162.109,-99.121,185.547,-133.301,1917.783,382
618,1686275211.891,-91.309,-137.695,177.734,-94.727,1917.787,382
619,1686275211.894,-107.91,-337.402,102.539,-133.301,1917.791,382
620,1686275211.898,-167.48,-604.492,50.781,-165.527,1917.795,382
621,1686275211.902,-146.973,115.723,268.066,-138.672,1917.798,383
622,1686275211.906,-83.008,395.508,279.297,-84.473,1917.802,383
623,1686275211.91,-88.867,-87.891,110.352,-103.516,1917.806,383
624,1686275211.912,-144.043,-294.434,82.031,-151.855,1917.808,383
625,1686275211.916,-145.996,-154.297,195.801,-131.836,1917.812,383
626,1686275211.92,-89.844,116.699,220.215,-82.031,1917.816,383
627,1686275211.924,-79.59,-488.281,-54.688,-82.52,1917.82,383
628,1686275211.928,-125.0,-581.055,108.398,-138.184,1917.824,383
629,1686275211.932,-150.879,-13.672,239.746,-142.578,1917.828,383
630,1686275211.936,-114.746,-112.793,150.391,-80.566,1917.832,383
631,1686275211.939,-72.754,-622.07,11.719,-52.246,1917.836,383
632,1686275211.943,-91.797,-218.262,187.012,-98.633,1917.84,383
633,1686275211.947,-122.559,393.066,298.34,-129.395,1917.843,383
634,1686275211.951,-93.262,212.891,225.586,-80.566,1917.847,383
635,1686275211.955,-33.691,148.926,272.949,-39.551,1917.851,383
636,1686275211.96,-54.688,320.801,282.227,-91.309,1917.86,382
637,1686275211.964,-117.676,339.355,231.934,-144.043,1917.864,382
638,1686275211.968,-114.746,-63.965,146.484,-112.793,1917.867,382
639,1686275211.972,-59.57,-164.551,237.305,-59.57,1917.871,381
640,1686275211.976,-54.199,264.648,275.879,-80.566,1917.875,381
641,1686275211.98,-116.211,102.539,193.848,-133.789,1917.879,381
642,1686275211.984,-139.648,-455.078,88.867,-110.352,1917.883,380
643,1686275211.987,-86.426,-557.617,81.055,-63.477,1917.887,380
644,1686275211.991,-51.758,193.848,274.414,-84.473,1917.891,380
645,1686275211.995,-100.586,338.379,248.535,-145.508,1917.895,380
646,1686275211.999,-132.324,-103.027,117.676,-143.066,1917.899,380
647,1686275212.002,-45.898,352.539,294.922,-61.523,1917.942,380
648,1686275212.003,-87.402,86.914,225.586,-75.195,1917.903,380
649,1686275212.006,-73.73,-50.293,140.625,-98.145,1917.946,380
650,1686275212.01,-121.094,-309.082,88.867,-120.605,1917.95,379
651,1686275212.014,-92.773,121.094,250.0,-82.031,1917.954,379
652,1686275212.018,-36.133,296.875,259.277,-37.109,1917.958,379
653,1686275212.022,-60.547,-83.984,165.039,-68.848,1917.962,377
654,1686275212.026,-135.742,-827.637,-138.672,-111.328,1917.966,377
655,1686275212.029,-143.066,-1000.0,-148.926,-93.75,1917.97,377
656,1686275212.033,-69.824,2.441,274.902,-64.453,1917.974,377
657,1686275212.037,-56.152,302.734,272.949,-86.914,1917.977,377
658,1686275212.041,-122.07,53.711,225.098,-148.926,1917.981,376
659,1686275212.045,-137.695,269.043,292.48,-142.09,1917.985,376
660,1686275212.052,-72.754,412.598,285.156,-75.684,1917.951,374
661,1686275212.056,-36.133,225.098,211.914,-62.988,1917.955,374
662,1686275212.06,-81.543,73.242,231.934,-116.699,1917.959,374
663,1686275212.064,-119.141,240.234,278.32,-138.184,1917.963,373
664,1686275212.068,-67.383,383.789,280.762,-82.52,1917.967,373
665,1686275212.072,-19.043,-26.855,198.73,-38.574,1917.971,373
666,1686275212.076,-58.105,-359.863,153.32,-82.031,1917.975,373
667,1686275212.079,-103.516,-74.219,204.102,-121.582,1917.979,373
668,1686275212.083,-76.66,45.41,242.676,-76.66,1917.983,372
669,1686275212.087,-14.648,-132.812,177.734,-27.344,1917.986,372
670,1686275212.091,-19.043,-28.32,216.797,-64.941,1917.99,372
671,1686275212.095,-67.871,294.922,284.18,-116.699,1917.994,372
672,1686275212.108,-83.984,163.086,225.586,-94.238,1918.004,371
673,1686275212.112,-36.621,-336.914,74.707,-35.156,1918.008,371
674,1686275212.116,-2.93,-87.402,201.172,-46.875,1918.012,371
675,1686275212.12,-49.805,299.805,274.414,-97.656,1918.016,371
676,1686275212.124,-71.777,64.453,196.289,-75.684,1918.02,371
677,1686275212.128,-23.926,-684.57,-72.754,2.441,1918.024,371
678,1686275212.132,5.859,-1000.0,-169.922,9.277,1918.027,371
679,1686275212.135,-23.926,-366.211,191.895,-57.617,1918.031,372
680,1686275212.139,-56.152,170.41,295.898,-65.918,1918.035,372
681,1686275212.143,-19.043,49.316,240.234,-1.953,1918.039,372
682,1686275212.147,33.691,69.336,249.023,31.738,1918.043,372
683,1686275212.151,5.859,352.539,270.996,-26.855,1918.047,373
684,1686275212.152,19.531,192.871,227.539,-6.836,1918.049,373
685,1686275212.156,138.672,-149.902,253.906,149.414,1918.052,373
686,1686275212.16,249.023,262.695,312.012,247.559,1918.056,373
687,1686275212.164,257.812,468.75,291.016,230.469,1918.06,374
688,1686275212.168,194.336,156.25,211.914,176.758,1918.064,374
689,1686275212.172,154.297,-148.438,191.406,177.246,1918.068,374
690,1686275212.176,189.941,-56.152,237.305,214.355,1918.072,375
691,1686275212.179,225.586,352.539,306.152,193.359,1918.076,375
692,1686275212.183,160.645,-101.074,146.973,130.859,1918.08,375
693,1686275212.187,98.633,-616.211,78.125,122.559,1918.084,375
694,1686275212.191,144.531,170.898,310.059,158.203,1918.088,375
695,1686275212.195,182.129,451.66,321.777,172.363,1918.092,375
696,1686275212.197,127.93,-61.035,172.852,114.258,1918.094,375
697,1686275212.201,67.871,-251.465,164.551,65.43,1918.097,375
698,1686275212.205,86.426,62.988,274.414,106.445,1918.101,376
699,1686275212.209,140.137,352.539,289.551,138.672,1918.105,376
700,1686275212.213,102.539,-391.602,80.078,90.82,1918.109,376
701,1686275212.217,34.668,-711.426,103.516,45.41,1918.113,376
702,1686275212.221,46.387,-19.043,260.254,67.871,1918.117,376
703,1686275212.224,95.215,231.934,277.344,112.305,1918.121,376
704,1686275212.228,88.379,-529.785,60.547,85.938,1918.125,376
705,1686275212.232,33.203,-232.91,214.355,8.789,1918.129,376
706,1686275212.236,9.277,437.012,342.773,0.488,1918.133,376
707,1686275212.24,61.035,268.066,270.02,66.406,1918.136,376
708,1686275212.242,83.008,208.984,308.105,55.664,1918.153,376
709,1686275212.246,29.785,377.441,316.895,-7.324,1918.156,376
710,1686275212.25,-6.836,382.812,276.855,-8.301,1918.16,376
711,1686275212.254,29.297,-5.371,227.539,41.504,1918.164,376
712,1686275212.258,65.43,-126.465,269.043,60.547,1918.168,376
713,1686275212.262,29.785,-31.25,246.582,10.254,1918.172,375
714,1686275212.266,-23.438,-30.273,210.938,-24.414,1918.176,375
715,1686275212.269,-8.789,-292.48,204.59,20.508,1918.18,375
716,1686275212.273,35.645,-503.418,227.539,50.293,1918.184,373
717,1686275212.277,19.531,222.168,315.918,-3.906,1918.188,373
718,1686275212.281,-39.062,350.098,285.156,-57.129,1918.192,373
719,1686275212.285,-52.246,-5.371,205.566,-41.504,1918.196,371
720,1686275212.288,-6.348,63.477,245.605,5.859,1918.184,371
721,1686275212.292,9.766,120.117,279.297,-16.113,1918.188,371
722,1686275212.296,-51.27,114.258,241.699,-83.496,1918.192,371
723,1686275212.3,-104.004,-438.965,38.086,-82.52,1918.195,371
724,1686275212.304,-53.223,-221.68,227.051,-34.668,1918.199,368
725,1686275212.308,-14.16,198.73,315.918,-24.902,1918.203,368
726,1686275212.312,-67.383,-149.902,168.945,-93.262,1918.207,368
727,1686275212.315,-107.422,-514.648,104.492,-129.395,1918.211,366
728,1686275212.319,-63.477,46.387,289.551,-68.848,1918.215,366
729,1686275212.323,-0.488,584.961,389.16,-31.25,1918.219,366
730,1686275212.327,-28.32,204.102,238.281,-76.66,1918.223,363
731,1686275212.331,-98.145,-718.75,-8.789,-92.285,1918.227,363
732,1686275212.334,-81.055,-192.871,238.77,-55.664,1918.231,363
733,1686275212.338,-22.461,560.547,384.766,-25.391,1918.235,363
734,1686275212.342,-25.391,206.055,227.051,-40.527,1918.239,360
735,1686275212.346,-83.984,109.863,274.902,-102.051,1918.243,360
736,1686275212.35,-89.355,295.41,317.871,-95.703,1918.247,360
737,1686275212.354,-28.32,197.266,273.926,-35.156,1918.25,357
738,1686275212.358,-15.137,-194.336,208.496,-26.855,1918.254,357
739,1686275212.361,-78.125,-486.328,171.387,-75.684,1918.258,357
740,1686275212.365,-106.934,-72.266,242.676,-93.75,1918.262,357
741,1686275212.369,-44.922,313.965,313.477,-38.574,1918.266,354
742,1686275212.373,-3.418,2.441,236.816,-11.23,1918.27,354
743,1686275212.377,-55.664,33.203,272.461,-69.824,1918.274,354
744,1686275212.378,-104.98,314.453,315.918,-101.562,1918.287,354
745,1686275212.382,-72.754,26.855,217.773,-41.992,1918.291,354
746,1686275212.386,-27.832,-216.309,127.93,-11.23,1918.295,352
747,1686275212.39,-50.293,142.09,280.273,-68.848,1918.299,352
748,1686275212.394,-99.121,404.297,338.379,-112.793,1918.303,352
749,1686275212.398,-98.145,66.895,214.355,-69.824,1918.306,349
750,1686275212.402,-50.781,-734.863,6.836,-16.602,1918.31,349
751,1686275212.405,-53.223,-686.035,125.488,-61.035,1918.314,349
752,1686275212.409,-106.934,228.516,309.082,-133.789,1918.318,349
753,1686275212.413,-122.559,278.32,279.785,-115.234,1918.322,347
754,1686275212.417,-64.941,84.473,283.203,-41.992,1918.326,347
755,1686275212.421,-37.109,152.832,280.273,-48.34,1918.33,347
756,1686275212.424,-90.332,412.598,310.547,-131.836,1918.332,345
757,1686275212.428,-129.395,228.516,257.324,-135.742,1918.336,345
758,1686275212.432,-91.309,-182.129,251.465,-72.266,1918.34,345
759,1686275212.436,-46.387,184.082,326.66,-59.082,1918.344,342
760,1686275212.44,-75.684,494.629,321.777,-109.863,1918.348,342
761,1686275212.444,-131.836,-98.145,197.266,-137.207,1918.351,342
762,1686275212.448,-105.957,-400.391,231.934,-95.215,1918.355,342
763,1686275212.451,-41.016,354.492,358.398,-52.734,1918.359,342
764,1686275212.455,-62.5,507.812,312.988,-81.543,1918.363,341
765,1686275212.459,-140.137,33.691,221.68,-135.254,1918.367,341
766,1686275212.463,-152.832,152.344,295.41,-120.605,1918.371,341
767,1686275212.467,-83.984,520.996,363.281,-78.613,1918.375,340
768,1686275212.483,-75.684,352.051,279.297,-94.238,1918.379,339
769,1686275212.487,-139.16,-374.512,76.66,-136.719,1918.383,339
770,1686275212.491,-152.832,-370.605,187.5,-128.906,1918.387,339
771,1686275212.495,-92.285,326.172,365.234,-83.008,1918.391,338
772,1686275212.499,-67.871,424.805,294.922,-77.148,1918.394,338
773,1686275212.503,-139.16,-608.398,-63.965,-113.77,1918.398,338
774,1686275212.507,-188.477,-684.082,72.266,-138.672,1918.402,337
775,1686275212.51,-142.578,398.926,360.352,-121.094,1918.406,337
776,1686275212.514,-103.027,428.223,319.336,-117.676,1918.41,337
777,1686275212.518,-133.789,98.145,308.594,-172.852,1918.414,336
778,1686275212.522,-173.828,280.273,285.156,-206.055,1918.418,336
779,1686275212.526,-151.855,464.844,299.316,-150.879,1918.422,336
780,1686275212.528,-83.984,338.379,276.367,-89.355,1918.424,336
781,1686275212.532,-80.078,227.539,272.949,-119.141,1918.428,336
782,1686275212.536,-128.906,343.262,277.832,-167.969,1918.432,336
783,1686275212.54,-124.023,408.203,272.949,-137.695,1918.436,336
784,1686275212.544,-70.312,89.844,221.191,-78.125,1918.44,336
785,1686275212.548,-62.988,-300.293,175.781,-85.938,1918.443,335
786,1686275212.552,-108.887,-9.766,233.398,-141.113,1918.447,335
787,1686275212.555,-127.93,462.402,299.316,-134.277,1918.451,335
788,1686275212.559,-88.867,-21.973,209.961,-71.289,1918.455,335
789,1686275212.563,-55.176,-362.793,250.488,-59.082,1918.459,335
790,1686275212.567,-82.031,379.395,337.891,-116.699,1918.463,335
791,1686275212.571,-125.488,520.996,291.504,-125.0,1918.467,335
792,1686275212.572,-83.008,120.117,196.777,-57.617,1918.468,335
793,1686275212.576,-28.32,-20.996,189.941,-30.762,1918.472,335
794,1686275212.58,-51.758,282.227,306.152,-85.449,1918.476,335
795,1686275212.584,-97.168,354.492,241.211,-119.141,1918.48,335
796,1686275212.588,-83.984,-341.797,-8.301,-57.129,1918.484,335
797,1686275212.592,-16.602,-311.523,142.578,-9.277,1918.488,335
798,1686275212.596,-17.09,106.934,253.906,-62.5,1918.492,335
799,1686275212.599,-74.219,29.785,158.203,-108.398,1918.496,335
800,1686275212.603,-94.727,-644.531,-1.953,-75.195,1918.499,335
801,1686275212.607,-34.668,-331.543,217.773,-37.109,1918.503,336
802,1686275212.611,-2.93,542.48,334.961,-63.965,1918.507,336
803,1686275212.615,-58.594,366.211,221.68,-110.352,1918.511,336
804,1686275212.619,-95.703,272.949,262.695,-105.469,1918.516,337
805,1686275212.623,-47.852,552.734,308.594,-47.852,1918.52,337
806,1686275212.627,11.719,640.625,295.41,-33.203,1918.523,337
807,1686275212.631,-21.484,327.148,191.895,-74.707,1918.527,337
808,1686275212.635,-82.031,214.355,223.633,-91.797,1918.531,337
809,1686275212.639,-56.641,174.316,227.051,-45.898,1918.535,337
810,1686275212.643,11.23,228.027,206.543,-16.602,1918.539,337
811,1686275212.646,-4.883,23.438,173.828,-51.27,1918.543,338
812,1686275212.65,-66.406,-479.98,120.117,-89.844,1918.547,338
813,1686275212.654,-61.523,-10.742,220.215,-69.824,1918.551,338
814,1686275212.658,-3.906,473.633,263.184,-20.996,1918.555,339
815,1686275212.662,3.418,123.047,146.484,-33.691,1918.559,339
816,1686275212.662,-55.664,74.219,178.223,-83.984,1918.558,339
817,1686275212.666,-81.543,244.629,224.609,-67.383,1918.562,339
818,1686275212.67,-24.902,316.406,230.469,-9.766,1918.566,341
819,1686275212.674,5.859,98.145,100.098,-21.484,1918.57,341
820,1686275212.678,-50.781,272.949,213.379,-94.238,1918.574,341
821,1686275212.682,-88.867,353.516,255.859,-100.098,1918.578,341
822,1686275212.686,-38.086,154.785,166.016,-31.25,1918.582,343
823,1686275212.689,3.418,-522.949,-45.898,10.742,1918.586,343
824,1686275212.693,-33.691,-568.359,80.078,-37.598,1918.59,343
825,1686275212.697,-78.125,449.707,278.809,-97.656,1918.594,343
826,1686275212.701,-64.453,557.617,245.117,-61.035,1918.597,345
827,1686275212.705,-11.23,328.125,233.887,-24.902,1918.601,345
828,1686275212.707,-12.207,313.477,206.543,-55.176,1918.604,345
829,1686275212.711,-65.918,543.945,236.328,-102.539,1918.607,347
830,1686275212.715,-64.941,359.375,171.387,-78.125,1918.611,347
831,1686275212.719,-14.16,159.668,228.027,-13.672,1918.615,347
832,1686275212.723,-2.93,482.422,254.883,-25.391,1918.619,347
833,1686275212.727,-51.27,380.371,162.598,-73.73,1918.623,349
834,1686275212.731,-75.195,-84.961,80.566,-54.688,1918.627,349
835,1686275212.734,-32.715,-288.086,74.219,-10.254,1918.631,349
836,1686275212.738,12.207,495.605,263.672,-14.16,1918.635,349
837,1686275212.742,-20.02,673.828,248.047,-46.875,1918.639,351
838,1686275212.746,-68.848,237.305,135.254,-70.312,1918.643,351
839,1686275212.75,-32.715,460.938,220.215,-31.738,1918.646,351
840,1686275212.753,10.254,664.062,263.672,-7.812,1918.663,351
841,1686275212.757,-22.949,314.941,118.652,-64.941,1918.667,353
842,1686275212.761,-80.078,-402.344,-111.816,-92.285,1918.671,353
843,1686275212.765,-66.406,-303.711,46.875,-47.852,1918.675,353
844,1686275212.769,3.418,639.648,301.27,-6.348,1918.679,355
845,1686275212.773,-2.441,456.543,147.949,-20.508,1918.683,355
846,1686275212.777,-64.941,-437.5,-154.785,-52.734,1918.687,355
847,1686275212.78,-63.965,-20.02,110.84,-41.016,1918.69,358
848,1686275212.784,4.395,779.785,310.059,7.324,1918.694,358
849,1686275212.788,21.484,657.227,209.473,0.0,1918.698,358
850,1686275212.792,-33.203,476.074,218.262,-61.523,1918.702,358
851,1686275212.796,-54.688,590.82,221.191,-61.523,1918.706,360
852,1686275212.798,2.93,742.188,236.328,-5.859,1918.714,360
853,1686275212.802,38.574,610.352,178.711,3.906,1918.718,360
854,1686275212.806,-12.695,480.957,187.012,-47.852,1918.722,360
855,1686275212.81,-61.523,624.512,225.586,-72.266,1918.726,362
856,1686275212.814,-28.809,699.707,226.074,-19.531,1918.73,362
857,1686275212.818,23.926,277.832,96.68,26.855,1918.734,362
858,1686275212.822,-6.348,-207.52,-36.621,-6.836,1918.738,363
859,1686275212.825,-55.176,240.234,159.18,-64.453,1918.742,363
860,1686275212.829,-31.738,692.383,220.215,-29.297,1918.746,363
861,1686275212.833,18.066,259.766,85.938,41.992,1918.75,363
862,1686275212.837,6.836,138.184,142.09,8.789,1918.753,365
863,1686275212.841,-44.922,700.684,232.422,-65.918,1918.757,365
864,1686275212.857,-59.57,687.012,180.176,-60.059,1918.754,366
865,1686275212.861,-10.742,53.223,-51.27,16.113,1918.757,366
866,1686275212.865,16.113,141.602,42.48,19.531,1918.761,366
867,1686275212.869,-32.227,657.227,221.191,-56.152,1918.765,366
868,1686275212.873,-74.219,629.395,149.902,-60.059,1918.769,366
869,1686275212.877,-34.668,-133.301,-140.625,1.465,1918.773,366
870,1686275212.881,26.367,119.629,52.246,2.93,1918.777,366
871,1686275212.884,-3.906,695.801,231.934,-47.363,1918.781,366
872,1686275212.888,-58.105,309.082,62.5,-72.754,1918.785,366
873,1686275212.892,-37.598,-271.973,-127.441,-14.16,1918.789,366
874,1686275212.896,17.578,337.891,110.352,33.691,1918.793,366
875,1686275212.9,0.488,920.898,232.91,-30.762,1918.797,366
876,1686275212.902,-66.406,592.285,97.168,-92.773,1918.798,366
877,1686275212.906,-72.266,567.383,171.387,-63.477,1918.802,366
878,1686275212.91,-12.695,832.52,219.238,-16.113,1918.806,366
879,1686275212.914,-0.977,892.578,193.848,-27.344,1918.81,366
880,1686275212.918,-58.594,556.152,85.938,-73.242,1918.814,366
881,1686275212.922,-84.961,259.766,62.5,-62.012,1918.818,366
882,1686275212.926,-27.832,380.371,119.629,7.324,1918.822,366
883,1686275212.929,14.648,811.035,202.637,9.277,1918.826,366
884,1686275212.933,-32.227,407.715,11.23,-41.992,1918.83,366
885,1686275212.937,-77.148,-142.578,-94.727,-48.34,1918.833,366
886,1686275212.941,-21.484,403.32,125.0,-11.719,1918.837,366
887,1686275212.945,32.715,838.379,197.266,7.812,1918.841,366
888,1686275212.947,-8.301,368.164,-49.316,-28.809,1918.844,366
889,1686275212.951,-57.617,129.883,-29.785,-51.758,1918.847,365
890,1686275212.955,-29.297,714.844,196.777,-12.695,1918.851,365
891,1686275212.959,27.344,899.902,171.875,29.297,1918.855,365
892,1686275212.963,33.203,169.434,-163.086,10.742,1918.859,363
893,1686275212.967,-11.23,2.93,-85.449,-36.133,1918.863,363
894,1686275212.971,-19.531,627.93,173.34,-18.555,1918.867,363
895,1686275212.974,38.574,758.301,125.488,43.457,1918.871,360
896,1686275212.978,45.898,5.371,-166.992,39.551,1918.875,360
897,1686275212.982,-12.207,368.164,41.992,-30.762,1918.879,360
898,1686275212.986,-30.762,-997.07,223.145,-32.715,1918.883,360
899,1686275212.99,23.438,852.539,141.602,25.391,1918.887,356
900,1686275213.007,50.781,692.871,137.695,27.832,1918.904,352
901,1686275213.011,6.348,708.008,125.0,-21.973,1918.908,352
902,1686275213.015,-30.273,945.801,156.25,-40.039,1918.911,349
903,1686275213.019,-6.348,744.141,55.176,3.906,1918.915,349
904,1686275213.023,33.691,531.738,71.777,24.902,1918.919,349
905,1686275213.027,-2.93,607.91,102.539,-24.902,1918.923,349
906,1686275213.031,-56.152,611.816,40.527,-68.359,1918.927,345
907,1686275213.034,-41.992,371.582,-16.602,-27.832,1918.931,345
908,1686275213.037,15.625,787.598,88.379,31.738,1918.934,345
909,1686275213.038,12.695,180.664,-11.23,28.32,1918.935,345
910,1686275213.041,38.086,771.973,103.516,27.832,1918.937,345
911,1686275213.042,24.902,863.281,174.805,-4.395,1918.939,341
912,1686275213.045,-15.137,850.586,78.613,-32.715,1918.941,341
913,1686275213.046,-26.855,968.262,133.789,-59.082,1918.943,341
914,1686275213.049,-60.059,204.59,-210.938,-29.297,1918.945,341
915,1686275213.05,-41.504,676.27,-1.953,-32.715,1918.947,341
916,1686275213.053,-13.184,143.066,-104.004,26.367,1918.949,341
917,1686275213.057,30.273,779.785,107.422,30.273,1918.953,338
918,1686275213.061,-17.578,616.699,1.465,-23.438,1918.957,338
919,1686275213.064,-57.129,475.586,-7.812,-46.875,1918.961,338
920,1686275213.068,-20.508,803.223,95.215,-3.418,1918.965,338
921,1686275213.072,37.598,-958.008,191.406,26.855,1918.969,334
922,1686275213.076,15.137,851.562,84.961,-13.184,1918.973,334
923,1686275213.08,-61.523,122.559,-229.98,-46.387,1918.976,334
924,1686275213.084,-44.434,594.727,5.859,-16.602,1918.981,332
925,1686275213.088,33.691,-933.105,213.379,28.809,1918.985,332
926,1686275213.092,35.156,830.566,48.828,11.23,1918.989,332
927,1686275213.096,-20.996,911.133,92.285,-41.504,1918.993,332
928,1686275213.1,-27.344,909.668,125.0,-31.25,1918.996,331
929,1686275213.104,26.367,883.301,82.52,23.926,1919.0,331
930,1686275213.108,41.992,575.684,-45.898,21.973,1919.004,331
931,1686275213.111,-16.113,-177.246,-294.922,-22.949,1919.008,330
932,1686275213.115,-64.941,578.613,41.504,-54.199,1919.012,330
933,1686275213.119,-27.344,-934.082,186.523,-17.578,1919.016,330
934,1686275213.123,14.16,733.398,-4.395,10.742,1919.02,330
935,1686275213.127,-11.23,898.926,98.633,-33.203,1919.024,329
936,1686275213.127,-53.711,977.539,120.117,-58.105,1919.036,329
937,1686275213.131,-37.109,824.219,6.836,-2.93,1919.04,329
938,1686275213.135,10.254,798.34,-27.344,46.387,1919.044,329
939,1686275213.139,-6.836,918.457,74.707,-8.789,1919.048,329
940,1686275213.143,-61.035,968.262,137.695,-70.801,1919.052,329
941,1686275213.147,-56.641,893.066,28.32,-35.645,1919.056,329
942,1686275213.151,-6.348,87.402,-298.34,32.227,1919.06,329
943,1686275213.154,-8.789,66.895,-179.199,-11.23,1919.064,329
944,1686275213.158,-51.758,891.602,62.012,-82.52,1919.068,329
945,1686275213.162,-69.336,832.031,-20.996,-57.617,1919.071,329
946,1686275213.166,-15.625,676.27,-2.441,9.277,1919.075,329
947,1686275213.17,27.832,930.664,149.414,6.348,1919.079,329
948,1686275213.172,-18.555,983.398,113.77,-53.711,1919.082,329
949,1686275213.176,-57.129,920.898,24.414,-65.918,1919.086,329
950,1686275213.18,-11.719,938.965,112.793,-7.324,1919.09,329
951,1686275213.184,39.551,939.941,134.766,14.16,1919.094,330
952,1686275213.188,4.395,-987.793,125.0,-35.156,1919.098,330
953,1686275213.192,-55.664,671.875,-67.871,-57.129,1919.102,330
954,1686275213.196,-41.992,418.945,-119.629,-16.602,1919.106,331
955,1686275213.199,27.832,920.898,146.484,12.695,1919.11,331
956,1686275213.203,21.484,995.605,123.047,-26.855,1919.114,331
957,1686275213.207,-41.992,782.227,-95.215,-78.125,1919.118,332
958,1686275213.211,-44.434,859.375,-9.766,-45.41,1919.122,332
959,1686275213.215,8.301,956.543,71.777,13.672,1919.125,332
960,1686275213.232,23.438,994.141,30.273,5.859,1919.128,332
961,1686275213.236,-37.109,416.504,-258.789,-38.574,1919.132,333
962,1686275213.24,-72.266,293.945,-193.848,-44.434,1919.136,333
963,1686275213.244,-11.719,983.398,114.258,2.93,1919.14,333
964,1686275213.248,30.273,944.824,89.355,19.531,1919.144,334
965,1686275213.252,-16.113,677.734,-77.637,-22.949,1919.148,334
966,1686275213.256,-66.406,812.988,-22.949,-48.34,1919.152,334
967,1686275213.259,-35.156,-962.891,165.039,-8.789,1919.156,334
968,1686275213.263,15.137,887.695,56.641,27.344,1919.16,335
969,1686275213.267,-14.16,436.035,-218.75,-10.254,1919.164,335
970,1686275213.271,-65.43,794.434,3.418,-64.941,1919.168,335
971,1686275213.275,-44.434,-969.727,145.02,-27.832,1919.171,335
972,1686275213.277,22.949,918.457,54.688,40.039,1919.173,337
973,1686275213.281,26.367,949.707,31.738,7.812,1919.177,337
974,1686275213.285,-38.574,933.105,-1.953,-57.129,1919.181,337
975,1686275213.289,-46.875,989.258,116.211,-38.574,1919.185,337
976,1686275213.293,8.301,879.395,31.25,29.297,1919.189,340
977,1686275213.297,20.508,708.008,-127.441,27.832,1919.193,340
978,1686275213.301,-17.09,871.582,3.906,-40.039,1919.197,340
979,1686275213.304,-47.852,-963.867,112.793,-52.246,1919.201,343
980,1686275213.308,-8.301,782.227,-70.312,11.719,1919.205,343
981,1686275213.312,32.227,621.582,-99.121,24.414,1919.208,343
982,1686275213.316,-1.953,965.332,88.867,-45.41,1919.212,346
983,1686275213.32,-48.34,969.238,75.195,-66.406,1919.216,346
984,1686275213.323,-28.32,885.254,-47.852,-4.395,1919.219,346
985,1686275213.327,23.438,916.016,-27.344,23.438,1919.223,346
986,1686275213.331,7.812,964.844,103.027,-33.691,1919.227,346
987,1686275213.335,-44.922,980.957,41.992,-77.148,1919.231,348
988,1686275213.339,-41.504,437.988,-278.32,-19.043,1919.235,348
989,1686275213.343,11.719,410.645,-231.934,32.715,1919.238,348
990,1686275213.347,20.508,-993.164,88.867,-10.742,1919.242,349
991,1686275213.35,-28.32,928.223,51.758,-56.152,1919.246,349
992,1686275213.354,-52.246,407.715,-290.039,-28.32,1919.25,349
993,1686275213.358,0.488,740.723,-6.836,9.766,1919.254,349
994,1686275213.362,36.133,-958.008,199.707,0.488,1919.258,349
995,1686275213.366,-11.23,923.34,26.855,-51.758,1919.262,349
996,1686275213.368,-48.828,962.891,49.316,-54.199,1919.264,349
997,1686275213.372,-0.488,961.914,96.191,10.254,1919.268,349
998,1686275213.376,45.41,963.867,108.398,28.809,1919.271,348
999,1686275213.38,4.395,930.176,-18.066,-25.391,1919.275,348
1000,1686275213.384,-49.805,942.383,23.438,-47.852,1919.279,348
1001,1686275213.388,-23.926,910.156,-5.859,-0.488,1919.283,346
1002,1686275213.392,39.551,-993.652,-15.137,33.203,1919.287,346
1003,1686275213.395,30.273,812.012,-122.559,4.883,1919.291,346
1004,1686275213.399,-36.133,217.773,-366.699,-33.691,1919.295,343
1005,1686275213.403,-42.969,766.113,8.789,-25.879,1919.299,343
1006,1686275213.407,14.648,-954.102,122.559,21.973,1919.303,343
1007,1686275213.411,22.949,877.93,-68.359,6.836,1919.307,343
1008,1686275213.413,-34.18,943.848,21.973,-50.781,1919.309,343
1009,1686275213.417,-51.758,963.867,19.531,-37.109,1919.313,340
1010,1686275213.421,0.977,965.332,39.551,10.742,1919.316,340
1011,1686275213.425,24.902,663.086,-191.406,18.066,1919.32,340
1012,1686275213.429,-15.137,764.16,-88.867,-25.391,1919.324,337
1013,1686275213.433,-52.246,-977.539,3.906,-52.246,1919.328,337
1014,1686275213.437,-23.438,923.828,-88.867,-7.812,1919.332,337
1015,1686275213.44,23.438,600.586,-233.398,38.086,1919.336,337
1016,1686275213.444,1.465,786.621,-70.801,-20.996,1919.34,333
1017,1686275213.448,-48.34,-971.68,53.223,-78.125,1919.344,333
1018,1686275213.452,-27.344,897.949,-44.922,-19.531,1919.348,333
1019,1686275213.456,45.898,866.211,-31.25,41.016,1919.352,329
1020,1686275213.457,42.969,959.473,95.215,2.441,1919.354,329
1021,1686275213.461,-21.973,975.098,83.984,-51.758,1919.358,329
1022,1686275213.465,-31.25,941.406,-18.066,-24.902,1919.362,329
1023,1686275213.469,16.602,953.125,71.289,25.879,1919.366,326
1024,1686275213.473,24.902,943.359,121.582,14.648,1919.37,326
1025,1686275213.477,-29.785,998.535,-21.973,-42.969,1919.373,326
1026,1686275213.481,-61.035,816.895,-208.008,-38.574,1919.377,326
1027,1686275213.484,-9.766,643.555,-131.348,30.273,1919.381,323
1028,1686275213.488,40.527,957.52,82.031,31.738,1919.385,323
1029,1686275213.492,6.836,977.539,53.711,-23.926,1919.389,323
1030,1686275213.496,-39.551,914.551,-109.863,-34.18,1919.393,323
1031,1686275213.5,-6.348,944.824,-17.578,20.996,1919.397,320
1032,1686275213.504,53.711,959.961,53.711,45.41,1919.402,320
1033,1686275213.508,27.344,990.234,-54.688,-1.953,1919.406,320
1034,1686275213.512,-42.48,615.723,-315.43,-22.949,1919.41,317
1035,1686275213.516,-39.551,621.582,-180.664,10.254,1919.414,317
1036,1686275213.52,37.109,-970.215,155.762,45.898,1919.418,317
1037,1686275213.524,44.434,940.43,-17.578,26.855,1919.422,317
1038,1686275213.528,-22.461,549.316,-296.875,-20.02,1919.426,316
1039,1686275213.531,-24.414,778.809,-9.766,-23.438,1919.429,316
1040,1686275213.535,40.527,-967.773,173.828,21.484,1919.433,316
1041,1686275213.539,61.035,936.523,47.363,23.926,1919.437,314
1042,1686275213.543,7.812,969.727,61.523,-34.18,1919.441,314
1043,1686275213.547,-32.227,965.82,93.75,-45.898,1919.445,314
1044,1686275213.548,4.395,968.262,98.145,15.137,1919.458,314
1045,1686275213.552,44.922,957.52,21.973,24.902,1919.462,313
1046,1686275213.556,5.371,959.473,-86.426,-31.738,1919.466,313
1047,1686275213.56,-48.828,927.734,-50.781,-55.176,1919.47,313
1048,1686275213.564,-19.043,-977.051,94.727,-4.395,1919.474,313
1049,1686275213.568,35.156,856.934,-81.055,47.363,1919.478,312
1050,1686275213.572,9.766,284.668,-359.863,18.555,1919.482,312
1051,1686275213.575,-37.598,750.488,-41.504,-47.363,1919.485,312
1052,1686275213.579,-23.438,-953.125,133.789,-24.414,1919.489,312
1053,1686275213.583,35.645,927.246,-23.926,30.273,1919.493,312
1054,1686275213.587,32.227,965.332,16.602,6.348,1919.497,312
1055,1686275213.591,-23.438,970.215,66.895,-53.711,1919.501,312
1056,1686275213.623,-37.598,965.332,8.301,-38.574,1919.519,311
1057,1686275213.627,11.23,767.578,-202.637,40.527,1919.523,311
1058,1686275213.631,42.969,852.051,-39.062,31.738,1919.527,311
1059,1686275213.635,-2.93,-978.516,103.516,-36.621,1919.531,311
1060,1686275213.639,-41.504,930.664,-41.504,-34.668,1919.534,311
1061,1686275213.643,-0.488,697.266,-234.375,36.621,1919.538,311
1062,1686275213.647,48.828,847.168,-100.098,44.922,1919.542,311
1063,1686275213.65,20.508,-967.773,111.328,-20.996,1919.546,312
1064,1686275213.653,-26.367,927.734,-7.324,-47.363,1919.549,312
1065,1686275213.654,-30.762,922.852,23.926,-41.992,1919.55,312
1066,1686275213.657,-35.645,963.379,39.551,-18.066,1919.553,312
1067,1686275213.658,-16.113,503.906,-281.738,22.461,1919.554,312
1068,1686275213.661,25.391,972.168,95.215,38.574,1919.557,312
1069,1686275213.662,46.387,765.625,-14.648,51.758,1919.558,312
1070,1686275213.665,44.434,972.656,78.613,22.461,1919.561,312
1071,1686275213.666,39.551,-959.473,159.668,0.0,1919.562,312
1072,1686275213.669,-12.695,938.477,-60.547,-36.133,1919.565,312
1073,1686275213.673,-47.363,928.711,-188.965,-28.32,1919.569,312
1074,1686275213.677,1.465,957.52,-40.527,32.227,1919.573,313
1075,1686275213.68,34.18,976.562,59.082,32.227,1919.577,313
1076,1686275213.684,-15.625,898.926,-125.0,-26.855,1919.58,313
1077,1686275213.688,-54.688,906.25,-44.434,-45.41,1919.584,313
1078,1686275213.692,-8.301,945.312,85.938,9.766,1919.588,313
1079,1686275213.696,47.363,-967.773,103.027,44.922,1919.592,313
1080,1686275213.697,7.324,708.496,-227.539,6.348,1919.593,313
1081,1686275213.701,-59.082,63.477,-478.516,-21.484,1919.597,313
1082,1686275213.705,-31.25,686.035,-76.66,2.441,1919.601,314
1083,1686275213.709,37.598,-958.008,104.98,32.227,1919.605,314
1084,1686275213.713,13.672,886.719,-26.367,-9.277,1919.609,314
1085,1686275213.717,-41.992,949.219,-44.434,-52.246,1919.613,314
1086,1686275213.721,-39.551,984.375,35.645,-28.32,1919.617,315
1087,1686275213.724,21.484,961.426,63.965,25.391,1919.621,315
1088,1686275213.728,29.297,603.027,-252.93,29.297,1919.625,315
1089,1686275213.732,-40.527,781.738,-102.539,-40.039,1919.629,316
1090,1686275213.736,-62.012,-968.75,71.289,-47.852,1919.632,316
1091,1686275213.74,-10.742,906.738,-40.039,12.695,1919.636,316
1092,1686275213.757,23.438,895.996,-44.922,18.066,1919.654,317
1093,1686275213.761,-11.719,972.168,93.262,-42.48,1919.658,318
1094,1686275213.765,-64.453,974.609,75.684,-66.895,1919.662,318
1095,1686275213.769,-41.992,948.242,12.207,-10.254,1919.666,318
1096,1686275213.773,12.207,961.914,95.703,23.438,1919.669,319
1097,1686275213.777,1.953,952.148,17.578,-14.648,1919.673,319
1098,1686275213.781,-41.992,992.676,-21.484,-51.27,1919.677,319
1099,1686275213.784,-43.945,862.305,-114.746,-19.531,1919.681,319
1100,1686275213.788,9.766,748.047,-114.746,38.574,1919.685,321
1101,1686275213.788,-0.488,958.984,45.41,31.25,1919.687,321
1102,1686275213.792,13.672,970.703,135.254,8.789,1919.689,321
1103,1686275213.792,30.273,953.125,34.18,27.832,1919.691,321
1104,1686275213.796,-35.645,975.098,85.938,-48.828,1919.693,321
1105,1686275213.796,-14.16,996.094,-44.922,-31.25,1919.695,321
1106,1686275213.8,-50.293,624.023,-316.895,-21.973,1919.699,323
1107,1686275213.8,-52.734,947.754,-47.363,-31.738,1919.697,323
1108,1686275213.804,-0.488,623.047,-194.336,35.156,1919.702,323
1109,1686275213.808,60.547,-982.422,53.223,48.828,1919.706,323
1110,1686275213.812,25.391,925.293,-89.844,2.93,1919.71,325
1111,1686275213.815,-36.621,872.559,-96.68,-26.367,1919.714,325
1112,1686275213.819,-8.789,943.848,75.684,13.672,1919.718,325
1113,1686275213.823,62.012,-993.652,178.223,49.805,1919.722,325
1114,1686275213.827,43.457,923.828,26.855,20.02,1919.726,325
1115,1686275213.831,-31.738,588.379,-278.32,-18.066,1919.73,326
1116,1686275213.832,-27.832,842.773,-11.23,-9.766,1919.728,326
1117,1686275213.836,45.898,-974.121,167.969,35.645,1919.732,326
1118,1686275213.84,54.688,925.781,-21.973,16.113,1919.736,326
1119,1686275213.844,-10.742,953.613,-53.223,-46.875,1919.74,327
1120,1686275213.848,-38.574,930.664,29.297,-34.18,1919.744,327
1121,1686275213.852,5.371,-986.328,48.828,25.879,1919.748,327
1122,1686275213.856,29.785,864.746,-81.543,39.062,1919.752,328
1123,1686275213.859,-21.484,386.23,-353.027,-8.301,1919.756,328
1124,1686275213.863,-54.199,796.875,-34.668,-39.062,1919.76,328
1125,1686275213.867,-13.184,-956.055,168.945,2.93,1919.764,328
1126,1686275213.871,33.203,886.23,-112.793,34.668,1919.767,328
1127,1686275213.875,4.883,935.547,-33.691,-20.508,1919.771,328
1128,1686275213.877,-50.781,974.121,56.641,-62.988,1919.802,328
1129,1686275213.881,-35.645,958.496,-22.461,-14.16,1919.806,328
1130,1686275213.885,15.625,768.066,-190.43,36.133,1919.81,329
1131,1686275213.889,3.418,840.332,-42.969,-8.301,1919.814,329
1132,1686275213.893,-55.664,-983.887,138.672,-66.406,1919.817,329
1133,1686275213.897,-60.059,942.383,-54.688,-36.133,1919.821,329
1134,1686275213.901,-10.742,615.234,-299.805,25.879,1919.825,329
1135,1686275213.904,-1.465,781.738,-94.727,-1.465,1919.829,329
1136,1686275213.908,-43.945,-957.52,90.82,-73.242,1919.833,329
1137,1686275213.912,-64.453,910.645,-21.973,-56.152,1919.837,329
1138,1686275213.916,-11.719,848.633,-58.105,14.16,1919.841,329
1139,1686275213.92,32.715,957.031,97.656,8.789,1919.845,329
1140,1686275213.922,-10.742,976.074,104.492,-53.223,1919.833,329
1141,1686275213.926,-59.57,946.289,-0.977,-61.523,1919.837,329
1142,1686275213.93,-22.949,960.938,63.477,-3.906,1919.84,329
1143,1686275213.934,29.785,955.078,78.125,29.785,1919.844,329
1144,1686275213.938,2.441,998.535,43.457,-19.531,1919.848,329
1145,1686275213.942,-61.523,862.305,-142.09,-51.758,1919.852,329
1146,1686275213.946,-48.34,755.371,-169.922,-3.906,1919.856,329
1147,1686275213.949,23.438,965.82,78.125,35.156,1919.86,329
1148,1686275213.953,18.066,984.375,-0.977,5.859,1919.864,329
1149,1686275213.957,-46.387,894.043,-228.516,-40.039,1919.868,329
1150,1686275213.961,-50.781,913.086,-67.871,-29.785,1919.872,329
1151,1686275213.965,9.277,960.449,107.91,19.531,1919.876,328
1152,1686275213.982,26.855,-982.91,18.555,10.254,1919.879,328
1153,1686275213.986,-34.18,630.859,-360.352,-46.875,1919.882,328
1154,1686275213.99,-66.895,430.664,-303.223,-45.898,1919.886,328
1155,1686275213.994,7.324,969.727,82.031,5.371,1919.89,328
1156,1686275213.998,51.27,964.844,57.617,17.09,1919.894,328
1157,1686275214.002,-12.695,786.133,-177.246,-29.785,1919.898,328
1158,1686275214.006,-60.547,901.367,-111.816,-62.988,1919.902,328
1159,1686275214.009,-19.531,-986.816,117.188,-27.344,1919.906,328
1160,1686275214.013,22.461,920.41,12.207,11.719,1919.91,328
1161,1686275214.017,-6.348,655.762,-275.879,-28.809,1919.914,328
1162,1686275214.021,-53.711,867.188,-99.121,-82.031,1919.918,328
1163,1686275214.025,-40.039,-982.422,14.648,-35.645,1919.921,328
1164,1686275214.027,13.672,909.668,-83.496,13.672,1919.924,328
1165,1686275214.031,2.93,894.531,-73.242,-26.367,1919.928,328
1166,1686275214.035,-52.734,963.379,48.828,-85.938,1919.932,329
1167,1686275214.039,-62.5,976.562,28.32,-70.801,1919.936,329
1168,1686275214.043,-7.812,938.965,-54.199,-8.789,1919.94,329
1169,1686275214.047,18.555,937.012,-157.227,-4.883,1919.943,329
1170,1686275214.051,-27.832,950.684,-96.191,-62.012,1919.947,329
1171,1686275214.054,-57.617,-1000.0,57.617,-66.895,1919.951,329
1172,1686275214.058,-13.672,862.793,-123.535,1.953,1919.955,329
1173,1686275214.062,43.457,764.648,-143.066,31.25,1919.959,330
1174,1686275214.066,24.414,973.633,59.57,-16.113,1919.963,330
1175,1686275214.07,-22.949,966.797,20.508,-49.316,1919.967,330
1176,1686275214.088,-2.441,920.898,-144.531,-2.93,1919.986,330
1177,1686275214.092,53.711,937.988,-172.852,43.945,1919.99,331
1178,1686275214.096,42.969,961.426,-70.312,8.789,1919.994,331
1179,1686275214.1,-9.766,976.562,-6.348,-39.062,1919.998,331
1180,1686275214.104,-9.277,580.078,-310.059,13.672,1920.002,332
1181,1686275214.108,41.992,603.516,-331.055,71.777,1920.006,332
1182,1686275214.112,60.547,-978.027,-17.09,32.715,1920.01,332
1183,1686275214.115,7.812,930.664,-23.438,-34.18,1920.013,332
1184,1686275214.117,-50.781,968.75,-79.102,-53.223,1920.013,332
1185,1686275214.119,-29.297,531.738,-333.984,-9.277,1920.017,332
1186,1686275214.121,-2.93,962.891,52.734,1.465,1920.017,332
1187,1686275214.123,20.996,784.668,-57.617,39.551,1920.021,332
1188,1686275214.125,45.41,970.703,17.578,28.809,1920.021,332
1189,1686275214.127,60.059,-967.773,128.418,22.949,1920.025,332
1190,1686275214.129,0.977,937.5,-127.93,-20.02,1920.025,332
1191,1686275214.131,0.977,937.5,-80.078,-33.203,1920.029,333
1192,1686275214.133,-51.758,929.199,-144.531,-49.316,1920.029,333
1193,1686275214.137,-27.344,952.148,-123.535,-10.254,1920.033,333
1194,1686275214.141,35.645,976.562,-56.152,31.25,1920.037,333
1195,1686275214.144,35.645,905.762,-142.09,10.254,1920.041,334
1196,1686275214.148,-32.227,889.16,-155.762,-39.062,1920.045,334
1197,1686275214.152,-34.668,941.895,38.574,-15.625,1920.049,334
1198,1686275214.156,37.598,-971.68,86.426,47.363,1920.052,334
1199,1686275214.16,51.758,759.766,-189.453,36.133,1920.056,334
1200,1686275214.162,-14.16,306.641,-405.762,-11.719,1920.058,334
1201,1686275214.166,-41.504,825.195,-189.941,-13.184,1920.062,334
1202,1686275214.17,10.254,-981.934,0.977,37.109,1920.066,334
1203,1686275214.174,31.25,677.734,-249.512,54.199,1920.07,335
1204,1686275214.178,-20.508,817.871,-93.75,-14.648,1920.074,335
1205,1686275214.182,-69.336,-991.699,-11.719,-65.918,1920.078,335
1206,1686275214.186,-43.457,946.777,-160.645,-21.973,1920.082,336
1207,1686275214.189,2.93,520.508,-332.031,26.367,1920.086,336
1208,1686275214.193,-24.902,651.855,-187.012,-29.297,1920.09,336
1209,1686275214.197,-82.52,-969.727,90.82,-83.496,1920.094,336
1210,1686275214.201,-74.219,948.242,0.977,-40.527,1920.098,336
1211,1686275214.205,-12.695,958.496,-38.574,6.836,1920.101,336
1212,1686275214.207,-15.137,962.891,64.941,-29.297,1920.107,336
1213,1686275214.211,-74.219,965.82,55.176,-84.961,1920.111,336
1214,1686275214.215,-81.055,946.289,-35.645,-62.012,1920.115,337
1215,1686275214.219,-29.297,955.078,19.043,-11.23,1920.119,337
1216,1686275214.223,-10.254,944.824,59.082,-19.043,1920.123,337
1217,1686275214.227,-51.27,-996.582,-87.891,-79.102,1920.126,338
1218,1686275214.231,-87.891,828.125,-265.625,-75.684,1920.13,338
1219,1686275214.234,-42.969,624.512,-168.457,-9.766,1920.134,338
1220,1686275214.238,20.996,938.477,62.5,-0.488,1920.138,338
1221,1686275214.242,-15.137,995.605,-38.086,-44.434,1920.142,338
1222,1686275214.246,-73.73,843.75,-268.066,-62.988,1920.146,338
1223,1686275214.25,-44.434,873.535,-59.57,-20.02,1920.15,338
1224,1686275214.253,14.16,987.305,80.078,18.555,1920.152,338
1225,1686275214.257,-17.578,944.824,-177.734,-20.02,1920.156,338
1226,1686275214.261,-80.566,674.316,-372.07,-63.477,1920.159,338
1227,1686275214.265,-62.012,787.109,-69.824,-34.668,1920.163,338
1228,1686275214.269,6.348,-964.355,121.094,11.23,1920.167,339
1229,1686275214.273,3.418,927.246,-135.742,-20.02,1920.171,339
1230,1686275214.277,-61.035,456.055,-394.043,-64.941,1920.175,339
1231,1686275214.28,-69.824,705.566,-115.234,-55.664,1920.179,339
1232,1686275214.284,-5.859,-958.008,124.023,-8.789,1920.183,339
1233,1686275214.288,20.508,932.129,-0.488,-3.906,1920.187,339
1234,1686275214.292,-39.062,964.844,-79.102,-53.711,1920.191,339
1235,1686275214.296,-70.312,962.891,-3.906,-54.688,1920.195,340
1236,1686275214.299,-24.902,963.867,-60.547,3.906,1920.207,340
1237,1686275214.303,17.09,954.102,-112.793,12.695,1920.211,340
1238,1686275214.307,-29.785,962.402,-40.039,-48.828,1920.215,340
1239,1686275214.311,-84.473,922.363,-18.555,-86.426,1920.218,340
1240,1686275214.315,-46.875,-977.539,37.598,-37.598,1920.222,340
1241,1686275214.319,9.277,852.539,-112.305,17.578,1920.226,340
1242,1686275214.323,-11.23,195.312,-410.156,-8.789,1920.23,340
1243,1686275214.326,-61.035,708.984,-80.566,-76.172,1920.234,340
1244,1686275214.33,-55.664,-942.871,46.875,-61.035,1920.238,340
1245,1686275214.334,-12.207,910.156,-127.441,-5.371,1920.242,340
1246,1686275214.338,-2.441,964.355,-34.18,-23.438,1920.246,340
1247,1686275214.342,-48.34,974.609,55.176,-71.777,1920.25,340
1248,1686275214.358,-78.613,961.426,-41.016,-65.918,1920.254,340
1249,1686275214.362,-35.645,707.52,-292.969,-8.301,1920.258,340
1250,1686275214.366,3.418,814.941,-201.172,-0.977,1920.262,340
1251,1686275214.37,-45.41,-1000.0,-50.781,-63.965,1920.266,340
1252,1686275214.374,-83.496,980.469,-8.789,-78.125,1920.27,340
1253,1686275214.378,-38.574,425.293,-339.844,3.418,1920.274,340
1254,1686275214.382,1.953,417.48,-246.094,24.414,1920.278,340
1255,1686275214.385,-20.996,-984.375,64.941,-49.805,1920.281,340
1256,1686275214.389,-70.801,928.711,-65.918,-92.773,1920.285,340
1257,1686275214.393,-56.152,872.559,-105.957,-52.734,1920.289,340
1258,1686275214.397,11.23,964.355,28.32,5.859,1920.293,340
1259,1686275214.401,14.648,963.867,11.23,-17.09,1920.297,340
1260,1686275214.418,-45.898,948.73,-145.02,-72.266,1920.314,341
1261,1686275214.422,-55.176,954.59,-131.836,-39.551,1920.318,341
1262,1686275214.426,14.16,961.426,20.02,20.996,1920.322,341
1263,1686275214.43,29.785,976.562,13.184,4.883,1920.325,341
1264,1686275214.434,-35.156,875.0,-140.137,-44.434,1920.329,341
1265,1686275214.438,-62.988,841.309,-239.258,-38.574,1920.333,341
1266,1686275214.442,-1.465,885.254,-250.977,12.207,1920.337,341
1267,1686275214.445,39.551,-974.121,-189.453,20.508,1920.341,341
1268,1686275214.448,11.719,785.645,-238.281,-8.301,1920.344,341
1269,1686275214.449,-13.184,757.812,-306.152,-28.809,1920.345,341
1270,1686275214.452,-58.105,883.301,-268.555,-71.777,1920.348,341
1271,1686275214.453,-63.965,33.691,-476.562,-44.922,1920.349,341
1272,1686275214.456,-41.016,986.816,-35.156,-35.645,1920.352,341
1273,1686275214.457,-16.113,714.844,-55.664,-8.301,1920.353,341
1274,1686275214.46,18.066,965.332,21.973,12.695,1920.355,342
1275,1686275214.461,48.828,-933.594,99.121,32.715,1920.357,342
1276,1686275214.464,16.602,537.109,-317.871,-12.207,1920.359,342
1277,1686275214.468,-38.574,579.102,-330.078,-60.059,1920.363,342
1278,1686275214.472,-54.199,993.164,-64.941,-45.41,1920.367,342
1279,1686275214.475,5.859,898.926,-48.828,18.555,1920.371,342
1280,1686275214.479,33.691,767.578,-109.863,24.414,1920.375,342
1281,1686275214.483,-19.043,909.668,-33.203,-41.992,1920.379,342
1282,1686275214.487,-51.27,-985.352,41.504,-62.988,1920.383,342
1283,1686275214.491,-6.348,910.645,-60.059,-3.906,1920.387,342
1284,1686275214.508,22.461,254.395,-384.766,29.297,1920.404,343
1285,1686275214.512,-15.625,589.355,-183.594,-35.156,1920.408,343
1286,1686275214.516,-55.664,-945.312,48.828,-76.66,1920.412,342
1287,1686275214.52,-29.785,899.902,-56.152,-15.625,1920.416,342
1288,1686275214.524,22.949,947.754,7.324,21.484,1920.419,342
1289,1686275214.528,6.836,930.664,-101.074,-21.484,1920.423,342
1290,1686275214.532,-50.293,-998.047,-229.98,-69.336,1920.427,343
1291,1686275214.535,-40.527,798.34,-278.32,-36.133,1920.431,343
1292,1686275214.539,20.02,534.668,-176.758,33.691,1920.435,343
1293,1686275214.543,31.738,921.875,23.926,3.906,1920.439,343
1294,1686275214.547,-19.043,968.262,-133.301,-48.34,1920.443,343
1295,1686275214.551,-43.945,725.098,-288.086,-25.879,1920.447,343
