,timestamps,TP9,AF7,AF8,TP10,Secondary Timestamp,emg_signal
0,1686714505.0,-58.594,75.684,145.508,-83.984,584.896,380.2844250820429
1,1686714505.0,15.137,30.273,144.531,78.125,584.9,376.3593790948572
2,1686714505.01,61.035,-375.0,-32.715,117.676,584.904,379.5340879356094
3,1686714505.01,6.348,-414.551,-18.555,-40.039,584.908,381.96179642040715
4,1686714505.02,-46.387,59.082,125.488,-108.887,584.912,372.9994059107946
5,1686714505.02,2.441,7.812,123.535,35.156,584.916,376.4592788530091
6,1686714505.02,63.965,-532.715,-74.219,144.043,584.919,370.9395759347757
7,1686714505.03,16.113,-872.559,-242.676,18.555,584.923,372.85241379538667
8,1686714505.03,-59.082,-137.207,99.121,-124.023,584.927,385.829914871867
9,1686714505.04,-22.949,236.816,162.598,-7.812,584.931,374.91807406722614
10,1686714505.04,70.312,5.859,130.859,134.766,584.935,382.2313082562062
11,1686714505.04,49.316,114.746,175.781,51.27,584.939,368.39127912675605
12,1686714505.04,-33.691,275.879,158.691,-98.145,584.968,383.0585155953047
13,1686714505.05,-37.598,112.793,118.164,-50.781,584.972,372.7024970581557
14,1686714505.05,32.227,28.32,129.395,110.84,584.976,376.1346315356707
15,1686714505.06,71.777,10.742,120.117,87.402,584.98,383.9634388364762
16,1686714505.06,6.348,-137.695,64.453,-71.777,584.984,377.55062811822864
17,1686714505.06,-40.527,-259.277,30.273,-88.379,584.988,379.9224346772334
18,1686714505.07,25.879,-828.125,-236.328,76.66,584.992,377.1457864882819
19,1686714505.07,68.359,-601.562,-100.098,126.953,584.996,381.63186181402324
20,1686714505.08,5.371,209.961,209.473,-37.598,585.0,380.4702625881314
21,1686714505.08,-52.734,-48.34,49.316,-111.328,585.004,383.77160100050605
22,1686714505.08,-2.441,-134.766,62.012,32.715,585.007,382.0431420567436
23,1686714505.09,79.102,335.938,230.957,131.836,585.011,376.29866553472266
24,1686714505.09,44.922,323.73,178.711,9.277,584.999,377.2985430581537
25,1686714505.09,-46.387,-127.441,52.246,-108.398,585.003,373.72359105631006
26,1686714505.1,-22.949,-132.324,90.82,-8.789,585.007,385.57603232295946
27,1686714505.1,75.195,296.875,207.52,128.906,585.011,378.6771777776696
28,1686714505.11,73.242,283.691,167.969,56.152,585.015,371.1529381877937
29,1686714505.11,-16.113,-320.801,-27.344,-80.078,585.019,376.06528330213786
30,1686714505.11,-28.32,-561.035,-27.832,-36.133,585.023,371.69795342801575
31,1686714505.12,61.523,-244.629,104.492,112.305,585.027,374.116657089663
32,1686714505.12,87.402,-189.941,77.637,109.863,585.031,368.21625422000875
33,1686714505.12,-9.766,-525.391,-44.434,-49.316,585.034,383.75407987432186
34,1686714505.13,-52.246,-403.32,48.34,-86.914,585.038,368.7142292327686
35,1686714505.13,27.344,163.574,216.309,62.012,585.042,385.56171746826254
36,1686714505.15,90.332,284.668,220.215,120.117,585.045,390.0717818368083
37,1686714505.15,39.062,-490.234,-187.988,0.488,585.049,370.4534397810318
38,1686714505.16,-48.34,-861.328,-240.234,-84.961,585.052,382.0657566284225
39,1686714505.16,-7.812,25.879,245.605,8.301,585.056,372.9906717335146
40,1686714505.16,77.637,226.074,166.016,128.906,585.06,368.07814048061834
41,1686714505.17,32.227,-296.875,-5.371,28.32,585.064,375.43716204525845
42,1686714505.17,-63.477,-364.258,57.617,-123.535,585.068,381.48937428828197
43,1686714505.18,-41.016,135.742,209.473,-54.199,585.072,377.8864524274967
44,1686714505.18,44.922,55.176,78.125,117.676,585.076,384.8026693467215
45,1686714505.18,42.48,-702.148,-169.434,88.867,585.08,372.96310162325085
46,1686714505.19,-36.133,-313.477,95.215,-99.121,585.084,382.33761368030383
47,1686714505.19,-45.41,283.691,237.305,-95.703,585.088,372.14311663274214
48,1686714505.2,35.645,18.555,86.914,88.867,585.09,382.62674114053124
49,1686714505.2,78.125,-24.902,114.746,105.469,585.094,381.72391759983753
50,1686714505.2,0.0,211.914,177.246,-60.547,585.098,377.0946185785784
51,1686714505.21,-65.918,182.129,127.93,-107.422,585.102,373.63339426527557
52,1686714505.21,0.977,-16.602,151.855,55.664,585.105,387.95256457163964
53,1686714505.22,55.176,-248.535,104.492,120.117,585.109,388.87732013234785
54,1686714505.22,2.93,-343.262,21.973,-32.715,585.113,381.3836089782609
55,1686714505.22,-58.105,-311.035,64.941,-119.629,585.117,386.1915711559366
56,1686714505.23,-31.25,-652.344,-117.188,14.16,585.121,374.2949022454912
57,1686714505.23,56.152,-908.691,-218.262,140.625,585.125,376.36950076947295
58,1686714505.23,42.969,-152.344,128.906,21.973,585.129,387.43242712871955
59,1686714505.24,-47.852,37.598,105.957,-106.445,585.133,375.3336766239736
60,1686714505.24,-36.621,-358.398,8.789,-26.855,585.135,379.6303695563816
61,1686714505.24,58.594,36.621,164.062,115.234,585.139,382.8615627314716
62,1686714505.25,79.59,468.75,256.348,89.355,585.142,377.7718595481711
63,1686714505.25,3.906,107.422,83.008,-60.059,585.146,375.39256177195233
64,1686714505.26,-26.855,-191.895,21.484,-61.035,585.15,375.20205031997534
65,1686714505.26,43.457,-176.27,96.191,97.656,585.154,375.60329919032324
66,1686714505.26,93.262,34.18,165.527,136.23,585.158,373.7174168954874
67,1686714505.27,28.809,13.672,95.215,-9.766,585.162,377.9628848517601
68,1686714505.27,-25.391,-660.645,-138.672,-82.031,585.166,377.61122780447363
69,1686714505.28,27.832,-225.098,121.582,42.48,585.17,384.6105999928853
70,1686714505.28,80.078,436.523,266.602,128.906,585.174,381.6521685182677
71,1686714505.28,40.527,16.602,51.758,12.207,585.178,381.86889036304825
72,1686714505.29,-40.527,-154.297,68.359,-108.398,585.182,375.0004191314906
73,1686714505.29,-21.484,139.16,190.43,-10.742,585.185,370.46314108513343
74,1686714505.29,70.312,96.191,176.758,120.117,585.189,370.8893824092897
75,1686714505.3,67.383,-382.812,-16.602,43.457,585.193,385.43657460871617
76,1686714505.3,-17.578,-449.219,-28.32,-98.145,585.197,384.33356751793707
77,1686714505.31,-30.273,-141.602,123.047,-41.504,585.201,369.3319653249634
78,1686714505.31,42.969,-120.117,139.648,119.629,585.205,374.4372882133679
79,1686714505.31,52.246,-479.492,-78.125,92.285,585.209,371.87598868280224
80,1686714505.32,-39.551,-964.844,-265.625,-82.031,585.213,377.37795350353065
81,1686714505.32,-74.707,-191.406,133.301,-112.793,585.217,380.1242375344022
82,1686714505.32,12.207,291.504,207.52,55.664,585.221,378.6686037404686
83,1686714505.33,71.777,113.77,146.484,115.723,585.224,373.1511512204974
84,1686714505.33,12.207,187.5,165.039,-31.25,585.225,394.6014785388513
85,1686714505.33,-55.176,279.297,156.738,-117.188,585.229,375.75344185348786
86,1686714505.34,-14.16,187.988,157.227,4.883,585.233,379.39052828712215
87,1686714505.34,71.777,45.41,131.348,115.723,585.236,381.8224801082947
88,1686714505.34,35.645,-15.137,121.094,-0.977,585.24,386.3341266512406
89,1686714505.35,-54.688,-245.605,54.199,-140.625,585.244,380.87550454843296
90,1686714505.35,-35.645,-285.156,63.965,-43.457,585.248,370.1834575167759
91,1686714505.36,47.363,-742.676,-105.957,128.906,585.252,370.6626928137356
92,1686714505.36,43.457,-571.777,-12.207,50.781,585.256,378.8632887420328
93,1686714505.36,-30.762,235.84,218.262,-127.93,585.26,373.5233744995387
94,1686714505.37,-47.363,0.977,77.148,-97.656,585.264,372.1805944648195
95,1686714505.37,34.668,-71.777,124.512,71.777,585.268,370.6635828552374
96,1686714505.37,66.406,355.957,250.977,67.383,585.27,370.69628273269154
97,1686714505.38,-19.531,290.039,172.852,-94.238,585.274,386.6810915606418
98,1686714505.38,-56.152,-120.117,78.125,-114.746,585.277,367.6462426379326
99,1686714505.39,2.441,-41.504,139.648,35.645,585.281,375.85355920952776
100,1686714505.39,38.086,287.598,197.754,102.051,585.285,385.3464150425417
101,1686714505.39,1.953,26.855,117.188,-20.02,585.289,369.34624271627484
102,1686714505.4,-61.523,-645.02,-170.898,-96.191,585.293,380.2904796212104
103,1686714505.4,-43.945,-949.219,-275.391,20.996,585.297,381.06302094137317
104,1686714505.4,37.598,-252.93,114.746,108.887,585.301,371.11124574463213
105,1686714505.41,27.344,283.203,195.801,-1.953,585.305,391.08248113681793
106,1686714505.41,-69.336,-382.324,-59.082,-140.625,585.309,384.79785133844985
107,1686714505.42,-67.383,-446.777,38.086,-71.777,585.313,387.6439036720046
108,1686714505.42,30.273,341.797,262.695,83.496,585.329,367.43731043221004
109,1686714505.42,47.363,271.484,144.531,40.527,585.333,377.1272855804546
110,1686714505.43,-43.457,-69.824,75.195,-125.488,585.337,384.9954109806872
111,1686714505.43,-74.707,83.984,168.945,-106.934,585.34,381.8238352816471
112,1686714505.44,15.137,298.828,236.328,55.664,585.344,376.1513072153213
113,1686714505.44,59.57,18.066,126.465,71.777,585.348,379.96212037070654
114,1686714505.44,-20.02,-626.953,-91.309,-83.008,585.352,385.40137801213314
115,1686714505.45,-100.098,-321.777,96.68,-141.602,585.356,369.0523607660373
116,1686714505.45,-42.969,354.492,279.785,13.672,585.36,381.4565484043602
117,1686714505.46,53.223,30.273,95.215,115.234,585.364,372.10301140248885
118,1686714505.46,27.832,-247.559,36.133,-0.977,585.368,371.2865060368719
119,1686714505.46,-60.547,91.797,176.27,-115.234,585.372,376.228988734796
120,1686714505.48,-54.199,299.805,237.305,-14.648,585.376,377.74837535788384
121,1686714505.48,34.18,8.301,90.82,122.07,585.379,380.32056749990613
122,1686714505.49,27.832,-192.871,32.715,34.18,585.383,390.4483570168903
123,1686714505.49,-55.664,114.258,151.855,-110.352,585.387,378.93292157483995
124,1686714505.5,-64.453,175.293,167.969,-60.547,585.391,370.8533143642882
125,1686714505.5,22.461,-215.332,75.195,108.398,585.395,372.38815671716173
126,1686714505.5,38.574,-488.77,22.461,90.332,585.399,379.1330729474563
127,1686714505.51,-52.734,-409.18,20.996,-63.965,585.403,372.76207068258657
128,1686714505.51,-87.891,-76.172,146.484,-63.477,585.407,365.0963105815455
129,1686714505.52,4.395,-443.848,-61.523,110.84,585.411,374.84625790674727
130,1686714505.52,67.383,-771.973,-149.414,164.551,585.415,377.07244557497916
131,1686714505.52,-3.906,19.531,188.477,-4.395,585.419,370.0698194876629
132,1686714505.54,-55.176,-62.988,70.801,-58.105,585.435,370.1132371193399
133,1686714505.54,4.395,-388.672,49.316,82.52,585.439,379.9663863927861
134,1686714505.55,66.895,-15.137,190.918,154.785,585.443,376.29913386057433
135,1686714505.55,25.879,311.523,201.66,38.086,585.446,374.35638332067435
136,1686714505.56,-54.688,15.137,75.195,-69.336,585.45,370.0759906182468
137,1686714505.56,-35.156,-372.559,29.785,30.273,585.454,384.62720829291425
138,1686714505.56,43.457,-161.621,166.992,155.762,585.458,374.33475173304925
139,1686714505.57,36.133,321.289,263.184,63.477,585.462,377.8060511787055
140,1686714505.57,-35.645,-51.27,42.48,-80.078,585.465,371.58183480070545
141,1686714505.57,-41.992,-16.113,40.527,-83.496,585.466,374.3749318849008
142,1686714505.57,-72.266,-158.203,76.172,-95.215,585.469,372.6149425855698
143,1686714505.58,-49.316,-687.5,-152.832,-27.832,585.47,376.4621652474052
144,1686714505.58,21.973,97.168,170.898,71.289,585.473,386.73625267310797
145,1686714505.58,26.367,-89.355,177.246,112.305,585.474,382.1462349354211
146,1686714505.58,68.359,18.066,134.277,123.535,585.477,378.187254683953
147,1686714505.58,49.805,427.734,270.02,87.402,585.478,380.23561913792594
148,1686714505.59,10.254,-427.246,-46.875,-17.09,585.481,377.1791250266989
149,1686714505.59,-47.363,-697.266,-106.445,-86.426,585.485,373.57616285761964
150,1686714505.59,-16.113,-311.523,102.539,25.879,585.489,384.31248567518196
151,1686714505.6,52.246,-146.973,111.328,125.488,585.493,382.51186668895696
152,1686714505.6,21.973,-362.305,24.414,11.719,585.497,372.71817052707905
153,1686714505.6,-62.5,-235.352,80.078,-131.836,585.5,372.5528686613236
154,1686714505.61,-40.527,190.918,197.266,-43.945,585.504,377.32338629755407
155,1686714505.61,47.852,297.363,208.008,107.91,585.508,374.23065682106096
156,1686714505.61,48.34,-480.469,-152.832,62.012,585.51,372.9503921473359
157,1686714505.62,-44.434,-880.371,-200.195,-98.145,585.514,385.1997937487273
158,1686714505.62,-70.312,-28.32,197.754,-88.867,585.518,368.9792869180367
159,1686714505.63,12.695,230.957,180.664,83.984,585.522,382.25496544077254
160,1686714505.63,31.25,-58.105,96.68,80.078,585.525,389.67518512494433
161,1686714505.63,-43.945,-224.609,47.852,-75.195,585.529,373.5206063532445
162,1686714505.64,-60.059,-254.883,66.895,-91.797,585.533,373.2423140545385
163,1686714505.64,3.418,-189.941,83.496,46.875,585.537,378.4054072586286
164,1686714505.64,41.504,-724.121,-144.043,117.676,585.541,386.6600163364734
165,1686714505.65,-7.324,-576.66,-15.625,-36.621,585.545,378.6156194318816
166,1686714505.65,-71.777,203.613,238.281,-150.391,585.549,375.11073689930026
167,1686714505.66,-48.34,17.09,102.051,-1.465,585.553,379.78118753483506
168,1686714505.66,24.414,-0.977,129.395,121.094,585.555,382.273844729005
169,1686714505.66,4.883,319.824,212.891,11.719,585.559,381.5858265151236
170,1686714505.67,-83.496,198.73,159.18,-124.023,585.563,383.52012293430795
171,1686714505.67,-73.242,-99.121,140.137,-52.246,585.567,383.48052149344215
172,1686714505.68,27.832,39.062,197.266,98.633,585.571,381.6032966753221
173,1686714505.68,54.199,43.457,143.066,58.105,585.575,376.42940570470466
174,1686714505.68,-63.477,-242.676,69.824,-109.863,585.578,384.6171584806051
175,1686714505.69,-103.027,-600.586,-105.469,-94.238,585.582,393.099725859745
176,1686714505.69,10.254,-1000.0,-313.965,82.52,585.586,375.92491436281546
177,1686714505.7,47.363,-464.355,40.527,80.078,585.59,390.19900271871745
178,1686714505.7,-22.949,158.203,170.41,-86.914,585.594,377.4731753232097
179,1686714505.7,-67.871,-101.074,83.008,-149.414,585.598,386.98906395722514
180,1686714505.7,-17.578,53.223,196.289,-9.277,585.6,388.6348973922539
181,1686714505.71,35.156,423.34,272.461,82.031,585.604,393.2744639012932
182,1686714505.71,1.465,210.938,141.113,-45.898,585.608,382.9327246849941
183,1686714505.72,-76.172,-93.75,76.66,-154.785,585.612,383.2280831695172
184,1686714505.72,-57.617,66.406,175.781,-53.223,585.616,393.23649892634
185,1686714505.72,17.578,17.09,166.992,87.891,585.62,381.9633675552296
186,1686714505.73,4.395,-192.871,58.105,13.184,585.624,381.31100593182197
187,1686714505.73,-78.125,-662.109,-123.535,-126.465,585.628,396.1894664367215
188,1686714505.74,-84.961,-312.988,111.816,-85.449,585.631,380.0585610994339
189,1686714505.74,12.207,365.234,295.898,61.035,585.635,392.869583867545
190,1686714505.74,33.691,-12.695,40.527,41.504,585.639,379.34852291931844
191,1686714505.75,-53.711,-287.109,-16.113,-124.512,585.643,380.4469284453572
192,1686714505.75,-79.102,98.633,175.293,-147.461,585.645,381.2127034343223
193,1686714505.75,6.348,336.426,215.332,12.695,585.649,382.23093356868316
194,1686714505.76,41.016,-30.273,98.633,80.078,585.653,386.81751561086344
195,1686714505.76,-33.203,-237.793,72.754,-67.383,585.657,383.36559984268064
196,1686714505.76,-87.891,57.129,135.254,-155.273,585.661,388.18732970100905
197,1686714505.77,-42.48,-27.832,145.996,-17.09,585.665,393.9820245877033
198,1686714505.77,27.832,-527.344,-46.387,104.004,585.669,378.4694918167651
199,1686714505.78,-10.254,-958.984,-274.414,-8.301,585.672,385.29693400918717
200,1686714505.78,-96.68,-255.859,126.465,-154.785,585.676,392.78688629787274
201,1686714505.78,-57.129,247.07,229.004,-60.059,585.68,386.4719000701687
202,1686714505.79,33.203,20.02,119.141,81.543,585.684,380.8399129861353
203,1686714505.79,5.371,20.02,142.578,0.977,585.688,390.09797135465277
204,1686714505.8,-89.355,146.484,145.02,-163.574,585.703,388.4052499257016
205,1686714505.8,-85.449,-105.957,94.727,-115.723,585.707,378.0445582478203
206,1686714505.8,15.625,-337.891,108.887,62.988,585.711,377.89139355999964
207,1686714505.81,35.645,10.742,195.312,41.992,585.715,388.6603850462207
208,1686714505.81,-44.434,191.406,167.48,-118.164,585.719,388.63717021856047
209,1686714505.82,-85.449,-271.484,54.199,-131.836,585.723,381.24151817225174
210,1686714505.82,-22.461,-687.5,-40.039,25.879,585.727,394.5990422459595
211,1686714505.82,33.691,-192.871,150.879,74.707,585.73,375.1431775178073
212,1686714505.83,-20.996,318.359,250.977,-81.543,585.734,381.14605840383587
213,1686714505.83,-84.473,-105.469,45.41,-153.809,585.738,388.3252539437791
214,1686714505.84,-51.27,-219.727,80.566,-21.484,585.742,386.1961052669589
215,1686714505.84,16.113,237.793,222.656,80.078,585.746,380.782503773558
216,1686714505.84,-3.418,281.25,160.645,-21.973,585.749,383.9450937797925
217,1686714505.84,-87.402,-145.996,40.527,-149.902,585.753,384.3522428730227
218,1686714505.85,-70.312,-173.828,78.125,-78.125,585.757,382.0792569809658
219,1686714505.85,24.414,59.082,137.207,79.59,585.761,379.0945179051444
220,1686714505.86,27.832,-17.578,155.762,26.367,585.765,385.1117605917532
221,1686714505.86,-46.387,-520.02,-150.879,-120.117,585.769,388.4115033311053
222,1686714505.86,-58.105,-910.645,-292.48,-84.961,585.773,382.71771345004936
223,1686714505.87,11.719,-371.094,125.488,59.57,585.776,385.98709361722035
224,1686714505.87,40.527,151.367,233.887,60.059,585.78,379.981048072323
225,1686714505.88,-44.922,-448.242,-141.602,-93.75,585.784,383.4458681139867
226,1686714505.88,-99.121,-717.773,-161.133,-139.648,585.788,390.72813736390015
227,1686714505.88,-11.719,203.613,286.621,0.488,585.792,391.4421694171915
228,1686714505.9,40.527,270.508,186.035,87.402,585.795,389.10232363083685
229,1686714505.9,-24.902,-106.445,65.918,-51.27,585.799,393.42652444771386
230,1686714505.91,-86.426,-26.855,135.254,-159.668,585.803,392.3504100552211
231,1686714505.91,-41.992,256.348,194.336,-47.852,585.807,393.8893618206489
232,1686714505.92,38.574,175.781,156.738,89.355,585.81,384.691970199768
233,1686714505.92,15.625,-354.004,38.574,18.555,585.814,387.2647801975947
234,1686714505.92,-80.078,-513.672,23.438,-127.93,585.818,397.3550793097081
235,1686714505.93,-74.219,-137.207,159.668,-76.66,585.822,381.5194599972145
236,1686714505.93,23.438,30.762,135.742,74.219,585.826,394.43445393083374
237,1686714505.93,12.695,-652.344,-129.883,46.875,585.83,389.1605253974754
238,1686714505.94,-68.848,-440.918,65.918,-126.953,585.834,394.81267057479926
239,1686714505.94,-85.449,203.125,224.609,-137.695,585.838,396.379100040663
240,1686714505.94,-13.672,50.293,112.305,31.738,585.839,393.3496607280344
241,1686714505.95,23.926,22.949,157.715,63.965,585.843,398.23688969796405
242,1686714505.95,-34.18,238.281,195.801,-91.309,585.847,402.5455745040159
243,1686714505.96,-89.355,154.785,134.277,-145.02,585.851,390.36161894470973
244,1686714505.96,-30.273,-45.898,157.715,-3.906,585.855,393.92953413320487
245,1686714505.96,44.434,-181.152,151.367,89.355,585.859,389.53941252221506
246,1686714505.97,-11.23,-282.715,71.777,-35.156,585.863,396.5623003055264
247,1686714505.97,-86.426,-303.223,73.242,-166.016,585.867,406.96404342522936
248,1686714505.98,-53.711,-571.777,-87.891,-46.875,585.871,406.2757414307832
249,1686714505.98,28.32,-1000.0,-323.242,116.211,585.875,395.2360619432124
250,1686714505.98,2.93,-432.129,25.391,12.207,585.879,397.7684314182295
251,1686714505.99,-78.125,173.828,159.668,-136.719,585.882,404.74225785905884
252,1686714505.99,-65.43,-59.082,83.008,-79.102,585.884,401.9879505363542
253,1686714505.99,10.254,153.809,232.91,71.289,585.888,399.3959872821271
254,1686714506.0,20.02,398.438,250.0,45.898,585.892,410.0373635808313
255,1686714506.0,-54.688,127.441,104.492,-121.094,585.896,406.62462124789266
256,1686714506.0,-82.52,-166.504,82.031,-128.906,585.9,394.7449382167276
257,1686714506.01,-18.066,-204.102,136.719,25.879,585.904,404.1276125041575
258,1686714506.01,22.461,-157.227,122.559,64.941,585.908,402.2003526643848
259,1686714506.02,-35.156,-236.328,19.043,-76.172,585.912,400.8535014374039
260,1686714506.02,-97.168,-693.359,-140.625,-135.254,585.916,396.823661215404
261,1686714506.02,-47.852,-239.258,143.555,-11.719,585.919,408.1633145951996
262,1686714506.03,29.297,413.086,296.875,93.262,585.923,402.54855506656133
263,1686714506.03,2.441,-79.59,19.531,-5.859,585.927,408.5761808683042
264,1686714506.03,-74.219,-326.66,-6.348,-145.508,585.93,411.7834278207354
265,1686714506.04,-54.199,175.781,205.566,-64.941,585.933,408.6991151842263
266,1686714506.04,23.926,386.719,216.309,78.125,585.937,412.91651390289434
267,1686714506.05,22.461,-54.688,95.215,13.184,585.941,417.32102743694105
268,1686714506.05,-59.57,-239.746,66.406,-140.625,585.945,407.2033624627222
269,1686714506.05,-79.59,-126.953,93.262,-111.816,585.949,417.61967026068487
270,1686714506.06,-4.883,-112.793,168.457,49.805,585.953,396.72441360278356
271,1686714506.06,25.391,-473.145,-64.941,59.082,585.957,412.5341323718464
272,1686714506.06,-51.758,-966.797,-283.691,-105.957,585.961,408.63186355581314
273,1686714506.07,-112.793,-238.77,145.996,-160.645,585.965,418.2274634919981
274,1686714506.07,-42.969,237.793,231.934,-2.441,585.969,394.6455983202776
275,1686714506.08,27.344,47.363,141.113,75.195,585.972,399.5104540459608
276,1686714506.08,-29.297,120.605,180.176,-73.73,585.976,410.6224330350476
277,1686714506.08,-95.703,170.41,162.109,-164.551,585.98,395.689519852619
278,1686714506.09,-49.805,-85.938,106.445,-30.762,585.984,408.0236499409492
279,1686714506.09,6.348,-231.445,160.645,78.125,585.987,402.0247901507556
280,1686714506.1,-11.719,-36.621,186.523,-22.949,585.991,410.7204051176366
281,1686714506.1,-68.359,-131.348,72.754,-148.438,585.995,407.59159333540305
282,1686714506.1,-64.941,-333.984,53.223,-71.289,585.999,409.59141796163584
283,1686714506.11,-1.953,-582.52,2.93,79.59,586.003,408.75444331212236
284,1686714506.11,2.441,-178.711,132.812,31.25,586.007,390.3064469037315
285,1686714506.12,-41.992,348.145,234.375,-116.699,586.011,405.89421814709914
286,1686714506.12,-78.613,-28.32,86.914,-97.656,586.015,397.90762254998276
287,1686714506.12,-5.371,-52.246,115.723,62.012,586.019,393.02980553327166
288,1686714506.12,46.387,360.352,241.699,75.684,586.02,393.9076783093706
289,1686714506.13,-43.457,288.574,167.969,-83.008,586.024,401.26093617932
290,1686714506.13,-87.891,-150.879,52.246,-121.094,586.028,391.4158322736747
291,1686714506.14,-0.977,-98.633,114.746,41.504,586.032,389.2449213514143
292,1686714506.14,51.27,111.328,162.109,108.398,586.036,391.1744441856487
293,1686714506.14,-23.926,-180.176,91.309,-42.48,586.04,391.91542848060715
294,1686714506.15,-96.68,-595.215,-116.699,-130.859,586.043,373.798848681574
295,1686714506.15,-44.434,-1000.0,-412.109,-0.488,586.047,376.87038550748343
296,1686714506.16,15.625,-555.176,-54.199,91.309,586.051,382.8946234546518
297,1686714506.16,-17.09,139.648,188.477,-22.461,586.055,389.38142167322377
298,1686714506.16,-92.285,-40.039,88.867,-149.414,586.059,380.83675477599996
299,1686714506.17,-83.008,68.848,171.387,-90.82,586.063,382.0718086963854
300,1686714506.17,3.418,394.043,267.09,63.965,586.079,387.1718338817495
301,1686714506.17,23.926,233.887,182.129,33.203,586.083,375.7361939643329
302,1686714506.18,-53.223,-129.883,50.293,-129.395,586.087,365.8283834007909
303,1686714506.18,-97.656,41.992,164.062,-135.742,586.091,373.0853396547507
304,1686714506.19,-25.879,286.133,228.516,25.879,586.095,377.35369949225566
305,1686714506.19,28.809,-2.441,92.285,70.312,586.099,365.13707175963094
306,1686714506.19,-50.781,-675.781,-156.25,-72.754,586.103,354.4149062016881
307,1686714506.2,-115.723,-608.887,-1.465,-152.344,586.106,362.29841693430785
308,1686714506.2,-28.809,178.711,264.16,-18.555,586.11,363.48596187068006
309,1686714506.2,26.367,131.836,103.027,90.82,586.114,361.146821218863
310,1686714506.21,-38.086,-400.879,-37.109,-18.555,586.118,363.6101494178212
311,1686714506.21,-85.938,-162.598,128.418,-151.367,586.122,353.47805863153087
312,1686714506.22,-44.922,199.707,217.285,-62.012,586.124,350.1488763067071
313,1686714506.22,32.715,77.148,140.625,91.309,586.128,366.0462048886068
314,1686714506.22,9.277,-6.348,108.398,17.578,586.132,345.42582294151197
315,1686714506.23,-65.918,166.016,147.949,-141.602,586.136,348.7659237622695
316,1686714506.23,-67.383,129.395,150.391,-99.609,586.14,344.9956331585367
317,1686714506.24,15.137,-216.797,102.051,64.941,586.144,351.58701175511317
318,1686714506.24,26.367,-407.715,35.645,52.734,586.148,355.25061655826835
319,1686714506.24,-65.43,-313.477,37.598,-109.375,586.152,345.2806793354297
320,1686714506.25,-102.051,-26.367,137.695,-141.113,586.155,348.1666659130693
321,1686714506.25,-26.367,-406.25,-60.547,38.086,586.159,340.7601107685484
322,1686714506.25,29.297,-998.047,-244.141,89.844,586.163,345.09697332935264
323,1686714506.26,-31.738,-229.004,128.418,-92.773,586.167,342.50297340031193
324,1686714506.28,-89.844,141.113,150.879,-162.598,586.17,342.56812536155917
325,1686714506.28,-48.34,-39.551,91.797,-27.344,586.174,339.7503326077974
326,1686714506.28,30.273,216.309,188.965,80.566,586.178,348.49511404519035
327,1686714506.29,-11.719,376.953,186.035,-13.184,586.182,345.14285972917475
328,1686714506.29,-112.793,56.152,49.805,-160.156,586.185,338.9455602998129
329,1686714506.3,-98.633,-403.809,-39.062,-82.52,586.189,340.82368733065596
330,1686714506.3,2.93,-192.871,114.746,69.336,586.193,350.311606187276
331,1686714506.3,4.395,274.902,240.234,-13.184,586.197,342.9324972227017
332,1686714506.31,-81.055,-51.27,35.645,-160.645,586.201,344.5968023135346
333,1686714506.31,-94.727,-573.73,-75.195,-120.117,586.205,340.5304032557494
334,1686714506.31,-5.859,5.371,221.68,23.926,586.209,349.553577671002
335,1686714506.32,4.395,398.926,240.723,27.832,586.213,350.6582877983401
336,1686714506.32,-74.707,-195.801,-25.391,-116.211,586.216,347.8689786061116
337,1686714506.32,-95.215,-350.586,-1.953,-157.227,586.22,356.7447160562948
338,1686714506.33,-32.227,182.617,230.957,-12.695,586.224,357.6616093062642
339,1686714506.33,14.16,378.418,247.07,61.035,586.228,350.517243494005
340,1686714506.34,-39.062,-253.418,-7.324,-58.594,586.232,351.67001195382875
341,1686714506.34,-97.656,-753.906,-150.879,-141.602,586.236,354.73403765725163
342,1686714506.34,-51.27,-368.164,51.27,-41.016,586.24,356.32529592883793
343,1686714506.35,20.508,-129.883,148.438,72.266,586.244,350.12111087951956
344,1686714506.35,-4.883,-535.156,-145.996,-12.207,586.248,351.7936186441947
345,1686714506.36,-81.543,-966.309,-324.219,-133.301,586.251,346.70552711255004
346,1686714506.36,-79.59,-188.477,142.09,-83.496,586.255,356.66521734944774
347,1686714506.36,-2.441,282.715,205.566,57.129,586.259,348.8279244098644
348,1686714506.36,17.09,28.32,108.398,25.391,586.26,353.1314446324188
349,1686714506.37,-50.293,77.148,139.16,-136.719,586.264,365.86605006171925
350,1686714506.37,-85.449,148.438,138.184,-135.742,586.267,360.89303936526125
351,1686714506.38,-13.672,-47.363,115.723,26.367,586.271,354.0428144634757
352,1686714506.38,32.227,-70.312,113.281,56.152,586.275,353.8029559602571
353,1686714506.38,-31.25,-214.355,52.246,-95.703,586.279,353.3812386782208
354,1686714506.39,-82.52,-186.035,83.496,-142.09,586.283,351.21870076058485
355,1686714506.39,-23.926,70.312,154.297,1.953,586.287,361.82286986076224
356,1686714506.4,32.227,-671.387,-127.93,99.121,586.291,363.44649972322486
357,1686714506.4,-25.879,-585.938,-41.504,-41.992,586.295,364.21093620630324
358,1686714506.4,-103.516,253.906,229.004,-166.992,586.299,359.598209696225
359,1686714506.41,-60.059,38.086,98.633,-34.668,586.303,357.4315865456687
360,1686714506.41,31.738,-17.578,109.863,93.75,586.305,359.66804729432556
361,1686714506.41,8.301,321.777,193.359,-6.348,586.309,371.48633125966506
362,1686714506.42,-85.938,237.793,144.043,-153.809,586.313,365.4797030208612
363,1686714506.42,-82.031,-72.266,90.332,-105.469,586.316,358.71232777344954
364,1686714506.42,1.465,-4.883,144.043,61.035,586.32,357.28192527669444
365,1686714506.43,5.859,0.488,106.445,39.551,586.324,362.9311091128851
366,1686714506.43,-63.477,-248.535,55.176,-133.789,586.328,354.2246077931624
367,1686714506.44,-91.797,-634.766,-135.254,-127.93,586.332,370.3481839913836
368,1686714506.44,-16.113,-1000.0,-310.059,44.434,586.336,359.1595135856001
369,1686714506.44,24.902,-256.348,95.215,68.359,586.34,356.58391337536773
370,1686714506.45,-29.785,213.379,137.207,-88.379,586.344,358.9640825863355
371,1686714506.45,-77.148,-145.508,46.875,-149.414,586.348,362.0166042856744
372,1686714506.45,-24.414,47.363,198.73,4.395,586.35,364.69665679189944
373,1686714506.46,41.992,417.48,257.324,100.586,586.354,365.0489506023556
374,1686714506.46,-18.555,100.586,89.355,-27.344,586.358,372.7984396125889
375,1686714506.47,-101.074,-231.934,34.18,-147.461,586.362,362.0236321907698
376,1686714506.47,-63.965,42.48,145.02,-54.199,586.365,360.3553577116917
377,1686714506.47,19.531,18.066,96.191,83.008,586.369,374.01973664316114
378,1686714506.48,9.766,-264.648,-3.906,-1.465,586.373,351.21201182317543
379,1686714506.48,-71.289,-694.336,-191.406,-151.855,586.377,362.47274725645315
380,1686714506.48,-91.797,-578.125,13.184,-116.211,586.381,365.2175478213418
381,1686714506.49,-11.719,203.613,265.137,37.598,586.385,362.30946781723696
382,1686714506.49,14.648,34.18,20.02,41.016,586.389,364.64595597013766
383,1686714506.5,-67.871,-463.867,-129.395,-125.0,586.393,370.13049540503
384,1686714506.5,-109.375,-28.809,121.582,-153.32,586.395,366.43964439445966
385,1686714506.5,-30.273,360.84,253.906,23.926,586.399,360.76521775198535
386,1686714506.51,24.414,41.504,96.191,82.52,586.402,369.44911838857564
387,1686714506.51,-37.598,-149.902,39.062,-76.172,586.406,364.3689258886902
388,1686714506.52,-83.496,13.184,87.891,-140.625,586.41,363.6144809588867
389,1686714506.52,-34.668,-118.164,81.543,-0.977,586.414,369.288439126616
390,1686714506.52,20.02,-534.18,-110.352,99.121,586.418,361.0762131184666
391,1686714506.53,-17.09,-892.09,-282.227,-9.766,586.422,369.9309528890707
392,1686714506.53,-90.332,-215.82,78.613,-157.715,586.426,377.52377686334984
393,1686714506.53,-56.152,181.641,158.203,-80.566,586.43,373.64145088283357
394,1686714506.54,26.855,-143.066,80.566,72.266,586.434,371.04212080105935
395,1686714506.54,13.184,-123.047,129.883,14.648,586.438,361.89988111927664
396,1686714506.54,-65.43,205.078,154.297,-145.508,586.454,370.0786025956574
397,1686714506.55,-68.848,156.25,81.055,-106.445,586.458,372.48328647076744
398,1686714506.55,-0.488,-217.285,5.859,61.035,586.461,370.53226104955456
399,1686714506.56,9.277,-59.082,106.934,55.664,586.465,370.09457055758645
400,1686714506.56,-46.875,201.66,121.094,-105.957,586.469,373.0956906716879
401,1686714506.56,-88.867,-195.312,-15.625,-131.348,586.473,368.13131990830135
402,1686714506.57,-31.25,-653.809,-76.172,26.367,586.477,368.247026610865
403,1686714506.57,27.832,-250.977,92.285,78.125,586.481,375.17001586349534
404,1686714506.58,-25.879,302.246,201.172,-60.059,586.485,376.7797406017495
405,1686714506.58,-79.102,-24.414,32.715,-149.414,586.489,374.7129623990772
406,1686714506.58,-35.156,-128.906,58.105,-30.273,586.493,374.5504137658331
407,1686714506.59,22.949,289.551,218.262,87.402,586.497,375.83846268041174
408,1686714506.59,3.418,333.984,182.617,-12.695,586.499,388.6926975145258
409,1686714506.6,-68.848,-376.465,-114.258,-127.93,586.503,379.22860847403837
410,1686714506.6,-63.965,-564.941,-135.742,-49.805,586.507,375.751938103358
411,1686714506.6,8.301,242.188,216.309,85.938,586.51,380.8228213611372
412,1686714506.61,13.672,316.895,146.973,45.41,586.514,370.37311791063405
413,1686714506.61,-52.246,-431.641,-121.582,-102.051,586.518,388.21162515716105
414,1686714506.62,-75.195,-678.711,-101.074,-104.004,586.522,381.8958807881105
415,1686714506.62,1.465,-213.379,99.609,45.41,586.526,378.24619298928474
416,1686714506.62,43.457,185.547,199.219,75.684,586.53,378.75015799255675
417,1686714506.63,-22.461,-373.535,-142.09,-64.453,586.534,376.7308446067469
418,1686714506.63,-70.312,-828.125,-286.133,-115.234,586.538,374.56443619726554
419,1686714506.63,-9.277,-19.531,176.758,14.16,586.542,380.9549422895517
420,1686714506.65,44.434,266.113,173.34,97.168,586.545,379.57343681704276
421,1686714506.65,-6.836,-28.809,43.945,-29.785,586.549,370.4710581694602
422,1686714506.66,-72.266,4.395,119.141,-137.695,586.552,375.4593028322522
423,1686714506.66,-46.875,57.129,115.723,-19.043,586.556,372.39775119346336
424,1686714506.66,27.832,-71.289,79.59,110.352,586.56,378.1564788724037
425,1686714506.67,7.812,-565.918,-83.008,27.832,586.564,377.5987972920236
426,1686714506.67,-68.359,-538.574,-27.344,-128.906,586.568,368.75031566500644
427,1686714506.68,-67.383,179.199,195.312,-97.656,586.572,380.9541708379788
428,1686714506.68,1.465,63.965,58.594,77.148,586.576,370.03718914650085
429,1686714506.68,19.531,-298.34,-2.93,59.082,586.58,379.21609056249895
430,1686714506.69,-51.27,19.531,140.137,-123.047,586.584,374.6046839547836
431,1686714506.69,-88.379,242.676,178.223,-132.324,586.588,365.783921918124
432,1686714506.7,-11.23,9.766,71.289,36.621,586.59,369.383975791741
433,1686714506.7,47.852,-44.434,52.734,73.73,586.594,370.2831622356496
434,1686714506.7,-24.902,177.734,145.996,-81.543,586.598,366.8742056658166
435,1686714506.71,-83.496,164.062,122.07,-150.391,586.602,364.2388941780301
436,1686714506.71,-17.578,-97.656,78.125,2.441,586.606,358.07299085766533
437,1686714506.72,51.758,-357.91,20.508,106.934,586.61,355.1794078924956
438,1686714506.72,-0.488,-349.121,0.977,-28.32,586.614,356.9915832061792
439,1686714506.72,-84.961,-341.797,-2.93,-146.973,586.618,352.0992476086696
440,1686714506.73,-49.805,-606.934,-145.508,-40.039,586.621,347.11364037272574
441,1686714506.73,18.555,-1000.0,-379.395,109.375,586.625,352.7673626857717
442,1686714506.73,0.488,-515.137,-89.355,19.531,586.629,349.61091926823514
443,1686714506.74,-65.43,60.547,93.75,-143.555,586.633,351.9358408742402
444,1686714506.74,-79.59,-68.848,61.035,-93.75,586.636,347.9314268154778
445,1686714506.74,2.441,195.801,169.434,63.477,586.639,352.8313792992625
446,1686714506.75,19.531,411.133,176.758,58.594,586.643,361.71768238743795
447,1686714506.75,-62.988,84.473,38.574,-91.309,586.647,348.6925043590726
448,1686714506.76,-76.66,-200.684,-37.109,-124.023,586.651,354.5533323518902
449,1686714506.76,-10.254,-166.992,62.988,27.832,586.655,357.77933885204953
450,1686714506.76,35.156,34.18,134.766,92.773,586.659,357.55594906811945
451,1686714506.77,-10.742,42.48,50.293,-49.805,586.663,355.8429930092573
452,1686714506.77,-75.684,-697.266,-218.75,-120.117,586.667,370.7193184113662
453,1686714506.78,-37.109,-500.977,8.789,9.277,586.671,368.5362890004061
454,1686714506.78,47.852,375.977,264.648,104.492,586.675,370.3089425070641
455,1686714506.78,10.254,20.02,-27.344,-6.836,586.679,377.16408457028024
456,1686714506.78,-89.355,-491.699,-171.875,-140.137,586.68,380.60243573201916
457,1686714506.79,-71.289,58.105,171.875,-62.012,586.684,385.0512072408257
458,1686714506.79,23.926,380.859,246.094,83.496,586.688,379.80190163453915
459,1686714506.8,9.766,51.27,75.684,32.715,586.692,405.59527951327465
460,1686714506.8,-83.008,-128.418,33.691,-127.93,586.696,401.8869434536226
461,1686714506.8,-91.797,-192.383,32.227,-121.582,586.7,403.78967838407226
462,1686714506.81,-1.465,-206.055,95.215,30.273,586.703,419.05994710779504
463,1686714506.81,23.438,-494.629,-107.91,65.43,586.707,429.04127907456825
464,1686714506.82,-74.707,-961.914,-327.148,-83.496,586.711,433.983526375274
465,1686714506.82,-104.98,-226.562,87.402,-152.832,586.715,422.37208390035534
466,1686714506.82,-40.527,269.043,175.293,6.348,586.719,458.5858152594871
467,1686714506.83,3.418,-78.613,61.035,83.984,586.723,452.40088932640026
468,1686714506.83,-23.926,-72.754,73.73,-69.336,586.724,455.5841987715526
469,1686714506.83,-81.543,175.781,92.285,-155.762,586.728,461.36842538207213
470,1686714506.84,-61.035,121.094,89.844,-31.25,586.732,472.3224522488112
471,1686714506.84,-1.465,-169.434,15.625,85.449,586.736,476.3271107542556
472,1686714506.84,-6.348,-105.957,46.875,-15.137,586.74,458.00161125689226
473,1686714506.85,-84.473,-87.402,62.988,-160.645,586.744,482.7901080827114
474,1686714506.85,-81.543,-300.293,-23.438,-72.266,586.748,489.0532308931085
475,1686714506.86,2.441,-601.074,-91.797,83.984,586.752,486.06665820301606
476,1686714506.86,1.953,-233.887,64.941,19.043,586.756,484.1878971542475
477,1686714506.86,-62.988,292.969,162.598,-137.695,586.759,483.5574697297173
478,1686714506.87,-68.359,-21.973,6.348,-118.164,586.763,495.32179571230347
479,1686714506.87,0.0,-34.668,50.781,46.387,586.767,493.20547673873637
480,1686714506.88,34.18,319.824,188.477,76.66,586.772,498.07113353917185
481,1686714506.88,-31.25,223.145,135.742,-74.707,586.776,497.1159826512886
482,1686714506.88,-92.285,-465.332,-133.789,-124.512,586.78,490.0752610417765
483,1686714506.89,-18.555,-485.352,-104.492,17.578,586.784,489.0070830194334
484,1686714506.89,37.109,175.293,162.109,90.82,586.788,494.7089380645004
485,1686714506.9,-27.344,-22.461,40.527,-31.738,586.791,497.5254007585044
486,1686714506.9,-94.238,-666.504,-259.277,-136.719,586.795,503.30838458083446
487,1686714506.9,-73.242,-879.883,-320.312,-41.992,586.799,497.7598285069481
488,1686714506.91,14.648,-17.09,137.695,73.73,586.803,488.40178867707266
489,1686714506.91,19.531,327.148,157.715,-4.395,586.807,487.41073594203743
490,1686714506.92,-61.523,-144.531,-63.477,-148.926,586.811,484.08278264071214
491,1686714506.92,-71.289,-113.77,57.617,-98.633,586.815,486.5164053756925
492,1686714506.92,12.207,324.707,206.055,63.965,586.833,484.81583909116745
493,1686714506.92,37.598,254.883,86.914,49.805,586.837,474.98475544967687
494,1686714506.93,-41.504,-106.445,12.695,-109.375,586.84,494.0258846109189
495,1686714506.93,-98.633,-16.113,76.172,-130.859,586.844,474.64458589746687
496,1686714506.94,-27.344,104.98,94.238,23.926,586.848,483.5898867083673
497,1686714506.94,35.156,-77.148,51.758,70.312,586.852,481.56438973682634
498,1686714506.94,-31.25,-770.02,-328.613,-61.523,586.856,470.7473034054078
499,1686714506.95,-103.027,-696.777,-219.238,-146.484,586.86,481.16698115185216
500,1686714506.95,-52.246,168.945,194.824,-22.949,586.864,477.7514406108217
501,1686714506.96,22.461,73.73,40.527,95.703,586.868,473.6901327677685
502,1686714506.96,-23.926,-95.215,5.859,-25.879,586.872,472.5525724974845
503,1686714506.96,-104.004,100.098,102.539,-148.438,586.876,465.42542549070373
504,1686714506.96,-63.965,237.793,145.02,-47.852,586.874,455.97292433959336
505,1686714506.97,31.738,38.574,53.223,98.145,586.878,456.7321059314742
506,1686714506.97,19.531,-102.539,5.371,29.297,586.882,451.2370241982616
507,1686714506.98,-52.734,104.004,98.145,-135.254,586.886,460.82357375058604
508,1686714506.98,-57.129,139.16,95.703,-104.492,586.89,462.3298133880728
509,1686714506.98,12.207,-376.465,-82.52,57.129,586.894,452.8502007616407
510,1686714506.99,18.066,-678.711,-151.367,49.316,586.897,446.80644799237234
511,1686714506.99,-65.43,-424.805,-114.258,-112.305,586.901,454.34595343644344
512,1686714507.0,-91.309,-280.273,-59.082,-135.742,586.905,441.39162623424056
513,1686714507.0,-5.859,-563.477,-165.527,32.227,586.909,450.89952664638383
514,1686714507.0,26.367,-910.156,-281.25,98.145,586.913,436.6175655365037
515,1686714507.01,-43.945,-209.473,81.543,-67.871,586.917,449.64697939701654
516,1686714507.02,-89.355,40.527,67.871,-159.18,586.92,438.7478428556231
517,1686714507.03,-41.992,-121.582,38.086,-31.25,586.924,442.6325579372407
518,1686714507.03,28.809,185.547,172.852,80.078,586.927,432.1281991187401
519,1686714507.04,2.93,338.379,156.738,-25.391,586.931,418.41493369059407
520,1686714507.04,-78.125,41.504,15.625,-155.273,586.935,423.83472720517636
521,1686714507.04,-65.43,-428.223,-100.586,-71.777,586.939,418.54200879608635
522,1686714507.05,27.344,-193.848,67.383,77.637,586.943,415.95417256569976
523,1686714507.05,26.367,325.195,202.148,18.555,586.947,412.29634412016
524,1686714507.06,-61.523,-10.742,-9.766,-136.719,586.951,403.6483519133076
525,1686714507.06,-70.801,-661.621,-235.84,-102.539,586.955,397.7352945021341
526,1686714507.06,2.93,-342.773,-4.883,49.805,586.959,394.8636672160244
527,1686714507.07,26.855,236.328,205.078,50.293,586.963,405.58077877644536
528,1686714507.07,-41.016,-167.48,-92.285,-101.562,586.965,394.8649035461329
529,1686714507.07,-95.215,-534.18,-229.004,-151.855,586.969,391.52164085994866
530,1686714507.08,-34.668,97.168,162.598,-8.301,586.973,391.74287352984294
531,1686714507.08,24.414,382.812,202.148,72.754,586.977,386.10010102649636
532,1686714507.09,-29.785,-58.105,-27.832,-60.059,586.981,375.68828386710686
533,1686714507.09,-87.402,-455.078,-160.645,-149.902,586.985,365.64580502120907
534,1686714507.09,-53.223,-377.441,-65.43,-43.945,586.988,372.6856007773917
535,1686714507.1,21.973,-164.062,67.871,83.984,586.992,366.94354514959775
536,1686714507.1,-7.324,-485.352,-182.129,11.719,586.996,351.88750857050866
537,1686714507.1,-100.586,-981.445,-385.742,-138.672,587.0,357.4569295381502
538,1686714507.11,-87.402,-177.246,91.797,-104.98,587.004,360.3998192117289
539,1686714507.11,0.0,367.188,165.527,62.988,587.008,344.83167300434644
540,1686714507.11,19.043,-108.398,-34.18,34.668,587.024,350.5545318808109
541,1686714507.12,-61.523,-105.957,55.176,-138.672,587.028,347.0740350554643
542,1686714507.12,-96.191,258.301,143.555,-128.418,587.032,354.40833944184897
543,1686714507.13,5.371,197.266,82.52,42.48,587.036,330.230041845757
544,1686714507.13,55.176,-82.52,13.672,70.312,587.04,328.14174057216616
545,1686714507.13,-34.668,-267.578,-42.48,-81.543,587.044,327.94540733736466
546,1686714507.14,-89.844,-191.406,30.762,-150.879,587.047,340.269018509269
547,1686714507.14,-30.273,-33.203,54.199,-18.066,587.051,318.9571808015025
548,1686714507.14,30.273,-518.555,-125.0,90.332,587.055,319.95909448151184
549,1686714507.15,-12.695,-328.613,3.418,-42.48,587.059,316.6919291853277
550,1686714507.15,-92.773,208.496,121.094,-165.039,587.063,314.3064142924424
551,1686714507.16,-64.941,-16.113,21.973,-49.316,587.067,310.5678481003416
552,1686714507.16,28.32,-9.277,47.363,89.355,587.055,314.94968503526974
553,1686714507.16,12.207,234.863,121.094,13.184,587.059,303.175050180338
554,1686714507.17,-68.359,136.23,36.133,-134.277,587.062,305.0608983590802
555,1686714507.17,-48.34,-458.496,-164.062,-79.59,587.066,299.23866481706733
556,1686714507.18,25.391,-475.586,-105.469,77.148,587.07,300.44561984755643
557,1686714507.18,28.32,-81.543,66.406,53.223,587.074,307.10299973166593
558,1686714507.18,-56.152,-258.789,-71.777,-98.633,587.078,298.68341942411297
559,1686714507.19,-93.262,-736.816,-300.781,-104.98,587.082,284.18905230501747
560,1686714507.19,-16.602,-614.746,-160.645,47.852,587.086,292.5455487676507
561,1686714507.19,33.691,227.051,179.688,76.172,587.09,294.7648465335743
562,1686714507.2,-30.762,299.316,115.234,-81.543,587.094,288.89933674406524
563,1686714507.2,-91.309,-537.109,-291.016,-143.066,587.098,285.90842615660483
564,1686714507.2,-45.898,-761.23,-259.277,-6.836,587.1,286.8488697028188
565,1686714507.21,20.02,192.871,176.27,77.637,587.103,288.6165566337273
566,1686714507.21,-15.625,222.656,33.691,-38.086,587.107,291.84873000324313
567,1686714507.22,-88.379,-115.723,-3.906,-157.227,587.111,293.13985814999995
568,1686714507.22,-64.941,36.133,104.004,-58.105,587.115,284.7817588029909
569,1686714507.22,15.137,47.852,82.031,86.914,587.119,295.7935734816399
570,1686714507.23,15.625,-89.355,25.879,16.602,587.123,274.98386957299624
571,1686714507.23,-61.523,-771.973,-373.047,-117.188,587.127,290.56004960104644
572,1686714507.24,-81.055,-643.555,-213.867,-89.355,587.131,290.8492804596018
573,1686714507.24,3.906,319.336,218.262,51.758,587.135,290.73238918491677
574,1686714507.24,41.504,150.391,30.273,74.219,587.139,285.15850587127295
575,1686714507.25,-37.109,-88.379,-34.668,-81.543,587.143,284.0942254969898
576,1686714507.25,-90.82,176.758,123.535,-124.023,587.145,290.7859411732983
577,1686714507.25,-26.367,347.656,170.898,28.809,587.149,290.5221793168807
578,1686714507.26,27.832,57.129,41.504,98.145,587.153,279.3693320802798
579,1686714507.26,-41.016,-89.844,5.859,-48.34,587.157,291.0693222178819
580,1686714507.26,-110.352,101.074,51.27,-143.555,587.16,287.07881349488787
581,1686714507.27,-60.547,-12.695,60.059,-14.16,587.164,289.44005824810984
582,1686714507.27,-3.418,-500.0,-165.527,105.957,587.168,286.16776735653394
583,1686714507.28,-35.156,-876.465,-329.59,0.488,587.172,307.30918001437493
584,1686714507.28,-110.84,-472.656,-48.828,-163.086,587.176,291.8372103178371
585,1686714507.28,-99.121,125.488,130.371,-86.426,587.18,298.24655992409583
586,1686714507.29,-6.348,-314.453,-107.422,87.891,587.184,291.96047345407675
587,1686714507.29,-8.301,-580.566,-173.828,37.109,587.188,292.1742424587914
588,1686714507.29,-81.055,164.062,118.652,-127.441,587.203,299.1552578742593
589,1686714507.3,-77.637,136.719,59.57,-110.84,587.207,302.8620501431732
590,1686714507.3,-13.184,35.645,87.402,44.434,587.211,299.7936750622781
591,1686714507.31,1.465,254.883,171.387,49.316,587.215,295.98327271978746
592,1686714507.31,-54.688,208.984,64.941,-115.234,587.219,302.99464909672884
593,1686714507.31,-92.285,-252.441,-150.879,-151.855,587.223,303.4629218699309
594,1686714507.32,-35.645,-670.898,-207.52,8.789,587.227,298.86234907563056
595,1686714507.32,22.461,-199.219,65.918,77.637,587.23,299.4467443773864
596,1686714507.32,-26.855,316.895,166.992,-62.5,587.234,301.65555107309143
597,1686714507.33,-97.168,-78.125,-55.664,-154.785,587.238,296.69726001286665
598,1686714507.33,-55.176,-369.629,-107.91,-41.504,587.242,303.6757774861981
599,1686714507.34,16.602,-75.195,85.938,80.078,587.246,305.9576799553742
600,1686714507.34,-6.836,285.156,160.156,-20.508,587.249,308.1970343933012
601,1686714507.34,-78.125,-244.629,-143.066,-149.414,587.252,320.63037455886905
602,1686714507.35,-78.125,-565.918,-228.027,-80.078,587.256,312.7803171830515
603,1686714507.35,2.441,177.734,168.945,62.5,587.26,309.76554135310465
604,1686714507.36,12.695,376.953,154.785,36.621,587.264,314.20330804859077
605,1686714507.36,-67.871,-370.605,-188.477,-108.887,587.268,313.5111504945567
606,1686714507.36,-84.961,-738.77,-262.207,-106.934,587.272,318.82235039838963
607,1686714507.37,-21.484,-293.945,12.695,49.316,587.276,321.07230217702494
608,1686714507.37,17.09,167.48,143.555,75.195,587.28,314.6727957802338
609,1686714507.38,-33.203,-375.488,-210.938,-68.848,587.284,315.8367815977115
610,1686714507.38,-97.168,-770.02,-288.574,-137.695,587.288,313.513236944899
611,1686714507.38,-42.969,140.137,170.898,-8.301,587.292,322.5626445595051
612,1686714507.4,20.996,309.57,123.047,90.332,587.295,321.81496434525764
613,1686714507.4,-33.203,-181.152,-84.961,-40.527,587.299,318.81130435126454
614,1686714507.41,-75.684,-205.566,-42.48,-146.973,587.303,320.12066176788784
615,1686714507.41,-24.902,210.449,157.227,-30.762,587.307,327.71119874482133
616,1686714507.42,28.809,268.555,110.84,99.121,587.311,325.34603440458545
617,1686714507.42,-10.742,-472.656,-178.711,23.438,587.315,319.94040941121364
618,1686714507.42,-92.285,-554.199,-77.637,-132.812,587.318,324.85355248305723
619,1686714507.43,-82.52,142.578,132.812,-96.191,587.322,332.47057616346274
620,1686714507.43,-17.578,79.59,32.227,73.73,587.326,329.7384470948987
621,1686714507.44,-16.113,-276.367,-44.434,73.242,587.33,324.8296467729015
622,1686714507.44,-66.895,-35.645,69.336,-94.238,587.334,319.9156266335858
623,1686714507.44,-87.402,232.91,130.371,-131.348,587.338,328.57564351648915
624,1686714507.44,-25.391,61.035,46.387,41.504,587.34,329.4409618476377
625,1686714507.45,28.809,-10.254,25.879,102.539,587.343,332.6130000299942
626,1686714507.45,-16.602,174.316,85.449,-44.434,587.347,339.14201740551425
627,1686714507.46,-82.031,50.781,14.648,-115.234,587.351,332.09045584889463
628,1686714507.46,-33.203,-473.633,-143.555,29.297,587.355,338.1681091172871
629,1686714507.46,34.18,-621.582,-156.738,128.418,587.359,335.57637762091883
630,1686714507.47,-2.441,-316.895,-27.344,-10.254,587.363,330.85057608735843
631,1686714507.47,-80.078,-306.152,-89.355,-126.465,587.367,335.17673947932445
632,1686714507.48,-62.012,-655.762,-263.672,-18.555,587.371,328.8631471920358
633,1686714507.48,12.207,-923.34,-282.227,123.535,587.375,335.7138442911415
634,1686714507.48,3.418,-230.469,29.785,37.109,587.379,325.04540225427667
635,1686714507.49,-76.172,-81.543,-47.363,-112.305,587.383,338.94445615007527
636,1686714507.49,-95.215,-251.465,-47.852,-83.496,587.384,338.8899951443308
637,1686714507.49,-21.973,94.727,123.047,66.895,587.388,337.0250620901754
638,1686714507.5,24.902,366.211,149.414,76.66,587.392,340.7198750688906
639,1686714507.5,-51.27,111.328,-7.812,-86.914,587.396,341.93302055341707
640,1686714507.5,-108.887,-218.75,-57.129,-131.836,587.4,335.4355760662612
641,1686714507.51,-30.273,-235.352,25.879,23.926,587.404,343.94720920208084
642,1686714507.51,19.531,-200.684,5.371,85.449,587.408,343.18469836048286
643,1686714507.52,-40.527,-223.145,-42.48,-65.918,587.412,338.31696045288174
644,1686714507.52,-102.539,-826.66,-369.141,-150.391,587.416,347.71142980293837
645,1686714507.52,-55.664,-543.945,-189.941,-27.344,587.42,337.1565508737269
646,1686714507.53,30.273,349.121,202.148,82.031,587.424,346.31920879917425
647,1686714507.53,14.648,47.363,-28.809,-2.93,587.427,329.5753506450075
648,1686714507.54,-58.105,-160.156,-108.398,-129.883,587.43,350.1427974893085
649,1686714507.54,-31.738,206.055,129.883,-61.523,587.434,334.21730696781503
650,1686714507.54,55.176,416.992,170.41,101.074,587.438,346.6456914428014
651,1686714507.55,41.504,75.684,46.387,61.523,587.442,342.55844103431383
652,1686714507.55,-45.41,-170.898,-3.906,-107.91,587.446,349.33278181809845
653,1686714507.56,-68.359,-175.293,-11.23,-101.074,587.45,346.3084651637212
654,1686714507.56,0.488,-164.062,54.199,66.895,587.453,348.34744288880626
655,1686714507.56,49.805,-479.004,-155.273,98.633,587.457,349.5059845058794
656,1686714507.57,-31.25,-997.07,-437.988,-59.57,587.461,351.2407857281372
657,1686714507.57,-96.68,-499.512,-80.078,-129.883,587.465,341.9614681212508
658,1686714507.57,-11.23,162.598,147.949,32.715,587.469,349.9687015891995
659,1686714507.58,58.105,-67.871,17.578,134.277,587.473,351.11923454653333
660,1686714507.58,-0.977,-130.859,0.488,-14.16,587.475,353.2726945740007
661,1686714507.58,-79.102,201.66,109.375,-133.789,587.479,349.3094569771894
662,1686714507.59,-62.012,145.02,80.078,-17.09,587.483,342.2800257819706
663,1686714507.59,31.25,89.844,81.055,115.723,587.486,357.18325034057113
664,1686714507.6,27.344,174.316,98.633,20.02,587.49,362.7040057707251
665,1686714507.6,-65.918,-91.797,-53.223,-134.766,587.494,355.6441027773732
666,1686714507.6,-73.242,-322.266,-104.98,-78.125,587.498,354.1809925994761
667,1686714507.61,2.93,-580.078,-125.977,71.289,587.502,349.5763468861253
668,1686714507.61,19.043,-230.469,35.645,20.508,587.506,360.3946181767018
669,1686714507.62,-50.781,276.367,143.066,-142.09,587.51,357.47401863695296
670,1686714507.62,-73.242,-35.645,11.23,-144.531,587.514,354.8791151046038
671,1686714507.62,-2.441,-222.656,-20.508,17.09,587.518,344.85325658501296
672,1686714507.62,22.461,18.555,91.309,50.293,587.52,352.83459703586567
673,1686714507.63,-48.828,281.25,172.363,-97.656,587.524,357.9668536021131
674,1686714507.63,-86.426,-250.488,-114.258,-144.531,587.528,348.52440087799204
675,1686714507.64,-29.297,-495.605,-181.641,3.418,587.532,343.5900995778287
676,1686714507.64,40.527,128.906,103.516,83.496,587.536,353.5546228026963
677,1686714507.64,3.906,10.254,17.09,-46.875,587.54,349.3411507288995
678,1686714507.65,-84.473,-622.559,-308.594,-140.625,587.544,348.9605405951883
679,1686714507.65,-66.406,-941.406,-369.629,-35.645,587.548,355.62492802969854
680,1686714507.66,9.277,-127.93,93.262,79.102,587.551,346.4350252433629
681,1686714507.66,1.465,290.039,117.188,8.301,587.555,357.53119046920114
682,1686714507.66,-68.359,-31.25,-35.645,-134.277,587.559,365.5723228347793
683,1686714507.67,-69.336,42.969,15.137,-89.355,587.563,349.15201619568467
684,1686714507.67,12.695,358.398,149.414,65.918,587.579,361.4901998252813
685,1686714507.68,29.297,250.977,60.059,54.688,587.583,352.54215515647576
686,1686714507.68,-63.477,-276.367,-128.906,-103.027,587.587,363.29608729553223
687,1686714507.68,-84.473,-107.422,34.668,-135.254,587.591,360.8624157095199
688,1686714507.69,-17.09,293.945,183.594,18.555,587.595,351.6728227920939
689,1686714507.69,22.949,46.875,47.363,85.938,587.598,365.3056032404076
690,1686714507.7,-36.621,-720.215,-314.453,-48.828,587.602,361.28149241942594
691,1686714507.7,-91.309,-562.5,-157.715,-145.02,587.606,369.61361763526793
692,1686714507.7,-13.672,277.832,214.355,-20.02,587.61,361.94856032064104
693,1686714507.71,41.016,183.105,81.055,93.75,587.614,354.9918321116132
694,1686714507.71,1.465,-91.797,-49.316,-25.879,587.618,356.5776234153065
695,1686714507.71,-52.734,29.297,49.316,-152.832,587.622,352.48872671127793
696,1686714507.72,-46.387,219.727,153.32,-58.594,587.624,352.1074300772198
697,1686714507.72,26.367,89.844,47.852,91.309,587.628,363.28768340506275
698,1686714507.72,12.695,-9.766,37.598,36.621,587.632,348.5026002621852
699,1686714507.73,-65.43,156.25,89.844,-129.883,587.636,370.2266220820987
700,1686714507.73,-79.59,79.59,54.199,-102.051,587.64,365.8865467074333
701,1686714507.74,0.977,-477.539,-159.18,87.402,587.644,375.1355631058723
702,1686714507.74,22.461,-771.484,-210.449,80.566,587.648,355.7123632010994
703,1686714507.74,-68.359,-442.871,-90.82,-104.492,587.652,358.4228831383179
704,1686714507.75,-112.793,-140.625,-56.641,-160.156,587.655,351.29011798060736
705,1686714507.75,-60.547,-462.891,-142.09,2.93,587.659,360.6254926918917
706,1686714507.75,-10.254,-796.387,-229.492,82.031,587.663,360.99247944245224
707,1686714507.76,-33.691,-5.859,93.262,-76.66,587.667,357.55888649841967
708,1686714507.77,-73.242,138.184,48.828,-151.855,587.669,372.8284439924907
709,1686714507.78,-59.57,-110.352,11.23,-44.434,587.673,367.59027026543663
710,1686714507.78,3.418,136.23,98.145,54.688,587.677,365.9337008832434
711,1686714507.79,-20.02,345.703,128.906,-47.852,587.681,361.17992048827097
712,1686714507.79,-113.77,61.035,-1.465,-189.941,587.685,353.5444719875454
713,1686714507.79,-116.211,-397.461,-113.281,-110.352,587.689,362.31296573974953
714,1686714507.8,-33.691,-189.453,42.48,24.902,587.693,359.3548298427402
715,1686714507.8,-25.879,-2.93,66.895,-28.32,587.697,360.68666797260755
716,1686714507.8,-103.516,-329.59,-143.555,-184.57,587.701,366.7816092458517
717,1686714507.81,-122.07,-757.812,-280.273,-170.898,587.705,367.37076028837896
718,1686714507.81,-48.34,-261.719,27.832,-15.137,587.708,373.72025481614185
719,1686714507.82,-6.836,370.605,173.34,-1.953,587.712,362.2036016127862
720,1686714507.82,-66.895,-59.082,-45.898,-145.508,587.715,364.46834886483015
721,1686714507.82,-111.816,-190.43,-49.316,-183.105,587.719,370.6827225901259
722,1686714507.83,-47.852,229.98,153.32,-26.367,587.723,367.02191747078933
723,1686714507.83,23.926,370.605,143.066,66.895,587.727,364.75403017249033
724,1686714507.84,-14.16,-86.914,-30.762,-62.012,587.731,360.3488749124503
725,1686714507.84,-74.219,-479.492,-176.27,-163.086,587.734,364.521192915557
726,1686714507.84,-38.086,-333.984,-102.051,-47.852,587.738,358.30999668201326
727,1686714507.85,22.461,-109.863,80.078,76.172,587.742,368.8800480781357
728,1686714507.85,3.906,-453.613,-166.016,0.488,587.746,361.2713899799604
729,1686714507.86,-75.195,-1000.0,-469.238,-138.184,587.75,369.473140512815
730,1686714507.86,-72.754,-472.168,-74.219,-94.727,587.754,372.91304308775887
731,1686714507.86,13.184,333.496,209.473,54.199,587.758,371.03995178171976
732,1686714507.86,21.973,-322.754,-151.367,46.387,587.76,369.30584587218397
733,1686714507.87,-56.152,-614.258,-207.031,-102.539,587.764,365.36728987298426
734,1686714507.87,-58.594,192.871,124.023,-121.582,587.768,365.8779808083974
735,1686714507.88,12.207,303.711,111.328,46.387,587.771,365.9432572042599
736,1686714507.88,27.344,114.258,65.918,75.684,587.775,370.4877259759467
737,1686714507.88,-27.832,-161.621,5.859,-73.242,587.779,373.5474885830346
738,1686714507.89,-79.102,-132.324,42.969,-134.277,587.783,361.1915777290795
739,1686714507.89,-31.25,87.891,66.895,8.789,587.787,364.413577399485
740,1686714507.9,50.293,-447.266,-108.887,115.723,587.791,364.35263989282254
741,1686714507.9,15.137,-237.793,26.367,-21.484,587.795,363.4313440353793
742,1686714507.9,-71.289,256.836,101.562,-146.484,587.799,361.1253657151837
743,1686714507.91,-46.875,-106.445,-15.137,-41.992,587.803,363.1682583898328
744,1686714507.91,21.973,-239.746,-16.602,95.215,587.818,370.177496610642
745,1686714507.91,-6.348,50.781,62.988,8.301,587.822,375.6088862512962
746,1686714507.92,-86.426,238.281,101.074,-152.832,587.826,369.3447474543955
747,1686714507.92,-99.121,-280.273,-112.305,-104.98,587.83,375.5801073501078
748,1686714507.93,-5.371,-451.66,-145.02,59.082,587.834,375.5754896035771
749,1686714507.93,27.344,-78.125,41.992,35.645,587.838,360.46177615102994
750,1686714507.93,-62.012,-212.891,-68.848,-127.93,587.842,373.30454424115965
751,1686714507.94,-107.422,-649.414,-321.777,-138.184,587.846,365.903983549217
752,1686714507.94,-38.086,-935.059,-316.406,22.461,587.85,368.8421870214288
753,1686714507.94,5.859,-129.395,99.609,61.035,587.854,376.8001671087372
754,1686714507.95,-42.48,232.422,70.801,-86.426,587.857,365.6425982976884
755,1686714507.95,-86.426,-113.77,-62.988,-164.062,587.861,370.6979848127473
756,1686714507.96,-32.715,82.52,99.121,-32.227,587.85,367.4248096514151
757,1686714507.96,30.273,428.711,213.379,86.426,587.854,365.95251665890055
758,1686714507.96,-6.836,195.312,34.668,-26.855,587.858,370.32941743342593
759,1686714507.97,-85.938,-272.949,-138.672,-164.551,587.862,359.7347516028018
760,1686714507.97,-76.66,-45.41,51.758,-83.984,587.866,382.7144245519698
761,1686714507.98,9.766,106.934,106.934,53.711,587.869,367.43454500131213
762,1686714507.98,17.578,-144.531,-47.852,-12.695,587.873,364.4200975935917
763,1686714507.98,-71.777,-646.973,-217.285,-159.18,587.877,372.8301905170839
764,1686714507.99,-114.258,-377.93,-22.949,-137.695,587.881,367.9094532769878
765,1686714507.99,-31.738,403.809,198.242,5.371,587.885,366.2152485153796
766,1686714507.99,17.578,105.469,-5.859,21.973,587.889,365.0999254187611
767,1686714508.0,-47.852,-421.875,-152.832,-126.953,587.893,364.8859801087092
768,1686714508.0,-95.703,-42.48,74.707,-171.387,587.895,365.2546199106046
769,1686714508.0,-34.18,337.891,149.902,-5.859,587.899,378.60676343530065
770,1686714508.01,31.25,50.293,7.812,73.242,587.903,375.74709051348697
771,1686714508.01,-25.391,-96.191,-8.789,-76.66,587.907,364.2106325057473
772,1686714508.02,-96.191,26.855,-3.906,-174.316,587.911,365.7081013451229
773,1686714508.02,-41.016,-75.195,7.812,-46.875,587.915,369.9559134526146
774,1686714508.02,22.949,-461.914,-148.438,82.52,587.919,361.26656411162804
775,1686714508.03,0.0,-974.609,-397.461,-9.277,587.922,379.13375197963006
776,1686714508.03,-53.711,-460.449,-57.129,-150.391,587.926,361.75982884306586
777,1686714508.03,-45.898,182.617,124.023,-76.172,587.93,367.5164836281129
778,1686714508.04,32.715,-307.129,-97.168,97.656,587.934,366.96691011586984
779,1686714508.04,39.551,-370.605,-36.133,58.594,587.938,374.7654736215236
780,1686714508.04,-30.762,250.0,144.531,-119.629,587.954,366.97623765903603
781,1686714508.05,-46.875,133.789,32.227,-112.305,587.958,361.52103866988085
782,1686714508.05,27.344,-7.812,32.227,63.965,587.961,375.01585062189
783,1686714508.06,66.406,179.199,102.051,82.031,587.965,369.79241675130555
784,1686714508.06,-1.465,233.398,60.547,-77.148,587.969,375.1318448704896
785,1686714508.06,-60.547,-175.781,-125.0,-114.258,587.973,366.8183622405139
786,1686714508.07,-7.812,-668.457,-212.891,42.969,587.977,364.3292529720916
787,1686714508.07,53.711,-242.188,54.199,113.281,587.981,368.624571742686
788,1686714508.08,12.207,40.527,27.344,-28.32,587.985,365.45619110870274
789,1686714508.08,-62.988,-424.316,-267.09,-120.117,587.989,367.91257987233223
790,1686714508.08,-33.203,-429.199,-142.09,-7.812,587.993,368.7207196313603
791,1686714508.09,55.176,191.406,141.113,104.98,587.997,366.5117001801325
792,1686714508.09,34.668,398.926,123.535,16.602,587.999,363.80723514522697
793,1686714508.09,-58.594,-52.246,-34.668,-120.605,588.003,370.8584006007542
794,1686714508.1,-55.664,-151.855,-16.602,-69.824,588.007,374.2134485278096
795,1686714508.1,31.25,317.383,182.129,85.449,588.011,375.8469872741472
796,1686714508.11,32.227,292.48,97.656,44.922,588.015,378.51899953567244
797,1686714508.11,-47.363,-510.742,-239.258,-104.492,588.019,362.9669313280066
798,1686714508.11,-75.684,-739.746,-261.719,-94.238,588.023,364.42389516685785
799,1686714508.12,-0.488,-276.855,-15.137,49.805,588.027,376.3350582222437
800,1686714508.12,49.805,-105.957,58.594,91.309,588.03,364.80100959997407
801,1686714508.12,-20.02,-518.066,-258.301,-58.594,588.034,369.984756855486
802,1686714508.13,-90.82,-957.52,-450.684,-142.09,588.038,372.18971897566746
803,1686714508.13,-38.574,-251.465,23.926,-4.395,588.042,369.4354580380419
804,1686714508.15,22.949,303.711,138.184,90.82,588.045,371.4587148819409
805,1686714508.15,-28.809,-186.035,-84.473,-44.434,588.049,366.7856163952354
806,1686714508.16,-94.727,-248.047,-16.602,-158.203,588.053,365.973466875399
807,1686714508.16,-79.102,239.258,133.301,-60.547,588.057,379.3845860090151
808,1686714508.17,0.0,284.18,85.938,70.801,588.061,384.05277388729513
809,1686714508.17,1.465,-218.75,-85.449,9.766,588.065,371.96604636001024
810,1686714508.17,-82.52,-292.48,-26.367,-137.207,588.068,369.8238316357321
811,1686714508.18,-85.449,195.801,120.605,-108.887,588.072,375.18166978734615
812,1686714508.18,-4.883,135.254,34.668,55.176,588.076,367.1120947504534
813,1686714508.18,0.977,-365.234,-107.91,39.551,588.08,371.2370077552981
814,1686714508.19,-78.125,-105.957,18.066,-130.859,588.084,385.21278460135596
815,1686714508.19,-105.957,257.324,113.281,-151.367,588.088,381.53304486238824
816,1686714508.2,-28.809,18.066,1.953,0.0,588.091,375.0363205127449
817,1686714508.2,23.438,-246.582,-72.754,56.152,588.095,370.17457502629065
818,1686714508.2,-35.156,-34.668,20.02,-99.609,588.098,375.2303442539795
819,1686714508.21,-92.285,240.234,113.77,-179.199,588.102,376.3986895384388
820,1686714508.21,-59.082,-189.941,-57.129,-20.508,588.106,372.05032914246027
821,1686714508.22,1.465,-570.801,-187.012,89.844,588.11,373.0838551898108
822,1686714508.22,-18.555,-321.777,-83.984,-37.598,588.114,376.0190166785002
823,1686714508.22,-86.426,-226.074,-126.953,-166.016,588.118,380.8375402142713
824,1686714508.23,-72.754,-619.629,-277.344,-73.242,588.122,378.9869889676839
825,1686714508.23,5.371,-645.02,-182.129,65.918,588.126,366.3360443501983
826,1686714508.23,2.441,154.785,148.926,4.395,588.13,366.14396374508846
827,1686714508.24,-73.242,225.098,35.645,-138.184,588.134,366.8535096663685
828,1686714508.24,-85.449,-425.781,-162.109,-111.816,588.134,375.14169472725075
829,1686714508.24,-0.977,-261.719,33.203,51.27,588.138,372.48036201262636
830,1686714508.25,24.414,392.09,187.5,39.551,588.142,382.6231996054292
831,1686714508.25,-50.781,64.453,-35.156,-126.953,588.146,380.085850263844
832,1686714508.26,-93.75,-283.691,-64.941,-145.996,588.15,386.7056785722177
833,1686714508.26,-35.645,-236.328,51.27,7.812,588.154,378.9431074781303
834,1686714508.26,22.949,14.16,123.047,81.055,588.158,378.61470641471476
835,1686714508.27,-25.391,38.086,24.902,-49.805,588.162,381.4988609145108
836,1686714508.27,-85.938,-710.449,-316.895,-129.883,588.166,375.56893759591316
837,1686714508.28,-42.48,-390.137,-19.043,-31.738,588.17,365.24065219518707
838,1686714508.28,29.785,437.012,229.98,71.289,588.173,382.0558658796537
839,1686714508.28,-12.207,66.895,-27.832,-8.301,588.177,366.91409382472375
840,1686714508.28,-96.68,-241.211,-119.629,-161.621,588.18,374.2143295163256
841,1686714508.29,-71.289,86.914,69.824,-99.121,588.184,368.2066635946757
842,1686714508.29,20.508,338.867,126.465,75.684,588.188,374.33727047564116
843,1686714508.3,31.738,48.828,30.273,45.41,588.192,375.8680614877011
844,1686714508.3,-57.617,-169.434,-45.898,-102.539,588.196,370.8283420961869
845,1686714508.3,-92.285,-244.141,-141.113,-79.59,588.2,371.91088643795564
846,1686714508.31,-18.555,-229.492,-15.625,65.43,588.204,374.2980552033507
847,1686714508.31,10.742,-425.293,-116.211,74.219,588.207,383.5939074104932
848,1686714508.32,-61.523,-1000.0,-535.645,-74.707,588.211,364.14426782008996
849,1686714508.32,-98.145,-587.891,-189.941,-152.344,588.215,366.5644094301086
850,1686714508.32,-32.227,172.852,144.531,-9.277,588.219,373.6306024420931
851,1686714508.33,23.438,83.496,61.523,89.844,588.223,370.7063550263046
852,1686714508.33,-26.367,125.977,77.637,-45.898,588.227,372.65796389365033
853,1686714508.33,-105.469,220.703,99.609,-157.227,588.231,366.42158009340386
854,1686714508.34,-76.172,149.414,87.891,-42.969,588.235,372.5334552703704
855,1686714508.34,20.996,3.418,47.363,83.008,588.238,369.67414795844473
856,1686714508.35,13.184,51.758,47.852,-10.254,588.242,378.4219455350596
857,1686714508.35,-86.426,-127.93,-88.867,-151.367,588.246,372.2541514146696
858,1686714508.35,-79.59,-345.703,-195.801,-88.867,588.25,375.70742488168906
859,1686714508.36,3.906,-586.426,-182.129,70.801,588.254,380.8341344245929
860,1686714508.36,7.812,-324.707,10.742,31.25,588.258,360.2361658174631
861,1686714508.36,-65.43,-73.242,-36.621,-140.137,588.262,375.6782191840967
862,1686714508.37,-93.262,-428.223,-226.562,-136.23,588.266,374.2439994102406
863,1686714508.37,-16.113,-379.883,-91.309,30.273,588.27,376.9670447733209
864,1686714508.39,27.832,194.824,146.973,58.105,588.298,370.80201982780466
865,1686714508.39,-28.32,282.715,102.051,-87.402,588.302,370.9170481086165
866,1686714508.4,-79.102,-98.633,-31.25,-132.812,588.306,374.5192432580448
867,1686714508.4,-44.922,-29.785,35.645,4.883,588.31,371.08128998042594
868,1686714508.4,9.766,294.922,129.883,77.637,588.314,389.3466556245195
869,1686714508.41,-21.973,32.715,14.16,-46.875,588.318,380.0886006272119
870,1686714508.41,-91.309,-645.508,-308.105,-145.02,588.322,364.1043428048178
871,1686714508.42,-70.312,-893.555,-351.074,-40.039,588.326,369.5885345010695
872,1686714508.42,8.301,-42.969,121.094,83.496,588.33,374.99874170339046
873,1686714508.42,-22.949,38.574,91.309,34.668,588.317,369.5648454279303
874,1686714508.42,-5.859,315.43,128.906,8.301,588.334,371.27215119009253
875,1686714508.42,8.789,238.281,90.82,25.391,588.32,370.325453307151
876,1686714508.43,-89.844,-122.07,-80.566,-138.672,588.337,370.22825882480504
877,1686714508.43,-48.828,-264.648,-87.891,-116.211,588.324,367.9628483021435
878,1686714508.43,-84.473,-273.438,-54.688,-109.863,588.341,367.5066790873427
879,1686714508.43,-103.516,-233.398,-20.02,-145.02,588.328,363.35310438699435
880,1686714508.44,-30.273,291.504,159.18,4.883,588.332,371.39298914774463
881,1686714508.44,25.879,52.246,55.664,68.359,588.336,372.65674512019234
882,1686714508.44,-33.691,-360.352,-72.754,-74.219,588.34,377.11755323403645
883,1686714508.45,-83.496,-108.398,30.762,-161.133,588.344,376.0635866442932
884,1686714508.45,-33.203,229.492,121.094,-28.809,588.348,370.3256946970019
885,1686714508.46,44.922,67.383,-1.465,99.121,588.352,364.8960645589691
886,1686714508.46,11.23,-515.625,-204.59,-9.766,588.356,364.83817470609637
887,1686714508.46,-70.312,-293.945,-21.484,-159.18,588.36,371.03695950895127
888,1686714508.48,-57.129,235.84,148.438,-84.473,588.376,378.50118733671246
889,1686714508.48,14.648,-87.891,-52.246,70.312,588.38,367.23995874590184
890,1686714508.49,8.301,-596.191,-226.562,27.344,588.384,377.71733951676254
891,1686714508.49,-62.012,-178.711,-5.371,-129.395,588.388,369.5487378795325
892,1686714508.5,-73.242,192.871,124.023,-116.211,588.392,377.2571348411377
893,1686714508.5,-1.465,-354.98,-119.629,62.988,588.395,364.6509585901628
894,1686714508.5,19.531,-940.918,-326.66,89.355,588.399,382.020117627983
895,1686714508.51,-58.594,-504.395,-62.5,-92.773,588.403,354.38407104376245
896,1686714508.51,-95.215,34.18,70.312,-147.461,588.407,371.67439584724855
897,1686714508.52,-33.691,-380.859,-113.77,9.766,588.411,375.2109587160082
898,1686714508.52,18.066,-410.156,-51.758,80.566,588.415,368.97049116021645
899,1686714508.52,-22.949,258.301,166.016,-69.336,588.419,377.2523940781021
900,1686714508.52,-80.078,107.91,15.625,-162.598,588.42,373.1185995736521
901,1686714508.53,-49.805,-57.129,38.574,-47.363,588.423,372.0653125625586
902,1686714508.53,22.949,217.773,180.664,73.242,588.427,370.49368066345954
903,1686714508.54,10.742,356.445,119.141,-15.625,588.431,373.99930776161915
904,1686714508.54,-68.359,10.742,-46.875,-152.832,588.435,372.2048275657494
905,1686714508.54,-57.617,-351.562,-62.988,-86.914,588.439,376.506615734145
906,1686714508.55,16.113,-262.207,26.855,62.5,588.443,374.04539823509197
907,1686714508.55,21.973,-14.648,100.586,15.137,588.447,373.1876242035934
908,1686714508.56,-52.246,-92.285,-18.066,-140.625,588.451,360.07477013287905
909,1686714508.56,-95.215,-720.215,-279.297,-119.141,588.455,370.8589655530133
910,1686714508.56,-35.645,-322.266,50.781,16.602,588.459,370.8511389306818
911,1686714508.57,5.859,423.34,234.863,41.504,588.463,372.3720017146699
912,1686714508.57,-52.734,13.672,-35.645,-91.797,588.465,370.14175390227393
913,1686714508.57,-104.98,-239.258,-74.219,-145.508,588.469,373.1904588600904
914,1686714508.58,-43.457,125.977,100.586,-0.977,588.473,367.50620549258
915,1686714508.58,31.738,356.934,156.25,87.402,588.477,381.00353124834373
916,1686714508.58,-9.766,-27.832,-20.508,-31.25,588.481,373.731209720516
917,1686714508.59,-83.008,-466.309,-187.5,-141.113,588.485,375.09461213745186
918,1686714508.59,-54.688,-376.465,-63.477,-35.156,588.489,366.3583670125885
919,1686714508.6,30.273,-147.949,73.242,106.934,588.492,376.0415286793429
920,1686714508.6,15.137,-506.348,-207.52,36.621,588.496,372.3189484143854
921,1686714508.6,-72.266,-961.914,-390.137,-117.188,588.5,368.74924861252566
922,1686714508.61,-83.984,-219.727,82.031,-78.613,588.504,375.14169931155476
923,1686714508.61,9.277,311.035,166.016,70.801,588.508,371.77077481800785
924,1686714508.62,34.18,-322.266,-110.352,48.828,588.51,377.74596789549094
925,1686714508.62,-51.758,-429.688,-62.012,-108.887,588.514,360.814969506944
926,1686714508.62,-85.449,187.012,131.836,-124.512,588.518,376.32013014795035
927,1686714508.63,-15.137,234.375,109.375,31.738,588.522,374.0326232394941
928,1686714508.63,33.203,82.031,81.543,83.008,588.525,364.9125249714824
929,1686714508.64,-34.668,-165.039,-2.93,-61.523,588.529,376.0883787654364
930,1686714508.64,-98.633,-194.824,13.184,-146.973,588.533,375.5451517026046
931,1686714508.64,-44.922,20.508,67.871,-10.254,588.537,367.24424125850675
932,1686714508.65,30.762,-462.402,-104.98,93.75,588.541,374.89167350847634
933,1686714508.65,-5.859,-395.508,-17.578,-36.133,588.545,384.68538939334957
934,1686714508.65,-88.379,-117.188,-27.344,-154.297,588.549,376.0124775271737
935,1686714508.66,-67.871,-432.129,-140.625,-48.34,588.553,373.9388789302526
936,1686714508.66,8.789,-347.656,-33.691,86.426,588.555,362.5098836626366
937,1686714508.66,0.488,180.176,129.395,-2.441,588.559,373.32878479651094
938,1686714508.67,-58.105,210.938,95.703,-146.973,588.563,386.8424549587915
939,1686714508.67,-67.383,-104.492,23.438,-104.492,588.567,377.0189854540456
940,1686714508.68,8.301,-25.391,60.059,50.781,588.571,375.04414152506774
941,1686714508.68,27.344,7.324,49.316,49.805,588.575,374.6732329095994
942,1686714508.68,-59.57,-243.164,-43.457,-113.77,588.578,370.39593720866543
943,1686714508.69,-82.52,-666.992,-304.199,-132.324,588.582,379.823758741376
944,1686714508.69,-24.902,-941.895,-339.355,26.855,588.586,378.2662303997944
945,1686714508.7,8.789,-108.887,124.023,63.477,588.59,377.93981518078397
946,1686714508.7,-38.574,262.207,131.836,-79.102,588.594,373.932155124514
947,1686714508.7,-102.539,-78.613,-46.387,-158.691,588.598,365.02457236990017
948,1686714508.71,-60.547,-99.121,17.578,-26.855,588.602,371.54081064069
949,1686714508.71,14.16,166.504,139.16,91.309,588.606,373.6244524053664
950,1686714508.71,-10.742,255.859,71.777,-13.672,588.609,362.0670531898041
951,1686714508.72,-88.379,-225.098,-91.309,-141.113,588.613,368.3084979054455
952,1686714508.72,-79.102,-116.211,34.18,-68.359,588.617,375.65403686291836
953,1686714508.73,0.0,134.277,111.816,74.219,588.621,368.55979213846604
954,1686714508.73,9.277,-76.172,-8.789,24.414,588.625,378.9625821523295
955,1686714508.73,-64.941,-581.543,-179.688,-123.047,588.629,372.51299034364894
956,1686714508.74,-86.914,-309.57,28.32,-116.211,588.633,379.5088152601566
957,1686714508.74,-11.23,372.559,209.961,36.621,588.637,369.5923507535387
958,1686714508.74,20.996,109.375,12.695,66.406,588.641,380.49702853027316
959,1686714508.75,-51.758,-163.574,-76.172,-83.496,588.645,372.0591121585836
960,1686714508.75,-98.145,99.609,108.887,-131.836,588.658,369.18375100671153
961,1686714508.75,-31.25,366.699,184.082,6.348,588.662,370.533679292271
962,1686714508.76,25.391,84.473,27.344,75.195,588.666,366.23859599093856
963,1686714508.76,-29.297,-293.457,-56.152,-62.5,588.67,375.78992481741295
964,1686714508.77,-90.332,-69.336,44.434,-155.762,588.673,380.31476830130856
965,1686714508.77,-47.852,-37.598,92.773,-24.902,588.677,371.8809801226784
966,1686714508.77,20.02,-448.242,-90.82,95.215,588.681,377.33321445254523
967,1686714508.78,-15.137,-1000.0,-530.273,4.395,588.685,379.47185982746447
968,1686714508.78,-92.773,-675.293,-214.844,-152.344,588.689,363.36109543899016
969,1686714508.78,-85.938,96.68,147.461,-96.68,588.693,373.17413987138576
970,1686714508.79,-1.953,98.145,88.867,68.359,588.697,374.50074666769876
971,1686714508.79,23.438,129.883,128.906,28.32,588.701,378.94533472921637
972,1686714508.79,-60.059,218.262,114.746,-132.324,588.703,372.63331086369794
973,1686714508.8,-96.68,78.125,66.406,-125.0,588.707,387.88077377131583
974,1686714508.8,-11.719,0.977,100.098,27.832,588.711,381.53310102993726
975,1686714508.81,32.715,207.031,153.32,48.34,588.715,375.11333641302707
976,1686714508.81,-36.621,197.266,55.664,-97.168,588.719,381.69897899143507
977,1686714508.81,-90.82,-172.852,-69.336,-150.879,588.722,372.4565646424798
978,1686714508.82,-29.297,-645.02,-140.625,2.441,588.726,370.49219353637613
979,1686714508.82,30.762,-333.008,29.297,83.008,588.73,363.5409852091068
980,1686714508.82,-19.043,307.617,168.457,-54.199,588.734,370.12039812655917
981,1686714508.83,-85.449,-42.48,-36.621,-154.297,588.738,367.8432615666123
982,1686714508.83,-58.594,-531.738,-170.41,-47.852,588.742,377.0390941453213
983,1686714508.84,21.484,9.766,105.957,75.684,588.746,373.3200157204823
984,1686714508.84,12.695,375.488,144.043,-2.93,588.749,379.03155948723406
985,1686714508.84,-78.613,-56.152,-59.57,-140.625,588.753,379.8950117238819
986,1686714508.85,-81.055,-170.898,-12.695,-85.938,588.757,377.72469937205756
987,1686714508.85,9.277,214.844,170.898,65.43,588.761,366.3737688399003
988,1686714508.86,28.32,302.246,125.488,34.668,588.765,371.9394635877554
989,1686714508.86,-50.781,-433.594,-242.676,-104.004,588.769,379.8032481838653
990,1686714508.86,-87.891,-853.027,-345.703,-109.863,588.773,373.30781303423197
991,1686714508.87,-19.043,-272.949,53.223,32.715,588.777,371.5304619473231
992,1686714508.87,39.551,16.602,136.23,76.172,588.781,378.590852129004
993,1686714508.88,-20.02,-538.574,-243.652,-61.523,588.784,387.6950873317316
994,1686714508.88,-92.285,-854.492,-338.379,-135.254,588.788,375.0282068189591
995,1686714508.88,-45.898,21.484,133.301,-27.344,588.792,380.2443332554023
996,1686714508.9,23.438,305.664,126.953,77.148,588.796,367.7110003552009
997,1686714508.9,-14.648,-21.973,14.648,-30.273,588.799,368.4518528151951
998,1686714508.91,-88.867,14.648,86.914,-149.414,588.803,378.3212720907927
999,1686714508.91,-59.082,252.441,128.906,-65.918,588.807,372.3952756731027
1000,1686714508.92,30.762,280.762,106.445,83.008,588.811,369.07908549417306
1001,1686714508.92,24.902,-253.418,-52.734,26.367,588.815,368.6420401981485
1002,1686714508.92,-67.871,-369.629,-7.324,-138.184,588.819,374.70939371563355
1003,1686714508.93,-74.219,128.418,147.461,-100.098,588.823,383.0028402511179
1004,1686714508.93,19.531,115.234,66.406,65.43,588.827,373.9033800455717
1005,1686714508.94,46.875,-410.156,-100.098,62.5,588.831,373.89651118895824
1006,1686714508.94,-36.621,-275.879,-46.875,-104.492,588.835,366.3932560730109
1007,1686714508.94,-81.055,-116.699,19.531,-134.277,588.839,371.1312735762067
1008,1686714508.94,-8.789,-360.352,-81.543,24.414,588.841,366.52356618173866
1009,1686714508.95,36.133,-341.309,-66.406,74.707,588.845,364.1393482255129
1010,1686714508.95,-38.086,66.895,105.957,-83.008,588.849,377.3254655202309
1011,1686714508.96,-102.539,106.445,74.707,-167.969,588.853,375.6387876708056
1012,1686714508.96,-43.457,-158.203,27.832,-27.832,588.856,368.56173228255227
1013,1686714508.96,34.668,-290.527,-1.953,87.891,588.86,369.2867281448761
1014,1686714508.97,0.0,-259.766,-30.762,-28.809,588.864,378.74991166979174
1015,1686714508.97,-83.984,-320.801,-92.285,-159.18,588.868,369.6126621456758
1016,1686714508.98,-77.148,-656.25,-229.98,-69.824,588.872,382.0776688344081
1017,1686714508.98,10.254,-929.199,-269.531,81.055,588.876,371.19252408338764
1018,1686714508.98,9.277,-127.441,86.914,10.254,588.88,371.4162494772104
1019,1686714508.99,-68.359,223.633,74.707,-150.391,588.884,367.03489095980257
1020,1686714508.99,-83.496,-75.684,20.02,-118.652,588.888,364.60850417937326
1021,1686714509.0,-8.301,-52.246,97.656,44.922,588.892,368.5115288536248
1022,1686714509.0,33.691,191.895,139.648,47.363,588.896,377.2997928771097
1023,1686714509.0,-36.621,216.797,64.453,-112.305,588.9,375.7355454311767
1024,1686714509.01,-93.262,-273.438,-112.793,-145.996,588.904,365.23924776250067
1025,1686714509.01,-34.18,-373.047,-31.738,7.812,588.908,375.84235647005085
1026,1686714509.02,14.16,-9.277,132.324,70.312,588.911,371.8502245274892
1027,1686714509.02,-32.715,96.68,36.621,-56.152,588.915,373.3791217763982
1028,1686714509.02,-98.145,-545.41,-183.105,-143.066,588.919,365.74302951776184
1029,1686714509.03,-58.594,-250.0,67.383,-48.34,588.923,369.69039588300126
1030,1686714509.03,30.762,490.723,232.422,73.73,588.927,374.4905511233185
1031,1686714509.03,3.418,98.633,14.648,-12.207,588.931,373.49314859443984
1032,1686714509.04,-76.66,-157.715,-43.945,-153.32,588.931,368.7655554409462
1033,1686714509.04,-70.312,196.777,133.301,-94.727,588.935,364.01066056576246
1034,1686714509.04,15.137,408.691,209.473,64.941,588.939,371.2218617752145
1035,1686714509.05,28.809,44.922,29.785,36.621,588.942,368.3095340427008
1036,1686714509.05,-54.199,-344.238,-120.605,-110.84,588.946,372.9789121268988
1037,1686714509.06,-80.566,-271.973,-27.832,-113.281,588.95,364.163094162967
1038,1686714509.06,-15.625,-149.414,61.035,28.809,588.954,368.39629172376453
1039,1686714509.06,20.02,-437.012,-125.488,76.172,588.958,367.41326349665604
1040,1686714509.07,-41.504,-1000.0,-528.32,-55.664,588.962,376.91018395605414
1041,1686714509.07,-91.797,-615.234,-197.754,-141.113,588.966,372.8586773124819
1042,1686714509.07,-28.809,213.867,170.898,-8.301,588.97,373.41339423710656
1043,1686714509.08,30.273,186.523,113.77,95.215,588.974,368.55422168975895
1044,1686714509.08,-18.066,126.465,81.543,-36.133,588.976,372.61338012546446
1045,1686714509.08,-87.402,194.824,72.266,-155.762,588.98,373.0330322665141
1046,1686714509.09,-62.988,153.809,83.984,-47.363,588.983,370.4083405957369
1047,1686714509.09,7.324,78.125,79.102,86.914,588.987,374.0755896394428
1048,1686714509.1,1.953,172.852,104.492,-0.488,588.991,374.55712420938846
1049,1686714509.1,-72.754,-105.957,-50.293,-139.648,588.995,374.09765198152
1050,1686714509.1,-79.59,-305.176,-93.75,-90.332,588.999,368.92847043330687
1051,1686714509.11,0.0,-750.488,-243.652,82.52,589.003,367.788274624327
1052,1686714509.11,9.766,-634.766,-150.391,56.641,589.007,374.13002486401365
1053,1686714509.12,-62.988,222.656,154.785,-125.977,589.011,374.33965772160377
1054,1686714509.12,-90.332,-41.992,-18.555,-129.395,589.015,370.31790651828464
1055,1686714509.12,-24.414,-127.93,15.137,24.902,589.019,370.7189195743167
1056,1686714509.12,16.113,334.473,171.387,61.035,589.021,371.47362334151666
1057,1686714509.13,-35.645,326.66,104.492,-83.008,589.024,368.8363651262665
1058,1686714509.13,-93.262,-83.008,-28.32,-152.832,589.028,377.98220403381043
1059,1686714509.14,-47.363,-81.055,42.48,-12.695,589.032,370.0662420582047
1060,1686714509.14,16.602,251.953,116.699,78.125,589.036,367.47323180273384
1061,1686714509.14,-20.02,25.391,40.527,-41.992,589.04,370.84624160923215
1062,1686714509.15,-84.961,-596.191,-226.562,-145.508,589.044,371.38900626650775
1063,1686714509.15,-72.266,-951.66,-359.863,-53.223,589.048,371.6050325971351
1064,1686714509.16,0.488,-214.844,85.938,66.406,589.052,369.3459643591879
1065,1686714509.16,6.348,91.797,104.004,-3.906,589.056,373.22254214326074
1066,1686714509.16,-77.637,-534.668,-152.344,-148.438,589.06,373.49442359670365
1067,1686714509.17,-95.703,-435.059,-28.809,-130.371,589.064,371.46907788878076
1068,1686714509.17,-20.02,300.293,212.402,29.785,589.078,368.27926818210466
1069,1686714509.17,-2.441,272.461,95.215,57.129,589.082,364.6592367560918
1070,1686714509.18,-68.848,-75.195,23.926,-101.562,589.086,369.5338992452935
1071,1686714509.18,-97.656,37.598,90.82,-143.555,589.09,361.02992555565953
1072,1686714509.19,-31.25,301.27,146.484,5.371,589.094,363.2161511098231
1073,1686714509.19,18.066,90.332,65.43,72.754,589.098,376.3276460457686
1074,1686714509.19,-47.363,-608.887,-174.805,-62.5,589.102,374.2587769266921
1075,1686714509.2,-124.023,-385.742,-24.902,-166.992,589.106,374.3050439409863
1076,1686714509.2,-80.566,314.941,177.734,-57.129,589.109,375.4539686992219
1077,1686714509.2,1.953,171.387,81.543,64.453,589.113,376.19944213476936
1078,1686714509.21,-33.203,-28.32,29.297,-33.203,589.117,367.0492101040548
1079,1686714509.21,-116.699,-71.289,-16.113,-164.551,589.121,372.0486192105961
1080,1686714509.22,-93.262,1.465,90.82,-86.426,589.124,370.6566579444412
1081,1686714509.22,-9.766,-78.125,32.715,64.453,589.128,365.4169546838364
1082,1686714509.22,-15.137,-386.719,-145.508,12.695,589.132,366.5827018532387
1083,1686714509.23,-93.75,-67.871,29.785,-149.902,589.136,371.8236786594754
1084,1686714509.23,-104.004,87.402,78.125,-132.812,589.14,366.68733035349334
1085,1686714509.24,-27.344,-422.852,-108.887,42.48,589.144,369.50183421489135
1086,1686714509.24,-3.418,-799.805,-229.492,59.57,589.147,368.1171226956852
1087,1686714509.24,-69.336,-334.473,0.488,-113.281,589.151,372.01170994508897
1088,1686714509.25,-116.699,75.684,91.797,-164.551,589.155,366.8631612719178
1089,1686714509.25,-55.176,-448.73,-134.766,1.465,589.159,367.15337610660566
1090,1686714509.26,12.207,-639.16,-139.648,84.961,589.163,374.21731788086504
1091,1686714509.26,-30.762,169.922,153.809,-66.406,589.167,370.92762293503574
1092,1686714509.28,-101.562,124.512,39.551,-169.922,589.172,375.91404553301084
1093,1686714509.28,-68.848,-74.219,34.18,-51.27,589.176,362.34648357940597
1094,1686714509.28,-0.977,-128.906,56.641,76.172,589.18,377.7125645052401
1095,1686714509.29,-40.527,39.062,75.195,-21.484,589.184,375.54374289034763
1096,1686714509.29,-114.258,73.242,18.066,-150.879,589.188,375.2475811227783
1097,1686714509.3,-98.145,-624.023,-224.121,-54.688,589.192,371.29251962459944
1098,1686714509.3,-10.742,-491.211,-45.898,83.008,589.196,354.5529000606627
1099,1686714509.3,1.953,283.691,202.148,29.297,589.2,361.74226401023304
1100,1686714509.31,-89.844,58.594,17.09,-115.723,589.204,370.7178662668251
1101,1686714509.31,-109.375,-393.555,-95.703,-107.91,589.208,365.3703633290099
1102,1686714509.32,-14.648,83.984,132.324,43.457,589.211,367.70543374174713
1103,1686714509.32,22.949,405.762,181.152,67.871,589.215,370.3582370548305
1104,1686714509.32,-45.41,-46.875,-30.762,-86.426,589.215,374.85874656057877
1105,1686714509.32,-99.121,-220.215,-37.109,-155.762,589.219,374.56219101168404
1106,1686714509.33,-41.016,172.852,163.574,-18.555,589.223,375.48279435267756
1107,1686714509.33,29.297,336.426,144.043,78.613,589.227,379.03813135752404
1108,1686714509.34,-16.113,-100.586,-39.062,-36.133,589.231,368.5866797071938
1109,1686714509.34,-77.637,-501.953,-155.762,-133.789,589.234,368.3827012493344
1110,1686714509.34,-37.109,-326.172,-23.438,-23.926,589.238,366.212667164725
1111,1686714509.35,42.48,-125.977,70.312,92.285,589.242,372.25992156891255
1112,1686714509.35,11.719,-461.914,-175.781,9.277,589.246,372.6352799914422
1113,1686714509.36,-83.984,-1000.0,-560.547,-134.277,589.25,381.6806884413275
1114,1686714509.36,-84.473,-549.316,-198.73,-110.84,589.254,374.40061088538874
1115,1686714509.36,3.906,271.484,169.434,48.828,589.258,380.4111295245892
1116,1686714509.36,16.113,123.535,99.121,40.527,589.261,372.1717121820527
1117,1686714509.37,-63.965,39.551,73.242,-125.488,589.264,375.4612771047944
1118,1686714509.37,-95.703,190.918,69.336,-138.672,589.268,374.29911447018293
1119,1686714509.38,-30.762,232.91,88.379,18.555,589.272,375.87025034985174
1120,1686714509.38,17.09,90.332,69.336,60.547,589.276,374.0096357490336
1121,1686714509.38,-38.086,-130.859,-21.973,-88.867,589.28,363.86176411953363
1122,1686714509.39,-98.633,-348.633,-155.273,-162.109,589.284,373.6398563842501
1123,1686714509.39,-45.41,-255.859,-19.531,-24.414,589.288,364.13544727529165
1124,1686714509.4,20.508,-719.727,-258.789,105.469,589.292,371.17294278962663
1125,1686714509.4,-14.648,-663.574,-241.211,-17.578,589.296,370.5329431565812
1126,1686714509.4,-78.613,177.246,133.789,-167.969,589.3,378.20494582045404
1127,1686714509.41,-67.383,-6.836,-16.602,-73.73,589.304,365.66695384820696
1128,1686714509.41,12.207,-26.367,50.293,67.871,589.305,379.5465886378371
1129,1686714509.41,13.184,339.844,157.227,17.09,589.309,381.49257976411263
1130,1686714509.42,-71.289,242.676,60.059,-116.699,589.313,370.24782288593514
1131,1686714509.42,-86.426,-74.707,-2.441,-91.309,589.317,376.5969237790316
1132,1686714509.43,-0.977,-85.938,21.973,67.871,589.321,375.42957791012935
1133,1686714509.43,30.762,-41.504,48.828,66.406,589.325,372.0879706757398
1134,1686714509.43,-48.34,-202.148,-35.645,-101.074,589.329,373.548838794264
1135,1686714509.44,-90.82,-626.465,-300.293,-112.793,589.332,363.5910711450475
1136,1686714509.44,-36.133,-931.641,-335.449,42.969,589.336,375.6114725395543
1137,1686714509.44,8.301,-166.992,96.68,80.566,589.34,381.5488185266745
1138,1686714509.45,-41.016,63.477,45.898,-61.523,589.344,376.8714704421355
1139,1686714509.45,-91.309,-446.289,-114.746,-145.02,589.348,371.2991659301237
1140,1686714509.46,-46.875,-166.016,79.102,-28.809,589.35,376.883304714722
1141,1686714509.46,19.043,440.918,180.664,82.031,589.354,365.383791021846
1142,1686714509.46,-4.395,227.539,10.254,-17.09,589.358,372.35808802600224
1143,1686714509.47,-85.449,-120.117,-26.367,-162.598,589.362,374.56560978701054
1144,1686714509.47,-80.078,68.359,65.43,-91.797,589.366,378.3418247945828
1145,1686714509.48,3.418,53.223,56.152,70.312,589.37,383.0913379303614
1146,1686714509.48,-3.418,-217.773,-26.855,24.414,589.373,373.0033712769458
1147,1686714509.48,-82.52,-644.043,-205.078,-127.93,589.377,369.33095283866356
1148,1686714509.49,-90.82,-337.402,3.418,-118.164,589.381,373.93912048480917
1149,1686714509.49,-9.766,367.188,193.359,34.668,589.385,372.52963221889854
1150,1686714509.49,23.926,145.02,33.691,57.129,589.389,378.11408829220005
1151,1686714509.5,-36.621,-105.469,-20.996,-98.145,589.393,371.1395641961682
1152,1686714509.5,-86.426,-102.051,-4.395,-149.902,589.397,373.140838585445
1153,1686714509.5,-32.715,70.312,109.863,-2.93,589.401,365.69826496984183
1154,1686714509.51,35.156,-82.031,-31.25,96.68,589.405,376.6611389994779
1155,1686714509.51,-27.832,-420.41,-191.895,-37.109,589.409,372.53496218330685
1156,1686714509.52,-100.586,-49.805,55.664,-157.715,589.413,376.4765041113799
1157,1686714509.52,-62.5,-13.672,70.312,-28.809,589.417,371.2928740872252
1158,1686714509.52,8.301,-460.449,-151.367,114.258,589.421,372.4322422983528
1159,1686714509.53,-15.625,-920.41,-319.336,20.02,589.424,376.24222760891183
1160,1686714509.53,-84.473,-250.0,18.066,-146.484,589.428,376.8596740705528
1161,1686714509.54,-58.105,182.617,84.473,-84.961,589.432,384.528402314278
1162,1686714509.54,22.461,-41.016,4.883,69.336,589.436,365.59008699428836
1163,1686714509.54,-60.547,266.602,118.164,-134.277,589.453,366.7602536077909
1164,1686714509.54,22.949,77.148,74.707,26.367,589.44,376.75705650685615
1165,1686714509.55,-88.867,133.789,32.227,-129.395,589.457,374.0155390474948
1166,1686714509.55,-19.043,12.207,44.922,41.504,589.461,372.79711061399126
1167,1686714509.56,16.602,-19.531,78.613,70.312,589.465,364.82995787256704
1168,1686714509.56,-52.734,18.555,56.152,-99.121,589.469,367.2350629826958
1169,1686714509.56,-101.074,-19.531,42.969,-146.973,589.473,372.91676517038644
1170,1686714509.57,-22.461,-733.398,-268.066,30.762,589.477,370.43371497057683
1171,1686714509.57,43.945,-677.734,-178.223,113.77,589.481,373.13866588834435
1172,1686714509.58,-12.695,218.262,189.941,-46.387,589.485,371.4554810222972
1173,1686714509.58,-85.938,65.43,4.883,-156.738,589.489,360.0980917356336
1174,1686714509.58,-50.293,-170.41,-82.031,-33.203,589.492,370.73789173436444
1175,1686714509.59,16.602,154.785,111.328,95.703,589.496,370.54855694236466
1176,1686714509.59,-2.93,349.609,181.152,10.254,589.499,378.08967620582894
1177,1686714509.59,-76.66,-50.781,-56.152,-129.395,589.503,366.12330609584626
1178,1686714509.6,-81.543,-198.242,-85.938,-91.309,589.507,380.33957326639444
1179,1686714509.6,6.348,249.512,196.777,60.059,589.511,367.67855444797885
1180,1686714509.61,31.25,264.648,82.031,47.852,589.515,371.02831287776064
1181,1686714509.61,-55.176,-491.211,-274.902,-104.004,589.519,373.3384651860514
1182,1686714509.61,-91.797,-801.27,-308.105,-123.047,589.523,378.7582543226265
1183,1686714509.62,-13.672,-308.105,-28.809,30.762,589.526,371.3704973336462
1184,1686714509.62,29.785,-31.738,112.305,87.402,589.53,370.9984427418538
1185,1686714509.62,-37.598,-497.07,-205.566,-44.434,589.534,368.2840323458414
1186,1686714509.63,-96.68,-936.523,-376.465,-129.395,589.538,367.99230709214953
1187,1686714509.63,-41.504,-95.215,85.449,-18.066,589.542,370.3180984119372
1188,1686714509.65,34.18,370.117,168.945,92.285,589.545,366.06039468355004
1189,1686714509.65,-17.578,23.438,29.785,-21.484,589.549,370.2203035333419
1190,1686714509.66,-94.727,-40.527,24.414,-150.391,589.553,367.4827705175572
1191,1686714509.66,-63.477,194.824,106.445,-67.383,589.556,368.41832579676714
1192,1686714509.67,21.973,245.117,93.75,83.496,589.56,363.9106341972552
1193,1686714509.67,11.23,-246.582,-78.613,30.762,589.564,360.39684881470623
1194,1686714509.67,-72.266,-318.848,-16.602,-132.324,589.568,374.4997941380646
1195,1686714509.68,-80.566,149.414,142.578,-104.004,589.572,363.77631160245016
1196,1686714509.68,-3.906,93.75,50.781,65.918,589.576,366.6382728800959
1197,1686714509.68,17.578,-626.465,-208.496,74.219,589.58,368.96321125573417
1198,1686714509.69,-60.059,-449.219,-66.895,-103.027,589.584,375.7340898567637
1199,1686714509.69,-87.402,243.652,144.043,-135.254,589.588,377.8421723463873
1200,1686714509.7,-18.555,72.266,29.297,31.738,589.59,365.05614142966897
1201,1686714509.7,30.762,11.23,29.297,87.891,589.594,363.6478112275696
1202,1686714509.7,-21.484,222.656,111.816,-58.105,589.598,362.2855017961266
1203,1686714509.71,-87.402,176.758,104.004,-153.32,589.602,373.12471239834184
1204,1686714509.71,-49.316,-64.453,4.883,-18.066,589.606,363.54111938914656
1205,1686714509.72,23.926,-256.836,-22.461,111.328,589.609,379.20205731367963
1206,1686714509.72,-6.348,-228.027,-38.086,-3.906,589.613,367.2534831454616
1207,1686714509.72,-93.262,-232.422,-130.371,-146.973,589.617,372.12645447027876
1208,1686714509.73,-74.707,-582.52,-267.578,-65.43,589.621,361.3549643284074
1209,1686714509.73,11.23,-933.105,-309.082,85.938,589.625,368.772923530288
1210,1686714509.73,7.812,-243.652,34.18,19.531,589.629,369.95176571014224
1211,1686714509.74,-68.848,-22.949,-69.824,-130.859,589.633,371.51181717942166
1212,1686714509.74,-87.891,-443.359,-187.5,-112.305,589.636,364.248177265027
1213,1686714509.75,-11.719,-83.008,94.727,37.109,589.64,380.88423129009993
1214,1686714509.75,19.043,423.34,158.203,56.641,589.644,372.3482352625112
1215,1686714509.76,-57.129,153.32,-4.883,-99.121,589.648,367.972705647585
1216,1686714509.76,-106.934,-105.957,0.0,-155.273,589.652,368.79792798511227
1217,1686714509.76,-55.664,-73.73,48.34,-5.859,589.656,367.6559250859223
1218,1686714509.77,1.953,42.969,117.188,68.848,589.66,363.7184545809573
1219,1686714509.77,-40.527,20.508,6.348,-69.824,589.664,358.2944975746333
1220,1686714509.77,-108.398,-597.168,-251.953,-156.25,589.668,365.75748425369676
1221,1686714509.78,-75.195,-270.996,40.527,-50.293,589.672,374.86488415657504
1222,1686714509.78,4.395,446.777,200.684,64.453,589.675,371.04024411732456
1223,1686714509.79,-85.938,-198.73,-94.238,-156.25,589.682,376.5940663588935
1224,1686714509.79,-1.465,90.332,-8.789,-16.113,589.679,367.07356107594677
1225,1686714509.79,-91.797,-84.473,6.348,-95.703,589.686,371.2547452039625
1226,1686714509.79,-3.418,119.629,139.648,59.57,589.689,367.7264502777234
1227,1686714509.8,4.883,-125.488,-67.383,32.227,589.693,360.3718591634389
1228,1686714509.8,-73.242,-498.535,-232.422,-116.211,589.697,368.26517627302235
1229,1686714509.81,-94.238,-297.363,-70.801,-109.863,589.701,374.2855409738084
1230,1686714509.81,-12.695,-170.898,35.156,45.41,589.705,370.496816743678
1231,1686714509.81,36.133,-470.703,-155.762,84.473,589.709,373.1914077001843
1232,1686714509.82,-38.086,-975.098,-414.062,-65.918,589.713,361.32663672094816
1233,1686714509.82,-100.586,-270.996,42.969,-157.715,589.717,384.25862118244277
1234,1686714509.82,-41.504,252.93,149.902,-5.859,589.721,366.941991503647
1235,1686714509.83,17.09,117.188,80.078,89.844,589.725,375.81886885665847
1236,1686714509.83,-28.32,150.391,102.539,-49.316,589.725,373.67071095606536
1237,1686714509.83,-93.262,233.887,69.336,-156.25,589.729,369.42166817903285
1238,1686714509.84,-60.547,197.266,58.105,-53.711,589.733,376.9416564963193
1239,1686714509.84,15.137,37.598,41.016,79.102,589.737,375.5794751907744
1240,1686714509.85,-1.465,-132.812,16.113,2.441,589.741,365.68919094185753
1241,1686714509.85,-76.66,-349.609,-136.719,-141.113,589.745,374.27406598047895
1242,1686714509.85,-77.637,-271.973,-90.332,-99.609,589.748,376.5800635845619
1243,1686714509.86,0.977,-694.824,-261.719,71.777,589.752,372.4875184481172
1244,1686714509.86,11.719,-690.918,-236.328,53.711,589.756,375.9916428502971
1245,1686714509.86,-62.5,143.555,126.465,-127.93,589.76,365.9421465313187
1246,1686714509.87,-90.332,-8.301,-10.254,-140.625,589.764,362.5337341477649
1247,1686714509.87,-24.902,-54.199,-5.371,19.043,589.768,365.51079343235966
1248,1686714509.88,21.973,316.406,134.277,70.801,589.77,371.61779749700435
1249,1686714509.88,-32.227,302.246,119.629,-75.684,589.774,377.04853991165805
1250,1686714509.88,-101.562,-85.938,-20.508,-149.414,589.778,365.443139519979
1251,1686714509.89,-57.617,-84.473,4.883,-15.137,589.782,361.6944219935133
1252,1686714509.89,13.184,285.156,145.02,77.148,589.786,378.5581748086964
1253,1686714509.9,-28.32,-19.531,-22.949,-39.062,589.79,374.8556299261353
1254,1686714509.9,-108.398,-639.648,-331.055,-147.949,589.793,371.16751499716815
1255,1686714509.9,-87.891,-988.281,-398.438,-56.641,589.797,373.79788141978656
1256,1686714509.91,-6.836,-347.656,20.508,62.012,589.801,377.29697670135516
1257,1686714509.91,-9.277,338.867,166.504,0.488,589.805,375.62005032622153
1258,1686714509.91,-80.078,-368.164,-209.961,-127.441,589.809,370.5095693684171
1259,1686714509.92,-90.82,-559.57,-168.457,-95.215,589.813,358.5534452156128
1260,1686714509.92,-8.789,347.168,227.539,55.176,589.828,375.2098171691675
1261,1686714509.92,24.902,390.137,114.258,61.523,589.831,366.7342652276099
1262,1686714509.93,-48.828,-10.254,-20.996,-107.422,589.835,371.06374447305245
1263,1686714509.93,-90.82,-8.789,40.527,-145.02,589.839,374.98096717264576
1264,1686714509.94,-19.043,275.879,135.254,16.602,589.843,369.0768296185076
1265,1686714509.94,36.621,119.141,44.922,87.402,589.847,371.67900853684773
1266,1686714509.94,-27.344,-604.004,-210.449,-43.457,589.851,368.54466830584624
1267,1686714509.95,-92.285,-426.758,-60.547,-143.066,589.855,366.6757575823726
1268,1686714509.95,-48.34,257.812,151.855,-25.879,589.859,365.35028054319656
1269,1686714509.96,18.555,-16.113,-20.996,87.402,589.863,378.8963984426161
1270,1686714509.96,-11.719,-392.09,-84.961,-19.531,589.867,367.9933355947162
1271,1686714509.96,-87.402,-20.996,92.773,-159.668,589.871,370.1789602864187
1272,1686714509.96,-78.125,309.57,132.812,-88.379,589.874,372.15039905448435
1273,1686714509.97,0.488,102.051,33.691,62.012,589.878,377.13451757747936
1274,1686714509.97,5.859,-29.785,2.441,8.301,589.882,375.9276327250873
1275,1686714509.98,-69.824,142.09,66.406,-146.973,589.886,376.5727051483581
1276,1686714509.98,-86.914,204.102,85.938,-127.441,589.89,365.88010814954885
1277,1686714509.98,-8.789,-322.266,-122.559,49.316,589.894,375.63037744573467
1278,1686714509.99,22.461,-755.859,-275.391,71.289,589.898,372.63229379484727
1279,1686714509.99,-56.152,-323.73,-57.617,-102.051,589.902,374.21451272764693
1280,1686714510.0,-102.539,57.129,74.707,-150.391,589.905,376.43907319165226
1281,1686714510.0,-33.691,-424.316,-135.254,19.531,589.909,368.7235230558048
1282,1686714510.0,19.043,-704.59,-239.746,81.543,589.913,376.6111553404709
1283,1686714510.01,-36.621,-161.133,-23.438,-78.125,589.917,375.3584048117844
1284,1686714510.02,-104.98,-242.188,-138.672,-166.504,589.92,372.7498001808388
1285,1686714510.03,-74.219,-445.312,-157.715,-52.246,589.924,367.5869606001705
1286,1686714510.03,6.348,-108.887,55.664,70.801,589.927,367.15932751765655
1287,1686714510.04,-9.277,298.34,123.535,-20.02,589.931,373.6988945601104
1288,1686714510.04,-87.891,34.18,-30.762,-151.855,589.935,365.78730655729436
1289,1686714510.04,-88.867,-374.512,-133.301,-86.426,589.939,360.9928603031627
1290,1686714510.05,-2.93,-156.738,37.109,52.734,589.943,365.46446681543665
1291,1686714510.05,17.09,331.055,168.945,14.16,589.947,362.69352363095464
1292,1686714510.06,-66.406,38.574,-51.27,-134.277,589.951,380.65430753459253
1293,1686714510.06,-95.215,-543.457,-218.262,-134.277,589.955,374.590377864484
1294,1686714510.06,-12.695,-96.68,33.203,21.484,589.959,364.71632117951725
1295,1686714510.07,28.32,404.785,187.012,62.988,589.963,369.00187367342767
