,timestamps,TP9,AF7,AF8,TP10,Secondary Timestamp,emg_signal
0,1686190355.3,-119.141,231.934,110.352,-55.176,1195.202,335.20901376994857
1,1686190355.31,208.496,681.152,67.871,-20.02,1195.206,320.5541926634042
2,1686190355.31,113.281,386.23,-88.379,-33.203,1195.209,317.8475692451033
3,1686190355.32,-231.445,-46.387,-71.777,-63.965,1195.213,325.65501595948956
4,1686190355.32,-209.961,103.516,-22.949,-61.523,1195.217,321.05020507416316
5,1686190355.32,137.695,228.516,-11.23,-25.391,1195.221,321.9799642048376
6,1686190355.33,180.176,-136.719,-76.172,-18.555,1195.225,327.3819525700491
7,1686190355.33,-172.852,-824.219,-44.922,-55.176,1195.229,326.6442848852096
8,1686190355.34,-270.02,-280.762,268.555,-62.988,1195.233,319.11086790142497
9,1686190355.34,64.453,414.551,207.031,-22.461,1195.237,321.1014933189753
10,1686190355.34,234.863,298.828,45.41,-7.812,1195.241,324.02268764279165
11,1686190355.35,-41.992,162.598,0.977,-45.41,1195.245,325.29575025183453
12,1686190355.35,-293.457,-78.613,-39.551,-74.219,1195.259,321.22938421900363
13,1686190355.35,-59.57,-91.797,3.906,-48.34,1195.263,325.90616337930425
14,1686190355.36,227.539,75.195,55.664,-16.602,1195.266,323.81308049818233
15,1686190355.36,47.363,202.148,78.613,-34.18,1195.27,321.7020310887872
16,1686190355.36,-252.441,176.758,-36.621,-50.293,1195.274,324.7488103214715
17,1686190355.37,-138.184,39.062,-17.578,-29.297,1195.278,323.6216962292868
18,1686190355.37,158.691,-414.062,-20.02,2.93,1195.282,326.9094876168084
19,1686190355.38,101.074,-720.215,66.406,-8.301,1195.286,325.4888662412647
20,1686190355.38,-220.703,-172.852,132.812,-70.312,1195.29,322.85832155860027
21,1686190355.38,-237.305,24.902,-37.598,-70.312,1195.294,315.10797349862776
22,1686190355.39,100.098,54.688,86.914,-18.555,1195.298,316.46522041258055
23,1686190355.39,185.059,394.043,203.125,-16.602,1195.302,329.72074241921075
24,1686190355.39,-136.719,435.547,6.348,-59.57,1195.304,326.10684618530183
25,1686190355.4,-292.48,8.301,-70.312,-68.359,1195.308,324.8243505928855
26,1686190355.4,16.602,76.172,95.215,-35.645,1195.311,326.3058875947153
27,1686190355.4,246.582,581.055,142.09,-14.648,1195.315,329.08245766244573
28,1686190355.41,-9.766,451.172,-59.082,-38.086,1195.319,318.49610987039307
29,1686190355.41,-294.922,-368.652,-141.602,-63.477,1195.323,323.95191451573197
30,1686190355.42,-80.566,-378.418,100.098,-28.809,1195.327,326.5291062343494
31,1686190355.42,227.051,438.965,264.16,1.465,1195.331,325.9821160152209
32,1686190355.42,83.008,592.285,32.227,-18.066,1195.335,338.85796723575623
33,1686190355.43,-258.301,-273.438,-123.047,-50.781,1195.339,330.7972690079222
34,1686190355.43,-192.383,-724.121,108.887,-37.598,1195.343,325.8190702569498
35,1686190355.44,169.434,74.707,280.762,12.207,1195.347,322.1123316081585
36,1686190355.45,165.039,281.738,59.082,4.883,1195.363,309.01947656616767
37,1686190355.46,-190.43,-509.277,-102.539,-37.109,1195.367,319.50117177213565
38,1686190355.46,-243.652,-729.98,83.984,-32.715,1195.37,324.43207659287833
39,1686190355.46,116.699,291.992,294.434,-8.301,1195.374,314.83659770454136
40,1686190355.47,222.656,594.727,83.496,-2.93,1195.378,322.6836151914624
41,1686190355.47,-95.215,-69.336,-74.219,-25.391,1195.382,326.5166927942091
42,1686190355.48,-282.227,-235.84,54.688,-49.316,1195.386,325.35085675686224
43,1686190355.48,1.953,354.98,95.215,-26.855,1195.39,330.36980984563877
44,1686190355.48,251.953,520.996,-34.668,0.488,1195.394,315.7222448970311
45,1686190355.49,9.277,-113.281,-27.832,-36.133,1195.398,329.71432634110516
46,1686190355.49,-275.879,-213.379,112.793,-69.336,1195.402,322.0101637462808
47,1686190355.5,-91.797,329.59,71.777,-36.621,1195.406,324.2631319035715
48,1686190355.5,223.633,340.332,-21.973,-0.977,1195.401,322.36047674596466
49,1686190355.5,92.285,24.414,-60.547,-20.508,1195.404,323.0499226652907
50,1686190355.51,-253.906,-6.836,-9.766,-73.73,1195.408,326.05242392970297
51,1686190355.51,-189.941,278.32,62.5,-64.453,1195.412,333.0433646603206
52,1686190355.52,144.043,192.383,-53.711,-16.113,1195.416,319.3123980369741
53,1686190355.52,144.043,-308.594,-113.281,-20.508,1195.42,319.29818026651196
54,1686190355.52,-174.805,-168.457,29.785,-59.57,1195.424,324.6356536013455
55,1686190355.53,-233.887,216.797,25.391,-57.129,1195.428,319.9872593980172
56,1686190355.53,98.145,-73.73,-40.527,-1.953,1195.432,328.9206997878103
57,1686190355.53,223.633,-308.594,50.781,11.23,1195.436,331.26860502918584
58,1686190355.54,-76.172,173.34,91.797,-36.133,1195.44,333.4051047672728
59,1686190355.54,-275.391,243.652,-31.738,-58.594,1195.444,323.2283161397541
60,1686190355.54,-23.438,-294.434,-38.086,-19.043,1195.439,324.1401863715071
61,1686190355.55,222.656,-222.168,183.594,-3.906,1195.443,315.8191052400539
62,1686190355.55,19.043,406.738,122.559,-46.387,1195.447,317.28883425180766
63,1686190355.56,-299.805,47.852,-90.82,-80.078,1195.451,321.16383895938344
64,1686190355.56,-154.297,-189.453,47.852,-60.547,1195.455,325.5004663460277
65,1686190355.56,197.754,31.738,76.172,-18.066,1195.459,331.09890491660946
66,1686190355.57,129.883,206.055,-21.973,-31.738,1195.463,320.8441789944931
67,1686190355.57,-214.844,208.008,-26.367,-76.172,1195.467,321.5358830929554
68,1686190355.57,-247.07,-616.699,-76.172,-66.406,1195.47,326.2203680841861
69,1686190355.58,86.914,-663.086,119.629,-33.203,1195.474,327.13634714999944
70,1686190355.58,180.664,466.797,184.082,-43.945,1195.478,325.5843716838105
71,1686190355.59,-153.32,268.066,-57.129,-76.66,1195.482,328.3299144973899
72,1686190355.59,-281.25,-125.488,-36.621,-79.59,1195.484,327.7527621232706
73,1686190355.59,46.875,367.188,58.105,-42.48,1195.488,327.1413062105252
74,1686190355.6,220.215,702.637,-0.977,-29.297,1195.492,322.9711954881633
75,1686190355.6,-65.918,249.512,-90.82,-61.035,1195.496,322.3822797605963
76,1686190355.6,-295.41,-141.113,-57.129,-80.078,1195.499,327.702690404727
77,1686190355.61,-51.27,-26.855,-5.371,-48.34,1195.503,323.3820962045794
78,1686190355.61,218.262,223.633,34.668,-19.043,1195.507,319.92809578069193
79,1686190355.61,35.645,-93.75,-92.285,-27.344,1195.511,315.9947980466795
80,1686190355.62,-299.316,-856.445,-59.57,-58.105,1195.515,325.39694806953423
81,1686190355.62,-186.523,-193.359,274.414,-61.035,1195.519,326.16842426537676
82,1686190355.63,190.43,590.332,175.781,-15.625,1195.523,321.76287835248957
83,1686190355.63,136.23,326.172,-62.5,-18.555,1195.527,323.36594255709866
84,1686190355.63,-235.352,-172.363,-52.734,-55.664,1195.527,338.44400849515984
85,1686190355.64,-249.512,-8.789,67.383,-54.199,1195.531,326.42570134614397
86,1686190355.64,112.305,584.961,14.648,-21.973,1195.535,327.01377636527
87,1686190355.64,187.5,0.488,-72.754,-9.766,1195.539,326.1423475705103
88,1686190355.65,-141.113,-547.363,47.363,-50.293,1195.543,329.0511973518089
89,1686190355.65,-284.668,-239.258,33.691,-72.266,1195.547,327.66382917485515
90,1686190355.66,31.738,33.203,15.625,-25.391,1195.551,325.0080796030048
91,1686190355.66,213.379,-158.203,19.531,-5.371,1195.555,321.8912612432226
92,1686190355.66,-56.641,-363.281,83.008,-42.48,1195.559,333.7526307982998
93,1686190355.67,-284.668,-39.062,51.27,-71.777,1195.562,320.26301211160387
94,1686190355.67,-83.008,86.914,-33.691,-45.41,1195.566,329.9038141618672
95,1686190355.68,217.773,159.18,93.262,-9.277,1195.57,323.7651873741779
96,1686190355.68,72.266,334.961,115.723,-35.156,1195.572,321.4693008818382
97,1686190355.68,-250.488,304.688,-31.738,-68.359,1195.576,317.29854419793435
98,1686190355.68,-178.223,-0.977,-73.73,-47.363,1195.58,322.42028126559154
99,1686190355.69,161.133,-38.086,73.242,-13.184,1195.584,321.969056685681
100,1686190355.69,163.086,381.348,110.352,-15.137,1195.588,324.3398352956171
101,1686190355.7,-187.988,48.828,-89.355,-55.664,1195.592,325.3421689226042
102,1686190355.7,-260.254,-569.336,-95.215,-56.641,1195.596,322.3903285245543
103,1686190355.7,60.059,-517.09,90.332,-11.23,1195.6,328.70315947868903
104,1686190355.71,189.941,292.969,202.148,-9.277,1195.604,335.5739664237504
105,1686190355.71,-104.492,357.91,-71.289,-42.969,1195.607,324.97815464854256
106,1686190355.72,-294.434,-137.207,-17.578,-56.152,1195.611,316.3801649885131
107,1686190355.72,-18.066,-56.641,194.824,-30.762,1195.615,322.6226869524942
108,1686190355.72,222.656,131.348,83.496,-11.719,1195.62,320.58686596030753
109,1686190355.73,2.441,45.41,-44.434,-38.574,1195.624,320.70875844761576
110,1686190355.73,-295.41,-588.867,-85.449,-65.918,1195.628,330.6902116015805
111,1686190355.74,-127.441,-669.922,111.328,-43.457,1195.632,318.5669784153818
112,1686190355.74,213.379,322.754,267.09,-19.531,1195.636,324.7844836407573
113,1686190355.74,104.98,282.715,-20.02,-40.527,1195.64,332.1704537013935
114,1686190355.75,-251.953,-596.68,-61.035,-79.102,1195.644,316.4276678424169
115,1686190355.75,-209.473,-490.234,232.91,-63.477,1195.648,323.2797604942638
116,1686190355.75,140.625,394.043,207.031,-22.949,1195.652,322.933696780133
117,1686190355.76,160.645,355.957,-40.527,-28.809,1195.656,319.97923547292464
118,1686190355.76,-169.922,-61.523,-46.875,-67.871,1195.659,320.49945582201315
119,1686190355.77,-253.418,-15.625,30.762,-79.102,1195.663,330.3791977200886
120,1686190355.77,87.402,389.16,35.156,-31.738,1195.679,330.6999845175905
121,1686190355.77,237.305,282.715,-31.25,-14.16,1195.683,321.98293883993074
122,1686190355.78,-70.312,-244.629,-63.477,-60.547,1195.687,321.0210107705145
123,1686190355.78,-280.273,-138.184,10.254,-75.195,1195.69,325.8250783151257
124,1686190355.78,-26.855,214.355,30.273,-34.18,1195.694,322.39878059593326
125,1686190355.79,224.121,-72.266,-104.492,-9.766,1195.698,326.11209449902947
126,1686190355.79,-3.418,-809.082,-57.129,-35.645,1195.702,322.9892440394555
127,1686190355.8,-301.758,-472.168,238.281,-75.684,1195.706,321.370928732871
128,1686190355.8,-131.348,117.188,222.168,-59.57,1195.71,323.5064421900718
129,1686190355.8,192.383,82.031,132.324,-19.531,1195.714,324.8333561797185
130,1686190355.81,116.211,80.566,75.684,-33.203,1195.718,325.13215959181605
131,1686190355.81,-218.262,-1.953,-44.434,-68.848,1195.722,324.2565741443591
132,1686190355.83,-225.098,-236.816,-43.457,-62.988,1195.724,327.1221816914463
133,1686190355.83,103.516,-545.898,37.109,-19.043,1195.728,329.9694599042676
134,1686190355.84,172.363,-394.531,165.039,-16.602,1195.732,322.91105420936714
135,1686190355.84,-133.301,0.977,63.477,-57.129,1195.736,323.7719386914726
136,1686190355.84,-264.648,-239.746,-70.312,-68.359,1195.74,323.6535762769885
137,1686190355.85,25.879,-596.191,40.527,-34.18,1195.744,324.32115498234526
138,1686190355.85,206.543,-474.121,216.797,-14.648,1195.748,315.8152552280463
139,1686190355.86,-51.27,-51.758,129.883,-62.5,1195.752,320.9431199303969
140,1686190355.86,-291.504,-238.281,-68.848,-95.703,1195.756,321.19031427813235
141,1686190355.86,-71.289,-632.324,65.918,-53.711,1195.76,316.3372162020094
142,1686190355.87,214.355,-303.711,191.406,-23.926,1195.764,320.8705726790023
143,1686190355.87,50.781,93.262,19.531,-54.199,1195.767,321.70185669255557
144,1686190355.87,-265.137,-279.785,-104.004,-81.543,1195.769,325.6032406913556
145,1686190355.88,-164.062,-456.543,5.371,-60.059,1195.773,330.2671477013189
146,1686190355.88,185.059,50.781,188.477,-19.531,1195.777,326.8652247174126
147,1686190355.88,161.133,218.262,57.129,-26.367,1195.781,330.8276376128478
148,1686190355.89,-192.871,-328.125,-95.215,-59.082,1195.785,325.23543789886355
149,1686190355.89,-241.211,-793.945,-15.625,-55.176,1195.789,328.34120328170934
150,1686190355.9,92.285,-380.859,89.844,-25.879,1195.792,322.9578364881943
151,1686190355.9,190.918,-78.613,34.668,-25.879,1195.796,326.1970389983438
152,1686190355.9,-131.836,-602.539,-107.91,-57.129,1195.8,322.349948450142
153,1686190355.91,-301.27,-990.234,43.457,-60.059,1195.804,330.6462948118805
154,1686190355.91,16.602,-306.152,311.523,-31.738,1195.808,323.8605047363669
155,1686190355.92,229.98,208.984,103.516,-21.973,1195.812,322.1420702926505
156,1686190355.92,-29.297,-396.973,-69.336,-54.688,1195.814,320.8739611531447
157,1686190355.92,-277.344,-685.059,55.664,-72.754,1195.818,320.7247817080433
158,1686190355.93,-71.777,-153.809,94.238,-41.504,1195.822,326.5241127829561
159,1686190355.93,214.844,115.234,-30.273,-9.277,1195.826,313.80873386728797
160,1686190355.93,54.688,-442.383,-77.148,-32.715,1195.83,321.26394919571237
161,1686190355.94,-282.227,-975.586,-16.113,-70.801,1195.834,321.551855358429
162,1686190355.94,-191.406,-587.891,144.531,-62.012,1195.838,321.2892779925919
163,1686190355.94,184.57,-74.219,193.848,-20.02,1195.842,327.84577220455526
164,1686190355.95,166.992,-502.441,37.109,-9.766,1195.845,327.783824380404
165,1686190355.95,-185.547,-874.512,115.234,-47.852,1195.849,318.8197619917309
166,1686190355.96,-243.164,-533.691,189.453,-64.941,1195.853,321.30516810777465
167,1686190355.96,87.891,-302.246,96.191,-23.438,1195.857,316.0392624128253
168,1686190355.98,215.82,-409.18,84.473,-3.418,1195.874,321.4879909489437
169,1686190355.98,-76.172,-347.656,130.859,-39.062,1195.878,321.09545536526394
170,1686190355.99,-261.719,-305.176,-7.324,-62.012,1195.882,318.07938558412076
171,1686190355.99,-0.977,-396.484,15.137,-34.668,1195.886,318.67877798374406
172,1686190355.99,235.84,-299.316,8.301,-8.301,1195.89,324.5802489594614
173,1686190356.0,4.395,-357.422,-37.109,-30.273,1195.894,320.6790464436187
174,1686190356.0,-292.969,-702.148,-1.465,-54.688,1195.898,326.3532733116108
175,1686190356.0,-134.766,-898.438,-43.945,-41.016,1195.902,329.32711542451676
176,1686190356.01,172.363,-740.723,70.312,-15.625,1195.905,314.638692601444
177,1686190356.01,96.191,-195.801,185.547,-34.18,1195.909,312.44585093687516
178,1686190356.02,-229.492,-304.199,-45.41,-66.406,1195.913,329.9951797964049
179,1686190356.02,-207.031,-654.785,-3.418,-58.105,1195.917,330.99516433655435
180,1686190356.02,137.695,-541.992,137.207,-20.996,1195.923,319.63099344127244
181,1686190356.03,176.758,-460.449,41.504,-16.113,1195.926,319.3189996654831
182,1686190356.03,-158.203,-680.664,-47.363,-56.152,1195.93,318.1363617317601
183,1686190356.04,-278.809,-955.566,-68.359,-63.477,1195.934,321.95810070553154
184,1686190356.04,30.273,-774.414,103.027,-28.809,1195.938,321.49849671839274
185,1686190356.04,208.496,-377.93,115.723,-20.996,1195.942,325.71343025142016
186,1686190356.05,-73.73,-613.77,-90.82,-54.199,1195.946,320.36551985519935
187,1686190356.05,-298.828,-795.41,76.66,-76.172,1195.95,322.3128841156124
188,1686190356.05,-158.203,-610.84,260.742,-36.621,1195.95,316.786446963073
189,1686190356.06,-41.504,-411.621,271.484,-41.504,1195.954,316.0850010390908
190,1686190356.06,199.219,-20.996,256.836,4.395,1195.953,327.8575403417923
191,1686190356.06,229.492,-12.695,149.902,-3.418,1195.958,317.3687664319776
192,1686190356.06,124.023,-310.547,-34.668,-9.277,1195.957,322.9311122803188
193,1686190356.06,29.297,-256.836,-76.172,-29.297,1195.962,320.06688763448915
194,1686190356.06,-214.355,-823.73,-80.078,-48.34,1195.961,320.7915364164488
195,1686190356.07,-302.246,-831.543,-49.316,-62.988,1195.966,324.5352076404127
196,1686190356.07,-195.312,-663.086,43.945,-42.48,1195.965,315.96813256933825
197,1686190356.07,171.387,-520.02,22.949,8.301,1195.969,321.71502524901877
198,1686190356.08,212.402,-707.031,-38.574,-0.488,1195.973,321.8505827950133
199,1686190356.08,-136.23,-841.309,-19.043,-60.547,1195.977,320.4843331414964
200,1686190356.08,-258.301,-598.145,44.922,-65.918,1195.981,311.5935162950702
201,1686190356.09,60.059,-270.996,40.527,-20.996,1195.985,328.04540978428054
202,1686190356.09,238.281,-526.367,-61.523,6.348,1195.989,320.8935439073659
203,1686190356.1,-57.129,-1000.0,10.742,-26.855,1195.993,322.74219649135665
204,1686190356.1,-289.062,-953.613,176.27,-56.152,1196.008,316.14250177906985
205,1686190356.1,-53.223,-738.77,172.852,-22.949,1196.012,324.80644684762814
206,1686190356.11,223.145,-730.957,120.605,11.23,1196.016,313.9464899762564
207,1686190356.11,50.293,-713.867,167.48,-11.23,1196.02,320.9927820244692
208,1686190356.11,-268.555,-602.051,45.898,-47.852,1196.024,321.044310493181
209,1686190356.12,-159.668,-759.277,-35.645,-27.832,1196.028,323.11959657955776
210,1686190356.12,178.223,-894.043,4.395,32.715,1196.032,325.10723522339765
211,1686190356.12,138.672,-801.758,114.746,18.066,1196.036,323.4194321972668
212,1686190356.13,-180.664,-414.062,133.789,-33.691,1196.04,328.14061901319684
213,1686190356.13,-218.75,-600.098,-64.941,-19.531,1196.044,318.8440127317925
214,1686190356.14,111.328,-595.215,104.004,22.949,1196.047,320.7079710639821
215,1686190356.14,227.051,-169.434,150.879,35.645,1196.051,325.0989409611441
216,1686190356.14,-95.703,-244.629,-36.621,-5.371,1196.054,315.5150593858952
217,1686190356.15,-274.414,-683.594,-75.195,-18.555,1196.057,321.6481311669562
218,1686190356.15,26.367,-682.129,60.547,24.902,1196.061,324.4978125139942
219,1686190356.16,255.859,-188.965,167.969,33.203,1196.065,314.4272187684601
220,1686190356.16,5.859,-252.441,-22.461,-9.766,1196.069,318.80272218457446
221,1686190356.16,-282.715,-866.699,-172.852,-26.367,1196.073,322.1991129416846
222,1686190356.17,-81.543,-822.754,63.965,5.859,1196.077,320.88951649182576
223,1686190356.17,239.746,-259.277,230.957,24.414,1196.081,318.0748802243702
224,1686190356.17,93.75,-476.562,0.0,4.883,1196.085,321.166722411893
225,1686190356.18,-253.418,-968.262,-111.328,-17.09,1196.089,321.3449087626924
226,1686190356.18,-190.43,-822.266,97.168,-12.207,1196.093,314.0853734943406
227,1686190356.19,187.5,-235.352,278.809,18.066,1196.097,319.2230459395295
228,1686190356.2,186.035,-391.113,3.418,5.371,1196.103,328.3580808656433
229,1686190356.21,-185.547,-930.664,-70.312,-38.574,1196.107,324.6953022375212
230,1686190356.21,-259.766,-835.938,198.73,-42.48,1196.111,311.722490638915
231,1686190356.22,104.492,-300.781,279.297,-2.441,1196.115,322.41139024676204
232,1686190356.22,241.211,-198.242,59.082,22.461,1196.119,318.3781390278466
233,1686190356.22,-83.984,-786.621,-98.145,-18.555,1196.123,320.4073728829615
234,1686190356.23,-289.551,-965.332,17.09,-52.734,1196.127,322.03932853658256
235,1686190356.23,-16.602,-416.016,190.918,-19.531,1196.131,316.49691226571144
236,1686190356.23,244.141,-218.75,80.566,15.137,1196.135,319.24325555284554
237,1686190356.24,6.348,-699.219,-46.387,-24.414,1196.138,323.9933532184661
238,1686190356.24,-291.992,-967.285,8.789,-66.406,1196.142,319.0207410562441
239,1686190356.25,-107.422,-651.855,97.656,-28.32,1196.146,324.9593333085622
240,1686190356.25,216.797,-421.387,53.223,19.531,1196.144,323.47597394832616
241,1686190356.25,103.027,-666.992,5.371,1.953,1196.148,323.50542539110927
242,1686190356.26,-237.793,-703.613,80.078,-42.969,1196.152,317.4108874456575
243,1686190356.26,-206.055,-530.273,18.555,-43.457,1196.156,311.81584352366536
244,1686190356.26,138.672,-454.102,-1.953,1.953,1196.16,318.74042130509525
245,1686190356.27,165.039,-752.93,-70.312,0.0,1196.164,318.9191093971704
246,1686190356.27,-168.945,-823.242,-5.371,-45.898,1196.168,318.5197695016846
247,1686190356.28,-265.625,-579.102,20.02,-58.105,1196.171,329.30219426408195
248,1686190356.28,45.41,-744.629,-64.453,-16.602,1196.175,315.7177094075624
249,1686190356.28,204.102,-803.711,57.617,-5.859,1196.179,328.58224098941804
250,1686190356.29,-69.824,-556.641,150.879,-52.734,1196.183,325.9131313583677
251,1686190356.29,-288.574,-665.527,-24.902,-66.406,1196.187,325.12914394206786
252,1686190356.29,-47.363,-780.273,-3.906,-32.227,1196.19,314.86379410431687
253,1686190356.3,215.332,-753.906,128.906,-1.465,1196.194,329.84670657427785
254,1686190356.3,41.992,-557.617,47.363,-25.391,1196.198,321.1775590366691
255,1686190356.3,-263.672,-566.895,-73.73,-72.266,1196.202,325.8068959375829
256,1686190356.31,-166.016,-876.953,-76.66,-50.781,1196.206,307.82816138926233
257,1686190356.31,154.785,-928.711,160.645,-11.719,1196.21,319.9603127837767
258,1686190356.32,114.258,-562.012,159.18,-31.25,1196.214,315.3904637929801
259,1686190356.32,-229.98,-582.52,-88.867,-69.824,1196.217,320.0058817762792
260,1686190356.32,-263.672,-928.223,-32.227,-59.57,1196.221,318.18099912588707
261,1686190356.33,94.727,-600.098,237.305,-18.555,1196.225,310.38500251905083
262,1686190356.33,189.941,-145.508,128.418,-19.531,1196.229,328.5635801275248
263,1686190356.34,-148.438,-551.758,-99.121,-61.035,1196.233,323.9861217144745
264,1686190356.34,-295.898,-860.352,1.953,-82.52,1196.234,314.14155938348677
265,1686190356.34,21.484,-451.66,109.863,-39.551,1196.238,321.4594787508545
266,1686190356.35,221.191,-168.945,-2.441,-7.812,1196.242,325.24709929361995
267,1686190356.35,-55.176,-585.938,-132.812,-40.039,1196.246,313.6896670024622
268,1686190356.35,-306.641,-946.777,-28.809,-63.965,1196.25,317.3621619096534
269,1686190356.36,-81.055,-833.008,66.895,-30.273,1196.254,318.040543840344
270,1686190356.36,211.914,-526.855,41.016,-3.418,1196.258,323.56518226686217
271,1686190356.36,40.039,-604.98,-111.328,-39.062,1196.262,316.2538559336577
272,1686190356.37,-302.246,-1000.0,-6.348,-73.73,1196.266,323.064618037364
273,1686190356.37,-182.129,-684.57,312.988,-59.57,1196.27,323.2073924238015
274,1686190356.38,180.176,-245.605,175.293,-20.02,1196.274,316.1638306386261
275,1686190356.38,138.184,-446.777,2.441,-31.738,1196.277,315.5206710226694
276,1686190356.38,-220.703,-957.031,-66.406,-73.73,1196.279,323.64632566224026
277,1686190356.39,-264.648,-873.535,68.848,-62.988,1196.283,326.605872154754
278,1686190356.39,91.797,-381.836,106.445,-15.137,1196.287,320.47078206222034
279,1686190356.4,183.594,-624.512,-35.156,0.977,1196.291,320.60945141950504
280,1686190356.4,-142.578,-888.184,117.188,-39.551,1196.295,323.3356659900086
281,1686190356.4,-289.551,-885.254,55.176,-54.199,1196.299,307.90781468615063
282,1686190356.41,7.324,-848.145,25.391,-20.02,1196.303,326.42492304414543
283,1686190356.41,204.59,-869.141,-42.48,-12.695,1196.306,321.51195507584174
284,1686190356.41,-46.387,-898.926,55.664,-46.875,1196.31,312.26039405466213
285,1686190356.42,-296.387,-581.055,134.277,-83.496,1196.314,313.4030274073862
286,1686190356.42,-100.098,-645.996,-34.668,-52.734,1196.318,314.04414301824573
287,1686190356.43,213.867,-612.305,53.223,-3.906,1196.322,325.39615053913263
288,1686190356.43,90.332,-386.23,30.762,-20.996,1196.324,320.0125613233036
289,1686190356.43,-253.906,-522.949,-62.988,-65.43,1196.328,308.28786457903016
290,1686190356.44,-206.055,-808.594,-52.246,-50.781,1196.332,316.2177733388785
291,1686190356.44,143.066,-697.266,6.348,-15.137,1196.336,325.8816854941132
292,1686190356.44,158.691,-390.137,-29.297,-23.438,1196.34,305.07197814904634
293,1686190356.45,-195.312,-782.715,-92.773,-65.43,1196.344,315.41619678835593
294,1686190356.45,-285.645,-1000.0,-86.914,-67.383,1196.348,317.57247573820956
295,1686190356.46,49.316,-815.43,91.797,-16.113,1196.352,322.50834005087574
296,1686190356.46,204.59,-446.777,181.152,-7.812,1196.356,319.5478797247974
297,1686190356.46,-97.656,-751.953,-98.145,-44.922,1196.36,313.8272952349803
298,1686190356.47,-310.059,-1000.0,-50.293,-52.734,1196.364,318.3294869086212
299,1686190356.47,-26.855,-705.078,192.383,-18.066,1196.367,310.5170201241759
300,1686190356.47,237.305,-509.277,80.566,12.695,1196.383,322.95364689004543
301,1686190356.48,8.789,-809.57,-90.82,-17.09,1196.387,317.93111906100665
302,1686190356.48,-299.805,-1000.0,-39.551,-63.477,1196.391,316.56522029121874
303,1686190356.48,-143.066,-729.492,207.52,-41.504,1196.394,311.16827650227714
304,1686190356.49,192.871,-361.816,187.5,-12.695,1196.398,320.719931715856
305,1686190356.49,100.098,-673.34,-74.707,-32.227,1196.402,323.3303647248236
306,1686190356.5,-261.23,-1000.0,-64.453,-64.453,1196.406,317.62343697614733
307,1686190356.5,-240.723,-813.477,189.453,-60.547,1196.41,328.3809371465474
308,1686190356.5,141.113,-272.949,258.301,-16.113,1196.414,314.94617119155134
309,1686190356.51,193.848,-300.293,19.531,-8.301,1196.418,323.1993184986451
310,1686190356.51,-167.969,-765.137,-77.637,-60.547,1196.422,332.7037227105468
311,1686190356.52,-291.016,-919.922,-17.09,-67.383,1196.426,321.26589246971014
312,1686190356.52,45.41,-614.746,118.652,-17.09,1196.428,331.17848887639576
313,1686190356.52,220.215,-491.699,13.672,-3.418,1196.432,322.1737782975204
314,1686190356.53,-75.684,-841.797,-9.766,-44.434,1196.436,330.54164690224684
315,1686190356.53,-295.41,-761.23,136.719,-66.895,1196.439,328.2654779633586
316,1686190356.54,-41.016,-475.586,36.621,-30.273,1196.443,315.3301870980246
317,1686190356.54,220.703,-662.109,-114.746,4.883,1196.447,332.7807558037374
318,1686190356.54,24.902,-892.578,-3.418,-27.344,1196.451,323.8464470964084
319,1686190356.55,-280.273,-683.594,140.137,-76.66,1196.455,328.9095439875478
320,1686190356.55,-147.461,-547.363,-26.367,-49.805,1196.459,318.37081685159984
321,1686190356.55,187.5,-631.836,42.48,-3.906,1196.463,320.0039688538722
322,1686190356.56,120.605,-640.137,114.746,-27.344,1196.467,321.214699978739
323,1686190356.56,-217.285,-597.168,-34.18,-66.406,1196.471,316.300720885551
324,1686190356.58,-230.469,-847.656,-62.5,-50.781,1196.476,332.42642615552506
325,1686190356.58,108.887,-953.125,3.906,1.465,1196.479,319.6485656831528
326,1686190356.59,184.57,-898.438,101.074,2.93,1196.483,329.2956926364742
327,1686190356.59,-139.648,-679.688,52.734,-45.41,1196.487,329.55240186181146
328,1686190356.59,-286.133,-657.227,-55.176,-67.383,1196.491,329.46816118536555
329,1686190356.6,-0.488,-937.988,-90.332,-27.344,1196.495,334.3128719245622
330,1686190356.6,197.754,-826.66,121.094,-1.465,1196.499,328.8536610869484
331,1686190356.6,-43.457,-462.402,149.902,-46.387,1196.503,332.34960163862223
332,1686190356.61,-312.5,-726.562,-88.379,-76.172,1196.507,328.2328121683628
333,1686190356.61,-98.145,-775.391,101.074,-32.715,1196.511,320.86193010949427
334,1686190356.62,214.844,-352.539,227.539,-1.953,1196.515,325.901132962957
335,1686190356.62,58.105,-339.844,18.555,-31.738,1196.519,336.45311811413853
336,1686190356.62,-283.203,-790.527,-94.238,-62.5,1196.519,343.09199166428084
337,1686190356.63,-197.266,-875.977,51.27,-45.898,1196.523,327.8634801626332
338,1686190356.63,164.062,-432.617,202.148,0.488,1196.527,330.8911425820965
339,1686190356.64,159.668,-361.816,24.414,-2.93,1196.531,331.3117033706552
340,1686190356.64,-202.148,-760.254,-103.516,-48.828,1196.535,328.1874798197702
341,1686190356.64,-269.043,-1000.0,-53.711,-50.781,1196.539,335.818114809466
342,1686190356.65,87.402,-842.285,65.918,-7.812,1196.542,335.8095517314778
343,1686190356.65,208.008,-474.121,83.008,-8.301,1196.546,339.0428027176131
344,1686190356.65,-119.141,-687.988,-125.488,-44.434,1196.55,335.3876075329084
345,1686190356.66,-321.289,-1000.0,51.27,-69.336,1196.554,324.6405512147821
346,1686190356.66,-12.695,-599.609,354.492,-41.016,1196.558,332.2553388976586
347,1686190356.67,223.633,-328.613,88.867,-6.348,1196.562,336.31014035005495
348,1686190356.67,-36.621,-759.277,-75.684,-41.992,1196.564,331.59933494039
349,1686190356.67,-294.922,-993.164,30.762,-75.195,1196.568,337.3830903825978
350,1686190356.68,-92.773,-676.27,104.98,-46.875,1196.572,329.1850767781518
351,1686190356.68,224.609,-403.32,68.848,-4.883,1196.576,341.37370026885793
352,1686190356.68,92.285,-725.098,-60.547,-23.438,1196.58,339.1490823651824
353,1686190356.69,-254.883,-1000.0,-24.902,-65.43,1196.584,331.35919744028917
354,1686190356.69,-193.848,-895.508,94.238,-47.852,1196.588,343.23294598169116
355,1686190356.7,163.086,-680.664,134.766,-3.418,1196.592,336.9707826373106
356,1686190356.7,150.391,-863.281,-83.496,-17.09,1196.595,340.7238662198401
357,1686190356.7,-192.383,-960.938,41.992,-56.641,1196.599,319.4119251059453
358,1686190356.71,-250.977,-772.949,193.848,-53.711,1196.603,333.5943887509083
359,1686190356.71,76.66,-707.52,52.734,-13.672,1196.607,335.13741987633915
360,1686190356.71,227.539,-606.445,34.18,-3.906,1196.609,334.81972267840666
361,1686190356.72,-66.406,-571.289,19.043,-43.457,1196.613,334.22772308501686
362,1686190356.72,-276.855,-642.578,-4.883,-61.523,1196.617,334.23071555365635
363,1686190356.72,-13.184,-698.242,-24.902,-21.484,1196.621,331.11056386263436
364,1686190356.73,247.559,-627.93,-49.805,3.418,1196.625,327.42326715958995
365,1686190356.73,31.25,-734.375,-61.523,-31.738,1196.629,323.69130724786896
366,1686190356.74,-270.02,-935.547,8.789,-68.359,1196.632,330.8167352849315
367,1686190356.74,-118.164,-934.57,-46.875,-31.25,1196.636,338.9877273785998
368,1686190356.74,193.359,-827.637,59.082,5.859,1196.64,335.89195976652826
369,1686190356.75,117.676,-575.195,133.301,-27.832,1196.644,336.7233016218354
370,1686190356.75,-223.633,-870.605,-109.375,-62.988,1196.648,343.81106884248317
371,1686190356.76,-224.609,-1000.0,-37.598,-58.594,1196.652,334.57163799383994
372,1686190356.76,126.953,-864.746,183.594,-16.602,1196.684,342.7752139474297
373,1686190356.76,188.965,-514.16,209.961,-14.16,1196.688,332.8966919556552
374,1686190356.77,-149.414,-597.656,-55.176,-61.523,1196.692,338.34518240695365
375,1686190356.77,-283.691,-955.566,-55.664,-63.477,1196.696,332.59935027662186
376,1686190356.77,34.18,-718.262,206.055,-14.648,1196.7,327.5913947392702
377,1686190356.78,223.633,-560.547,61.523,-9.277,1196.704,344.5434442824069
378,1686190356.78,-58.594,-871.582,-105.957,-48.828,1196.707,335.1899680446836
379,1686190356.78,-318.848,-1000.0,-30.273,-68.359,1196.711,327.6717985713635
380,1686190356.79,-71.289,-760.254,204.102,-28.809,1196.715,342.6766102119901
381,1686190356.79,243.164,-239.258,221.191,1.953,1196.719,335.59912663109264
382,1686190356.8,71.777,-438.965,-40.527,-10.742,1196.723,338.3189151863914
383,1686190356.8,-261.719,-852.051,-43.457,-53.223,1196.727,339.56570042038703
384,1686190356.8,-156.738,-826.172,39.062,-55.176,1196.7,346.1876333017719
385,1686190356.81,195.801,-505.371,96.191,-16.113,1196.704,341.62330516952125
386,1686190356.81,140.137,-531.25,-56.152,-25.391,1196.708,330.98842218173957
387,1686190356.82,-226.074,-927.246,-35.156,-63.965,1196.712,343.4470683247104
388,1686190356.82,-243.652,-811.523,202.148,-56.152,1196.716,328.53244252635585
389,1686190356.82,114.258,-729.98,46.875,-8.301,1196.72,340.87296713579093
390,1686190356.83,190.43,-839.844,-111.816,-2.441,1196.724,327.30165878050735
391,1686190356.83,-140.625,-960.449,-9.766,-45.41,1196.728,328.5517228270578
392,1686190356.83,-275.391,-769.531,240.723,-68.848,1196.732,351.51424067693665
393,1686190356.84,25.879,-459.473,158.203,-37.109,1196.735,348.81334019968125
394,1686190356.84,215.82,-609.863,62.012,-13.672,1196.739,337.096737358918
395,1686190356.85,-41.504,-841.797,104.492,-36.621,1196.743,343.1573122844149
396,1686190356.85,-291.992,-949.707,-2.441,-51.27,1196.774,341.74496644187934
397,1686190356.85,-74.707,-736.328,77.637,-24.902,1196.778,340.3343410117499
398,1686190356.86,219.727,-707.031,-33.203,14.16,1196.781,334.89536074376497
399,1686190356.86,50.781,-991.699,-15.625,-16.602,1196.785,336.48943443424236
400,1686190356.86,-259.766,-828.125,200.195,-77.148,1196.789,341.7223465458885
401,1686190356.87,-170.898,-847.656,44.434,-56.641,1196.793,333.86634708002254
402,1686190356.87,153.809,-974.609,-63.965,-0.977,1196.797,336.0835922224072
403,1686190356.88,134.766,-851.562,82.52,-12.695,1196.801,327.8249121850572
404,1686190356.88,-189.941,-572.266,126.465,-67.383,1196.805,332.64178957316335
405,1686190356.88,-249.023,-708.008,-84.961,-62.5,1196.809,341.7135842149699
406,1686190356.89,97.168,-643.555,84.473,-18.066,1196.813,340.2939866094304
407,1686190356.89,231.445,-306.152,119.629,-12.695,1196.817,339.0095828749675
408,1686190356.89,-91.309,-423.828,-66.406,-56.152,1196.804,341.65348123902635
409,1686190356.9,-290.039,-819.824,-82.52,-65.43,1196.808,345.0213683488083
410,1686190356.9,2.93,-792.48,57.617,-16.602,1196.812,336.1166194319863
411,1686190356.9,253.906,-314.941,144.043,5.859,1196.816,339.731978565979
412,1686190356.91,0.0,-570.312,-24.414,-36.621,1196.82,346.6605165559324
413,1686190356.91,-310.547,-1000.0,-139.16,-67.383,1196.824,335.2483122257583
414,1686190356.92,-126.465,-970.703,7.324,-31.25,1196.828,343.3543178295509
415,1686190356.92,213.379,-631.836,244.629,3.418,1196.831,337.3440679148013
416,1686190356.92,102.539,-367.188,73.73,-27.832,1196.835,331.5042354037687
417,1686190356.93,-254.395,-796.875,-120.605,-69.824,1196.839,338.47676549416394
418,1686190356.93,-209.961,-888.672,109.375,-52.734,1196.843,328.7374905672251
419,1686190356.94,166.504,-388.184,238.77,-7.812,1196.847,333.54054946629
420,1686190356.95,191.406,-557.617,0.488,-7.812,1196.85,335.03866308895005
421,1686190356.96,-181.641,-951.172,-115.723,-49.316,1196.854,332.05069552346384
422,1686190356.96,-291.992,-995.605,45.898,-50.293,1196.858,335.4656393558948
423,1686190356.96,75.195,-571.777,291.016,-13.184,1196.862,331.05501646296926
424,1686190356.97,250.488,-297.852,86.914,-0.488,1196.866,340.4024915712999
425,1686190356.97,-74.707,-783.203,-102.539,-46.875,1196.869,333.8781114327768
426,1686190356.98,-302.734,-950.195,53.711,-74.219,1196.873,329.96252281395675
427,1686190356.98,-24.414,-550.293,83.496,-42.969,1196.877,327.77823670496474
428,1686190356.98,244.141,-529.785,-46.875,-15.625,1196.881,326.2192055738585
429,1686190356.99,12.207,-900.879,-92.285,-28.809,1196.885,343.1463121959664
430,1686190356.99,-299.316,-969.238,132.812,-68.848,1196.889,328.95286837416154
431,1686190357.0,-122.559,-576.66,256.348,-55.176,1196.893,332.7381267993458
432,1686190357.0,216.797,-468.262,62.012,-10.254,1196.895,326.19741110238044
433,1686190357.0,127.93,-657.715,-72.266,-33.203,1196.899,328.75316077550843
434,1686190357.01,-218.75,-660.645,-42.969,-77.637,1196.903,326.42433949396013
435,1686190357.01,-210.938,-580.566,-22.461,-71.289,1196.906,334.11839466871606
436,1686190357.01,138.184,-618.164,-40.527,-27.832,1196.91,335.9890667732199
437,1686190357.02,188.965,-871.582,-87.891,-27.344,1196.914,330.1755802930344
438,1686190357.02,-147.461,-965.332,-36.621,-67.383,1196.918,326.1192939828128
439,1686190357.02,-250.488,-734.375,76.66,-64.941,1196.922,318.6870536331869
440,1686190357.03,56.152,-757.812,-39.551,-24.902,1196.926,317.46896515274165
441,1686190357.03,214.355,-845.215,27.344,-20.508,1196.93,320.1600221649249
442,1686190357.04,-55.176,-698.73,103.516,-67.871,1196.934,317.9856092870825
443,1686190357.04,-296.387,-913.574,-40.527,-88.867,1196.938,321.12340229123413
444,1686190357.04,-64.941,-1000.0,-63.477,-43.945,1196.939,326.1075561739539
445,1686190357.05,214.355,-818.848,87.402,-12.207,1196.943,317.6194685931627
446,1686190357.05,57.129,-489.746,131.836,-43.457,1196.947,311.7425119808173
447,1686190357.06,-258.789,-682.617,-81.055,-73.242,1196.951,312.15157579027107
448,1686190357.06,-146.973,-838.867,-16.113,-46.875,1196.955,317.10487115311463
449,1686190357.06,200.195,-765.137,20.996,-7.812,1196.959,314.8522345564103
450,1686190357.07,159.668,-605.469,6.348,-17.578,1196.963,315.61898327670207
451,1686190357.07,-173.828,-669.434,-45.41,-42.48,1196.967,309.79076766345383
452,1686190357.07,-219.727,-1000.0,-62.012,-36.133,1196.97,313.6769302307545
453,1686190357.08,133.789,-718.75,204.59,-7.324,1196.974,317.2352909799884
454,1686190357.08,264.16,-231.445,142.578,-2.441,1196.978,309.4456821286994
455,1686190357.09,-66.895,-610.352,-129.883,-33.691,1196.982,316.5336132929464
456,1686190357.11,-237.305,-898.926,2.93,-41.504,1197.006,299.5052876822115
457,1686190357.11,75.684,-679.199,108.398,6.348,1197.01,304.796804985298
458,1686190357.11,290.527,-430.176,20.02,23.926,1197.014,300.1560475253425
459,1686190357.12,8.789,-589.355,-126.465,-18.555,1197.018,301.1814950412224
460,1686190357.12,-269.531,-918.945,-23.438,-33.691,1197.022,299.134485393936
461,1686190357.13,-45.898,-810.059,154.297,5.859,1197.026,296.5111787554704
462,1686190357.13,246.582,-668.457,31.738,12.207,1197.029,301.6881073798684
463,1686190357.13,66.406,-778.809,-132.324,-34.668,1197.033,298.04812347943084
464,1686190357.13,-188.477,-935.059,-16.113,-60.059,1197.029,299.9345597015632
465,1686190357.14,-246.094,-863.77,77.637,-55.664,1197.033,306.40236702293566
466,1686190357.14,-270.508,-996.094,-10.254,-59.57,1197.037,295.5272555321225
467,1686190357.14,-167.969,-645.02,291.016,-51.758,1197.041,299.32569442319294
468,1686190357.14,112.793,-435.547,175.293,-7.324,1197.037,302.7505595410516
469,1686190357.14,182.617,-437.012,102.051,-20.996,1197.045,298.5317730154044
470,1686190357.14,247.07,-617.676,19.043,8.301,1197.041,293.405851118644
471,1686190357.15,165.527,-672.852,-38.086,-19.531,1197.049,304.4365341942338
472,1686190357.15,-80.566,-982.91,-64.941,-37.109,1197.045,302.33228947842514
473,1686190357.15,-283.203,-969.727,-25.879,-63.965,1197.049,299.59994164974984
474,1686190357.16,5.371,-840.82,10.254,-23.926,1197.053,287.56404394134483
475,1686190357.16,253.906,-687.5,15.625,0.977,1197.056,297.40593474297566
476,1686190357.16,18.555,-631.836,16.113,-37.598,1197.06,298.8428844343116
477,1686190357.17,-286.133,-658.691,-17.09,-78.125,1197.064,305.156789383466
478,1686190357.17,-104.98,-618.652,-27.344,-56.152,1197.068,288.7296769627873
479,1686190357.18,201.66,-850.586,-96.68,-3.906,1197.072,309.52029461925315
480,1686190357.18,69.336,-1000.0,-15.137,-16.113,1197.074,295.382262634485
481,1686190357.18,-254.395,-754.395,233.887,-74.707,1197.078,302.16308907222134
482,1686190357.19,-206.055,-746.582,90.332,-61.035,1197.082,298.54847290369196
483,1686190357.19,155.762,-612.793,21.973,-3.418,1197.086,303.7095891966251
484,1686190357.19,187.988,-285.645,26.367,-11.23,1197.09,295.8315033170558
485,1686190357.2,-170.41,-728.516,-62.988,-54.688,1197.094,296.36027573166
486,1686190357.2,-272.949,-1000.0,-76.66,-55.176,1197.098,302.5072371563991
487,1686190357.2,50.781,-950.195,0.977,-21.484,1197.102,298.10360549340703
488,1686190357.21,232.91,-518.066,251.953,-13.672,1197.106,296.45574715057336
489,1686190357.21,-45.41,-364.746,18.555,-52.734,1197.11,288.41477265553607
490,1686190357.22,-292.969,-786.133,-55.176,-79.102,1197.114,302.1157610670283
491,1686190357.22,-30.762,-615.723,204.59,-43.945,1197.117,297.9145738860724
492,1686190357.22,246.094,-425.293,84.473,-2.93,1197.133,303.88876422258903
493,1686190357.23,31.25,-756.836,-67.383,-25.391,1197.137,288.66933069360135
494,1686190357.23,-290.039,-993.164,-59.082,-56.641,1197.141,292.40604345404665
495,1686190357.24,-138.672,-818.359,192.871,-39.062,1197.144,293.8381950782878
496,1686190357.24,222.168,-370.605,204.102,-7.324,1197.148,290.8923197724929
497,1686190357.24,135.254,-620.117,-68.848,-24.414,1197.152,299.921554659086
498,1686190357.25,-250.0,-1000.0,-64.941,-65.918,1197.156,294.2494756296866
499,1686190357.25,-242.676,-843.75,180.176,-53.711,1197.16,304.24484552571175
500,1686190357.25,144.043,-404.785,228.027,-16.113,1197.164,286.76469192952754
501,1686190357.26,190.918,-517.09,-27.344,-23.438,1197.168,293.6329590759903
502,1686190357.26,-163.086,-878.906,33.203,-63.477,1197.172,291.87847793238274
503,1686190357.27,-279.785,-780.762,231.445,-67.871,1197.176,300.7429265169566
504,1686190357.27,51.758,-346.68,210.938,-29.297,1197.166,282.3463293391712
505,1686190357.27,231.445,-391.602,21.484,-16.602,1197.17,295.33261774158683
506,1686190357.28,-61.035,-781.738,-100.098,-55.176,1197.174,302.95274137733776
507,1686190357.28,-306.152,-711.426,3.418,-78.613,1197.178,284.2634700362804
508,1686190357.28,-61.035,-461.426,44.922,-39.551,1197.182,295.03354681855575
509,1686190357.29,223.633,-670.898,-129.883,2.93,1197.186,288.15532125131233
510,1686190357.29,36.133,-919.922,-22.461,-29.297,1197.19,292.2878320896296
511,1686190357.3,-279.785,-736.816,164.551,-80.078,1197.194,304.8289453345531
512,1686190357.3,-153.809,-600.098,-29.297,-71.777,1197.198,290.90641697946734
513,1686190357.3,196.289,-659.668,20.02,-25.879,1197.201,288.0069961984051
514,1686190357.31,150.879,-673.828,129.883,-25.391,1197.205,289.4119262198742
515,1686190357.31,-199.707,-756.836,-13.672,-61.523,1197.209,289.26515628840207
516,1686190357.33,-232.91,-1000.0,-51.758,-52.246,1197.224,286.5928288211451
517,1686190357.33,103.516,-983.398,14.16,-19.043,1197.228,287.6550935524055
518,1686190357.34,197.754,-693.359,170.898,-30.273,1197.232,291.42818514173865
519,1686190357.34,-111.328,-571.777,45.41,-67.383,1197.236,296.064693104456
520,1686190357.34,-275.391,-858.887,-58.594,-72.266,1197.24,294.0686349725528
521,1686190357.35,9.766,-1000.0,-67.383,-21.973,1197.244,292.4346371200672
522,1686190357.35,212.402,-926.758,117.676,0.977,1197.248,289.7424753331867
523,1686190357.36,-18.555,-610.352,189.453,-40.527,1197.252,289.58627863744925
524,1686190357.36,-277.832,-754.395,-80.566,-62.012,1197.255,297.065810924874
525,1686190357.36,-80.566,-817.383,97.656,-38.574,1197.259,292.48652333201574
526,1686190357.37,244.629,-354.492,217.285,-0.488,1197.263,293.49380540861375
527,1686190357.37,105.957,-299.805,7.812,-14.16,1197.267,296.3586759553639
528,1686190357.37,-246.582,-756.836,-113.281,-67.383,1197.272,294.882487532135
529,1686190357.38,-173.828,-885.742,23.438,-57.129,1197.276,293.73630573429165
530,1686190357.38,187.988,-649.902,153.32,-6.836,1197.28,301.70233631468693
531,1686190357.39,187.988,-501.465,131.836,-16.113,1197.284,296.4090907689077
532,1686190357.39,-160.645,-691.895,-95.703,-40.039,1197.288,305.31155665682473
533,1686190357.39,-241.211,-1000.0,-52.246,-29.785,1197.292,297.4103667018991
534,1686190357.4,104.004,-773.438,274.902,-3.906,1197.296,301.8034013244685
535,1686190357.4,252.93,-375.977,205.078,3.906,1197.3,294.9115839081409
536,1686190357.4,-74.707,-694.336,-89.844,-29.785,1197.303,294.78338401987367
537,1686190357.41,-292.969,-1000.0,12.695,-50.781,1197.307,302.3622594976815
538,1686190357.41,13.184,-586.426,306.641,-31.25,1197.311,302.1705404498121
539,1686190357.42,250.0,-379.395,59.082,-14.16,1197.315,301.4507668182257
540,1686190357.42,-4.883,-784.18,-89.355,-28.809,1197.314,310.1920045151887
541,1686190357.42,-278.809,-928.223,167.48,-55.176,1197.318,289.0716157627186
542,1686190357.43,-81.543,-557.129,263.672,-41.504,1197.322,302.5041552756661
543,1686190357.43,250.488,-342.773,158.691,-1.953,1197.326,297.5672425675511
544,1686190357.43,126.465,-719.727,-35.156,-18.066,1197.33,300.0843093164039
545,1686190357.44,-235.84,-1000.0,-56.152,-58.105,1197.334,302.89122829481926
546,1686190357.44,-199.219,-964.844,30.273,-41.992,1197.338,293.66458108701744
547,1686190357.44,162.109,-789.062,40.039,2.93,1197.342,298.6339184956423
548,1686190357.45,176.27,-850.586,-85.938,-0.488,1197.346,292.741816758704
549,1686190357.45,-176.758,-969.238,41.504,-49.805,1197.349,307.82357906929394
550,1686190357.46,-250.0,-679.199,269.531,-54.199,1197.353,305.88650624306587
551,1686190357.46,97.168,-550.293,107.422,1.465,1197.357,301.1341967275915
552,1686190357.46,259.766,-536.621,37.109,14.16,1197.361,304.82934166359377
553,1686190357.47,-48.34,-570.312,16.113,-32.227,1197.365,298.2246215242444
554,1686190357.47,-271.973,-711.914,-22.949,-43.457,1197.369,301.859486605159
555,1686190357.48,-16.602,-774.902,-19.043,-8.789,1197.373,307.3445375282306
556,1686190357.48,242.676,-772.949,-37.598,17.09,1197.377,302.92415506674433
557,1686190357.48,36.133,-845.215,-32.715,-10.254,1197.381,302.5884818651621
558,1686190357.49,-276.367,-931.152,12.695,-48.828,1197.385,305.7871093077138
559,1686190357.49,-128.418,-907.715,-38.574,-23.438,1197.389,308.3167587866406
560,1686190357.5,200.684,-959.473,-4.883,18.066,1197.393,307.81883274167166
561,1686190357.5,145.02,-622.07,225.586,-7.812,1197.397,297.7020435822134
562,1686190357.5,-191.406,-583.496,19.531,-50.781,1197.4,303.2510918365513
563,1686190357.51,-199.219,-833.496,-36.621,-35.645,1197.404,300.9581960328974
564,1686190357.52,158.203,-827.637,112.305,15.625,1197.419,316.9051546996483
565,1686190357.53,234.863,-593.75,85.449,19.043,1197.423,322.9206443856024
566,1686190357.53,-100.098,-604.492,-54.199,-30.273,1197.427,325.02442629429044
567,1686190357.54,-245.117,-881.836,-36.133,-42.48,1197.431,333.94321389182124
568,1686190357.54,77.148,-653.32,186.035,-5.859,1197.435,320.8963643200862
569,1686190357.54,263.184,-562.012,57.617,0.0,1197.439,342.46074030677653
570,1686190357.55,-29.785,-853.027,-61.523,-39.551,1197.443,336.6148956396329
571,1686190357.55,-293.457,-1000.0,-91.309,-50.781,1197.447,337.1667540802449
572,1686190357.55,-135.742,-651.855,278.32,-32.715,1197.464,328.07032182680723
573,1686190357.55,-54.199,-872.559,128.418,-19.531,1197.45,349.5178820481869
574,1686190357.56,234.375,-238.281,208.984,22.949,1197.468,349.8980841411413
575,1686190357.56,268.066,-424.805,260.742,2.441,1197.454,357.16196389779185
576,1686190357.56,177.246,-459.961,-34.668,0.0,1197.471,349.3384702638378
577,1686190357.56,93.262,-638.184,-40.039,-21.973,1197.458,363.14494628589074
578,1686190357.56,-207.52,-857.422,-91.309,-70.801,1197.475,349.15787010831184
579,1686190357.57,-247.07,-950.195,50.293,-56.641,1197.462,355.51923921897117
580,1686190357.57,-228.027,-680.664,-14.648,-60.547,1197.479,363.83969853331274
581,1686190357.57,142.578,-625.0,-35.645,-3.906,1197.483,377.3021130695969
582,1686190357.58,237.305,-804.688,-71.777,9.277,1197.487,376.37840618022545
583,1686190357.58,-104.98,-900.879,-66.406,-30.273,1197.491,380.46226467318763
584,1686190357.58,-268.066,-698.242,19.043,-41.992,1197.495,368.5519451401646
585,1686190357.59,48.828,-393.066,29.785,-5.859,1197.499,382.71416230190425
586,1686190357.59,259.766,-603.027,-77.148,17.09,1197.503,393.20850895109555
587,1686190357.6,-16.113,-960.938,-22.461,-22.461,1197.507,390.63981683913363
588,1686190357.6,-270.996,-921.387,59.57,-62.5,1197.5,400.30239346579134
589,1686190357.6,-53.711,-860.84,20.508,-27.344,1197.504,402.151575263237
590,1686190357.61,236.816,-896.973,-55.176,10.742,1197.508,402.1850578135734
591,1686190357.61,93.262,-867.188,45.41,1.953,1197.512,411.99865446253756
592,1686190357.62,-222.168,-676.27,123.535,-35.645,1197.516,412.1374361569864
593,1686190357.62,-160.645,-826.66,-47.363,-32.227,1197.52,404.43234401237265
594,1686190357.62,180.176,-846.68,42.48,-1.953,1197.524,408.1413084785002
595,1686190357.63,188.965,-535.645,173.828,-20.02,1197.528,416.9527768233429
596,1686190357.63,-150.391,-422.852,27.832,-57.129,1197.532,414.2431291159531
597,1686190357.63,-231.445,-661.621,-80.078,-51.758,1197.536,415.3239081954621
598,1686190357.64,102.539,-828.613,69.824,-5.859,1197.539,416.9655659407781
599,1686190357.64,248.535,-499.512,215.82,2.441,1197.543,413.17514475397775
600,1686190357.64,-56.641,-339.355,33.691,-34.18,1197.552,420.27354011761327
601,1686190357.65,-270.508,-765.625,-107.91,-51.27,1197.556,419.7749482747237
602,1686190357.65,-0.977,-829.59,45.41,-21.973,1197.56,405.0990392411972
603,1686190357.66,250.977,-561.523,117.676,16.602,1197.564,419.48892848430035
604,1686190357.66,32.715,-595.703,-30.762,-15.137,1197.568,417.66429434748176
605,1686190357.66,-263.184,-884.277,-169.434,-46.875,1197.572,412.07787963031836
606,1686190357.67,-110.84,-1000.0,-55.176,-15.137,1197.576,412.5436353552819
607,1686190357.67,226.562,-570.801,275.879,-1.465,1197.58,411.9095069297886
608,1686190357.68,137.695,-276.855,100.586,-29.297,1197.584,411.80016877873595
609,1686190357.68,-219.727,-728.027,-73.73,-54.688,1197.588,408.03979519554105
610,1686190357.68,-183.105,-738.281,195.312,-43.457,1197.592,402.6051071292363
611,1686190357.69,167.969,-337.891,209.961,-10.254,1197.595,408.3555426119709
612,1686190357.7,188.965,-604.98,-52.734,-11.719,1197.599,401.3559592219559
613,1686190357.71,-146.973,-929.688,-29.785,-48.828,1197.603,392.3739933577402
614,1686190357.71,-263.672,-790.039,209.473,-56.641,1197.607,398.5655240398969
615,1686190357.72,78.125,-395.508,245.605,-16.113,1197.611,396.57733982903596
616,1686190357.72,233.887,-314.453,63.965,-5.859,1197.615,396.46307282311295
617,1686190357.72,-95.215,-783.691,-173.828,-40.527,1197.619,390.33623702039347
618,1686190357.73,-313.965,-1000.0,35.645,-53.711,1197.623,394.48781638623205
619,1686190357.73,-31.25,-714.844,307.617,-25.879,1197.627,387.93048424416236
620,1686190357.73,253.418,-342.285,120.117,-4.883,1197.631,385.2256354950006
621,1686190357.74,32.227,-733.398,-53.223,-34.18,1197.635,389.83385027337727
622,1686190357.74,-285.645,-909.18,64.941,-62.988,1197.638,374.32646492909663
623,1686190357.75,-121.094,-492.676,224.121,-37.109,1197.642,383.2536361692006
624,1686190357.75,219.727,-404.785,72.754,3.418,1197.645,375.06601574739125
625,1686190357.75,138.672,-712.891,9.277,-6.836,1197.648,373.2661858023359
626,1686190357.76,-216.309,-765.625,107.422,-60.547,1197.652,379.8959570730638
627,1686190357.76,-216.309,-593.75,53.223,-64.941,1197.656,377.0909061780091
628,1686190357.76,141.602,-573.242,29.297,-21.973,1197.66,365.2591598425829
629,1686190357.77,195.801,-850.586,-56.641,-28.809,1197.664,369.38102137714355
630,1686190357.77,-144.531,-858.887,-5.371,-69.824,1197.668,364.91584906224455
631,1686190357.78,-271.484,-653.809,26.367,-63.965,1197.672,370.58385592202
632,1686190357.78,44.434,-766.602,-75.195,-7.812,1197.676,365.0801229156297
633,1686190357.78,217.285,-963.867,-33.203,12.695,1197.68,358.20418061845385
634,1686190357.79,-57.617,-652.832,192.871,-43.457,1197.684,366.40248001840735
635,1686190357.79,-288.086,-590.82,-5.859,-73.73,1197.688,363.59028844581564
636,1686190357.79,-60.059,-874.023,-58.594,-25.391,1197.689,354.8126433754299
637,1686190357.8,223.145,-627.441,168.945,-2.441,1197.693,355.7939178606431
638,1686190357.8,60.059,-334.961,44.434,-41.504,1197.697,345.8834185483043
639,1686190357.8,-265.137,-627.93,-95.703,-60.547,1197.701,353.59162349834645
640,1686190357.81,-143.066,-829.59,-20.508,-30.762,1197.705,349.61950558050046
641,1686190357.81,218.262,-770.996,13.672,5.371,1197.709,358.46756609895914
642,1686190357.82,162.598,-640.625,9.766,-10.254,1197.713,354.48425657556544
643,1686190357.82,-196.289,-685.547,-64.453,-43.945,1197.717,342.06032457287506
644,1686190357.82,-254.395,-967.773,-55.664,-40.039,1197.721,342.30618758402846
645,1686190357.83,79.59,-664.551,187.012,-19.043,1197.724,350.88987627988166
646,1686190357.83,197.266,-372.559,73.242,-6.836,1197.728,332.64669024604365
647,1686190357.84,-123.047,-835.938,-137.207,-45.898,1197.732,338.7527730037824
648,1686190357.84,-310.059,-961.914,54.199,-62.5,1197.734,331.16238236770744
649,1686190357.84,14.648,-517.09,310.547,-9.277,1197.738,331.925994462814
650,1686190357.84,259.766,-232.422,121.094,3.906,1197.742,328.3338093525503
651,1686190357.85,-10.254,-618.652,-123.047,-45.898,1197.746,335.4437853432677
652,1686190357.85,-302.246,-946.777,-48.34,-73.73,1197.75,333.49386855769626
653,1686190357.86,-102.539,-882.812,-3.906,-47.852,1197.754,331.8165923450028
654,1686190357.86,213.867,-583.984,98.145,-26.367,1197.758,318.75191849851683
655,1686190357.86,79.59,-616.699,-20.508,-37.598,1197.762,319.9668784045786
656,1686190357.87,-276.855,-986.328,-16.113,-66.406,1197.765,328.9497352936407
657,1686190357.87,-198.73,-663.086,282.715,-64.453,1197.769,303.56399218162767
658,1686190357.88,178.223,-229.004,191.406,-25.391,1197.773,301.37145859195164
659,1686190357.88,173.34,-501.953,-2.441,-28.809,1197.777,315.5228208750046
660,1686190357.9,-195.312,-978.516,-55.176,-74.707,1197.798,295.35965243619836
661,1686190357.9,-268.066,-981.445,52.734,-69.824,1197.802,275.32820212587166
662,1686190357.91,91.309,-582.52,176.27,-20.508,1197.806,282.10960502831034
663,1686190357.91,204.59,-647.949,-13.184,-19.531,1197.81,283.8460247869629
664,1686190357.92,-126.465,-976.074,-19.531,-54.688,1197.814,268.06222713697974
665,1686190357.92,-298.34,-931.641,96.191,-67.383,1197.818,270.912874691353
666,1686190357.92,-5.859,-775.879,156.25,-30.762,1197.822,267.5593420316503
667,1686190357.93,225.586,-797.363,93.75,-1.465,1197.826,262.26397886040195
668,1686190357.93,126.953,-356.934,87.402,-11.719,1197.824,264.42403555499675
669,1686190357.93,-5.859,-802.246,125.977,-39.551,1197.83,253.88927268691134
670,1686190357.93,-216.797,-497.559,-60.547,-49.805,1197.828,266.00766476749936
671,1686190357.93,-270.996,-537.109,109.375,-69.336,1197.834,261.49438785462553
672,1686190357.94,-205.078,-731.934,-59.082,-47.363,1197.832,273.36587677600704
673,1686190357.94,-103.516,-627.93,-58.594,-40.527,1197.837,248.9559382682438
674,1686190357.94,150.391,-659.18,36.621,-8.301,1197.836,251.69485849551938
675,1686190357.94,215.82,-557.129,82.52,-3.418,1197.841,259.61513483591074
676,1686190357.94,202.148,-572.754,35.156,-4.883,1197.84,248.47182215424087
677,1686190357.95,-152.344,-891.113,-71.289,-44.922,1197.844,258.85389362431806
678,1686190357.95,-266.113,-1000.0,-41.504,-60.059,1197.848,243.8852471442038
679,1686190357.96,84.473,-725.586,132.324,-7.324,1197.852,234.12058903552793
680,1686190357.96,267.578,-314.453,188.965,13.184,1197.856,253.9253338646842
681,1686190357.96,-28.32,-428.711,18.066,-36.621,1197.86,248.0235655240757
682,1686190357.97,-271.484,-847.168,-113.281,-47.852,1197.863,247.53275376458433
683,1686190357.97,-45.41,-988.77,-13.672,-9.277,1197.867,252.55781400808473
684,1686190357.97,240.723,-749.512,237.305,11.719,1197.869,244.3289901010595
685,1686190357.98,69.824,-563.965,140.137,-16.602,1197.873,247.47577937393842
686,1686190357.98,-271.973,-847.168,-44.434,-48.828,1197.877,243.20233709105963
687,1686190357.98,-134.766,-803.223,188.477,-28.809,1197.881,235.87816933592273
688,1686190357.99,231.445,-274.414,244.629,12.207,1197.885,240.1389934226451
689,1686190357.99,133.789,-534.18,-29.785,-10.254,1197.889,246.81810864407834
690,1686190358.0,-247.559,-1000.0,-100.586,-55.176,1197.893,246.7218199935368
691,1686190358.0,-248.047,-839.844,132.324,-38.574,1197.896,248.60799728646012
692,1686190358.0,139.16,-252.441,277.344,-0.977,1197.9,243.59776766265608
693,1686190358.01,212.402,-226.562,23.926,-8.301,1197.904,245.18602339054524
694,1686190358.01,-141.602,-730.469,-20.02,-49.805,1197.908,240.97627824372364
695,1686190358.02,-281.738,-746.094,169.922,-55.176,1197.912,246.47373449527237
696,1686190358.02,49.316,-326.172,197.266,-20.996,1197.916,247.02092374682871
697,1686190358.02,255.371,-367.676,30.762,3.906,1197.92,236.1628571016766
698,1686190358.03,-16.113,-734.375,-84.473,-19.043,1197.924,242.81444177500816
699,1686190358.03,-266.602,-722.168,-4.395,-59.57,1197.928,244.42218173676181
700,1686190358.04,-36.621,-543.945,66.895,-33.691,1197.932,238.9743910415794
701,1686190358.04,248.047,-691.406,-91.797,17.09,1197.936,250.3629062381159
702,1686190358.04,63.965,-971.191,-20.02,-14.16,1197.94,241.7701832709328
703,1686190358.05,-247.07,-773.926,256.836,-62.5,1197.944,242.75012046166594
704,1686190358.05,-138.672,-526.367,104.492,-41.016,1197.947,256.1504831414116
705,1686190358.05,190.918,-730.957,-62.5,3.906,1197.951,246.72652657626048
706,1686190358.06,161.621,-810.059,26.855,-11.23,1197.955,248.25265114161692
707,1686190358.06,-181.152,-564.941,44.922,-61.523,1197.959,254.32880811407824
708,1686190358.08,-232.91,-818.848,-65.918,-53.711,1197.978,258.885787794029
709,1686190358.08,110.84,-903.32,32.715,-2.93,1197.982,259.48054222263056
710,1686190358.09,216.309,-536.133,160.156,-8.301,1197.985,262.9298141455461
711,1686190358.09,-92.773,-474.609,24.902,-42.48,1197.989,268.0753962170502
712,1686190358.1,-262.207,-642.578,-56.152,-48.828,1197.993,251.99894231498612
713,1686190358.1,15.137,-882.812,-101.074,-7.812,1197.997,263.9880047085768
714,1686190358.1,242.676,-944.336,124.512,31.25,1198.001,275.98150862239527
715,1686190358.11,3.418,-589.355,198.73,-17.09,1198.005,271.3040663485996
716,1686190358.11,-299.316,-712.402,-103.516,-76.66,1198.009,281.15958913487543
717,1686190358.11,-101.562,-781.738,75.684,-50.781,1198.013,270.43779518199835
718,1686190358.12,203.125,-373.535,202.148,-14.648,1198.017,260.64015742504387
719,1686190358.12,61.035,-459.473,-41.504,-36.621,1198.021,264.14626668037124
720,1686190358.12,-260.742,-933.594,-128.906,-71.289,1198.019,263.46772123266976
721,1686190358.13,-199.219,-883.301,63.965,-73.242,1198.023,274.31580727572384
722,1686190358.13,172.363,-397.461,232.91,-21.973,1198.027,267.53792201235603
723,1686190358.13,179.199,-298.828,42.969,-11.23,1198.031,273.1873876167387
724,1686190358.14,-177.734,-708.984,-170.898,-48.828,1198.035,271.4087016087221
725,1686190358.14,-265.625,-1000.0,-86.914,-45.41,1198.039,268.23902936246435
726,1686190358.15,82.52,-751.465,201.172,-10.254,1198.043,273.6235822148134
727,1686190358.15,239.258,-332.031,163.086,-8.789,1198.047,272.38383186535833
728,1686190358.15,-84.961,-658.203,-153.809,-49.805,1198.05,281.14863422843416
729,1686190358.16,-305.664,-1000.0,-79.59,-62.012,1198.054,278.5756773864668
730,1686190358.16,-9.766,-613.77,285.645,-31.25,1198.058,263.26099367898996
731,1686190358.16,263.184,-209.961,130.371,-5.371,1198.062,280.7267149704599
732,1686190358.17,20.02,-640.625,-85.938,-34.18,1198.068,277.2768121058802
733,1686190358.17,-271.973,-966.309,68.359,-61.523,1198.072,271.37715434707195
734,1686190358.18,-83.008,-790.039,129.395,-21.973,1198.076,275.2855558763395
735,1686190358.18,233.887,-543.945,134.766,8.301,1198.079,277.6525889461525
736,1686190358.18,117.188,-679.199,-48.34,-18.066,1198.083,283.2070069508998
737,1686190358.19,-234.375,-1000.0,-27.344,-58.105,1198.087,277.5640319592632
738,1686190358.19,-184.082,-845.215,246.582,-53.711,1198.091,285.69037252511487
739,1686190358.2,174.316,-482.422,163.574,-17.09,1198.095,282.5910962782503
740,1686190358.2,193.848,-738.281,-27.832,-14.16,1198.099,281.7540049886778
741,1686190358.2,-156.738,-899.902,122.559,-61.035,1198.103,288.7521127372698
742,1686190358.21,-251.953,-582.52,140.137,-85.938,1198.107,292.01918880551125
743,1686190358.21,77.637,-556.152,-18.555,-29.785,1198.111,283.05584903296733
744,1686190358.21,250.977,-593.262,20.996,-0.977,1198.109,281.8210872637188
745,1686190358.22,-36.621,-537.109,31.25,-42.969,1198.113,291.3840915144312
746,1686190358.22,-264.648,-586.426,-30.273,-53.711,1198.117,283.2242069401015
747,1686190358.22,-20.996,-704.59,-36.133,-20.508,1198.121,287.09475077516373
748,1686190358.23,247.07,-672.363,-59.082,7.812,1198.125,286.8004887872281
749,1686190358.23,49.316,-737.305,-68.848,-16.602,1198.129,286.17393074709
750,1686190358.24,-277.344,-995.605,-21.484,-56.641,1198.133,285.06168814022817
751,1686190358.24,-148.926,-996.582,-72.754,-31.738,1198.137,294.9951340597927
752,1686190358.24,180.664,-964.844,-26.855,0.0,1198.141,305.32288100876565
753,1686190358.25,132.324,-642.578,204.102,-35.645,1198.145,292.9718932898492
754,1686190358.25,-198.73,-547.852,8.789,-71.777,1198.148,289.585908144753
755,1686190358.26,-215.82,-802.246,-53.223,-59.082,1198.152,295.30349106823155
756,1686190358.26,137.695,-798.828,153.809,-9.766,1198.154,282.5735671256683
757,1686190358.26,212.891,-571.777,138.184,-3.906,1198.158,294.1767854415949
758,1686190358.27,-127.441,-582.031,-53.223,-68.848,1198.162,300.5441290700042
759,1686190358.27,-278.32,-927.734,-88.379,-74.219,1198.166,292.72739219576465
760,1686190358.27,45.898,-781.738,158.203,-9.766,1198.17,301.5394629469999
761,1686190358.28,257.812,-587.402,42.48,3.906,1198.174,304.3708466585548
762,1686190358.28,-20.996,-850.098,-83.008,-34.668,1198.177,297.5750049462466
763,1686190358.28,-304.199,-1000.0,-83.984,-58.105,1198.181,291.47310407371714
764,1686190358.29,-76.66,-817.871,97.168,-23.438,1198.185,294.1857685872558
765,1686190358.29,250.977,-270.02,242.676,8.301,1198.189,293.83027545612055
766,1686190358.3,73.73,-409.18,-50.293,-21.973,1198.193,300.5155668842047
767,1686190358.3,-260.254,-882.812,-15.625,-53.711,1198.197,295.9577945738207
768,1686190358.32,-148.926,-712.402,236.328,-44.434,1198.214,293.58096710621743
769,1686190358.32,202.637,-290.039,203.125,-9.766,1198.218,305.1941637242115
770,1686190358.33,171.387,-480.469,-10.742,-12.207,1198.222,308.478543021339
771,1686190358.33,-192.383,-905.273,-93.75,-49.316,1198.226,297.58110185761177
772,1686190358.33,-306.641,-798.34,-34.18,-107.91,1198.23,302.82838646269556
773,1686190358.34,-23.926,-708.008,-33.203,-144.043,1198.234,308.76525850075006
774,1686190358.34,77.148,-832.52,-174.805,-135.742,1198.238,312.45754162701746
775,1686190358.34,-251.953,-980.957,-64.941,-165.527,1198.241,300.80031923668633
776,1686190358.35,-339.844,-850.098,-10.742,-122.07,1198.258,307.6358118017523
777,1686190358.35,-397.949,-784.18,227.539,-174.316,1198.245,306.524778906247
778,1686190358.35,-141.113,-896.973,-18.066,-99.121,1198.262,305.96664912117456
779,1686190358.35,-61.035,-533.203,-8.789,-115.234,1198.249,307.5261689439549
780,1686190358.36,171.387,-873.047,-59.57,-58.105,1198.266,317.22249516542746
781,1686190358.36,166.992,-728.027,-77.637,-75.195,1198.253,306.5300760054458
782,1686190358.36,34.18,-893.555,44.434,-71.777,1198.27,300.11791889708155
783,1686190358.36,-73.242,-786.621,92.773,-100.098,1198.257,318.9225888427548
784,1686190358.36,-282.227,-705.078,80.566,-129.883,1198.274,311.63941204442654
785,1686190358.37,-217.773,-890.137,-91.309,-112.793,1198.278,306.1784411133225
786,1686190358.37,131.836,-885.742,46.387,-47.852,1198.281,318.7735428007319
787,1686190358.38,147.461,-574.707,55.176,-55.176,1198.285,302.07118060821676
788,1686190358.38,-198.242,-530.273,-41.016,-93.75,1198.289,305.454469469942
789,1686190358.38,-283.691,-721.191,-75.195,-88.379,1198.293,309.2170203851025
790,1686190358.39,56.641,-899.902,-2.441,-35.645,1198.297,317.4356926078926
791,1686190358.39,208.496,-626.465,157.715,-27.832,1198.301,311.52905616538584
792,1686190358.39,-93.262,-639.16,7.812,-71.289,1198.303,315.0588258689125
793,1686190358.4,-296.387,-1000.0,-113.77,-81.055,1198.307,307.276940517757
794,1686190358.4,-10.742,-833.984,76.172,-42.969,1198.311,305.9734306529374
795,1686190358.41,256.348,-314.941,178.711,-19.531,1198.315,311.5295578148471
796,1686190358.41,33.691,-407.715,-62.5,-56.152,1198.318,316.7391400998839
797,1686190358.41,-289.551,-944.824,-203.613,-80.078,1198.322,313.95032057967643
798,1686190358.42,-126.953,-894.043,20.996,-61.035,1198.326,324.8978216120109
799,1686190358.42,226.074,-408.203,221.68,-24.414,1198.33,307.0013008120605
800,1686190358.42,133.789,-321.289,-6.836,-29.297,1198.334,315.4553665365803
801,1686190358.43,-229.98,-789.551,-150.879,-64.941,1198.338,310.4394300798103
802,1686190358.43,-198.73,-890.625,86.426,-48.34,1198.342,307.6201735283056
803,1686190358.44,180.664,-385.742,230.469,-3.906,1198.346,314.61803127866307
804,1686190358.45,208.008,-544.922,-32.227,-22.949,1198.35,311.45501916984347
805,1686190358.46,-165.039,-978.516,-122.559,-62.988,1198.354,312.5422143921961
806,1686190358.46,-283.203,-921.387,118.652,-50.781,1198.358,314.73478922650264
807,1686190358.46,59.57,-702.637,234.375,-14.648,1198.362,310.01241202385967
808,1686190358.47,249.512,-529.785,113.77,3.418,1198.365,312.32552785291534
809,1686190358.47,-51.27,-797.852,-114.746,-26.367,1198.369,321.71137061648994
810,1686190358.48,-301.27,-970.703,29.297,-52.734,1198.373,319.25767803285737
811,1686190358.48,-25.879,-552.246,297.363,-29.785,1198.377,322.34934724926444
812,1686190358.48,257.812,-364.746,109.375,4.883,1198.381,313.3878150336255
813,1686190358.49,57.617,-668.457,18.555,-19.531,1198.385,320.73612867621557
814,1686190358.49,-263.672,-812.5,74.219,-62.5,1198.389,310.8136135379485
815,1686190358.5,-136.23,-594.727,10.742,-43.457,1198.393,316.1205520384128
816,1686190358.5,210.938,-585.449,-31.25,6.348,1198.394,320.94624036063703
817,1686190358.5,147.949,-735.84,-62.988,-11.719,1198.398,323.5473137473927
818,1686190358.51,-204.102,-707.031,-39.062,-52.246,1198.402,317.0820467812922
819,1686190358.51,-209.473,-657.715,0.977,-44.922,1198.406,313.3634500699509
820,1686190358.51,136.719,-666.016,-24.414,-7.812,1198.41,324.01007488567325
821,1686190358.52,208.984,-907.227,-71.777,10.742,1198.414,317.1893280231747
822,1686190358.52,-124.023,-1000.0,-95.703,-36.133,1198.418,326.69793724235814
823,1686190358.52,-267.578,-878.906,96.68,-56.152,1198.422,315.23595424780893
824,1686190358.53,53.711,-822.266,64.941,-9.766,1198.425,323.33660604683485
825,1686190358.53,252.441,-977.539,-74.707,26.855,1198.429,323.3442283069511
826,1686190358.54,-20.996,-782.227,202.148,-24.414,1198.433,322.9073497462552
827,1686190358.54,-291.016,-685.547,20.508,-72.266,1198.437,305.4425978645232
828,1686190358.54,-67.871,-887.207,-68.848,-33.203,1198.44,316.7149256945187
829,1686190358.55,244.141,-696.777,181.152,7.812,1198.444,315.886506220241
830,1686190358.55,94.727,-478.027,94.238,-20.996,1198.448,320.11130178400634
831,1686190358.56,-237.305,-761.23,-107.422,-63.477,1198.452,328.2251960836395
832,1686190358.56,-158.691,-911.621,-20.508,-44.434,1198.456,308.0149391082072
833,1686190358.56,189.453,-826.66,197.754,-3.906,1198.46,314.9959838904935
834,1686190358.57,169.434,-751.465,117.188,-18.066,1198.464,311.4840907258063
835,1686190358.57,-180.664,-815.43,-47.852,-62.988,1198.467,325.1420096729529
836,1686190358.57,-247.559,-1000.0,-89.844,-51.27,1198.471,318.6534966178731
837,1686190358.58,106.445,-803.711,129.883,-0.488,1198.475,322.5888861782149
838,1686190358.58,251.953,-312.988,211.426,-3.418,1198.479,311.7890216930856
839,1686190358.59,-79.102,-612.793,-98.145,-48.34,1198.483,307.3658174547881
840,1686190358.59,-278.32,-944.824,-9.277,-71.289,1198.485,319.8758187113983
841,1686190358.59,18.555,-592.285,251.953,-36.621,1198.488,321.96742450147
842,1686190358.6,262.695,-300.293,99.121,0.0,1198.492,323.7295651702797
843,1686190358.6,4.883,-604.492,-96.68,-31.25,1198.496,323.3858911369153
844,1686190358.6,-289.062,-1000.0,-100.098,-66.406,1198.5,319.02830431665456
845,1686190358.61,-88.379,-994.141,-15.137,-41.504,1198.504,314.35470459280117
846,1686190358.61,241.699,-665.527,180.664,-7.812,1198.508,322.1915830154175
847,1686190358.62,105.957,-676.27,17.578,-31.738,1198.512,326.15419058962
848,1686190358.62,-246.094,-1000.0,-74.219,-63.477,1198.516,316.72172069764514
849,1686190358.62,-181.641,-754.883,268.555,-56.152,1198.52,322.9090148627238
850,1686190358.63,180.176,-400.879,190.43,-28.809,1198.524,311.3132684346986
851,1686190358.63,173.828,-691.406,-45.41,-27.832,1198.528,313.51939177648734
852,1686190358.63,-187.988,-1000.0,-60.059,-63.965,1198.529,324.9087704073026
853,1686190358.64,-255.371,-857.91,146.973,-71.777,1198.533,329.1858842686247
854,1686190358.64,97.656,-492.188,167.48,-22.949,1198.537,321.0739364497548
855,1686190358.64,229.98,-715.82,-11.23,-6.348,1198.541,311.5639876255143
856,1686190358.65,-82.52,-927.734,93.262,-39.551,1198.545,325.9429516376615
857,1686190358.65,-283.203,-920.898,53.223,-54.199,1198.549,330.7812740303609
858,1686190358.66,-7.324,-883.301,-19.531,-23.926,1198.553,321.60589124922114
859,1686190358.66,246.582,-870.605,-9.277,7.812,1198.557,323.1809279549156
860,1686190358.66,23.926,-873.535,113.77,-23.438,1198.56,315.3239269555311
861,1686190358.67,-254.395,-661.621,64.453,-61.523,1198.564,328.5483217728701
862,1686190358.67,-91.309,-688.965,-67.871,-37.598,1198.568,318.4917814633431
863,1686190358.68,239.258,-640.625,78.125,-5.371,1198.572,320.8195032140928
864,1686190358.68,143.555,-471.68,77.148,-23.926,1198.578,314.5133485264802
865,1686190358.68,-219.238,-744.629,-69.336,-58.105,1198.582,314.6967995797603
866,1686190358.69,-204.102,-1000.0,-69.824,-44.434,1198.586,320.3302767974123
867,1686190358.69,165.527,-772.949,84.961,0.488,1198.59,315.3384883744719
868,1686190358.7,227.539,-426.27,153.809,2.441,1198.594,313.9307236243241
869,1686190358.7,-130.371,-791.504,-43.945,-42.48,1198.597,314.9809489775917
870,1686190358.7,-271.484,-1000.0,-133.301,-53.223,1198.601,314.2577787951091
871,1686190358.71,46.387,-879.395,45.898,-12.207,1198.605,326.1470221951638
872,1686190358.71,245.605,-455.566,247.559,-5.859,1198.609,325.92036472656406
873,1686190358.71,-29.785,-470.703,-42.48,-45.898,1198.613,317.41099761458565
874,1686190358.72,-273.438,-867.188,-50.781,-59.082,1198.617,322.76784971836565
875,1686190358.72,-20.02,-691.895,180.664,-20.02,1198.621,327.8117473976825
876,1686190358.74,264.16,-591.309,43.457,6.836,1198.635,322.3697911260168
877,1686190358.74,66.895,-779.785,-81.543,-24.902,1198.639,318.872874383987
878,1686190358.75,-268.555,-924.316,-126.953,-51.758,1198.642,318.23510996469037
879,1686190358.75,-147.461,-910.645,72.754,-27.344,1198.646,326.2657838257654
880,1686190358.75,214.355,-685.547,220.703,6.836,1198.65,318.9416511894289
881,1686190358.76,153.809,-809.082,0.977,-5.859,1198.654,318.0735062147494
882,1686190358.76,-218.262,-1000.0,-145.996,-39.551,1198.658,325.0174463332694
883,1686190358.76,-246.094,-913.086,65.43,-38.574,1198.662,325.5607879889242
884,1686190358.77,126.465,-481.934,298.34,-13.672,1198.666,318.59038999958176
885,1686190358.77,70.312,-409.18,194.336,-15.625,1198.666,326.61824117182476
886,1686190358.77,228.516,-405.273,58.594,-6.836,1198.67,326.0386644526384
887,1686190358.77,260.742,-476.562,-8.789,3.906,1198.67,308.7005162850398
888,1686190358.78,-33.691,-819.824,-98.633,-32.227,1198.674,322.07216598474463
889,1686190358.78,-104.98,-765.625,-30.762,-43.945,1198.674,314.769885700834
890,1686190358.78,-254.395,-753.906,163.574,-56.641,1198.678,323.15016850781086
891,1686190358.78,-292.969,-763.184,-10.742,-60.059,1198.678,317.97025470526455
892,1686190358.78,-67.383,-587.891,-9.277,-28.809,1198.682,319.43683853002153
893,1686190358.79,232.422,-729.492,-107.422,6.836,1198.686,313.28977794581493
894,1686190358.79,66.406,-1000.0,-141.602,-24.902,1198.69,314.91951806661535
895,1686190358.8,-264.648,-966.309,7.324,-66.895,1198.694,320.0733908634855
896,1686190358.8,-163.086,-669.434,194.336,-38.574,1198.698,324.6292899229249
897,1686190358.8,189.453,-706.543,13.672,14.16,1198.702,319.1151817126553
898,1686190358.81,144.531,-991.211,-88.379,3.418,1198.706,314.7887150076546
899,1686190358.81,-193.848,-854.492,187.5,-46.875,1198.709,325.4250851864224
900,1686190358.84,-222.656,-918.457,23.926,-41.016,1198.743,319.6947932338611
901,1686190358.85,122.559,-940.918,23.926,-1.465,1198.747,324.9769058358188
902,1686190358.85,237.793,-592.773,181.641,-3.906,1198.751,316.6212631048209
903,1686190358.86,-88.379,-580.566,15.625,-45.898,1198.754,316.7465735440619
904,1686190358.86,-279.785,-755.371,-58.594,-61.035,1198.758,326.67944820385276
905,1686190358.86,-11.719,-904.785,-115.723,-8.789,1198.762,316.6663466750681
906,1686190358.87,210.449,-958.984,111.816,8.789,1198.766,318.683810463689
907,1686190358.87,-11.23,-648.438,176.27,-49.316,1198.77,316.72955716869956
908,1686190358.87,-251.465,-729.98,-145.02,-58.105,1198.769,324.0720593638034
909,1686190358.88,-287.109,-746.094,-112.793,-81.543,1198.774,319.17228610112414
910,1686190358.88,-204.59,-919.922,37.109,-41.992,1198.773,318.51550709257697
911,1686190358.88,-98.633,-937.012,45.41,-38.574,1198.778,329.98642638266915
912,1686190358.88,170.41,-488.77,251.465,5.371,1198.777,317.306238818309
913,1686190358.88,229.004,-532.715,207.031,4.395,1198.782,323.632244079711
914,1686190358.88,200.684,-333.496,81.055,0.977,1198.781,312.88275444908317
915,1686190358.89,109.375,-294.922,26.367,-21.484,1198.786,315.3874085323513
916,1686190358.89,-161.621,-712.402,-177.734,-42.969,1198.785,330.25074990777244
917,1686190358.89,-265.137,-1000.0,-55.176,-38.086,1198.789,328.3085812514418
918,1686190358.9,84.473,-780.762,242.676,2.441,1198.792,322.75306789162977
919,1686190358.9,246.582,-393.555,157.227,8.301,1198.796,324.0485905763228
920,1686190358.9,-71.777,-698.73,-84.961,-37.109,1198.8,316.19736140178554
921,1686190358.91,-294.434,-979.492,36.621,-74.707,1198.804,331.8286998724189
922,1686190358.91,-5.859,-601.074,222.168,-41.504,1198.808,327.6456075664576
923,1686190358.92,262.207,-494.629,41.992,-9.277,1198.812,320.63592357876416
924,1686190358.92,34.668,-829.59,-136.719,-31.738,1198.814,324.421945582269
925,1686190358.92,-289.551,-1000.0,-135.254,-40.527,1198.818,320.74707326624286
926,1686190358.93,-130.371,-883.789,160.156,-25.879,1198.822,321.7715840286417
927,1686190358.93,214.355,-476.562,227.539,-11.719,1198.826,321.116467764842
928,1686190358.93,125.488,-626.465,-39.551,-18.555,1198.83,315.4053508063894
929,1686190358.94,-240.234,-1000.0,-83.496,-57.129,1198.834,323.59455852914914
930,1686190358.94,-231.445,-872.07,122.07,-56.641,1198.838,313.9207721869286
931,1686190358.94,137.695,-470.703,166.992,-13.184,1198.842,314.01088441672636
932,1686190358.95,175.293,-726.562,-41.504,-15.625,1198.846,317.01582308462207
933,1686190358.95,-169.922,-937.5,122.559,-63.477,1198.85,323.8780538278409
934,1686190358.96,-262.695,-616.699,208.984,-64.941,1198.853,315.87119727641925
935,1686190358.96,67.383,-525.391,57.129,-15.625,1198.857,316.1973846974204
936,1686190358.96,234.863,-549.805,45.41,-4.883,1198.863,310.1847262787171
937,1686190358.97,-53.223,-526.855,40.527,-45.898,1198.867,334.6205459677017
938,1686190358.97,-289.062,-785.645,-45.898,-59.57,1198.871,325.44519038354997
939,1686190358.98,-43.945,-990.234,-52.734,-25.391,1198.874,331.7644498701226
940,1686190358.98,250.488,-786.133,5.371,-2.93,1198.878,322.87926154695685
941,1686190358.98,67.383,-793.457,7.812,-38.574,1198.882,320.99750818286793
942,1686190358.99,-255.371,-906.738,-22.949,-74.219,1198.886,316.58567259634464
943,1686190358.99,-134.277,-902.344,-81.055,-41.992,1198.89,319.77440718025645
944,1686190359.0,200.684,-868.652,26.367,-9.766,1198.894,326.38538932965
945,1686190359.0,165.527,-501.953,213.379,-20.02,1198.898,322.7473930667295
946,1686190359.0,-190.918,-583.984,-45.41,-56.641,1198.902,321.5363985845973
947,1686190359.01,-231.445,-862.305,-49.316,-62.012,1198.906,310.51388625558826
948,1686190359.01,126.465,-835.938,133.301,-14.16,1198.909,319.7808562231106
949,1686190359.01,236.816,-607.422,117.188,3.418,1198.912,324.45366051151433
950,1686190359.02,-114.746,-589.355,-42.969,-42.48,1198.916,324.19170982472326
951,1686190359.02,-241.699,-904.297,-112.305,-52.734,1198.92,325.7635091933959
952,1686190359.02,90.82,-910.645,142.578,-13.672,1198.924,314.87670571683225
953,1686190359.03,244.629,-727.051,146.484,1.953,1198.928,314.1826692455469
954,1686190359.03,-8.789,-835.449,-46.387,-28.809,1198.932,314.06388037389564
955,1686190359.04,-301.27,-1000.0,-111.328,-58.105,1198.936,334.7509259449837
956,1686190359.04,-91.797,-842.285,86.914,-24.414,1198.94,321.673456484928
957,1686190359.04,236.816,-339.844,240.723,-0.488,1198.944,319.052473959471
958,1686190359.05,74.707,-460.449,0.0,-30.273,1198.948,320.89278917344654
959,1686190359.05,-265.625,-854.004,-36.133,-59.57,1198.952,329.98633696300897
960,1686190359.05,-169.922,-670.898,183.594,-37.109,1198.949,323.3729590693316
961,1686190359.06,194.824,-339.355,184.57,14.16,1198.953,323.33199997106254
962,1686190359.06,186.035,-578.613,-59.57,10.254,1198.957,315.5687085565547
963,1686190359.06,-181.152,-935.547,-100.586,-42.969,1198.961,319.2726911475987
964,1686190359.07,-245.605,-807.129,-17.578,-42.48,1198.965,322.12395464860344
965,1686190359.07,115.723,-760.742,-14.648,0.977,1198.969,318.895473642166
966,1686190359.08,233.398,-848.633,-120.605,7.324,1198.973,324.64462518897335
967,1686190359.08,-105.957,-1000.0,-122.07,-35.645,1198.977,325.9576817330305
968,1686190359.08,-289.062,-939.453,171.875,-66.895,1198.98,322.83104401592
969,1686190359.09,17.578,-500.488,224.121,-28.32,1198.984,327.5303389958157
970,1686190359.09,253.906,-605.469,54.688,1.953,1198.988,327.8969036392411
971,1686190359.1,10.742,-957.031,-58.105,-31.738,1198.992,318.82240003198046
972,1686190359.1,-283.203,-992.676,-55.664,-66.406,1198.997,318.9892712964534
973,1686190359.1,-93.262,-784.668,85.938,-40.039,1199.001,323.3947699958447
974,1686190359.11,232.91,-761.23,58.105,12.207,1199.005,320.71625794609145
975,1686190359.11,108.887,-846.68,98.633,-9.766,1199.009,330.019751360981
976,1686190359.12,-236.816,-725.586,41.992,-60.547,1199.013,318.2174271554692
977,1686190359.12,-189.941,-916.016,-91.797,-41.016,1199.017,309.27678343863823
978,1686190359.12,160.645,-993.652,-5.371,15.625,1199.021,316.4062644703392
979,1686190359.13,177.246,-804.688,118.164,11.719,1199.024,317.39688317404125
980,1686190359.13,-146.973,-580.078,68.359,-41.992,1199.028,314.34644868149223
981,1686190359.13,-234.863,-755.859,-58.594,-39.062,1199.032,324.8169258052763
982,1686190359.14,88.379,-857.422,87.402,8.789,1199.036,323.7807179910002
983,1686190359.14,239.258,-545.898,166.016,11.23,1199.04,320.70022927125046
984,1686190359.14,-64.453,-456.055,0.0,-37.109,1199.054,313.5624449203442
985,1686190359.15,-289.062,-834.473,-128.906,-53.711,1199.057,317.45721676449426
986,1686190359.15,-24.902,-838.867,42.969,-23.438,1199.061,309.64166787897153
987,1686190359.16,243.164,-407.715,203.125,-1.465,1199.065,314.3638793211166
988,1686190359.16,42.48,-456.055,6.836,-18.066,1199.069,311.0403506210517
989,1686190359.16,-279.785,-873.535,-177.246,-47.852,1199.073,307.9313605780088
990,1686190359.17,-158.691,-1000.0,-79.59,-21.973,1199.077,323.06527747923514
991,1686190359.17,204.59,-639.648,236.328,13.672,1199.081,313.8137361613744
992,1686190359.17,142.09,-348.145,77.148,-17.09,1199.085,311.8322215588091
993,1686190359.18,-231.445,-761.23,-87.402,-59.082,1199.089,314.0776790014533
994,1686190359.18,-217.285,-835.938,169.434,-50.781,1199.093,321.33077136948594
995,1686190359.19,153.32,-403.32,213.867,-21.484,1199.097,308.0207326285626
996,1686190359.2,217.285,-582.031,-13.184,-13.672,1199.099,320.1172350134221
997,1686190359.21,-141.113,-990.723,-166.504,-39.551,1199.103,311.79501858624025
998,1686190359.21,-284.668,-937.5,49.316,-53.711,1199.107,315.18724489333493
999,1686190359.22,66.406,-529.785,278.809,-23.926,1199.111,312.82017877312006
1000,1686190359.22,262.695,-344.727,101.562,8.789,1199.115,327.56009265671037
1001,1686190359.22,-41.504,-797.852,-73.242,-28.809,1199.119,322.25183045169337
1002,1686190359.23,-290.527,-1000.0,-18.555,-65.918,1199.123,320.231548687547
1003,1686190359.23,-29.785,-599.609,183.105,-29.785,1199.127,318.68554096495154
1004,1686190359.23,262.695,-376.953,89.355,1.465,1199.131,326.508325479772
1005,1686190359.24,63.965,-745.605,-67.383,-25.879,1199.134,320.1382946778564
1006,1686190359.24,-271.484,-979.004,99.609,-66.895,1199.138,317.17352951946253
1007,1686190359.25,-143.555,-643.066,207.52,-52.734,1199.142,328.19121319163975
1008,1686190359.25,217.285,-438.477,76.172,-2.441,1199.144,312.7298901360557
1009,1686190359.25,168.945,-643.066,-54.688,-3.418,1199.148,311.1972282456557
1010,1686190359.26,-183.594,-708.008,-20.02,-46.875,1199.152,324.8194930244872
1011,1686190359.26,-212.891,-877.441,-28.809,-49.316,1199.156,317.7364464996865
1012,1686190359.26,130.859,-920.898,-3.906,-5.371,1199.16,323.33250759558774
1013,1686190359.27,218.262,-946.777,6.348,-2.93,1199.164,309.9698932218312
1014,1686190359.27,-106.934,-937.988,72.754,-47.852,1199.168,314.99578775547
1015,1686190359.28,-255.859,-714.355,62.988,-50.781,1199.172,323.7513827586473
1016,1686190359.28,41.992,-795.898,-59.57,-7.812,1199.176,312.63137782498404
1017,1686190359.28,244.141,-868.164,29.297,7.812,1199.179,316.90424200993556
1018,1686190359.29,-5.371,-577.637,129.883,-28.809,1199.183,323.0084805790966
1019,1686190359.29,-282.715,-631.836,-85.938,-62.988,1199.187,316.4121856602318
1020,1686190359.29,-83.496,-843.75,-20.508,-34.18,1199.189,319.3291513871282
1021,1686190359.3,228.027,-683.105,180.176,1.953,1199.193,315.70713010397617
1022,1686190359.3,90.332,-443.848,91.309,-22.461,1199.197,320.05978329839695
1023,1686190359.3,-245.117,-672.852,-108.887,-57.617,1199.201,319.7019686417207
1024,1686190359.31,-183.105,-951.172,-54.688,-40.527,1199.205,325.10967035282624
1025,1686190359.31,179.688,-869.141,196.289,9.766,1199.209,312.75178255136575
1026,1686190359.32,174.316,-787.598,119.629,0.0,1199.213,321.2522706436663
1027,1686190359.32,-195.801,-944.824,-61.035,-56.641,1199.217,319.7177299025298
1028,1686190359.32,-270.996,-1000.0,-82.52,-50.781,1199.221,325.0623440033672
1029,1686190359.33,74.219,-813.477,86.426,-7.324,1199.225,311.05157725722995
1030,1686190359.33,224.609,-351.074,208.496,-6.836,1199.228,317.9420960404749
1031,1686190359.34,-93.262,-591.797,-53.711,-44.922,1199.232,317.2256337534431
1032,1686190359.36,-291.016,-897.949,-9.277,-65.43,1199.252,317.133128926739
1033,1686190359.36,19.531,-530.762,244.141,-23.926,1199.256,324.4898309822238
1034,1686190359.36,271.484,-255.371,135.254,6.836,1199.26,327.0518310009252
1035,1686190359.37,12.695,-634.766,-94.727,-24.902,1199.264,322.682421403507
1036,1686190359.37,-286.133,-947.266,-65.918,-58.594,1199.268,324.9189119412839
1037,1686190359.38,-84.961,-889.648,-10.742,-27.832,1199.272,323.52842108325547
1038,1686190359.38,245.605,-675.293,98.633,6.348,1199.276,319.6685737110374
1039,1686190359.38,121.582,-662.109,-55.664,-16.602,1199.28,320.45836992535175
1040,1686190359.38,-160.156,-1000.0,-59.57,-50.293,1199.294,319.9216314620666
1041,1686190359.39,-235.352,-1000.0,-87.891,-51.758,1199.284,322.3642996095049
1042,1686190359.39,-250.488,-875.977,111.328,-51.27,1199.297,313.07780886991003
1043,1686190359.39,-177.734,-812.988,260.254,-47.363,1199.288,328.290278140362
1044,1686190359.39,104.004,-409.18,176.27,-10.254,1199.301,320.1003007866871
1045,1686190359.39,199.219,-312.5,193.359,-0.977,1199.292,323.1472866605461
1046,1686190359.4,245.605,-598.633,12.207,-0.488,1199.305,314.508492560589
1047,1686190359.4,208.008,-548.34,8.789,-4.883,1199.295,323.56131034293213
1048,1686190359.4,-71.777,-877.441,75.684,-40.039,1199.309,322.0163319852027
1049,1686190359.4,-281.738,-895.508,27.832,-60.547,1199.313,317.4702494319123
1050,1686190359.41,-7.812,-839.844,99.609,-29.297,1199.317,315.6863801977187
1051,1686190359.41,265.137,-707.52,146.973,-2.93,1199.321,316.300199752473
1052,1686190359.41,52.734,-622.07,62.012,-30.762,1199.325,322.9274730467026
1053,1686190359.42,-254.883,-573.73,-7.324,-56.641,1199.329,326.21871866103174
1054,1686190359.42,-96.191,-645.02,-15.137,-26.855,1199.333,310.1820616438507
1055,1686190359.43,221.68,-875.977,-79.59,15.625,1199.337,313.69881320496745
1056,1686190359.43,109.863,-1000.0,-19.043,-7.812,1199.324,317.14240682882973
1057,1686190359.43,-218.75,-757.812,209.473,-48.828,1199.328,314.7666139621687
1058,1686190359.44,-204.102,-728.516,52.734,-38.574,1199.332,317.5141410186605
1059,1686190359.44,138.184,-640.625,34.18,-8.789,1199.336,332.4897891386331
1060,1686190359.44,197.754,-384.766,80.566,-11.23,1199.34,320.5684826992723
1061,1686190359.45,-149.902,-790.039,-64.453,-52.734,1199.344,317.03198482941747
1062,1686190359.45,-285.156,-1000.0,-102.051,-53.711,1199.348,322.06619022832695
1063,1686190359.46,42.969,-759.766,12.695,-9.277,1199.352,315.10358745513264
1064,1686190359.46,243.164,-295.898,208.496,2.93,1199.355,320.9229480989273
1065,1686190359.46,-35.156,-346.191,5.371,-32.227,1199.359,312.55033006609136
1066,1686190359.47,-290.039,-819.336,-131.836,-55.664,1199.363,328.4346871505214
1067,1686190359.47,-62.5,-843.262,62.988,-30.273,1199.367,322.85496615691187
1068,1686190359.47,242.676,-557.129,115.234,-1.465,1199.372,315.4000256612633
1069,1686190359.48,70.312,-697.754,-62.5,-23.438,1199.376,322.27879371411393
1070,1686190359.48,-289.551,-983.887,-141.113,-58.105,1199.38,316.33784732453324
1071,1686190359.49,-183.105,-856.445,102.539,-42.48,1199.384,325.7495471542194
1072,1686190359.49,200.195,-327.637,250.488,-13.672,1199.388,317.03487863870816
1073,1686190359.49,157.715,-530.762,-45.898,-25.879,1199.392,314.53458889179785
1074,1686190359.5,-216.797,-1000.0,-114.258,-57.129,1199.396,319.05427061074766
1075,1686190359.5,-247.07,-831.543,148.926,-56.641,1199.4,322.99253307271664
1076,1686190359.5,132.324,-256.348,261.23,-18.066,1199.404,319.2717423430564
1077,1686190359.51,217.773,-238.281,10.254,-15.625,1199.407,320.4084891216684
1078,1686190359.51,-129.883,-711.914,-38.086,-59.57,1199.411,310.9826573412673
1079,1686190359.52,-291.992,-713.867,149.414,-75.195,1199.415,324.3801713602079
1080,1686190359.52,30.762,-302.734,215.82,-32.715,1199.458,324.31123032554405
1081,1686190359.52,257.812,-335.449,51.27,0.0,1199.462,313.33906852405266
1082,1686190359.53,-9.277,-710.938,-89.355,-32.227,1199.466,314.94025756215893
1083,1686190359.53,-276.367,-715.82,-27.344,-65.918,1199.47,328.4254113042353
1084,1686190359.53,-67.871,-720.215,9.277,-38.574,1199.474,320.06646391940933
1085,1686190359.54,231.934,-817.383,-82.031,2.93,1199.478,317.7848790330975
1086,1686190359.54,65.43,-994.141,-144.531,-18.555,1199.482,313.9949115787483
1087,1686190359.54,-263.672,-884.766,150.391,-65.918,1199.486,324.4312945312757
1088,1686190359.55,-157.227,-567.383,212.891,-45.898,1199.489,324.24696571486686
1089,1686190359.55,198.73,-576.172,110.352,6.348,1199.493,315.0670282166463
1090,1686190359.56,179.688,-559.082,84.473,-3.906,1199.497,314.10619904734585
1091,1686190359.56,-174.316,-529.297,-27.832,-52.246,1199.501,319.9032415690501
1092,1686190359.56,-247.07,-827.148,-74.707,-59.082,1199.473,315.3399066813106
1093,1686190359.57,83.496,-1000.0,-62.012,-9.766,1199.477,313.795898695132
1094,1686190359.57,212.402,-765.137,74.219,-6.348,1199.481,326.373887299808
1095,1686190359.58,-87.402,-476.562,84.473,-58.105,1199.485,320.1591859606378
1096,1686190359.58,-271.973,-605.469,-83.984,-55.176,1199.488,318.1684567634739
1097,1686190359.58,7.812,-810.547,-31.738,-15.137,1199.492,320.14498473066146
1098,1686190359.59,242.188,-807.617,97.168,-1.953,1199.496,319.2008850028681
1099,1686190359.59,21.484,-642.578,34.668,-32.227,1199.5,318.8216596264138
1100,1686190359.6,-265.137,-736.816,-92.773,-63.965,1199.504,321.3831554909423
1101,1686190359.6,-100.586,-830.078,71.289,-35.156,1199.508,317.12115333026026
1102,1686190359.6,229.492,-469.727,194.336,3.906,1199.512,324.07781120283
1103,1686190359.61,125.0,-336.914,9.277,-19.531,1199.516,321.7929434022615
1104,1686190359.62,-229.004,-712.891,-111.328,-62.5,1199.519,317.4358285526498
1105,1686190359.63,-200.195,-961.426,7.324,-48.828,1199.523,320.9034255579788
1106,1686190359.63,167.48,-529.785,226.074,-4.883,1199.527,320.6633876347868
1107,1686190359.64,205.566,-261.719,78.613,-7.812,1199.531,324.6012005978174
1108,1686190359.64,-157.715,-677.734,-184.082,-57.617,1199.535,331.3127615046215
1109,1686190359.64,-279.297,-1000.0,-92.285,-52.734,1199.539,318.70165747887484
1110,1686190359.65,63.965,-709.473,228.516,-19.043,1199.542,326.408556981902
1111,1686190359.65,240.234,-267.09,179.688,-19.531,1199.546,326.3315883503967
1112,1686190359.65,-72.754,-609.863,-95.215,-53.223,1199.55,315.0923231093268
1113,1686190359.66,-301.758,-1000.0,-106.934,-73.242,1199.554,321.0575001449706
1114,1686190359.66,-20.508,-765.625,201.172,-41.992,1199.558,324.14582186750357
1115,1686190359.67,258.789,-335.449,204.59,-15.625,1199.562,322.7689696697443
1116,1686190359.68,34.668,-642.578,-125.488,-37.598,1199.579,327.91001507309505
1117,1686190359.69,-290.527,-1000.0,5.859,-64.453,1199.583,323.012401633172
1118,1686190359.69,-121.582,-638.184,295.41,-49.805,1199.587,318.52167545997145
1119,1686190359.7,224.121,-253.418,148.926,-12.695,1199.591,324.00378343064756
1120,1686190359.7,141.113,-491.699,-21.973,-21.484,1199.595,320.5116559190653
1121,1686190359.7,-211.426,-936.523,-97.656,-55.176,1199.599,317.38019544025605
1122,1686190359.71,-207.52,-930.664,56.641,-47.852,1199.603,317.55258804812723
1123,1686190359.71,152.344,-518.066,165.039,-20.508,1199.607,314.99064369353465
1124,1686190359.71,241.699,-663.086,100.586,-11.23,1199.61,325.24901490715723
1125,1686190359.71,205.078,-711.914,-21.484,-16.113,1199.61,322.6063093318677
1126,1686190359.72,-37.598,-588.867,102.051,-51.758,1199.614,320.61337336752223
1127,1686190359.72,-136.23,-917.48,91.309,-55.664,1199.614,314.54244449636724
1128,1686190359.72,-275.879,-603.516,-50.781,-77.637,1199.618,317.95240171648834
1129,1686190359.72,-259.766,-601.074,206.543,-76.66,1199.618,316.3124025716533
1130,1686190359.72,-28.809,-749.023,-70.312,-33.691,1199.622,316.9759642433159
1131,1686190359.73,54.688,-569.336,64.453,-33.203,1199.622,315.22888764341957
1132,1686190359.73,249.512,-773.926,-19.531,-0.488,1199.625,320.9170312824029
1133,1686190359.73,67.871,-812.012,-30.762,-31.738,1199.629,326.2473882075304
1134,1686190359.74,-257.812,-875.0,32.227,-70.801,1199.633,319.71375116148926
1135,1686190359.74,-165.527,-872.07,36.133,-59.082,1199.637,316.2496860695734
1136,1686190359.74,189.453,-782.715,22.461,-13.672,1199.641,311.33403352521293
1137,1686190359.75,161.621,-461.426,130.859,-21.484,1199.645,324.12133067124546
1138,1686190359.75,-187.988,-534.668,2.441,-62.012,1199.649,326.6690377982805
1139,1686190359.76,-226.562,-858.887,-118.652,-52.734,1199.653,317.7225202671835
1140,1686190359.76,108.398,-987.793,62.5,-4.883,1199.654,320.6314106868259
1141,1686190359.76,223.633,-576.66,215.82,-12.207,1199.658,317.9057623119755
1142,1686190359.77,-92.285,-634.277,-37.598,-56.641,1199.662,320.87446256108103
1143,1686190359.77,-281.738,-1000.0,-121.094,-67.383,1199.666,318.83231944044354
1144,1686190359.77,14.648,-806.152,81.055,-41.016,1199.67,331.12663482554404
1145,1686190359.78,256.836,-546.387,96.191,-21.973,1199.674,314.5704700462202
1146,1686190359.78,-5.371,-809.57,-91.309,-55.176,1199.678,315.0252139803963
1147,1686190359.78,-296.875,-1000.0,-74.707,-77.148,1199.682,324.2009268800903
1148,1686190359.79,-76.66,-770.02,159.18,-35.645,1199.686,323.7395011702302
1149,1686190359.79,264.648,-210.938,227.539,-0.488,1199.69,316.54200247503684
1150,1686190359.8,122.07,-326.172,-57.617,-21.973,1199.694,314.72937978787076
1151,1686190359.8,-229.492,-794.922,-44.922,-68.848,1199.697,312.5109998418673
1152,1686190359.8,-156.738,-681.641,191.895,-48.828,1199.699,319.83674078368904
1153,1686190359.81,207.031,-278.32,211.914,6.836,1199.703,326.63159106508965
1154,1686190359.81,188.477,-430.664,19.531,-5.371,1199.707,318.1232693005012
1155,1686190359.82,-178.711,-817.871,-70.312,-52.734,1199.711,315.61782958746903
1156,1686190359.82,-241.211,-721.191,14.16,-50.781,1199.715,321.28911532164165
1157,1686190359.82,97.656,-672.852,3.906,-17.578,1199.719,309.9472305240334
1158,1686190359.83,222.168,-812.988,-127.93,-10.254,1199.723,320.23942844418565
1159,1686190359.83,-109.375,-1000.0,-147.461,-36.133,1199.727,314.30616699286463
1160,1686190359.83,-297.363,-854.492,184.57,-67.383,1199.731,321.1847780310672
1161,1686190359.84,23.438,-472.656,213.867,-29.297,1199.735,325.44378795210474
1162,1686190359.84,259.277,-463.867,116.211,-6.348,1199.738,325.5429234622799
1163,1686190359.85,12.695,-606.445,53.223,-52.246,1199.742,316.6725601926517
1164,1686190359.86,-279.297,-858.398,-59.082,-75.684,1199.759,314.94606342744027
1165,1686190359.87,-95.703,-772.949,67.383,-41.992,1199.763,317.6175136966535
1166,1686190359.87,233.398,-746.582,33.691,0.977,1199.767,320.0603996036027
1167,1686190359.88,120.117,-804.199,55.176,-23.438,1199.771,316.9008838051003
1168,1686190359.88,-226.074,-707.52,84.473,-75.684,1199.775,313.60779859646186
1169,1686190359.88,-200.684,-953.613,-39.551,-67.383,1199.779,319.47813015813836
1170,1686190359.89,145.02,-952.148,-29.785,-14.16,1199.783,323.9789881935085
1171,1686190359.89,181.641,-919.922,90.332,-11.23,1199.787,306.2149035993822
1172,1686190359.89,-152.344,-798.828,72.266,-56.641,1199.79,321.1209341362427
1173,1686190359.9,-47.363,-438.477,-20.508,-51.758,1199.793,307.9196093735981
1174,1686190359.9,-255.859,-779.785,-76.172,-52.246,1199.794,310.9427393497393
1175,1686190359.9,-281.25,-790.039,-113.281,-65.43,1199.797,328.1713977752431
1176,1686190359.9,68.848,-771.484,94.238,-9.277,1199.798,315.4570124373151
1177,1686190359.9,-17.09,-812.012,37.598,-24.414,1199.801,317.4816648295602
1178,1686190359.91,240.234,-490.234,193.359,-7.812,1199.802,317.65355975405345
1179,1686190359.91,252.441,-354.004,182.617,-2.93,1199.805,312.3985282322018
1180,1686190359.91,41.016,-488.77,-32.715,-38.086,1199.809,321.9425692670477
1181,1686190359.92,-280.762,-990.234,-195.312,-67.383,1199.813,325.80064688672087
1182,1686190359.92,-141.113,-885.254,19.043,-45.898,1199.817,319.7765902944109
1183,1686190359.92,218.75,-411.133,223.633,-7.812,1199.821,315.4558605672036
1184,1686190359.93,158.691,-326.172,50.293,-11.23,1199.825,327.61422293534145
1185,1686190359.93,-213.867,-777.832,-182.129,-42.969,1199.829,321.11289454454663
1186,1686190359.93,-246.582,-1000.0,34.18,-27.344,1199.833,314.5415419885732
1187,1686190359.94,127.93,-576.172,295.898,7.324,1199.836,310.6963846068183
1188,1686190359.97,219.238,-608.398,-35.156,11.23,1199.865,314.5658483187396
1189,1686190359.97,-128.418,-954.59,-62.5,-24.414,1199.869,307.627055358262
1190,1686190359.98,-268.066,-880.859,183.105,-47.363,1199.873,323.3616239168947
1191,1686190359.98,68.359,-551.758,226.074,-5.859,1199.877,321.1137214453958
1192,1686190359.98,273.438,-339.355,115.723,8.301,1199.881,313.74286027708166
1193,1686190359.99,-22.949,-744.629,-145.508,-22.949,1199.885,306.6965203295539
1194,1686190359.99,-305.176,-1000.0,-25.879,-40.527,1199.889,321.8694892834596
1195,1686190360.0,-45.898,-639.16,288.086,-20.996,1199.893,320.1445934013276
1196,1686190360.0,212.891,-472.656,-1.953,7.324,1199.894,326.33802951878863
1197,1686190360.0,265.137,-369.141,133.301,15.137,1199.897,321.78590844061546
1198,1686190360.0,155.762,-711.426,26.367,-8.301,1199.898,318.0387739309412
1199,1686190360.0,76.66,-630.859,28.32,-9.277,1199.901,317.05182334157223
1200,1686190360.01,-207.031,-723.633,68.359,-59.57,1199.902,316.0255939460745
1201,1686190360.01,-252.93,-731.934,64.941,-59.57,1199.904,319.3898365046035
1202,1686190360.01,-235.352,-611.816,-0.977,-52.246,1199.906,321.79707690846266
1203,1686190360.01,-136.719,-503.418,55.664,-41.504,1199.908,319.35038300625286
1204,1686190360.01,122.559,-639.648,-61.523,-1.953,1199.91,325.841766064396
1205,1686190360.02,219.238,-911.621,-75.684,1.953,1199.914,317.59118982328243
1206,1686190360.02,-106.445,-900.879,39.551,-43.457,1199.918,319.8641554593687
1207,1686190360.02,-276.855,-696.289,3.906,-67.383,1199.922,319.3831384597042
1208,1686190360.03,5.371,-791.992,-77.148,-30.762,1199.926,317.0496741767197
1209,1686190360.03,228.027,-841.797,-26.855,-0.977,1199.929,309.7217947485708
1210,1686190360.04,-15.625,-580.078,29.785,-41.016,1199.933,309.35938142792713
1211,1686190360.04,-289.551,-683.594,-64.453,-71.777,1199.937,325.6579519558095
1212,1686190360.04,-90.332,-916.992,-110.84,-32.715,1199.94,314.83769851359773
1213,1686190360.05,197.266,-1000.0,-34.18,8.789,1199.944,316.0878909860377
1214,1686190360.05,72.754,-792.969,164.551,-20.02,1199.948,317.9698873096323
1215,1686190360.06,-239.258,-794.434,-1.465,-62.012,1199.951,320.47037187995556
1216,1686190360.06,-176.758,-998.535,-25.391,-30.762,1199.955,317.2763888916921
1217,1686190360.06,171.875,-831.055,178.223,3.418,1199.959,315.63622210495885
1218,1686190360.07,174.316,-598.633,175.781,-18.066,1199.963,322.07728806454094
1219,1686190360.07,-172.852,-639.16,7.812,-62.988,1199.967,320.38713707903895
1220,1686190360.07,-267.09,-984.863,-82.52,-61.523,1199.971,314.9014623715773
1221,1686190360.08,80.566,-695.312,185.059,-18.555,1199.975,314.2721568852934
1222,1686190360.08,245.605,-312.5,140.137,-9.766,1199.979,311.298258083103
1223,1686190360.09,-80.566,-672.852,-95.703,-49.316,1199.983,323.29009845960644
1224,1686190360.09,-289.551,-878.418,32.715,-63.965,1199.987,317.1738179068143
1225,1686190360.09,11.23,-512.207,239.258,-19.043,1199.99,323.63618453418576
1226,1686190360.1,267.09,-178.711,160.156,-0.488,1199.994,317.6503265527107
1227,1686190360.1,28.32,-510.742,-71.289,-37.598,1199.998,326.81647622575116
1228,1686190360.1,-274.902,-953.613,-83.496,-62.012,1200.002,306.6800242005068
1229,1686190360.11,-100.098,-911.621,40.039,-30.273,1200.006,316.52009978088995
1230,1686190360.11,235.84,-736.328,158.691,7.324,1200.01,321.1737983888777
1231,1686190360.12,126.953,-812.012,-62.5,-4.883,1200.014,318.0401619656144
1232,1686190360.12,-248.535,-1000.0,-144.531,-48.828,1200.018,314.57033628737526
1233,1686190360.12,-199.219,-787.109,226.074,-45.898,1200.022,318.6935835994152
1234,1686190360.13,183.594,-352.539,211.914,-6.348,1200.026,311.4461630412305
1235,1686190360.13,195.312,-533.691,26.367,-15.137,1200.03,318.51766291906983
1236,1686190360.15,-166.016,-1000.0,-59.57,-58.594,1200.045,323.37894216985455
1237,1686190360.15,-255.371,-827.148,148.926,-58.594,1200.049,318.5401947748835
1238,1686190360.16,87.891,-430.664,165.527,-11.719,1200.052,317.20720075782026
1239,1686190360.16,236.328,-602.539,30.273,0.977,1200.056,326.6960871937672
1240,1686190360.16,-59.082,-781.738,100.586,-35.156,1200.06,319.9298686419515
1241,1686190360.17,-271.484,-903.809,-20.996,-41.504,1200.064,320.39838388563874
1242,1686190360.17,-0.977,-864.258,110.352,-1.465,1200.068,321.19815499172955
1243,1686190360.18,254.883,-799.805,46.875,11.719,1200.072,321.64716927166785
1244,1686190360.18,159.18,-544.434,133.301,-5.859,1200.074,321.12741358651954
1245,1686190360.18,35.645,-1000.0,28.32,-12.207,1200.076,315.4462005385891
1246,1686190360.18,-190.918,-522.949,-49.805,-49.805,1200.078,312.39340405468863
1247,1686190360.18,-264.648,-894.043,262.207,-53.223,1200.08,322.42983749426867
1248,1686190360.19,-208.008,-731.934,-73.73,-36.621,1200.082,314.07962374876877
1249,1686190360.19,-124.512,-662.598,122.559,-50.293,1200.084,309.33434542567613
1250,1686190360.19,144.531,-643.066,54.688,8.301,1200.086,319.2208721649348
1251,1686190360.19,216.309,-667.48,144.531,-1.953,1200.088,320.6307887362628
1252,1686190360.19,221.68,-302.246,95.703,2.93,1200.09,321.6415010832692
1253,1686190360.2,-125.977,-691.406,-67.871,-43.457,1200.093,315.48927673880155
1254,1686190360.2,-276.367,-1000.0,-119.629,-45.898,1200.097,310.79738032329715
1255,1686190360.2,52.734,-792.48,14.648,-0.977,1200.101,314.94749264720764
1256,1686190360.21,255.859,-349.121,194.336,11.719,1200.105,313.6064030264917
1257,1686190360.21,-22.949,-397.949,6.836,-26.367,1200.109,322.8990170818894
1258,1686190360.22,-287.598,-816.895,-159.668,-45.41,1200.113,316.2168410908971
1259,1686190360.22,-68.848,-996.094,34.18,-16.602,1200.117,316.10937340666254
1260,1686190360.24,235.84,-768.066,263.672,-2.441,1200.135,323.2893670242764
1261,1686190360.24,80.566,-541.016,122.07,-36.133,1200.139,318.35186168682424
1262,1686190360.25,-253.418,-835.449,-109.375,-63.965,1200.143,313.57559444134847
1263,1686190360.25,-163.574,-887.695,66.895,-42.48,1200.147,311.440527341922
1264,1686190360.26,207.52,-383.301,223.633,-8.301,1200.151,313.0745709981292
1265,1686190360.26,174.805,-566.895,-43.457,-14.16,1200.155,316.7817379196383
1266,1686190360.26,-204.102,-980.957,-118.652,-42.969,1200.159,320.0180270710794
1267,1686190360.27,-246.582,-885.254,121.582,-34.668,1200.163,320.6442527037264
1268,1686190360.27,121.094,-414.551,268.555,-1.465,1200.167,324.9564094783421
1269,1686190360.27,227.051,-321.289,44.922,-2.93,1200.17,315.01203722350726
1270,1686190360.28,-103.027,-706.543,-33.203,-41.016,1200.174,316.7310036875524
1271,1686190360.28,-260.742,-750.0,135.742,-52.734,1200.178,317.68228416660355
1272,1686190360.3,56.641,-415.039,181.641,-16.602,1200.198,317.8497384468895
1273,1686190360.3,272.461,-485.352,-30.762,8.301,1200.202,320.7377397806337
1274,1686190360.31,1.953,-831.543,-40.039,-23.438,1200.206,320.1607418092012
1275,1686190360.31,-258.789,-731.934,174.316,-56.641,1200.21,319.0343231470312
1276,1686190360.32,-49.805,-659.18,101.562,-31.738,1200.214,312.34259297704386
1277,1686190360.32,245.117,-864.746,-101.562,14.16,1200.218,317.65955122512867
1278,1686190360.32,103.516,-875.488,-38.086,-8.789,1200.222,321.49122357532104
1279,1686190360.33,-236.328,-729.492,115.234,-66.406,1200.226,320.24746114919014
1280,1686190360.33,-241.211,-834.961,21.484,-57.617,1200.225,316.4730795024924
1281,1686190360.33,-161.133,-585.938,149.414,-47.852,1200.23,321.36998713128895
1282,1686190360.33,94.238,-1000.0,-81.543,-11.719,1200.228,316.25401940145196
1283,1686190360.33,187.5,-667.969,3.418,7.812,1200.233,333.7973105020165
1284,1686190360.34,230.469,-797.363,41.992,-5.859,1200.232,320.68639758023954
1285,1686190360.34,171.387,-973.145,-61.523,6.836,1200.237,329.3018245124919
1286,1686190360.34,-68.848,-567.383,30.273,-45.898,1200.236,310.7661165207449
1287,1686190360.34,-169.922,-802.246,167.48,-49.805,1200.241,317.2154594776926
1288,1686190360.34,-270.996,-848.633,-78.125,-58.105,1200.24,318.3903934201297
1289,1686190360.35,-5.859,-987.793,7.812,-26.367,1200.244,309.5981411962479
1290,1686190360.35,248.047,-683.594,163.574,-7.812,1200.248,305.9716619163285
1291,1686190360.36,31.738,-432.617,78.125,-35.645,1200.252,312.3921542815012
1292,1686190360.36,-271.973,-736.816,-115.234,-72.754,1200.256,312.0227529018428
1293,1686190360.36,-106.445,-895.996,82.031,-49.316,1200.26,311.9621197750162
1294,1686190360.37,222.656,-470.703,235.84,-10.254,1200.264,312.33485470043973
1295,1686190360.37,124.023,-333.496,41.016,-32.227,1200.268,321.1368633325791
