,timestamps,TP9,AF7,AF8,TP10,Secondary Timestamp,emg_signal
0,1686879680.68,-478.516,292.969,-17.09,-73.73,908.59,406.0241039483047
1,1686879680.68,-538.574,139.648,-41.992,8.789,908.594,397.76211877509644
2,1686879680.69,-520.996,-12.695,-27.344,50.781,908.598,398.0251165942282
3,1686879680.69,-531.738,111.328,-23.926,-35.645,908.602,409.36640093086305
4,1686879680.7,-536.133,-38.574,-53.711,-100.098,908.606,402.9003072365963
5,1686879680.7,-482.91,-279.785,-54.199,-25.879,908.61,404.63503632074696
6,1686879680.7,-412.109,-806.641,-48.34,57.129,908.614,397.8767801055618
7,1686879680.71,-394.531,-513.672,29.297,0.0,908.617,405.82624433642843
8,1686879680.71,-414.551,264.648,-1.953,-92.773,908.621,404.3998324805926
9,1686879680.72,-392.578,-31.738,-52.246,-64.453,908.625,406.66889716892666
10,1686879680.72,-324.219,-16.113,-9.277,16.602,908.629,407.771448825852
11,1686879680.72,-293.457,345.215,4.395,8.301,908.633,401.2609044049334
12,1686879680.74,-317.383,291.992,-36.133,-75.195,908.636,404.54567543625393
13,1686879680.74,-314.941,-138.184,-33.691,-77.637,908.64,394.52293918983105
14,1686879680.75,-263.184,-132.324,14.16,7.324,908.644,401.5797884245996
15,1686879680.75,-229.004,223.145,-14.648,34.18,908.648,409.4793550830609
16,1686879680.76,-240.234,-31.738,-54.688,-43.457,908.652,406.7397890491424
17,1686879680.76,-249.512,-696.289,-84.473,-78.613,908.656,401.7421552184003
18,1686879680.76,-202.148,-838.379,-4.883,16.113,908.66,404.3747284356396
19,1686879680.77,-155.273,-156.25,47.852,61.523,908.664,399.04651642677993
20,1686879680.77,-188.965,135.254,-34.668,-28.809,908.668,403.253899907061
21,1686879680.78,-210.449,-86.914,-14.648,-89.355,908.672,407.95045261302863
22,1686879680.78,-165.527,-41.504,5.859,-27.344,908.676,395.77095620016564
23,1686879680.78,-119.629,239.258,-15.625,46.875,908.679,403.6660820437053
24,1686879680.79,-129.395,201.66,-41.504,8.789,908.683,401.3323779963907
25,1686879680.79,-163.086,-247.07,-31.25,-75.684,908.687,401.65858912765856
26,1686879680.79,-147.461,-132.324,13.184,-57.129,908.691,405.30386103342136
27,1686879680.8,-94.727,328.613,-15.625,41.016,908.695,401.5552821974386
28,1686879680.8,-86.914,148.926,-58.594,34.668,908.699,403.4793736677607
29,1686879680.81,-142.09,-369.629,-73.73,-58.105,908.703,393.19210602416007
30,1686879680.81,-168.457,-308.594,-18.555,-56.641,908.707,402.1653675227555
31,1686879680.81,-125.0,216.797,2.441,30.762,908.711,401.88358386141863
32,1686879680.82,-110.84,25.879,-74.707,52.246,908.715,406.0347512145785
33,1686879680.82,-148.926,-774.902,-77.637,-32.227,908.718,401.16489055537363
34,1686879680.82,-175.293,-503.906,8.789,-81.055,908.722,401.0012692671872
35,1686879680.83,-125.488,253.418,-0.977,-0.488,908.726,404.5145021818607
36,1686879680.83,-72.754,-67.871,-54.688,62.5,908.726,403.9423261246836
37,1686879680.83,-89.355,-386.719,-40.527,-0.488,908.73,402.7205442178069
38,1686879680.84,-120.117,92.285,-13.184,-66.406,908.734,401.33897885415485
39,1686879680.84,-116.699,217.773,-32.227,-20.02,908.738,398.319869153469
40,1686879680.85,-86.426,-134.277,-44.434,51.758,908.742,404.4413814777564
41,1686879680.85,-95.703,-359.375,-31.738,5.859,908.746,401.88851092411846
42,1686879680.85,-136.719,-319.824,-21.973,-82.52,908.75,396.4623735652269
43,1686879680.86,-124.512,-16.113,-14.648,-64.941,908.754,394.57006542229016
44,1686879680.86,-71.777,-415.527,-75.195,28.809,908.758,403.53971453903966
45,1686879680.86,-69.336,-758.789,-26.367,24.414,908.762,404.96247087255426
46,1686879680.87,-108.398,163.574,25.879,-62.988,908.765,405.92651284474084
47,1686879680.87,-115.723,230.957,-42.969,-67.383,908.769,401.8938328505048
48,1686879680.88,-75.195,-173.34,-26.367,9.766,908.776,402.10902792027264
49,1686879680.88,-52.734,86.426,4.395,29.785,908.779,400.27967440288114
50,1686879680.88,-73.242,364.258,-28.32,-51.758,908.783,398.3953099361912
51,1686879680.89,-92.285,62.012,-58.594,-96.191,908.787,403.16700156014736
52,1686879680.89,-71.289,-319.336,-25.391,-27.344,908.791,404.9586329976572
53,1686879680.9,-41.992,-239.258,-8.789,34.18,908.795,396.5477582231183
54,1686879680.9,-59.082,-13.672,-22.461,-9.277,908.799,405.9427801486539
55,1686879680.9,-93.75,-165.039,-71.777,-86.914,908.803,403.1408546095312
56,1686879680.91,-84.961,-642.578,-52.734,-53.711,908.807,401.2425104105557
57,1686879680.91,-30.762,-101.562,49.805,25.879,908.811,392.0552227249485
58,1686879680.92,-21.484,436.035,-14.16,2.93,908.815,400.4628434440408
59,1686879680.92,-83.008,-93.262,3.906,-81.055,908.817,392.02722429758234
60,1686879680.92,-72.266,26.855,-35.645,-82.52,908.818,399.77220460944767
61,1686879680.92,-26.855,261.23,1.953,6.348,908.821,389.99733403855976
62,1686879680.93,-8.301,296.875,-41.504,9.277,908.825,394.6521529179175
63,1686879680.93,-52.246,-390.137,-60.547,-74.707,908.828,398.5156072133811
64,1686879680.94,-72.266,-736.328,-6.836,-93.75,908.832,394.9112997698932
65,1686879680.94,-41.504,-294.922,2.441,-9.277,908.836,402.8476024105014
66,1686879680.94,-18.555,-52.246,-7.812,24.414,908.84,399.5484279566919
67,1686879680.95,-44.922,-486.328,-61.035,-47.363,908.844,395.5688602528739
68,1686879680.95,-77.637,-997.07,-20.508,-89.355,908.848,398.1318671346239
69,1686879680.96,-46.875,-108.887,68.848,-29.785,908.852,402.3479623226818
70,1686879680.96,7.812,503.906,-14.16,44.922,908.856,398.54243836433244
71,1686879680.96,-7.812,213.379,-40.527,-2.441,908.86,393.28711005153934
72,1686879680.97,-54.199,176.758,-8.301,-83.008,908.864,407.4640000386832
73,1686879680.97,-50.781,315.43,-11.719,-56.152,908.868,399.7745297728119
74,1686879680.98,-8.789,187.988,-41.504,23.926,908.872,408.32422018831386
75,1686879680.98,-6.836,26.855,-25.391,7.324,908.876,405.9344559759937
76,1686879680.98,-52.734,51.27,-22.461,-83.008,908.879,402.0419365607993
77,1686879680.99,-63.965,-178.223,-38.086,-73.73,908.883,398.7076609981301
78,1686879680.99,-38.574,-279.785,-42.969,13.184,908.887,396.8917416457828
79,1686879680.99,-30.762,-787.109,-57.617,32.715,908.891,400.10757895587017
80,1686879681.0,-49.805,-498.047,36.133,-44.922,908.895,401.95098443813566
81,1686879681.0,-45.898,288.086,1.953,-85.938,908.899,399.5490300642275
82,1686879681.01,-8.301,49.805,-36.621,-11.23,908.903,387.74699308990125
83,1686879681.01,2.441,103.027,2.441,35.156,908.907,396.8912564389489
84,1686879681.01,-25.391,378.906,-11.23,-27.344,908.906,397.4744109991135
85,1686879681.01,-61.035,261.719,-43.945,-90.332,908.91,399.19273524361796
86,1686879681.02,-46.387,-83.984,-23.926,-35.645,908.914,400.60394414519095
87,1686879681.02,-2.441,-28.32,3.418,39.551,908.918,394.71171843881
88,1686879681.03,-21.484,10.254,-44.922,-19.043,908.922,403.0458198933596
89,1686879681.03,-61.523,-249.512,-43.945,-108.887,908.926,398.4657868840795
90,1686879681.03,-65.43,-649.414,-56.152,-67.871,908.93,394.10562046145344
91,1686879681.04,-33.691,-926.758,-4.883,28.809,908.934,405.9693484119709
92,1686879681.04,-10.742,-238.281,46.875,13.184,908.938,402.4409163338807
93,1686879681.04,-41.016,219.238,-35.156,-83.496,908.942,396.44979313890235
94,1686879681.05,-57.617,-186.035,-23.926,-92.773,908.945,399.310979381863
95,1686879681.05,-24.902,-40.039,32.227,-6.348,908.949,403.82311854524715
96,1686879681.06,-6.348,459.961,-8.789,9.766,908.965,395.72108063852966
97,1686879681.06,-47.363,208.008,-56.641,-68.359,908.969,402.0945134088604
98,1686879681.06,-76.66,-123.047,-42.969,-102.051,908.973,397.19624513249056
99,1686879681.07,-36.621,98.633,3.418,-29.785,908.977,393.37710759773444
100,1686879681.07,-9.277,273.926,-3.906,21.973,908.981,391.1566954602001
101,1686879681.08,-42.48,-166.992,-70.312,-37.598,908.985,398.2426507182688
102,1686879681.08,-74.707,-726.562,-29.785,-88.379,908.989,394.58524465345204
103,1686879681.08,-51.27,-279.785,46.387,-41.504,908.993,399.94905879258835
104,1686879681.09,-10.254,365.234,-6.348,31.738,908.996,395.943483064816
105,1686879681.09,-30.273,91.309,-53.223,0.977,909.0,395.09014200875504
106,1686879681.1,-83.496,-316.406,-66.895,-85.449,909.004,391.0845906348003
107,1686879681.1,-82.52,-207.031,-24.414,-73.73,909.008,397.55997438659904
108,1686879681.1,-32.227,218.262,-3.418,2.441,909.01,403.01855624579133
109,1686879681.1,-24.902,-170.898,-48.828,0.0,909.014,398.5681673733998
110,1686879681.11,-70.801,-507.812,-16.113,-86.914,909.018,395.53729587022593
111,1686879681.11,-87.402,-57.129,-16.602,-106.445,909.022,390.52034009635906
112,1686879681.12,-51.27,-61.035,-37.109,-15.137,909.026,396.3526599152185
113,1686879681.12,-21.973,-573.73,-58.594,37.598,909.03,389.47194648552636
114,1686879681.12,-45.41,-853.516,-17.578,-40.527,909.034,399.46316937445715
115,1686879681.13,-69.824,-118.164,33.691,-104.98,909.038,402.30917725700846
116,1686879681.13,-27.832,206.543,-27.344,-38.574,909.042,400.92145453871535
117,1686879681.14,16.602,11.23,-16.113,27.344,909.046,388.83418348442893
118,1686879681.14,-14.648,99.609,-4.883,-27.832,909.05,397.62381563648523
119,1686879681.14,-62.5,222.168,-28.809,-99.609,909.053,402.3161638052361
120,1686879681.16,-47.363,11.719,-46.387,-69.824,909.058,394.3739654296495
121,1686879681.16,-6.836,-270.02,-21.973,4.883,909.062,399.0269355716908
122,1686879681.17,-1.465,-38.086,10.254,-1.465,909.066,395.2394832719066
123,1686879681.17,-57.129,227.539,-19.043,-85.449,909.07,395.186725507871
124,1686879681.18,-80.078,-13.672,-66.406,-86.426,909.073,399.1609375387876
125,1686879681.18,-32.227,-614.258,-38.086,11.719,909.077,397.0037114537263
126,1686879681.18,-20.02,-333.008,36.133,28.32,909.081,397.87107981732834
127,1686879681.19,-63.477,319.336,-8.789,-71.777,909.085,397.48238893954255
128,1686879681.19,-100.586,-114.746,-75.195,-109.375,909.089,391.36481268123185
129,1686879681.2,-72.754,-438.477,-39.551,-29.785,909.093,389.5194100139691
130,1686879681.2,-40.039,62.988,5.371,5.371,909.097,387.6991547075364
131,1686879681.2,-60.059,161.621,-56.152,-59.57,909.101,394.74355984117705
132,1686879681.2,-88.379,-167.48,-32.715,-114.258,909.101,400.8374485357632
133,1686879681.21,-63.477,-179.688,10.742,-52.734,909.105,390.2755782139384
134,1686879681.21,-17.09,170.898,-9.766,16.602,909.109,394.1936611359381
135,1686879681.22,-41.016,125.977,-54.199,-44.434,909.113,396.7382774772817
136,1686879681.22,-90.82,-544.434,-85.449,-106.445,909.117,390.6286175469109
137,1686879681.22,-87.402,-806.641,-14.648,-69.336,909.121,395.6234700947624
138,1686879681.23,-44.434,-289.062,19.531,6.836,909.125,396.9705990640671
139,1686879681.23,-38.086,-39.551,-18.066,-9.277,909.129,400.26613716665145
140,1686879681.24,-67.383,-560.059,-62.5,-75.195,909.133,394.9946320926675
141,1686879681.24,-69.824,-750.0,-3.418,-64.453,909.137,389.632588501679
142,1686879681.24,-37.109,243.652,44.922,12.207,909.14,397.041961543767
143,1686879681.25,-19.043,432.617,-42.48,37.598,909.144,400.7182450015827
144,1686879681.25,-50.293,52.734,-51.758,-37.598,909.149,403.7118000836781
145,1686879681.26,-83.008,70.801,-20.02,-87.402,909.152,390.5232202850172
146,1686879681.26,-59.57,292.969,-13.672,-19.043,909.156,394.0508362342658
147,1686879681.26,-37.109,203.613,-43.945,30.273,909.16,396.42164114884565
148,1686879681.27,-61.523,-66.895,-62.988,-34.18,909.164,393.6405367098379
149,1686879681.27,-87.891,-283.203,-48.34,-85.449,909.168,393.6483162588961
150,1686879681.28,-70.801,-307.617,-11.23,-34.668,909.172,397.62210366895704
151,1686879681.28,-35.645,-173.34,-52.246,29.297,909.176,391.2083749968641
152,1686879681.28,-43.945,-752.441,-83.008,-6.836,909.18,406.77599466143835
153,1686879681.29,-68.359,-508.789,34.668,-90.332,909.184,402.47428045645864
154,1686879681.29,-59.57,263.184,10.254,-73.73,909.188,393.7363477141824
155,1686879681.3,-25.879,51.27,-25.391,17.09,909.192,402.8086920999733
156,1686879681.3,-24.414,66.895,4.395,5.859,909.192,397.14642131964894
157,1686879681.3,-63.965,284.668,-21.484,-84.473,909.195,401.6491392896856
158,1686879681.3,-71.289,179.688,-33.203,-91.309,909.199,389.6194471013753
159,1686879681.31,-42.48,-86.426,-25.879,-0.977,909.203,399.0387806767453
160,1686879681.31,-23.438,-224.121,-28.809,27.832,909.207,396.5251674852484
161,1686879681.32,-55.664,-260.254,-37.598,-46.387,909.211,404.8299716661189
162,1686879681.32,-72.754,-255.859,-19.043,-88.867,909.215,403.47998153732624
163,1686879681.32,-49.805,-573.242,-45.41,-14.648,909.219,397.343372350041
164,1686879681.33,-36.621,-923.34,-6.348,43.457,909.223,397.5117878314779
165,1686879681.33,-47.363,-236.328,59.082,-27.344,909.227,398.26749890982774
166,1686879681.33,-68.359,232.91,-15.137,-103.516,909.231,393.49311295431363
167,1686879681.34,-68.359,-110.84,-13.184,-56.152,909.235,392.203137985123
168,1686879681.34,-33.691,74.219,23.438,26.855,909.239,390.3986099361549
169,1686879681.34,-31.25,477.051,-10.742,0.488,909.243,399.7694417686428
170,1686879681.35,-79.59,167.48,-44.922,-80.078,909.247,397.05317785962893
171,1686879681.35,-84.961,-79.59,-28.32,-71.289,909.25,399.1240708454131
172,1686879681.36,-40.039,142.578,-6.348,20.02,909.254,400.2988977349403
173,1686879681.36,-30.762,38.574,-35.645,33.691,909.258,398.51721959914727
174,1686879681.36,-63.965,-334.473,-77.637,-55.176,909.262,395.08563029996736
175,1686879681.37,-70.801,-693.848,-39.551,-74.707,909.266,393.0628472358195
176,1686879681.37,-32.227,-184.57,54.688,8.789,909.27,394.62091864408495
177,1686879681.38,0.0,451.66,-1.465,45.898,909.274,389.23468535679916
178,1686879681.38,-37.598,104.004,-46.875,-30.762,909.278,397.9829249858957
179,1686879681.38,-74.707,-321.777,-37.598,-93.262,909.282,404.0855452896348
180,1686879681.39,-58.594,-94.238,10.742,-29.297,909.283,396.94060204096513
181,1686879681.39,-32.715,368.164,-0.977,34.18,909.287,400.06524755422976
182,1686879681.39,-45.41,-151.367,-45.41,-20.02,909.291,400.9441671506648
183,1686879681.4,-70.312,-496.582,-1.465,-87.891,909.295,397.91656166462775
184,1686879681.4,-48.828,-145.508,-7.324,-47.363,909.298,398.37141331553
185,1686879681.41,-13.184,-59.082,-14.16,31.25,909.302,403.48827949604646
186,1686879681.41,-16.113,-466.797,-56.152,9.277,909.306,398.0182192323381
187,1686879681.41,-70.312,-945.312,-4.395,-80.078,909.31,403.12398495381746
188,1686879681.42,-75.195,-137.207,65.43,-84.473,909.314,407.21766386721293
189,1686879681.42,-8.789,367.676,-12.207,13.672,909.318,395.46229840173964
190,1686879681.42,1.465,226.074,-2.93,39.551,909.322,403.0460551426491
191,1686879681.43,-52.246,232.91,1.953,-49.805,909.326,399.86257218066845
192,1686879681.44,-64.941,285.645,-12.695,-67.871,909.341,393.4180161156905
193,1686879681.45,-35.645,159.18,-22.949,26.367,909.345,406.03767605192087
194,1686879681.45,-17.578,-104.98,-3.418,56.152,909.349,399.6464869091413
195,1686879681.46,-39.062,92.773,35.156,-21.973,909.353,403.58666928118487
196,1686879681.46,-70.801,184.082,-3.418,-66.895,909.357,397.72731642245304
197,1686879681.46,-58.594,-142.578,-49.805,-4.395,909.361,389.17603522249595
198,1686879681.47,-27.344,-700.195,-27.344,52.734,909.365,390.4505839966619
199,1686879681.47,-36.621,-310.547,56.152,-3.418,909.369,400.8611376439698
200,1686879681.48,-69.336,388.184,7.324,-85.938,909.373,394.38204034041274
201,1686879681.48,-56.641,265.625,-37.109,-55.664,909.386,399.53413048382225
202,1686879681.48,-67.383,-107.422,-25.879,-68.848,909.39,401.362487882741
203,1686879681.48,-63.477,63.965,-32.715,-62.988,909.377,405.54810839480365
204,1686879681.48,-18.066,2.93,-8.301,31.25,909.38,400.2270467907279
205,1686879681.48,-31.25,-84.473,31.25,28.32,909.394,400.08270250519
206,1686879681.49,-9.766,303.223,-4.395,34.18,909.384,403.57025185760466
207,1686879681.49,-34.18,248.047,-3.418,35.645,909.398,401.2659664695051
208,1686879681.49,-87.402,9.277,-38.574,-65.918,909.402,402.07813175097994
209,1686879681.5,-115.234,-634.766,-55.664,-88.867,909.406,398.374310202679
210,1686879681.5,-61.523,-827.637,-7.812,2.441,909.41,398.62098965599216
211,1686879681.5,-22.949,-186.035,44.434,55.664,909.414,403.4367636914645
212,1686879681.51,-41.504,247.07,-26.855,-11.23,909.417,401.1803916595163
213,1686879681.51,-66.895,-458.496,-78.613,-68.359,909.421,401.5974196727025
214,1686879681.52,-49.805,-558.594,16.602,-3.906,909.425,409.01802996015016
215,1686879681.52,-3.418,418.945,29.785,76.172,909.429,405.1889673216213
216,1686879681.54,-2.93,375.488,-46.387,42.969,909.433,406.7444593611055
217,1686879681.54,-39.062,-13.184,-44.434,-33.691,909.437,397.0346027590159
218,1686879681.54,-35.156,56.641,-6.836,-6.836,909.441,399.35168755700863
219,1686879681.55,9.277,363.281,0.488,85.449,909.445,400.5574575333462
220,1686879681.55,15.137,244.629,-52.246,80.566,909.449,402.1422197239497
221,1686879681.56,-23.438,-343.262,-72.754,2.441,909.453,403.1117762661324
222,1686879681.56,-27.832,-293.945,-9.277,5.859,909.457,398.27665569754384
223,1686879681.56,10.742,20.02,1.953,90.332,909.461,399.21357227940456
224,1686879681.57,29.297,-166.992,-70.312,117.188,909.464,402.70038624702073
225,1686879681.57,0.488,-672.363,-51.27,42.48,909.468,406.46993248834667
226,1686879681.58,-26.367,-276.855,41.504,-13.184,909.472,409.3497990007047
227,1686879681.58,4.883,310.547,-20.996,51.27,909.476,411.396509492094
228,1686879681.58,31.25,68.848,-38.086,112.305,909.477,410.28277333750293
229,1686879681.58,10.254,55.664,-15.625,46.875,909.481,404.04433419447304
230,1686879681.59,-33.691,224.609,-35.645,-39.062,909.485,409.5445812419746
231,1686879681.59,-31.25,238.77,-49.805,-2.441,909.489,404.96532260406514
232,1686879681.6,13.184,-87.402,-47.363,83.496,909.492,408.4510268906035
233,1686879681.6,7.812,-317.871,-29.297,52.246,909.496,407.37258267190424
234,1686879681.6,-28.809,-264.648,-42.969,-41.504,909.5,401.13577746590573
235,1686879681.61,-27.832,-38.574,-40.039,-40.039,909.504,410.3290605168511
236,1686879681.61,-0.977,-394.043,-78.125,50.781,909.508,405.6254011326552
237,1686879681.62,0.0,-799.805,-35.156,59.57,909.512,406.3846811942492
238,1686879681.62,-32.227,-94.727,-4.395,-33.203,909.516,406.20581838127936
239,1686879681.62,-46.875,30.273,-59.082,-59.082,909.52,414.42895733801885
240,1686879681.63,-13.672,-83.496,-12.207,37.109,909.524,408.28627164321676
241,1686879681.63,11.23,223.633,-9.766,73.242,909.528,407.5450845209091
242,1686879681.63,-20.996,404.297,-56.152,-15.137,909.532,415.6802892415262
243,1686879681.64,-52.734,125.977,-65.918,-73.73,909.536,411.57897523793775
244,1686879681.64,-21.973,-135.742,-63.965,-17.09,909.54,411.6286392929552
245,1686879681.65,11.719,-143.066,-53.711,49.805,909.544,405.4075242508704
246,1686879681.65,-10.254,22.461,-37.598,0.0,909.548,413.8316584384197
247,1686879681.65,-44.922,-50.781,-85.938,-73.73,909.552,408.8128308382432
248,1686879681.66,-41.504,-619.141,-56.152,-36.133,909.556,413.7500252437978
249,1686879681.66,2.93,-113.281,25.391,52.246,909.56,418.52432823392866
250,1686879681.66,7.812,451.172,-50.781,34.668,909.564,405.23637509345343
251,1686879681.67,-38.574,16.602,-68.359,-59.082,909.567,414.38297199243556
252,1686879681.67,-48.34,-321.289,-34.668,-57.129,909.567,417.48063807609975
253,1686879681.68,-13.184,-30.273,-24.902,25.879,909.571,412.4842060545692
254,1686879681.68,-2.93,336.914,-45.898,37.109,909.575,408.0258845885134
255,1686879681.68,-31.25,-241.211,-76.172,-46.875,909.579,413.1952929360778
256,1686879681.69,-51.758,-753.418,-29.785,-79.59,909.583,416.66704845567597
257,1686879681.69,-26.367,-337.402,-31.738,0.977,909.587,412.7147840587154
258,1686879681.69,6.348,-72.266,-49.316,38.574,909.591,410.9623545313364
259,1686879681.7,-25.879,-520.02,-81.543,-28.809,909.595,416.2133432431295
260,1686879681.7,-68.848,-930.176,-27.344,-83.984,909.599,415.1616141262508
261,1686879681.71,-41.992,-97.656,37.109,-26.855,909.602,413.84163891054186
262,1686879681.71,-9.277,362.793,-43.457,38.574,909.606,414.3159902565907
263,1686879681.71,-28.32,143.555,-62.988,-8.789,909.61,409.25211083854396
264,1686879681.72,-54.688,161.621,-47.852,-87.891,909.614,412.2241659453978
265,1686879681.72,-56.152,302.734,-50.293,-61.523,909.617,409.5733735838279
266,1686879681.72,-33.691,154.297,-81.543,26.855,909.621,419.30906609338786
267,1686879681.73,-24.902,-176.27,-38.574,18.555,909.625,406.283690103117
268,1686879681.73,-64.453,-92.773,-34.668,-76.172,909.629,413.5800635514523
269,1686879681.74,-82.52,-207.52,-84.473,-84.473,909.633,411.70084516673234
270,1686879681.74,-43.457,-362.305,-86.426,17.09,909.637,412.9545707154645
271,1686879681.74,-23.438,-683.594,-54.688,48.34,909.641,412.03145983040133
272,1686879681.75,-47.363,-323.242,23.438,-50.781,909.645,418.56323089622725
273,1686879681.75,-59.57,313.477,-41.992,-97.656,909.649,412.56766124386843
274,1686879681.76,-32.227,38.086,-61.523,-4.883,909.653,409.8446015139083
275,1686879681.76,-8.789,-15.625,-44.922,42.969,909.657,414.9648209364738
276,1686879681.76,-42.48,221.191,-49.805,-34.668,909.657,411.26839321087937
277,1686879681.76,-77.148,204.102,-59.57,-90.82,909.661,417.45591789789296
278,1686879681.77,-56.641,-90.332,-44.434,-38.086,909.664,409.84071528889643
279,1686879681.77,-17.09,-19.043,-6.836,40.039,909.668,414.5482140805764
280,1686879681.78,-27.832,1.953,-55.176,3.418,909.672,407.24556407794756
281,1686879681.78,-65.43,-297.363,-52.734,-89.844,909.676,419.1041901678756
282,1686879681.78,-68.359,-573.73,-62.5,-65.918,909.68,414.8230753674545
283,1686879681.79,-35.645,-1000.0,-66.406,38.086,909.684,414.9853597998328
284,1686879681.79,-12.207,-427.246,9.766,35.645,909.688,411.74211912875313
285,1686879681.8,-41.016,286.133,-43.457,-73.73,909.692,424.98365201694685
286,1686879681.8,-69.824,17.09,-54.688,-92.285,909.696,421.7658836990475
287,1686879681.8,-43.945,180.664,-11.23,5.371,909.7,418.4208396830618
288,1686879681.82,-4.883,423.828,-43.945,40.039,909.719,411.1135054944437
289,1686879681.82,-30.762,212.891,-68.359,-38.086,909.722,423.27489930195475
290,1686879681.83,-62.988,-137.207,-42.48,-81.055,909.726,417.71758748868655
291,1686879681.83,-29.785,56.641,-11.719,-7.324,909.73,416.835702781248
292,1686879681.84,-1.953,264.16,-50.781,60.059,909.734,423.49570753211907
293,1686879681.84,-22.949,-154.297,-106.445,2.93,909.738,416.3524395909418
294,1686879681.84,-65.43,-705.078,-49.316,-83.008,909.742,420.46259449358166
295,1686879681.85,-53.223,-275.879,26.855,-50.293,909.746,422.3674035253246
296,1686879681.85,-7.324,140.137,-24.902,39.062,909.75,421.1857645375136
297,1686879681.86,-9.766,-278.32,-72.754,23.438,909.754,416.27358183453555
298,1686879681.86,-49.316,-430.176,-55.176,-64.941,909.758,424.8809482102416
299,1686879681.86,-65.918,44.434,-10.742,-68.359,909.761,413.5740834248143
300,1686879681.86,-21.484,258.301,-58.105,19.531,909.762,416.5648834633054
301,1686879681.87,-3.418,-15.625,-50.781,39.062,909.766,410.49585505764526
302,1686879681.87,-47.852,-121.582,-21.484,-54.688,909.77,411.8966552818931
303,1686879681.88,-71.289,80.566,-56.641,-88.379,909.773,413.8228037035679
304,1686879681.88,-45.41,-104.492,-70.801,-3.418,909.777,422.6116121514323
305,1686879681.88,-20.508,-402.832,-53.711,34.668,909.781,411.87110625420047
306,1686879681.89,-38.574,-446.289,-39.551,-41.016,909.785,416.2775939020214
307,1686879681.89,-72.266,-195.801,-24.902,-102.539,909.789,411.87743563126384
308,1686879681.9,-64.453,108.398,-36.621,-39.551,909.793,407.9574311259641
309,1686879681.9,-37.598,-441.406,-101.074,43.945,909.797,414.27452430233114
310,1686879681.9,-52.734,-992.188,-31.738,5.371,909.801,416.6593397422399
311,1686879681.91,-75.195,-294.434,42.969,-86.426,909.805,415.96894420104405
312,1686879681.91,-62.012,167.48,-35.645,-60.547,909.806,412.8214650388446
313,1686879681.91,-20.996,-128.906,-19.531,32.715,909.81,408.6991028776476
314,1686879681.92,-15.625,59.57,-1.953,27.832,909.814,413.0077173849503
315,1686879681.92,-62.012,352.051,-50.781,-69.824,909.818,411.32509953271216
316,1686879681.93,-79.59,100.586,-70.312,-82.52,909.822,414.33606104821934
317,1686879681.93,-43.457,-222.656,-65.918,20.02,909.826,405.42345808358886
318,1686879681.93,-19.043,-90.332,-18.555,47.852,909.83,416.41442821658467
319,1686879681.94,-48.828,214.844,-29.785,-42.48,909.834,409.1612025275888
320,1686879681.94,-76.172,-83.008,-96.191,-84.473,909.838,412.2674305267752
321,1686879681.94,-48.34,-647.949,-34.668,0.488,909.842,408.40876405684526
322,1686879681.95,-20.508,-128.906,41.992,45.41,909.845,411.62029634567847
323,1686879681.95,-46.387,356.445,-37.598,-32.227,909.849,407.3067180354557
324,1686879681.96,-77.148,-64.453,-44.434,-91.309,909.852,407.7131491336784
325,1686879681.96,-64.453,-359.375,-16.113,-30.762,909.856,406.69435174885416
326,1686879681.96,-28.809,-0.488,-17.09,49.316,909.86,401.39728461290645
327,1686879681.97,-32.715,308.105,-43.457,6.348,909.864,410.49821120956443
328,1686879681.97,-81.543,-374.512,-100.098,-86.426,909.868,409.58231376990875
329,1686879681.98,-80.566,-919.434,-39.551,-61.523,909.872,411.8800310934311
330,1686879681.98,-33.691,-312.988,38.574,28.809,909.876,405.9700505036886
331,1686879681.98,-28.32,279.297,-13.672,13.672,909.88,400.8609905076264
332,1686879681.99,-75.195,-360.352,-83.496,-83.496,909.884,409.39265843886227
333,1686879681.99,-80.566,-646.484,-10.742,-91.797,909.888,413.20408254235025
334,1686879681.99,-33.203,263.672,28.32,5.859,909.892,406.07175106246086
335,1686879682.0,-20.508,324.707,-39.551,43.457,909.895,408.9860074137451
336,1686879682.0,-55.176,39.551,-43.945,-51.27,909.9,407.6060429326933
337,1686879682.01,-76.66,75.195,-16.602,-100.586,909.903,408.3888537718714
338,1686879682.01,-48.34,265.137,-16.602,-7.812,909.907,413.8875612208229
339,1686879682.01,-20.02,105.957,-50.293,51.758,909.911,408.32131525008174
340,1686879682.02,-43.457,-234.375,-53.711,-16.113,909.915,406.48515615876204
341,1686879682.02,-66.895,-359.375,-34.18,-78.613,909.919,409.5681094756962
342,1686879682.02,-50.781,-177.734,-1.953,-37.109,909.923,411.40841308939076
343,1686879682.03,-17.09,-6.836,-55.664,44.434,909.927,410.59435084069094
344,1686879682.03,-20.996,-646.973,-56.641,28.32,909.931,411.9563898217027
345,1686879682.04,-60.059,-311.523,59.082,-70.312,909.935,411.43855425613526
346,1686879682.04,-60.059,245.605,-31.25,-69.336,909.939,414.24641435381375
347,1686879682.04,-25.391,-100.586,-62.5,28.32,909.943,419.19121947297464
348,1686879682.04,-16.602,-56.152,-23.438,26.367,909.941,417.0763931260313
349,1686879682.05,-43.945,166.992,-26.855,-64.453,909.945,408.8911392266151
350,1686879682.05,-63.477,141.113,-31.738,-79.59,909.949,416.81306476734466
351,1686879682.06,-38.086,-138.672,-29.785,7.324,909.953,412.1858431441783
352,1686879682.06,-15.625,-313.477,-16.113,57.617,909.957,415.9736725349696
353,1686879682.06,-47.852,-300.781,-41.016,-14.648,909.961,410.0591994068712
354,1686879682.07,-85.938,-317.871,-33.691,-83.008,909.965,415.2550031014307
355,1686879682.07,-71.289,-559.57,-43.457,-22.949,909.969,410.75196248164383
356,1686879682.08,-37.109,-1000.0,-37.598,58.594,909.973,410.9362023706119
357,1686879682.08,-40.527,-412.598,29.297,1.953,909.977,412.4190232890323
358,1686879682.08,-71.777,207.031,-28.809,-86.426,909.98,416.20088785669367
359,1686879682.09,-71.289,-11.23,-31.25,-46.875,909.984,411.28855911357556
360,1686879682.09,-31.25,258.789,2.93,51.27,909.989,421.9784081000283
361,1686879682.1,-27.344,483.887,-26.855,32.715,909.993,417.1012634928302
362,1686879682.1,-58.105,199.219,-53.711,-62.988,909.996,421.85480116748147
363,1686879682.1,-56.641,-113.281,-31.25,-55.176,910.0,409.47324549529714
364,1686879682.11,-20.02,108.887,0.0,34.668,910.004,415.28616272394277
365,1686879682.11,-13.672,66.895,-39.062,41.992,910.008,419.13844495983216
366,1686879682.12,-52.734,-274.902,-71.777,-44.922,910.012,419.1784688442817
367,1686879682.12,-80.078,-638.184,-21.484,-71.289,910.016,412.2864609907499
368,1686879682.12,-56.641,-264.16,35.156,8.789,910.02,415.1726507409157
369,1686879682.13,-27.344,108.398,-25.879,55.176,910.024,414.34714887860025
370,1686879682.13,-51.758,-291.992,-70.801,-13.672,910.028,416.9102677756603
371,1686879682.14,-85.938,-359.863,-47.363,-76.66,910.032,418.3078844677409
372,1686879682.14,-61.523,130.371,7.324,-21.484,910.031,419.8553326361788
373,1686879682.14,-15.625,328.613,-28.809,49.805,910.035,424.5073772772104
374,1686879682.14,-36.621,-73.242,-30.762,-7.324,910.039,416.50497363884523
375,1686879682.15,-84.473,-247.07,0.0,-89.844,910.043,424.54966131997156
376,1686879682.15,-73.242,-199.219,-36.133,-48.34,910.047,420.76033325987277
377,1686879682.16,-39.062,-255.371,-29.785,39.551,910.051,421.81341451604493
378,1686879682.16,-34.668,-571.777,-53.711,26.367,910.055,422.03075339946867
379,1686879682.16,-62.988,-957.031,-9.277,-59.082,910.059,414.6179704527949
380,1686879682.17,-70.312,-170.898,60.059,-70.312,910.063,420.3549752233968
381,1686879682.17,-35.156,329.59,-16.602,17.09,910.067,416.87603843290765
382,1686879682.17,-18.066,145.996,-31.25,37.598,910.071,421.68590839387787
383,1686879682.18,-52.734,25.391,-34.18,-47.363,910.074,425.429836948823
384,1686879682.18,-78.125,6.348,-27.832,-81.543,910.089,417.9679447334737
385,1686879682.19,-56.641,121.094,-27.344,-10.742,910.093,418.70335198960737
386,1686879682.19,-35.645,-117.188,-15.137,41.992,910.097,420.0763245590634
387,1686879682.2,-46.875,-17.578,7.812,-28.32,910.101,419.1686062205739
388,1686879682.2,-71.289,181.152,-44.434,-92.773,910.105,412.5702817792969
389,1686879682.2,-62.988,-159.668,-77.148,-30.273,910.109,426.0777087315108
390,1686879682.21,-31.25,-631.836,-21.484,46.387,910.113,425.2041736964241
391,1686879682.21,-37.598,-181.641,38.574,4.883,910.117,421.6863397761504
392,1686879682.21,-64.941,308.594,-26.855,-81.055,910.121,415.60395064540916
393,1686879682.22,-64.941,-59.57,-44.922,-58.105,910.125,422.3371633078609
394,1686879682.22,-34.668,-61.035,-26.367,29.785,910.129,426.48808827841134
395,1686879682.23,-18.066,275.391,-24.902,16.602,910.132,414.935026699631
396,1686879682.24,-59.57,250.977,-48.34,-75.195,910.139,417.0627398487751
397,1686879682.24,-79.59,-136.23,-40.527,-88.379,910.143,430.43602476229944
398,1686879682.25,-41.016,-359.863,13.184,6.348,910.147,416.8976929515544
399,1686879682.25,-30.273,1.465,-1.465,39.062,910.151,419.6988304083378
400,1686879682.26,-52.734,-17.09,-45.898,-34.18,910.155,424.9218658299068
401,1686879682.26,-61.523,-573.73,-76.66,-65.918,910.159,415.09929335724746
402,1686879682.26,-50.781,-1000.0,-63.965,-1.465,910.163,418.8822655612287
403,1686879682.27,-31.25,-490.234,38.574,31.25,910.167,421.06411623015237
404,1686879682.27,-35.156,335.449,-5.859,-34.18,910.171,416.8063245468944
405,1686879682.28,-58.105,32.227,-40.527,-89.844,910.174,416.22383082974767
406,1686879682.28,-43.457,40.527,0.488,-40.039,910.178,417.1177503270856
407,1686879682.28,-7.812,332.52,-13.184,40.039,910.182,429.42946034345334
408,1686879682.28,-18.555,203.125,-46.387,13.672,910.182,418.9275703233649
409,1686879682.29,-54.688,-77.637,-41.504,-77.637,910.186,420.8298870257867
410,1686879682.29,-65.43,9.277,-5.371,-70.312,910.19,418.26863431695426
411,1686879682.3,-29.297,219.238,-19.043,28.32,910.194,415.110262192197
412,1686879682.3,-13.184,58.105,-47.852,39.551,910.198,422.42222325127693
413,1686879682.3,-52.734,-327.148,-61.523,-60.059,910.202,422.9586373411821
414,1686879682.31,-74.219,-438.965,-40.527,-95.703,910.206,420.9057638206771
415,1686879682.31,-47.852,-61.035,2.441,-14.16,910.21,423.5731622125778
416,1686879682.32,-19.531,52.734,-72.266,32.227,910.214,416.9971116722313
417,1686879682.32,-48.828,-817.871,-105.957,-32.227,910.218,419.52751634971287
418,1686879682.32,-75.684,-551.758,33.691,-84.961,910.222,417.8731996937349
419,1686879682.33,-52.734,255.371,2.441,-23.926,910.225,416.492317550546
420,1686879682.33,-30.762,31.25,-28.809,42.969,910.226,427.3985547225616
421,1686879682.33,-47.852,-104.004,-9.766,1.953,910.23,421.80865360759884
422,1686879682.34,-83.496,71.289,-27.832,-86.426,910.234,408.10392096931355
423,1686879682.34,-73.73,151.367,-45.898,-60.547,910.238,412.61489133979563
424,1686879682.35,-38.086,-329.59,-58.594,43.945,910.242,412.8276744866846
425,1686879682.35,-42.969,-627.93,-20.508,16.602,910.246,403.88868957968145
426,1686879682.35,-77.148,-310.547,-22.461,-82.52,910.25,407.9333620126622
427,1686879682.36,-71.777,-146.484,-23.438,-81.543,910.254,413.2792184154001
428,1686879682.36,-29.297,-540.039,-65.43,12.207,910.258,408.32077313696976
429,1686879682.36,-20.508,-912.598,-7.812,37.598,910.262,414.09749783153643
430,1686879682.37,-55.176,-63.477,43.457,-61.035,910.266,404.7510115673847
431,1686879682.37,-80.078,186.523,-47.363,-102.051,910.269,405.34234317961904
432,1686879682.38,-51.758,-58.594,-18.066,-15.625,910.274,406.1917096530247
433,1686879682.38,-21.484,223.633,6.836,29.785,910.277,408.75087611097064
434,1686879682.38,-53.711,355.469,-36.133,-47.852,910.281,413.52871135277985
435,1686879682.39,-92.773,63.477,-59.57,-114.746,910.285,398.1409884394252
436,1686879682.39,-75.684,-216.309,-51.758,-53.223,910.289,410.9653124679445
437,1686879682.4,-33.691,-204.59,-37.598,28.809,910.293,401.8728596108957
438,1686879682.4,-41.992,-72.754,-11.719,-13.672,910.297,405.41402431454776
439,1686879682.4,-85.449,-143.066,-52.246,-93.262,910.301,405.23634170959633
440,1686879682.41,-79.59,-657.227,-26.855,-56.152,910.305,406.6543566896586
441,1686879682.41,-38.574,-240.234,43.457,25.879,910.309,402.38293499574706
442,1686879682.42,-37.109,138.184,-21.973,-3.906,910.313,405.88235653011816
443,1686879682.42,-77.148,-501.465,-42.48,-88.379,910.316,398.7992454581938
444,1686879682.42,-70.312,-389.16,-70.312,-85.938,910.317,397.751585650461
445,1686879682.42,-40.039,141.602,23.926,-3.906,910.32,406.4440123104814
446,1686879682.43,-23.438,355.469,-18.555,28.809,910.324,413.1574691858485
447,1686879682.43,-58.594,-28.809,-37.109,-54.688,910.328,401.2069287224461
448,1686879682.44,-80.078,-354.98,-17.578,-98.633,910.332,403.89235401126774
449,1686879682.44,-59.082,-291.016,-11.719,-24.414,910.336,399.70557637982535
450,1686879682.44,-39.062,-93.262,-5.859,40.527,910.34,400.40941531333135
451,1686879682.45,-42.48,-486.816,-54.688,-5.859,910.344,404.4379700262968
452,1686879682.45,-83.008,-957.52,-0.977,-86.426,910.348,412.16067292371906
453,1686879682.46,-85.449,-137.207,73.242,-70.801,910.352,408.5348650204758
454,1686879682.46,-41.504,343.262,-11.23,12.207,910.355,404.1526337464139
455,1686879682.46,-56.152,111.328,-31.738,-19.531,910.359,408.51043124864896
456,1686879682.47,-105.469,-42.969,-34.18,-116.211,910.368,406.1676947850477
457,1686879682.47,-104.492,5.371,-20.996,-94.727,910.372,405.24946102375907
458,1686879682.48,-57.129,166.016,-18.555,9.277,910.376,407.9491010301083
459,1686879682.48,-47.852,-96.191,-2.93,9.766,910.38,407.1533372040182
460,1686879682.48,-72.754,-90.332,0.977,-85.938,910.383,409.09503853614217
461,1686879682.49,-96.68,-83.984,-40.527,-100.586,910.387,408.8745895383987
462,1686879682.49,-70.801,-193.848,-42.969,-7.324,910.391,409.4587207160142
463,1686879682.5,-46.875,-540.039,-13.672,27.344,910.395,413.36575829027953
464,1686879682.5,-72.266,-191.895,37.109,-53.711,910.399,406.43556602859894
465,1686879682.5,-102.051,315.918,-23.438,-104.492,910.403,406.18074618129936
466,1686879682.51,-90.332,-13.672,-47.852,-36.621,910.407,405.26783152111506
467,1686879682.51,-47.852,271.973,-24.414,-30.273,910.406,414.8618986083651
468,1686879682.51,-41.016,-7.812,-22.461,29.785,910.411,404.0768370033649
469,1686879682.51,-92.285,191.406,-42.969,-105.469,910.41,408.83909400502654
470,1686879682.52,-83.496,-154.785,-18.555,-64.941,910.414,406.6675280446139
471,1686879682.52,-41.992,-311.523,6.348,26.855,910.418,404.1446698291669
472,1686879682.53,-48.828,-205.566,-25.879,0.488,910.422,411.5130547041467
473,1686879682.53,-93.262,-246.582,-49.805,-102.539,910.426,411.61174887857146
474,1686879682.53,-95.215,-583.008,-65.918,-84.961,910.43,412.336778294479
475,1686879682.54,-51.758,-1000.0,-50.293,25.391,910.434,411.2463679154085
476,1686879682.54,-30.273,-475.098,18.555,27.832,910.438,415.7128222009705
477,1686879682.54,-62.012,301.758,-26.367,-69.336,910.442,411.3637232300817
478,1686879682.55,-81.543,86.426,-44.434,-96.68,910.445,409.74299769493575
479,1686879682.55,-43.457,192.871,-12.207,-7.812,910.449,412.7450601592421
480,1686879682.56,-20.02,450.195,-31.738,48.34,910.465,408.81394265497676
481,1686879682.56,-47.363,268.066,-56.641,-37.598,910.469,423.8662357563816
482,1686879682.57,-83.496,-61.523,-36.133,-113.281,910.473,412.1899452356695
483,1686879682.57,-63.477,107.422,2.441,-54.688,910.477,415.53114204691104
484,1686879682.58,-29.785,258.301,-34.668,20.508,910.481,404.5424546709102
485,1686879682.58,-43.457,-112.305,-73.242,-17.578,910.485,412.00161986613733
486,1686879682.58,-79.59,-707.031,-40.527,-92.285,910.489,415.7883427415422
487,1686879682.59,-73.242,-417.969,27.832,-58.105,910.493,412.7382236176772
488,1686879682.59,-38.574,369.629,8.301,30.273,910.497,409.9493709367385
489,1686879682.6,-34.18,30.273,-74.707,17.578,910.501,417.3103495319957
490,1686879682.6,-70.312,-489.258,-70.312,-70.801,910.505,417.1947444352407
491,1686879682.6,-43.457,281.25,-20.508,20.02,910.514,410.5495908594644
492,1686879682.6,-85.938,-33.203,6.348,-78.125,910.508,411.27823398562094
493,1686879682.6,-26.855,5.859,-30.762,44.434,910.518,413.3831296644817
494,1686879682.61,-56.641,-138.672,-9.766,-46.387,910.522,412.14230365266525
495,1686879682.61,-76.66,36.133,-28.809,-94.727,910.526,414.437632803115
496,1686879682.62,-57.129,-14.648,-35.156,-17.578,910.53,414.5797527565669
497,1686879682.62,-36.133,-578.125,-81.055,31.738,910.534,415.64754890035186
498,1686879682.62,-58.105,-840.82,-26.367,-44.434,910.538,411.9285990334947
499,1686879682.63,-95.215,-170.41,34.668,-112.305,910.541,413.1938254319129
500,1686879682.63,-86.426,84.473,-29.785,-57.617,910.545,407.1779517216747
501,1686879682.64,-53.711,-543.457,-45.41,29.785,910.549,410.10747589013096
502,1686879682.64,-59.57,-585.938,6.348,-17.09,910.553,411.98967022167545
503,1686879682.64,-87.402,216.797,6.836,-108.887,910.557,421.44772255122325
504,1686879682.66,-82.031,106.934,-46.875,-76.66,910.558,404.5978717826197
505,1686879682.66,-41.992,-69.824,-10.742,11.719,910.562,407.89254130793114
506,1686879682.67,-27.832,178.223,1.465,1.953,910.566,409.7930364652244
507,1686879682.67,-75.684,250.0,-29.785,-100.098,910.569,410.66346756130343
508,1686879682.68,-104.004,-36.621,-61.523,-111.816,910.573,413.3703339437231
509,1686879682.68,-64.941,-429.688,-40.527,-2.441,910.577,407.5376877133918
510,1686879682.68,-35.645,-325.684,9.766,23.926,910.581,408.48172914270043
511,1686879682.69,-76.66,91.797,5.371,-67.383,910.585,406.1667426209586
512,1686879682.69,-105.469,-84.961,-66.895,-103.027,910.589,408.164143272017
513,1686879682.7,-70.801,-527.832,-28.32,-19.531,910.593,413.26159741385135
514,1686879682.7,-33.691,-79.102,30.273,43.457,910.597,409.9432829421811
515,1686879682.7,-51.758,58.594,-45.41,-20.508,910.601,410.7638364358436
516,1686879682.7,-84.961,-456.543,-70.312,-90.332,910.602,406.92997165821225
517,1686879682.71,-65.918,-467.773,-9.766,-36.133,910.605,407.72932683477416
518,1686879682.71,-20.02,213.867,28.32,49.805,910.609,414.2017052374604
519,1686879682.72,-32.715,295.898,-47.363,12.207,910.613,402.5383728180007
520,1686879682.72,-80.566,-228.027,-37.598,-86.426,910.617,403.69280137924414
521,1686879682.72,-88.379,-488.281,-1.953,-65.43,910.621,410.3474173724836
522,1686879682.73,-54.199,-263.184,-4.883,31.738,910.625,406.1677717062919
523,1686879682.73,-42.969,75.684,-9.277,26.367,910.629,407.58945137736
524,1686879682.74,-73.73,-424.316,-78.125,-61.523,910.633,413.0779861448036
525,1686879682.74,-90.82,-838.867,-3.906,-81.055,910.637,406.55952647121546
526,1686879682.74,-51.27,103.516,63.965,-6.348,910.641,416.27871283372104
527,1686879682.75,-24.902,389.16,-26.855,36.133,910.645,407.30200048262606
528,1686879682.75,-62.012,65.918,-40.039,-40.527,910.652,407.6242546208582
529,1686879682.76,-88.867,-139.16,-21.484,-85.449,910.656,405.3967449305566
530,1686879682.76,-65.43,-16.602,0.0,-11.719,910.66,417.45692935825775
531,1686879682.76,-31.738,193.359,-25.391,49.316,910.664,416.05201453126745
532,1686879682.77,-51.758,-213.379,-34.18,-14.648,910.668,412.37797159056555
533,1686879682.77,-89.844,-472.168,-8.789,-93.262,910.672,409.4490708117931
534,1686879682.78,-79.59,-84.961,0.977,-46.387,910.676,414.88439846691085
535,1686879682.78,-51.758,131.836,-47.363,35.156,910.68,418.9552853428679
536,1686879682.78,-62.012,-520.996,-43.457,14.16,910.683,418.7652476031684
537,1686879682.79,-100.098,-270.996,40.527,-71.289,910.687,416.53463822812296
538,1686879682.79,-110.84,266.113,-12.695,-73.73,910.691,427.609911184541
539,1686879682.8,-65.918,-8.301,-16.602,27.832,910.692,411.9905959480912
540,1686879682.8,-78.613,12.695,-32.715,13.672,910.695,420.9988653206642
541,1686879682.8,-83.008,181.152,-18.555,-49.316,910.695,412.57773879142525
542,1686879682.8,-99.609,198.242,-39.062,-75.195,910.699,417.82456222235356
543,1686879682.81,-77.637,-247.559,-31.738,10.254,910.703,416.46154291017416
544,1686879682.81,-42.48,-499.023,12.695,52.734,910.707,415.80310790366104
545,1686879682.82,-61.035,-255.371,-8.789,-23.438,910.711,416.8908937060236
546,1686879682.82,-94.238,-268.066,-10.742,-81.543,910.715,420.8550107705703
547,1686879682.82,-76.172,-565.43,-38.574,-18.066,910.719,420.9692660186945
548,1686879682.83,-46.387,-1000.0,-37.109,56.152,910.723,427.3357643051105
549,1686879682.83,-57.129,-426.758,62.012,-8.301,910.727,421.9823456005286
550,1686879682.83,-89.355,285.156,3.418,-101.074,910.731,430.0998057930011
551,1686879682.84,-89.355,64.941,-25.391,-63.477,910.734,424.61055836516374
552,1686879682.84,-49.805,236.816,15.137,34.668,910.739,422.944866074906
553,1686879682.85,-47.852,460.449,-9.766,17.578,910.742,426.967224036013
554,1686879682.85,-85.938,216.797,-41.504,-73.242,910.746,422.41638501837343
555,1686879682.85,-88.867,-30.762,-21.484,-69.824,910.75,418.49640479448266
556,1686879682.86,-54.199,166.504,-8.301,26.367,910.754,427.0993198729558
557,1686879682.86,-34.18,19.531,-40.039,54.199,910.758,426.3785540342246
558,1686879682.86,-58.105,-240.234,-52.734,-40.527,910.762,425.47518006313226
559,1686879682.87,-93.75,-798.34,-61.523,-82.031,910.766,424.9268722038389
560,1686879682.87,-67.871,-537.598,28.32,0.488,910.77,419.62118308306304
561,1686879682.88,-27.832,444.336,17.09,46.387,910.774,422.95427654645516
562,1686879682.88,-64.453,141.602,-52.734,-25.879,910.778,415.3231184062179
563,1686879682.88,-101.562,-150.879,-30.762,-90.82,910.782,403.4992633697838
564,1686879682.88,-67.383,224.609,7.324,-34.668,910.782,415.2830810084142
565,1686879682.89,-34.668,401.367,-15.625,38.574,910.786,410.569866357789
566,1686879682.89,-54.688,54.199,-20.508,-12.207,910.789,410.00726311500677
567,1686879682.9,-89.355,-126.465,11.23,-91.797,910.793,415.79615301177864
568,1686879682.9,-84.961,-80.566,-18.555,-61.035,910.797,401.03184481182734
569,1686879682.9,-49.316,-94.238,-16.113,20.02,910.801,408.55501937431694
570,1686879682.91,-43.945,-478.516,-61.523,15.137,910.805,400.9602940818063
571,1686879682.91,-84.961,-951.172,-15.137,-76.66,910.809,403.04773970230366
572,1686879682.92,-90.332,-176.758,63.965,-91.309,910.813,391.31854632121235
573,1686879682.92,-45.41,191.406,-22.949,3.418,910.817,400.56385547998207
574,1686879682.92,-32.715,-219.727,-1.465,28.809,910.821,404.3410882964941
575,1686879682.93,-71.289,-40.039,36.133,-63.477,910.825,393.4064901845289
576,1686879682.93,-93.262,349.121,-3.418,-104.98,910.84,397.53150431130337
577,1686879682.94,-63.965,187.5,-36.133,-18.555,910.844,401.20070663565
578,1686879682.94,-34.18,39.062,-21.973,38.086,910.848,401.35060537350375
579,1686879682.94,-57.129,191.895,-4.395,-30.273,910.852,392.70109417037474
580,1686879682.95,-94.727,186.523,-26.367,-111.816,910.856,391.0510653769959
581,1686879682.95,-78.613,-169.434,-64.453,-61.523,910.86,394.5538248390399
582,1686879682.95,-41.016,-650.391,-20.508,28.32,910.864,383.4784651783385
583,1686879682.96,-42.969,-221.68,44.434,-6.348,910.868,394.7872243480424
584,1686879682.96,-88.379,317.871,-22.949,-92.773,910.871,391.42138415237525
585,1686879682.97,-98.145,-22.461,-61.035,-72.754,910.875,388.5765323144491
586,1686879682.97,-65.43,-69.336,-28.809,7.324,910.879,398.1906798819836
587,1686879682.97,-53.223,74.707,-36.133,7.324,910.883,401.3801019293134
588,1686879682.98,-80.078,0.488,-47.852,-78.613,910.886,400.0209977434142
589,1686879682.98,-105.469,-366.699,-50.781,-109.375,910.89,394.0384203862431
590,1686879682.98,-73.242,-472.168,-4.883,-25.879,910.894,408.5637129538895
591,1686879682.99,-41.992,169.434,-6.836,14.16,910.898,413.6101725528916
592,1686879682.99,-74.219,41.504,-58.105,-68.359,910.902,408.37311902466297
593,1686879683.0,-103.516,-630.371,-73.73,-116.699,910.905,423.52489475930514
594,1686879683.0,-68.359,-854.004,-19.043,-30.273,910.909,414.21153713469295
595,1686879683.0,-27.832,-27.344,45.41,21.973,910.913,419.59603340802505
596,1686879683.01,-51.27,285.156,-66.406,-46.875,910.917,410.8503017669437
597,1686879683.01,-93.75,-372.559,-55.176,-116.211,910.921,418.3286038276772
598,1686879683.02,-88.379,-276.855,25.391,-78.125,910.925,434.50884012436916
599,1686879683.02,-42.969,317.871,-12.695,-4.395,910.929,434.69991278264945
600,1686879683.04,-33.691,201.66,-56.641,-21.484,910.934,457.4223284833935
601,1686879683.04,-75.684,-141.602,-45.41,-103.516,910.938,450.8062682935769
602,1686879683.04,-93.262,-309.57,-13.184,-104.98,910.942,450.3635285290742
603,1686879683.05,-58.105,-12.207,-0.488,-10.742,910.945,459.0918682202927
604,1686879683.05,-36.621,154.785,-56.641,16.113,910.949,460.3849027850264
605,1686879683.06,-66.895,-598.633,-58.594,-69.336,910.953,456.99469889413155
606,1686879683.06,-86.914,-646.484,16.113,-103.027,910.957,467.1376846277448
607,1686879683.06,-52.734,112.305,8.789,-24.902,910.961,459.88592388112187
608,1686879683.07,-24.414,30.762,-63.477,17.09,910.965,466.2318279360601
609,1686879683.07,-52.246,-541.504,-52.246,-56.641,910.969,466.1416062688056
610,1686879683.08,-84.473,-220.215,22.461,-127.441,910.973,462.219237091217
611,1686879683.08,-59.082,136.719,-21.973,-64.941,910.977,462.99601624044453
612,1686879683.08,-25.879,-91.797,-22.461,16.602,910.977,466.56081064758774
613,1686879683.08,-45.898,-137.207,-7.324,-25.879,910.981,469.20391507678124
614,1686879683.09,-89.355,67.871,-18.066,-107.422,910.985,473.85274326148954
615,1686879683.09,-89.844,54.688,-38.574,-73.73,910.989,467.1149264620684
616,1686879683.1,-54.199,-249.512,-35.645,19.531,910.993,470.9441254641705
617,1686879683.1,-50.781,-419.434,-15.625,3.418,910.997,469.9838883432192
618,1686879683.1,-82.031,-425.781,-47.852,-90.82,911.0,467.6214585825783
619,1686879683.11,-82.52,-459.473,-37.598,-92.285,911.004,468.408579241787
620,1686879683.11,-49.805,-637.207,-53.223,4.883,911.008,468.7748187708111
621,1686879683.12,-38.086,-1000.0,-53.223,33.203,911.012,464.61594002380014
622,1686879683.12,-62.988,-487.793,35.156,-63.477,911.016,468.4046635372933
623,1686879683.12,-77.637,109.375,-15.137,-119.141,911.02,460.55709662249797
624,1686879683.13,-54.688,-41.016,-43.457,-34.668,911.023,465.58200768906136
625,1686879683.13,-26.855,151.855,-11.23,23.438,911.027,471.52379000985616
626,1686879683.14,-34.668,286.133,-30.273,-43.945,911.031,456.02898080247627
627,1686879683.14,-65.918,40.039,-60.059,-103.516,911.035,458.83904789670987
628,1686879683.14,-60.059,-143.066,-47.852,-44.922,911.039,460.0246625222029
629,1686879683.15,-25.879,-144.531,-28.809,29.297,911.043,450.7957782855775
630,1686879683.15,-36.133,-117.676,-11.719,-21.484,911.047,446.1002052912615
631,1686879683.15,-76.66,-153.32,-55.176,-104.004,911.051,453.4738494192502
632,1686879683.16,-82.52,-850.098,-83.008,-69.336,911.055,463.747319820279
633,1686879683.16,-44.922,-523.926,37.598,25.391,911.059,452.64264681488817
634,1686879683.17,-41.504,367.676,0.0,16.113,911.062,451.1120659177969
635,1686879683.17,-93.75,-243.164,-34.668,-104.492,911.081,443.64813384118355
636,1686879683.17,-84.473,-23.438,-66.895,-85.938,911.066,441.7609609446781
637,1686879683.17,-56.641,193.359,-6.348,-10.742,911.085,445.12477067776615
638,1686879683.18,-41.992,320.801,-28.809,25.879,911.088,441.34679496760225
639,1686879683.18,-77.148,-29.297,-49.316,-46.387,911.092,438.55095824703363
640,1686879683.19,-104.492,-441.406,-25.879,-93.262,911.096,442.3482068106558
641,1686879683.19,-77.637,-399.902,-23.438,-20.508,911.1,423.12555486173244
642,1686879683.19,-46.875,-163.574,-24.902,42.48,911.104,426.00594081982075
643,1686879683.2,-67.871,-531.25,-72.266,-20.508,911.108,423.2343675221697
644,1686879683.2,-100.586,-949.219,-14.16,-93.75,911.112,418.24672107971224
645,1686879683.2,-85.449,-241.211,58.105,-53.711,911.116,413.19770266710367
646,1686879683.21,-51.758,105.469,-34.18,22.949,911.12,410.80823576968726
647,1686879683.21,-52.734,-239.746,-15.625,3.906,911.124,412.24323624945936
648,1686879683.22,-88.379,-104.98,9.277,-86.426,911.114,395.60322182087884
649,1686879683.22,-93.262,286.621,-17.578,-80.078,911.118,398.8029823017876
650,1686879683.22,-48.34,164.551,-45.898,14.16,911.122,396.0998837833316
651,1686879683.23,-41.016,11.23,-21.484,11.23,911.126,396.3569644590415
652,1686879683.23,-82.031,98.145,-25.879,-79.102,911.129,388.27522880117687
653,1686879683.24,-98.145,-102.539,-58.594,-99.609,911.133,381.2346353265143
654,1686879683.24,-64.453,-327.148,-50.293,-5.859,911.137,382.734673753691
655,1686879683.24,-41.992,-419.434,-22.461,42.969,911.141,383.14464123794403
656,1686879683.25,-67.383,-64.941,5.859,-43.945,911.145,366.77081244860074
657,1686879683.25,-92.285,255.371,-21.973,-105.469,911.149,367.6968313942106
658,1686879683.26,-71.777,-165.039,-76.66,-30.273,911.153,370.60178177715187
659,1686879683.26,-30.762,-519.531,-55.664,48.34,911.157,358.08430062609506
660,1686879683.28,-25.879,-183.594,1.953,-2.93,911.175,358.5139857792909
661,1686879683.28,-69.336,-27.832,-32.227,-89.355,911.179,355.91872363525925
662,1686879683.28,-86.914,-353.027,-48.34,-57.129,911.183,350.32001091810827
663,1686879683.29,-45.898,-388.672,-10.254,32.715,911.186,354.43818848660277
664,1686879683.29,-45.41,-83.984,-19.531,11.719,911.19,355.0070084826194
665,1686879683.3,-84.473,-242.188,-48.34,-79.102,911.194,344.73589590033174
666,1686879683.3,-82.52,-608.887,-65.918,-75.195,911.198,348.0480550611578
667,1686879683.3,-41.504,-940.918,-12.695,14.16,911.202,348.1548780700615
668,1686879683.31,-20.02,-80.566,58.594,30.762,911.206,352.9629369984566
669,1686879683.31,-25.879,394.043,-9.277,33.203,911.215,348.88076160833674
670,1686879683.31,-53.711,337.402,-39.062,-54.688,911.21,346.74508781299454
671,1686879683.31,-51.758,255.371,-49.316,-38.574,911.219,351.63715228287435
672,1686879683.32,-83.984,-96.68,-59.57,-92.773,911.214,349.1494385974979
673,1686879683.32,-81.055,-122.559,-51.27,-105.469,911.223,349.38164450788497
674,1686879683.32,-51.758,-1.465,-11.23,-16.602,911.218,352.380898477158
675,1686879683.32,-61.035,-182.129,-12.207,-45.898,911.227,346.83452100088624
676,1686879683.32,-28.809,99.121,-6.836,25.391,911.231,351.97836255754385
677,1686879683.33,-40.527,-41.504,-61.035,-15.137,911.235,353.18414828166834
678,1686879683.33,-76.66,-384.277,-32.715,-96.191,911.239,353.6921957753355
679,1686879683.33,-73.242,-67.383,3.418,-66.895,911.242,349.05021223122253
680,1686879683.34,-21.484,273.926,-5.371,32.227,911.246,352.5209942871211
681,1686879683.34,-10.254,48.34,-84.473,28.32,911.25,351.7053222960292
682,1686879683.35,-57.129,-816.895,-96.68,-60.059,911.254,350.4266374640623
683,1686879683.35,-70.312,-510.254,51.758,-78.125,911.258,362.65452494538835
684,1686879683.35,-42.969,272.461,3.418,-2.441,911.261,359.74117325712564
685,1686879683.35,-32.715,7.812,-27.832,17.578,911.265,352.2160632768464
686,1686879683.36,-64.941,-90.82,13.672,-70.801,911.269,356.74503508803946
687,1686879683.36,-86.914,111.328,-24.414,-120.117,911.273,354.0667863701684
688,1686879683.37,-53.223,-62.988,-42.969,-42.48,911.277,350.6326447360676
689,1686879683.37,-33.691,-571.777,-67.871,25.391,911.28,352.5150259826244
690,1686879683.37,-62.5,-952.148,-28.32,-39.551,911.284,363.59464914885115
691,1686879683.38,-89.844,-437.988,41.504,-115.234,911.288,355.8432124997423
692,1686879683.38,-73.242,195.801,-14.16,-71.289,911.292,364.8545274542167
693,1686879683.38,-46.875,-304.199,-50.781,16.113,911.296,351.76563300314035
694,1686879683.39,-60.547,-408.691,12.207,-18.066,911.3,363.26068146924905
695,1686879683.39,-92.285,310.059,-0.977,-112.793,911.304,360.3045514213926
696,1686879683.41,-92.773,197.266,-57.617,-97.168,911.307,364.37253244387716
697,1686879683.41,-52.734,32.715,-20.508,12.207,911.311,367.8611831253456
698,1686879683.42,-42.969,148.926,-5.371,24.414,911.315,366.0167990356248
699,1686879683.42,-75.195,201.172,-34.668,-76.172,911.319,369.02821709402616
700,1686879683.43,-89.844,9.277,-51.27,-91.797,911.323,368.3907462428327
701,1686879683.43,-59.082,-408.203,-34.18,6.348,911.327,374.40819248925595
702,1686879683.43,-34.668,-242.188,11.23,41.992,911.33,376.4651524813893
703,1686879683.44,-55.664,158.203,-6.836,-39.062,911.334,375.02854634613306
704,1686879683.44,-83.008,-173.34,-92.285,-91.797,911.338,375.99389454846573
705,1686879683.44,-64.941,-787.109,-49.805,-15.137,911.342,371.48010359993265
706,1686879683.45,-30.273,-237.305,65.43,52.734,911.346,376.2393724242135
707,1686879683.45,-40.039,354.492,-16.602,-8.789,911.35,380.90380353029656
708,1686879683.46,-79.102,-91.309,-48.828,-83.496,911.352,375.2945287599265
709,1686879683.46,-79.59,-198.73,-13.672,-44.434,911.355,373.95713535590227
710,1686879683.46,-37.109,207.52,-0.977,52.734,911.359,378.6183926267468
711,1686879683.47,-34.668,296.387,-38.086,26.855,911.363,375.31923403035466
712,1686879683.47,-74.219,-358.398,-65.918,-68.359,911.367,379.0744203944998
713,1686879683.48,-75.684,-796.387,-2.93,-59.082,911.371,386.0630928157373
714,1686879683.48,-41.504,-297.852,34.18,24.902,911.375,381.67259816683026
715,1686879683.48,-30.762,211.914,0.977,22.949,911.379,380.16445243940854
716,1686879683.49,-75.684,-363.281,-66.895,-68.359,911.383,383.3336871492707
717,1686879683.49,-108.398,-738.281,0.488,-97.168,911.387,381.0512723495637
718,1686879683.49,-64.941,107.422,29.297,-19.043,911.391,383.54729814065
719,1686879683.5,-39.062,121.582,-55.664,37.598,911.395,382.09802815023426
720,1686879683.5,-77.148,-265.137,-19.043,-35.645,911.399,381.33849729289625
721,1686879683.51,-111.816,-102.539,20.508,-101.562,911.403,389.49275217391136
722,1686879683.51,-86.426,290.527,-12.695,-35.156,911.407,394.23145037552797
723,1686879683.51,-45.898,175.293,-39.551,28.809,911.411,395.0480227820076
724,1686879683.52,-62.988,-60.547,-42.969,-28.32,911.415,390.47454442337715
725,1686879683.52,-91.309,-209.473,-35.645,-104.492,911.418,393.16388702052205
726,1686879683.52,-82.52,-261.719,-17.578,-63.965,911.422,386.423956399979
727,1686879683.53,-56.152,-214.844,-57.129,20.508,911.426,388.1389644227136
728,1686879683.53,-48.34,-595.703,-42.48,-8.301,911.43,391.778380241178
729,1686879683.54,-82.031,-249.023,31.25,-102.539,911.434,385.50305697774473
730,1686879683.54,-98.633,321.777,-24.414,-103.516,911.438,389.51706307077706
731,1686879683.54,-58.594,68.848,-43.457,-11.23,911.442,384.6899858216891
732,1686879683.55,-37.598,45.41,-29.785,19.043,911.444,383.83411541771716
733,1686879683.55,-77.637,61.523,-46.387,-56.641,911.448,390.4968714359345
734,1686879683.55,-97.168,-2.441,-43.457,-95.703,911.452,385.9386234011268
735,1686879683.56,-66.406,-270.996,-48.828,-10.742,911.456,397.3947998009273
736,1686879683.56,-41.504,-535.645,-16.113,45.898,911.46,390.31321007081186
737,1686879683.57,-57.617,-276.367,-19.043,-29.785,911.464,392.8819382728816
738,1686879683.57,-91.309,-208.008,-39.551,-101.074,911.468,395.05151319617664
739,1686879683.57,-80.566,-542.48,-66.895,-41.504,911.472,390.2824301494537
740,1686879683.58,-49.316,-919.922,-15.137,42.48,911.476,396.01236560911315
741,1686879683.58,-60.547,-46.875,49.805,-16.602,911.48,398.0422460482461
742,1686879683.58,-101.562,304.199,-42.969,-105.957,911.484,391.31284956841944
743,1686879683.59,-93.75,-5.859,-33.691,-69.336,911.487,392.955961808069
744,1686879683.59,-44.434,232.422,3.906,29.785,911.489,400.93173059571427
745,1686879683.6,-45.41,462.402,-33.691,24.902,911.493,400.67513761310556
746,1686879683.6,-95.215,228.027,-58.594,-85.449,911.497,392.27538618043286
747,1686879683.6,-109.863,-83.984,-17.578,-107.422,911.501,393.9637201026231
748,1686879683.61,-69.824,-61.523,-9.277,-12.695,911.504,394.4437713369817
749,1686879683.61,-41.992,-51.27,-32.715,26.367,911.508,394.91550371521936
750,1686879683.62,-71.289,-83.496,-47.852,-49.805,911.512,390.46357704778086
751,1686879683.62,-102.051,-735.352,-77.148,-99.609,911.516,388.44197716989635
752,1686879683.62,-77.148,-592.285,16.602,-32.715,911.52,389.55633437080786
753,1686879683.63,-35.645,437.5,19.531,23.438,911.524,387.5743958271736
754,1686879683.63,-55.664,214.844,-68.359,-41.016,911.528,400.911915492473
755,1686879683.64,-101.074,-55.176,-35.645,-110.84,911.532,386.7330457391406
756,1686879683.64,-90.332,217.285,-8.789,-60.059,911.531,394.851131762702
757,1686879683.64,-52.734,298.828,-31.25,17.578,911.535,395.5930370252431
758,1686879683.64,-53.711,41.504,-29.785,-20.508,911.539,396.29025102974276
759,1686879683.65,-97.656,-83.984,-23.926,-110.352,911.543,402.1307675912606
760,1686879683.65,-107.91,-75.195,-41.504,-87.402,911.547,396.0334038317572
761,1686879683.66,-67.871,-171.387,-30.762,12.207,911.551,401.2145552032561
762,1686879683.66,-67.383,-479.98,-71.289,14.16,911.555,401.03028044457506
763,1686879683.66,-108.398,-1000.0,-75.195,-80.566,911.559,401.47479172481115
764,1686879683.67,-104.492,-551.27,26.367,-105.957,911.563,403.6981742822156
765,1686879683.67,-65.43,308.594,-5.859,-17.578,911.566,393.40544459142257
766,1686879683.67,-50.293,221.68,-49.805,26.855,911.57,407.570770810731
767,1686879683.68,-73.242,203.613,-13.184,-53.711,911.574,405.74706318587846
768,1686879683.68,-95.215,329.59,-17.578,-110.352,911.59,395.46185634249787
769,1686879683.68,-74.219,210.938,-46.387,-29.297,911.594,388.52774892242473
770,1686879683.69,-43.457,72.266,-32.227,48.828,911.598,399.7749446378812
771,1686879683.69,-52.734,158.203,-19.043,-16.602,911.601,395.4638812222455
772,1686879683.7,-87.402,133.789,-37.598,-102.539,911.605,394.7498512264301
773,1686879683.7,-81.543,-163.574,-53.711,-59.082,911.609,405.6571932091396
774,1686879683.7,-44.922,-626.465,-12.207,38.574,911.613,402.63823057342523
775,1686879683.71,-35.156,-250.977,39.062,11.23,911.617,397.99647159189595
776,1686879683.71,-70.312,267.09,-17.09,-90.332,911.621,395.53241414668224
777,1686879683.72,-92.285,-177.734,-71.289,-86.426,911.625,399.09400917330083
778,1686879683.72,-56.641,-481.934,-58.594,4.883,911.629,401.06720770772677
779,1686879683.72,-41.016,5.859,7.324,15.137,911.633,400.77728515020743
780,1686879683.72,-77.148,299.316,-30.273,-71.289,911.636,397.63782778523233
781,1686879683.73,-103.516,-101.074,-36.133,-101.562,911.64,400.6887363188973
782,1686879683.73,-67.871,-127.93,17.578,-16.602,911.644,403.78032670877633
783,1686879683.74,-36.133,284.668,-26.855,30.273,911.648,405.19010133153864
784,1686879683.74,-58.105,103.516,-45.898,-42.48,911.652,401.74533782897157
785,1686879683.74,-84.473,-580.078,-76.172,-89.355,911.656,398.43254219625277
786,1686879683.75,-70.801,-944.336,-12.207,-30.273,911.66,398.42041482740035
787,1686879683.75,-31.25,-80.566,77.148,31.25,911.663,397.2253453752136
788,1686879683.76,-42.969,390.625,-35.645,-20.508,911.667,408.21207350896776
789,1686879683.76,-85.938,-98.633,-45.41,-104.492,911.671,399.174043373763
790,1686879683.76,-79.59,-12.695,9.277,-74.219,911.675,395.88843849741846
791,1686879683.77,-41.992,257.324,-30.273,14.648,911.679,401.370915024871
792,1686879683.8,-48.34,5.371,-58.594,9.277,911.698,397.4212765894203
793,1686879683.8,-87.402,-362.305,-17.578,-71.777,911.702,413.1204268708454
794,1686879683.81,-92.285,-176.27,20.02,-90.82,911.706,401.6474171428497
795,1686879683.81,-47.363,255.859,-15.625,-3.418,911.71,403.7768051603629
796,1686879683.82,-26.367,113.77,-45.898,29.297,911.713,406.96757194391336
797,1686879683.82,-57.617,-408.203,-31.25,-56.641,911.717,408.158392029477
798,1686879683.82,-73.242,-353.027,0.977,-90.82,911.721,409.2528861240224
799,1686879683.83,-44.434,198.242,1.465,-3.418,911.725,402.02023368174673
800,1686879683.83,-41.504,-68.848,-34.668,30.273,911.727,393.9527748085291
801,1686879683.83,-21.484,15.137,-69.336,46.387,911.729,405.1350422815297
802,1686879683.83,-45.898,-172.363,-21.484,-9.277,911.731,398.33016588740975
803,1686879683.84,-47.363,-536.133,-43.945,-31.25,911.733,400.4387566706982
804,1686879683.84,-78.613,-193.359,-38.574,-85.938,911.735,401.0143980371217
805,1686879683.84,-73.73,-168.945,25.879,-94.727,911.737,404.93194712858707
806,1686879683.84,-70.801,-170.898,-29.785,-64.941,911.739,399.90316160432263
807,1686879683.84,-63.477,209.961,-23.438,-41.016,911.741,401.8077921969684
808,1686879683.85,-31.25,-403.32,-50.293,26.367,911.743,405.3225821354547
809,1686879683.85,-31.738,-824.707,-29.297,13.184,911.747,399.0704333906489
810,1686879683.85,-54.688,-456.055,18.066,-81.543,911.75,394.3976869389656
811,1686879683.86,-60.547,-92.285,-22.461,-87.891,911.754,401.34736058860824
812,1686879683.86,-35.645,-174.805,-26.855,0.488,911.758,396.9281866131946
813,1686879683.86,-23.438,-77.637,2.93,25.391,911.762,397.7039766455116
814,1686879683.87,-52.734,234.375,-28.809,-65.43,911.766,399.844853540606
815,1686879683.87,-83.496,149.414,-50.293,-106.445,911.77,400.6653644528485
816,1686879683.88,-65.918,-570.801,-66.406,-23.438,911.773,402.4923140469245
817,1686879683.88,-32.715,-674.805,8.301,41.504,911.777,399.4832012865278
818,1686879683.88,-48.34,191.895,19.043,-32.715,911.781,407.96543037283504
819,1686879683.89,-82.52,104.004,-55.664,-103.516,911.785,404.48580722564594
820,1686879683.89,-72.754,-200.684,-40.039,-52.734,911.789,402.39734890086055
821,1686879683.9,-44.434,-147.949,-30.273,17.09,911.793,404.72396462063097
822,1686879683.9,-46.387,-185.547,-31.738,-4.883,911.797,404.11215985878175
823,1686879683.9,-82.031,-266.602,-52.734,-92.773,911.801,407.51495554902436
824,1686879683.91,-93.262,-813.965,-58.594,-69.824,911.805,410.22785764659227
825,1686879683.91,-54.199,-545.898,44.434,20.996,911.809,407.00123059395423
826,1686879683.92,-29.785,391.113,14.16,11.23,911.812,411.7081352457184
827,1686879683.92,-65.43,52.734,-69.824,-72.754,911.816,404.30454760794436
828,1686879683.92,-91.797,-168.457,-32.227,-99.121,911.816,409.3351551428765
829,1686879683.92,-54.199,222.168,-0.488,-16.602,911.82,402.8890148752695
830,1686879683.93,-20.996,291.992,-31.738,23.926,911.824,403.96296747682936
831,1686879683.93,-53.711,-53.711,-35.156,-61.035,911.828,403.3814642795041
832,1686879683.94,-98.145,-386.719,-14.648,-131.836,911.832,404.20662256432934
833,1686879683.94,-75.195,-319.336,-27.832,-58.105,911.836,409.27036452823114
834,1686879683.94,-34.668,-252.93,-33.203,17.09,911.84,401.7785079619666
835,1686879683.95,-48.828,-587.402,-55.176,-32.227,911.844,410.29548418335133
836,1686879683.95,-85.449,-1000.0,-57.129,-97.656,911.848,406.844501912984
837,1686879683.96,-72.754,-533.691,40.039,-62.988,911.852,401.55304204178225
838,1686879683.96,-24.902,291.016,4.395,26.367,911.856,404.7703594904206
839,1686879683.96,-18.555,125.977,-44.434,18.555,911.859,405.25814981848544
840,1686879683.98,-62.988,76.172,-4.883,-68.848,911.873,403.73979349436576
841,1686879683.98,-80.078,271.484,-16.113,-78.125,911.877,397.1706413577499
842,1686879683.98,-47.852,193.359,-32.715,18.555,911.881,406.4363466466334
843,1686879683.99,-39.062,51.758,-20.02,34.668,911.884,409.06563446978026
844,1686879683.99,-76.172,29.785,-30.273,-58.105,911.888,400.48597897600786
845,1686879684.0,-91.797,-177.246,-48.34,-89.844,911.892,408.3942906028073
846,1686879684.0,-45.41,-274.414,-55.176,5.371,911.896,410.68447903709756
847,1686879684.0,-12.207,-588.867,-29.297,70.312,911.9,403.9260813813026
848,1686879684.01,-37.598,-289.551,36.133,-19.043,911.904,403.60409087072344
849,1686879684.01,-22.949,69.336,14.648,-0.488,911.906,414.86169656256726
850,1686879684.01,-68.359,183.105,-24.902,-98.633,911.908,407.16956205327966
851,1686879684.01,-71.777,296.875,-33.691,-89.355,911.91,411.4240964410234
852,1686879684.02,-56.152,-274.902,-74.707,-29.297,911.912,403.3093714001151
853,1686879684.02,-65.918,-252.441,-50.293,-60.059,911.914,396.03680185133595
854,1686879684.02,-7.812,-478.516,-31.25,52.246,911.916,399.30902888668663
855,1686879684.02,-27.832,-335.449,-3.906,26.855,911.918,404.17355000619455
856,1686879684.03,-25.879,-29.297,-23.926,14.648,911.922,402.9768898493299
857,1686879684.03,-60.059,-296.875,-53.223,-69.824,911.926,406.02433376907834
858,1686879684.03,-77.148,-617.676,-66.406,-73.73,911.93,401.6609668529252
859,1686879684.04,-50.781,-1000.0,-48.828,21.484,911.934,414.1332333934807
860,1686879684.04,-25.879,-548.34,40.527,26.367,911.938,405.01516439485226
861,1686879684.04,-59.082,193.848,-4.395,-65.43,911.942,415.28120414435176
862,1686879684.05,-87.891,-20.996,-33.691,-101.074,911.945,412.27661878435623
863,1686879684.05,-64.941,72.754,1.953,-23.438,911.949,402.75045933436854
864,1686879684.06,-34.668,197.266,-49.316,26.367,911.965,404.63117282686034
865,1686879684.06,-49.316,-69.336,-70.801,-50.293,911.969,399.99099057042133
866,1686879684.07,-88.867,-404.297,-12.207,-116.211,911.973,410.20374225249185
867,1686879684.07,-74.219,-152.832,24.414,-51.758,911.977,398.77044542810944
868,1686879684.07,-40.039,197.266,-24.414,31.738,911.981,404.87972151289335
869,1686879684.08,-50.293,-148.438,-77.637,-0.488,911.985,412.86429512813334
870,1686879684.08,-96.68,-669.922,-38.086,-86.914,911.989,402.11619794633395
871,1686879684.08,-93.75,-357.91,43.457,-69.824,911.993,407.30182220102904
872,1686879684.09,-44.434,314.941,4.395,33.203,911.996,405.20734720725153
873,1686879684.09,-41.992,65.43,-62.5,26.367,912.0,403.9676530538114
874,1686879684.1,-72.266,-249.512,-57.617,-70.801,912.004,406.38199473354905
875,1686879684.1,-48.828,174.805,-21.973,17.578,912.012,401.79836458111765
876,1686879684.1,-81.055,10.742,-11.719,-81.543,912.008,402.8356177171483
877,1686879684.1,-26.367,-83.496,-24.902,49.805,912.016,408.2976624737212
878,1686879684.11,-58.594,-252.93,-11.719,-38.086,912.02,400.5605152725996
879,1686879684.11,-90.82,-270.508,-38.574,-87.891,912.024,406.6236109283249
880,1686879684.12,-70.312,-393.555,-35.156,-7.812,912.027,408.70297858980683
881,1686879684.12,-46.387,-587.402,-55.176,59.57,912.031,402.180991480774
882,1686879684.12,-66.406,-1000.0,-51.27,6.348,912.035,403.77400875004673
883,1686879684.13,-89.844,-657.715,37.109,-69.336,912.039,405.8787115351897
884,1686879684.13,-72.266,82.031,-5.371,-33.691,912.043,400.5882992057849
885,1686879684.14,-31.738,-209.473,-22.461,56.641,912.047,405.60262983462576
886,1686879684.14,-37.598,-242.676,9.766,28.809,912.051,407.9870032111091
887,1686879684.14,-83.008,97.656,-35.156,-59.082,912.055,403.91360735000677
888,1686879684.16,-84.961,8.789,-36.621,-43.945,912.058,403.99552407471646
889,1686879684.16,-54.199,-80.566,-21.973,34.668,912.062,411.7427501103764
890,1686879684.17,-49.805,92.773,-12.207,35.156,912.066,406.72576020077463
891,1686879684.17,-83.008,202.637,-25.879,-54.688,912.069,405.60916548204125
892,1686879684.18,-90.82,-31.738,-63.965,-80.078,912.073,401.4618896560438
893,1686879684.18,-54.199,-453.613,-29.785,16.113,912.077,402.5387761152631
894,1686879684.18,-32.227,-441.406,10.742,56.152,912.081,402.23689905396753
895,1686879684.19,-59.57,-156.738,-7.812,-38.086,912.085,401.84266737285407
896,1686879684.19,-86.914,-161.133,-53.711,-95.703,912.089,406.5009794581777
897,1686879684.2,-68.359,-856.934,-72.266,-6.836,912.093,403.3220033496624
898,1686879684.2,-36.621,-564.453,44.922,63.477,912.097,403.7085277281509
899,1686879684.2,-41.016,264.648,6.348,1.465,912.101,403.09251370933333
900,1686879684.2,-71.289,-74.219,-46.875,-70.801,912.116,405.8941171069054
901,1686879684.21,-70.801,-213.867,-7.812,-41.504,912.12,411.59891647379345
902,1686879684.21,-36.133,182.129,1.953,35.645,912.123,411.59840729986195
903,1686879684.22,-40.039,242.188,-47.852,-3.418,912.127,401.5245990459837
904,1686879684.22,-89.355,-274.414,-41.504,-91.309,912.131,412.3944079339087
905,1686879684.22,-99.121,-616.211,1.953,-71.777,912.135,400.90290377524303
906,1686879684.23,-53.223,-341.309,1.465,11.719,912.139,407.5499126259968
907,1686879684.23,-39.062,42.969,-7.812,29.297,912.143,408.28182516672746
908,1686879684.24,-74.707,-406.738,-79.59,-51.758,912.147,396.97686055470274
909,1686879684.24,-91.309,-1000.0,-20.02,-86.914,912.151,402.601205669375
910,1686879684.24,-57.617,-320.801,69.824,-0.488,912.155,410.065936820229
911,1686879684.25,-26.855,227.051,-17.578,48.828,912.159,407.5304982487065
912,1686879684.25,-60.059,-21.484,-47.852,-21.484,912.149,413.63293434230974
913,1686879684.26,-87.402,-32.715,-16.113,-88.379,912.153,405.35651841044523
914,1686879684.26,-57.617,200.684,-14.648,-36.621,912.157,400.4930338769124
915,1686879684.26,-32.715,136.23,-30.762,37.598,912.161,397.43882738888396
916,1686879684.27,-47.852,-74.219,-35.156,-17.09,912.165,395.1289667250077
917,1686879684.27,-83.496,-292.969,-40.039,-101.562,912.169,411.3026609416299
918,1686879684.28,-78.613,-297.363,-5.371,-62.5,912.173,407.9250151897458
919,1686879684.28,-33.203,-111.328,-17.578,36.621,912.176,413.63922471459074
920,1686879684.28,-29.785,-394.531,-29.297,26.367,912.18,402.77423684366596
921,1686879684.29,-62.012,-167.969,21.973,-81.543,912.184,408.636874416576
922,1686879684.29,-80.078,105.469,-14.648,-91.797,912.188,406.6783948423319
923,1686879684.3,-59.57,-310.059,-76.66,3.418,912.192,414.46126518637266
924,1686879684.3,-41.504,-797.363,-37.598,12.207,912.191,408.3926820868724
925,1686879684.3,-64.453,-299.805,45.898,-80.566,912.195,410.6308126456711
926,1686879684.3,-80.566,160.645,-27.832,-101.074,912.199,406.3365306287503
927,1686879684.31,-59.082,-138.672,-32.227,-16.602,912.203,408.12418383250224
928,1686879684.31,-25.391,-288.574,-0.977,33.203,912.207,402.67105155569726
929,1686879684.32,-43.945,-267.578,-25.879,-40.039,912.211,403.4411413278017
930,1686879684.32,-91.309,-299.316,-20.508,-108.398,912.215,410.6460088866319
931,1686879684.32,-81.055,-619.629,-55.176,-48.34,912.219,409.41682446856606
932,1686879684.33,-33.691,-932.129,-13.672,43.945,912.223,413.16492474769683
933,1686879684.33,-35.156,-154.785,65.918,-3.906,912.227,411.87156182693434
934,1686879684.33,-70.801,236.328,-34.18,-103.027,912.23,413.05590864494474
935,1686879684.34,-69.336,-60.059,-33.203,-70.312,912.234,402.7218242686321
936,1686879684.36,-36.621,114.746,3.418,27.344,912.255,412.14023215097785
937,1686879684.36,-32.227,158.691,-31.25,17.09,912.259,410.44736576175114
938,1686879684.36,-64.453,-159.668,-49.805,-65.43,912.263,410.62249215780156
939,1686879684.37,-70.801,-395.508,-0.488,-74.219,912.267,415.9199101435019
940,1686879684.37,-45.41,-98.633,19.043,-3.906,912.271,404.94328437921405
941,1686879684.38,-34.18,20.996,-42.969,20.508,912.275,406.46777402048633
942,1686879684.38,-55.176,-330.566,-72.266,-59.082,912.278,405.6227789811705
943,1686879684.38,-83.496,-684.082,-30.762,-95.215,912.282,406.387049975486
944,1686879684.39,-74.707,90.332,-10.254,-64.453,912.281,407.9793537297728
945,1686879684.39,-69.336,-308.105,50.781,-32.227,912.286,411.35805133786357
946,1686879684.39,-33.203,252.93,-21.484,35.645,912.285,413.79153926454273
947,1686879684.39,-35.645,347.656,11.23,20.996,912.29,411.2909541170122
948,1686879684.39,-43.457,-31.25,-19.043,-0.488,912.289,405.696792932557
949,1686879684.4,-44.922,16.113,-52.734,-30.273,912.294,405.02727389198486
950,1686879684.4,-82.52,-177.246,6.836,-92.285,912.293,412.75330701655645
951,1686879684.4,-83.984,-246.582,-48.34,-109.863,912.298,413.6628062284092
952,1686879684.4,-74.219,-156.25,-31.738,-69.824,912.297,409.9342103529341
953,1686879684.41,-36.621,-222.168,-27.832,22.949,912.301,412.2891562226431
954,1686879684.41,-31.25,-587.402,-46.875,38.086,912.305,404.78396073180056
955,1686879684.41,-67.871,-756.348,-12.695,-52.246,912.309,405.83012498292203
956,1686879684.42,-86.426,-116.699,28.32,-89.355,912.313,405.8337790555144
957,1686879684.42,-50.781,277.832,-15.137,0.0,912.317,401.80429174086555
958,1686879684.42,-25.879,-332.031,-62.988,51.27,912.321,411.1797413612274
959,1686879684.43,-45.898,-796.875,-3.906,-27.344,912.324,411.0235604456169
960,1686879684.43,-74.219,31.25,34.18,-89.355,912.355,402.93928428891485
961,1686879684.44,-60.059,202.148,-34.18,-17.09,912.359,410.6619787401022
962,1686879684.44,-31.738,27.832,-15.625,50.781,912.363,409.4629494032678
963,1686879684.44,-47.363,185.547,9.277,-12.695,912.367,407.52521304048344
964,1686879684.45,-80.078,222.656,-22.461,-94.238,912.371,407.9962058938139
965,1686879684.45,-71.289,-86.914,-65.918,-55.664,912.375,407.4895380724653
966,1686879684.46,-28.809,-665.039,-36.133,32.715,912.379,420.8965813616457
967,1686879684.46,-29.785,-418.457,29.297,13.184,912.383,406.3837903323186
968,1686879684.46,-62.012,321.777,23.438,-77.637,912.387,401.62192900337834
969,1686879684.47,-65.918,84.961,-44.434,-75.684,912.39,411.39699101119584
970,1686879684.47,-30.762,-269.043,-34.668,16.113,912.394,409.5008860801298
971,1686879684.48,-52.246,386.719,-37.109,-70.801,912.386,406.36671756040124
972,1686879684.48,-20.996,173.828,18.555,24.902,912.398,404.20478528180763
973,1686879684.48,-75.195,-34.668,-47.363,-99.609,912.39,408.6042258959828
974,1686879684.48,-52.246,-100.098,5.371,-10.742,912.394,401.08099048887067
975,1686879684.49,-27.344,252.93,-13.184,39.551,912.398,401.6135184620442
976,1686879684.49,-45.898,35.645,-50.781,-21.973,912.402,407.63698111718156
977,1686879684.5,-74.707,-609.863,-82.031,-66.895,912.405,411.8239341135429
978,1686879684.5,-64.453,-944.336,-5.371,-10.254,912.409,407.18615536016773
979,1686879684.5,-27.832,-128.418,74.219,37.598,912.413,401.10103519660896
980,1686879684.51,-38.574,347.168,-32.715,-16.602,912.417,402.89109140581377
981,1686879684.51,-87.891,-262.695,-43.457,-97.656,912.421,406.9782253749205
982,1686879684.51,-85.938,-221.191,20.02,-58.594,912.425,411.31227251916437
983,1686879684.52,-40.039,359.863,15.137,31.738,912.429,402.8136931938958
984,1686879684.54,-37.598,380.859,-52.734,16.602,912.432,411.1292675955475
985,1686879684.54,-74.219,-331.055,-32.227,-67.383,912.436,411.6056940210089
986,1686879684.54,-76.172,-352.051,59.57,-80.566,912.44,405.609841145263
987,1686879684.55,-36.621,327.148,14.16,6.348,912.444,405.8441303154852
988,1686879684.55,-30.273,261.719,-50.781,32.715,912.448,405.7152302829964
989,1686879684.56,-62.5,-247.559,-39.551,-44.922,912.452,400.44306986499373
990,1686879684.56,-88.379,-303.223,15.137,-87.402,912.456,406.51820758479545
991,1686879684.56,-62.5,236.328,36.621,-13.184,912.46,402.54836689451014
992,1686879684.57,-39.062,195.312,-36.621,44.434,912.464,407.341883291283
993,1686879684.57,-61.035,-352.539,-17.09,-35.645,912.468,401.5055401333177
994,1686879684.57,-84.473,-121.582,37.598,-111.816,912.471,409.3814938874949
995,1686879684.58,-62.012,118.164,-12.695,-48.34,912.475,406.98902888538805
996,1686879684.58,-21.484,-222.168,-43.457,49.316,912.477,414.9120570375464
997,1686879684.58,-32.227,-336.426,-50.781,19.043,912.48,406.17554967445096
998,1686879684.59,-61.035,146.484,0.0,-73.242,912.484,404.23643570556237
999,1686879684.59,-62.5,319.336,-32.227,-63.965,912.488,407.3273449244031
1000,1686879684.6,-40.527,-264.648,-28.809,28.809,912.492,399.0655307776097
1001,1686879684.6,-30.762,-574.707,27.832,21.484,912.496,406.62681907756127
1002,1686879684.6,-54.199,-207.031,14.648,-74.707,912.5,402.84983844803554
1003,1686879684.61,-60.059,169.922,7.812,-90.82,912.504,408.69731292188135
1004,1686879684.61,-36.133,-332.031,-48.828,3.906,912.508,412.3089099009119
1005,1686879684.62,-40.039,-709.473,-0.488,37.598,912.512,398.73328872730883
1006,1686879684.62,-63.965,182.129,31.25,-54.199,912.516,405.23262512744543
1007,1686879684.62,-94.727,243.164,-54.199,-108.398,912.52,400.44491713161887
1008,1686879684.63,-79.59,13.184,-26.855,-44.434,912.523,406.9840352464421
1009,1686879684.63,-41.016,254.883,3.418,28.32,912.527,403.0257737342073
1010,1686879684.64,-60.059,208.008,-33.691,-18.555,912.531,402.52440926175063
1011,1686879684.64,-88.379,-137.695,-42.969,-99.609,912.535,411.9279058291065
1012,1686879684.64,-71.777,-306.641,-1.953,-64.453,912.539,400.7427991651414
1013,1686879684.65,-38.086,-232.422,13.672,17.09,912.543,407.99810363811054
1014,1686879684.65,-43.945,76.172,4.395,-10.254,912.547,403.0166500727736
1015,1686879684.65,-87.402,92.773,-53.711,-101.562,912.551,405.3178601067235
1016,1686879684.66,-91.797,-541.016,-31.25,-83.984,912.555,400.7503526340493
1017,1686879684.66,-49.316,-201.172,65.43,12.207,912.558,401.8816442075677
1018,1686879684.67,-37.109,495.117,-2.93,18.066,912.562,403.0956670527426
1019,1686879684.67,-70.312,95.215,-56.152,-71.289,912.566,401.375314528854
1020,1686879684.67,-84.473,-122.07,-27.344,-101.074,912.567,408.03538286749443
1021,1686879684.67,-51.758,260.742,3.906,-12.695,912.571,407.5804544128155
1022,1686879684.68,-27.344,397.949,-17.578,37.598,912.574,405.13323104118854
1023,1686879684.68,-62.012,76.66,-31.25,-45.898,912.578,408.50371825316125
1024,1686879684.69,-90.332,-309.57,-4.395,-112.793,912.582,409.54688777726153
1025,1686879684.69,-61.035,-272.461,-8.301,-40.039,912.586,405.9839412323438
1026,1686879684.69,-36.621,-94.727,-16.602,26.855,912.59,403.6809576675566
1027,1686879684.7,-53.711,-421.875,-50.781,-32.715,912.594,400.31140569859434
1028,1686879684.7,-88.867,-1000.0,-51.27,-100.586,912.598,398.92211568014466
1029,1686879684.7,-87.402,-538.574,51.758,-64.941,912.602,399.72848842183424
1030,1686879684.71,-46.387,341.309,20.02,9.277,912.606,405.46589472925746
1031,1686879684.71,-47.852,265.137,-27.832,-10.254,912.61,400.4738298875254
1032,1686879684.72,-83.984,242.188,-8.301,-99.609,912.614,405.4953382883789
1033,1686879684.72,-84.961,383.301,-26.855,-101.562,912.618,401.47998062441604
1034,1686879684.72,-48.828,255.371,-41.504,3.418,912.621,397.71939615960474
1035,1686879684.73,-28.809,110.352,-6.836,25.879,912.625,403.63338083258486
1036,1686879684.73,-53.711,189.941,-18.066,-66.406,912.629,407.45420893548584
1037,1686879684.74,-74.707,-41.992,-54.199,-97.656,912.633,396.8935521199445
1038,1686879684.74,-49.316,-175.781,-41.504,-18.066,912.637,408.29176948174745
1039,1686879684.74,-17.578,-555.176,-27.832,34.668,912.641,405.0862860865771
1040,1686879684.75,-40.039,-369.629,33.691,-36.621,912.645,403.2640209577175
1041,1686879684.75,-70.801,370.117,5.371,-102.539,912.649,408.1900661751047
1042,1686879684.76,-52.246,95.215,-62.5,-43.945,912.653,405.66986449820024
1043,1686879684.76,-27.832,-251.953,-54.688,34.668,912.657,402.3942741311834
1044,1686879684.76,-35.156,210.449,-1.465,-6.836,912.657,403.48556900409454
1045,1686879684.76,-62.5,390.625,-38.086,-95.703,912.661,411.0057557499059
1046,1686879684.77,-64.453,22.461,-23.438,-60.059,912.665,397.51807928261616
1047,1686879684.77,-41.504,45.41,12.695,25.879,912.669,406.71715866938126
1048,1686879684.78,-46.387,98.633,-37.598,8.301,912.673,403.51944874058097
1049,1686879684.78,-80.566,-132.812,-34.668,-68.848,912.676,410.3110326948792
1050,1686879684.78,-101.562,-564.941,-62.5,-85.449,912.68,400.3770038469909
1051,1686879684.79,-67.871,-937.012,-2.93,0.0,912.684,405.42830538012663
1052,1686879684.79,-29.297,-49.805,83.496,31.25,912.688,397.7018202648014
1053,1686879684.8,-48.828,438.477,-24.414,-50.781,912.692,399.9730168100046
1054,1686879684.8,-77.637,-89.844,-24.414,-76.66,912.696,407.46842649633743
1055,1686879684.8,-64.453,-5.859,33.203,4.395,912.7,403.1435307424185
1056,1686879684.81,-30.762,491.211,1.953,57.129,912.715,396.4331794574076
1057,1686879684.81,-52.246,353.516,-56.641,-2.93,912.719,406.67589536576327
1058,1686879684.82,-91.309,-81.055,-27.344,-74.219,912.723,400.93541701966734
1059,1686879684.82,-75.684,67.871,19.531,-34.18,912.727,407.25383231690324
1060,1686879684.82,-31.738,349.121,-25.391,49.805,912.731,400.8979136641111
1061,1686879684.83,-33.691,41.992,-71.777,17.578,912.735,401.38898353921115
1062,1686879684.83,-80.078,-577.637,-20.508,-67.871,912.739,403.8735977824204
1063,1686879684.83,-77.637,-315.43,61.035,-40.039,912.743,404.95174629414106
1064,1686879684.84,-34.18,387.207,12.207,56.152,912.747,413.21406865836923
1065,1686879684.84,-22.949,218.75,-48.828,58.105,912.751,415.0045270430343
1066,1686879684.85,-69.336,-50.293,-42.969,-41.992,912.754,404.2409215217251
1067,1686879684.85,-84.473,132.324,-14.16,-63.477,912.758,399.7977686066486
1068,1686879684.85,-36.133,220.215,-29.785,25.391,912.76,411.56787549571743
1069,1686879684.86,-28.809,-221.68,-76.66,50.781,912.764,399.747476476743
1070,1686879684.86,-68.848,-409.668,-32.227,-34.18,912.768,406.7977479515066
1071,1686879684.86,-92.285,156.25,12.695,-90.332,912.772,414.0499541064299
1072,1686879684.87,-68.848,71.289,-35.645,-15.137,912.776,401.28498405342884
1073,1686879684.87,-37.109,-597.656,-73.242,59.082,912.78,405.81600132693455
1074,1686879684.87,-50.781,-864.258,-14.16,-1.465,912.784,400.65583239256523
1075,1686879684.88,-80.566,-141.602,67.383,-86.426,912.788,408.74754189274324
1076,1686879684.88,-75.684,343.75,-15.625,-42.48,912.792,402.3321957528307
1077,1686879684.89,-30.762,-120.605,-13.672,50.293,912.796,406.44744467894986
1078,1686879684.89,-29.785,-151.367,52.246,19.531,912.799,405.90954538535414
1079,1686879684.89,-80.566,298.828,5.371,-83.008,912.803,406.78442581875044
1080,1686879684.91,-84.961,212.402,-45.41,-82.031,912.809,406.90325004648696
1081,1686879684.92,-53.223,55.664,-27.344,5.859,912.812,403.3516029434049
1082,1686879684.92,-44.922,152.344,-9.766,15.137,912.816,411.29617178780234
1083,1686879684.92,-66.895,38.086,-41.504,-78.125,912.82,409.52228840781186
1084,1686879684.93,-75.195,-214.844,-52.246,-108.398,912.824,406.84091204434174
1085,1686879684.93,-54.199,-614.258,-8.789,-9.277,912.828,397.75384951381164
1086,1686879684.93,-26.367,-442.383,63.477,37.598,912.832,410.15352590726656
1087,1686879684.94,-34.18,266.113,19.043,-35.156,912.836,404.5813551690094
1088,1686879684.94,-71.777,26.855,-64.941,-86.914,912.84,410.77694667676525
1089,1686879684.95,-61.035,-355.957,-31.25,-22.949,912.844,408.0805536743246
1090,1686879684.95,-23.438,136.719,36.133,42.48,912.848,407.4582235109046
1091,1686879684.95,-31.738,420.41,-24.902,-12.207,912.852,410.3838846911717
1092,1686879684.96,-67.383,-51.27,-60.059,-88.867,912.866,406.04549084636994
1093,1686879684.96,-64.453,-171.875,-4.883,-55.176,912.87,401.14855968200465
1094,1686879684.96,-14.648,251.953,16.113,27.832,912.874,411.96744603972206
1095,1686879684.97,-22.949,352.539,-35.645,5.859,912.878,410.8020621845231
1096,1686879684.97,-77.148,-198.242,-41.992,-78.125,912.882,403.01039323310135
1097,1686879684.98,-82.031,-587.891,10.254,-69.336,912.885,409.22408522640524
1098,1686879684.98,-41.504,-273.438,2.441,25.879,912.889,408.4875303984217
1099,1686879684.98,-20.508,-77.148,-13.672,43.457,912.893,410.71604795521665
1100,1686879684.99,-55.176,-479.492,-57.129,-44.434,912.897,414.5252082980497
1101,1686879684.99,-83.008,-1000.0,-29.785,-77.148,912.901,404.4229178154912
1102,1686879684.99,-45.41,-360.352,45.41,-11.719,912.905,405.28002786658
1103,1686879685.0,-12.207,125.488,-16.113,37.109,912.909,410.5435598980106
1104,1686879685.0,-41.992,16.113,-21.973,-26.855,912.899,411.2147694862546
1105,1686879685.01,-83.008,159.18,-0.488,-95.215,912.902,407.59989971168966
1106,1686879685.01,-69.336,350.098,-20.508,-34.668,912.906,407.87264801170124
1107,1686879685.01,-33.203,279.297,-44.434,35.156,912.91,406.7192778493289
1108,1686879685.02,-39.551,51.27,-36.621,-11.719,912.914,413.91908039720977
1109,1686879685.02,-77.148,-207.52,-34.668,-103.516,912.918,410.0493799013172
1110,1686879685.02,-73.242,-89.844,0.488,-81.055,912.922,408.0547091911646
1111,1686879685.03,-26.855,116.699,-31.25,23.926,912.926,408.9040418533459
1112,1686879685.03,-26.855,-427.246,-50.293,19.531,912.93,405.7356544963938
1113,1686879685.04,-70.801,-302.246,6.348,-78.613,912.934,405.7424402821556
1114,1686879685.04,-84.473,258.789,-10.742,-84.473,912.938,402.7616900842949
1115,1686879685.04,-39.551,20.02,-76.66,17.09,912.941,407.89322037497834
1116,1686879685.04,-14.16,-591.309,-49.316,44.922,912.942,409.75070184670574
1117,1686879685.05,-54.199,-159.668,31.25,-42.48,912.945,401.295076090258
1118,1686879685.05,-65.43,257.812,-34.668,-82.031,912.949,410.28729010262373
1119,1686879685.06,-46.387,-43.457,-32.227,-10.742,912.953,399.3985820367089
1120,1686879685.06,-31.738,-172.363,-21.484,46.387,912.957,407.5115653963706
1121,1686879685.06,-48.828,-216.797,-56.152,-18.066,912.961,411.69331391216184
1122,1686879685.07,-82.031,-203.125,-41.504,-94.238,912.965,410.54635181723546
1123,1686879685.07,-70.312,-552.246,-73.242,-49.316,912.969,405.0048334159877
1124,1686879685.08,-45.898,-945.801,-11.23,38.086,912.973,409.4785006656298
1125,1686879685.08,-44.434,-103.027,70.312,-2.441,912.977,402.67745635211065
1126,1686879685.08,-71.289,290.527,-37.109,-91.309,912.981,409.14036065016086
1127,1686879685.09,-74.707,-135.742,-34.18,-67.871,912.984,406.68820025288414
1128,1686879685.09,-36.133,68.848,19.043,22.461,912.989,408.3869973765456
1129,1686879685.1,-44.922,450.684,-7.812,12.207,912.993,405.70207969015706
1130,1686879685.1,-77.148,237.793,-57.617,-75.195,912.997,406.43982250626095
1131,1686879685.1,-84.961,-137.207,-30.273,-85.449,913.001,405.19231948972117
1132,1686879685.11,-48.828,40.527,-0.488,5.371,913.005,412.3905811070291
1133,1686879685.11,-28.809,58.594,-42.969,41.992,913.008,398.55422853487926
1134,1686879685.12,-62.5,-202.637,-63.965,-47.852,913.012,403.44597098702565
1135,1686879685.12,-87.891,-606.445,-31.738,-99.609,913.016,407.06422781855923
1136,1686879685.12,-66.406,-303.223,46.387,-29.785,913.02,402.975451185281
1137,1686879685.13,-28.809,398.926,3.906,28.809,913.024,403.15663847469693
1138,1686879685.13,-42.48,118.652,-62.5,-28.32,913.028,406.9657451924308
1139,1686879685.14,-83.008,-168.457,-44.434,-95.703,913.032,402.40059787343085
1140,1686879685.14,-67.871,102.539,-8.301,-43.457,913.035,402.0485945790812
1141,1686879685.14,-32.227,172.852,-40.039,37.598,913.039,404.4644124083783
1142,1686879685.14,-41.992,-356.934,-70.312,-4.883,913.043,401.29374163077114
1143,1686879685.15,-82.031,-537.109,-35.645,-94.238,913.047,406.2175823111869
1144,1686879685.15,-84.473,-226.074,-20.508,-81.055,913.051,405.2804983010692
1145,1686879685.16,-34.668,-205.078,-23.926,12.695,913.055,406.2251821990213
1146,1686879685.16,-24.414,-540.039,-63.477,31.738,913.059,404.28964013332075
1147,1686879685.16,-67.871,-949.219,-13.184,-47.852,913.063,406.9670541506568
1148,1686879685.17,-76.66,-200.684,62.988,-90.332,913.067,405.63442343442557
1149,1686879685.17,-39.551,320.801,-21.973,-13.184,913.07,404.2348700631045
1150,1686879685.18,-23.926,92.773,-30.762,39.551,913.074,403.9422666852291
1151,1686879685.18,-52.246,111.328,-23.926,-45.898,913.078,407.83706150681445
1152,1686879685.18,-74.707,274.414,-35.645,-105.957,913.095,408.5524784245005
1153,1686879685.19,-59.082,148.438,-41.504,-28.32,913.099,399.66007713944504
1154,1686879685.19,-31.25,23.438,-25.391,43.457,913.103,407.2077708325713
1155,1686879685.19,-39.062,149.902,-18.555,-13.672,913.107,401.57664615641005
1156,1686879685.2,-70.801,-55.664,-49.805,-101.074,913.111,399.7461523710565
1157,1686879685.2,-63.477,-240.723,-43.945,-66.406,913.115,404.2592554906171
1158,1686879685.2,-28.32,-729.98,-47.363,41.992,913.119,403.87542536143326
1159,1686879685.21,-27.832,-681.152,25.391,31.25,913.122,404.07826001499075
1160,1686879685.21,-64.941,156.738,17.09,-78.613,913.126,408.11885504446064
1161,1686879685.22,-76.172,-15.625,-73.242,-88.867,913.13,408.5096927216606
1162,1686879685.22,-31.738,-110.84,-42.969,10.254,913.134,411.682156324851
1163,1686879685.22,-49.316,342.285,-44.434,-52.734,913.151,406.1307923728768
1164,1686879685.22,-16.113,278.32,-4.883,35.645,913.138,400.28830312614446
1165,1686879685.23,-68.359,-102.539,-50.781,-104.492,913.155,409.71288032417135
1166,1686879685.23,-42.48,-175.293,-4.395,-28.809,913.159,407.51623970783874
1167,1686879685.24,0.0,246.094,-5.859,42.969,913.162,405.2378321071835
1168,1686879685.24,-31.738,60.059,-43.945,-28.32,913.166,408.75746784229113
1169,1686879685.24,-82.031,-584.961,-77.148,-105.957,913.17,400.6777895095047
1170,1686879685.25,-68.359,-952.637,-6.348,-41.992,913.174,405.55118092317963
1171,1686879685.25,-23.438,-393.066,79.102,31.25,913.178,410.59508973334135
1172,1686879685.26,-31.738,248.047,-4.883,-27.344,913.182,408.2282848678214
1173,1686879685.26,-78.125,-351.074,-48.828,-114.746,913.186,405.2363757244598
1174,1686879685.26,-81.543,-571.777,27.344,-84.473,913.19,401.10295734786223
1175,1686879685.27,-42.969,217.773,16.602,-0.977,913.194,402.4220018315401
1176,1686879685.28,-30.762,241.211,-46.387,-0.488,913.183,404.14268214939665
1177,1686879685.29,-59.082,-48.34,-48.34,-81.055,913.187,409.3875122284395
1178,1686879685.29,-67.383,25.879,-10.254,-83.496,913.191,409.22267651346624
1179,1686879685.3,-38.086,250.488,-16.113,6.836,913.195,407.3485270836352
1180,1686879685.3,-28.32,178.711,-52.734,29.297,913.199,404.3316292148228
1181,1686879685.3,-57.617,-305.664,-41.504,-49.316,913.203,402.9523784653584
1182,1686879685.31,-76.172,-329.102,0.0,-86.914,913.206,408.70182047571274
1183,1686879685.31,-48.828,175.293,-2.93,-3.906,913.21,407.2530340032005
1184,1686879685.32,-8.301,77.637,-66.406,58.594,913.214,405.02291591365525
1185,1686879685.32,-29.297,-475.098,-92.773,-12.207,913.218,404.1962462263408
1186,1686879685.32,-71.289,-301.27,-9.277,-90.82,913.222,415.83853499345173
1187,1686879685.33,-60.059,192.383,13.184,-44.434,913.226,411.8984710030417
1188,1686879685.33,-22.461,-68.848,-77.637,38.086,913.227,411.65115234583095
1189,1686879685.33,-28.32,-774.902,-50.781,11.23,913.231,402.97375695399177
1190,1686879685.34,-65.43,-363.281,61.523,-90.332,913.234,410.3730205307617
1191,1686879685.34,-70.801,237.305,-13.184,-95.703,913.238,410.12256376804544
1192,1686879685.35,-34.668,-262.695,-59.082,19.043,913.242,402.5060692487715
1193,1686879685.35,-22.461,-571.777,-17.09,33.691,913.246,402.3961776932223
1194,1686879685.35,-59.57,-251.465,0.488,-82.031,913.25,406.9916196298833
1195,1686879685.36,-76.66,101.074,-15.625,-108.398,913.254,407.37026346794784
1196,1686879685.36,-40.039,-337.891,-63.965,-12.207,913.258,406.57025726444954
1197,1686879685.36,-23.438,-707.031,-0.488,33.691,913.262,403.5213978837058
1198,1686879685.37,-50.781,175.781,37.109,-52.246,913.266,409.8321610107492
1199,1686879685.37,-76.172,243.652,-50.781,-104.492,913.27,407.63511305479784
1200,1686879685.38,-57.617,-129.883,-1.465,-19.531,913.274,406.9793783965861
1201,1686879685.38,-23.926,110.352,37.598,53.223,913.277,406.1881479151581
1202,1686879685.38,-34.18,385.254,-13.672,-15.625,913.281,408.249408065473
1203,1686879685.39,-64.941,162.598,-41.016,-99.121,913.285,404.87932253830235
1204,1686879685.39,-62.012,-171.387,-23.926,-53.223,913.289,410.5633014680497
1205,1686879685.4,-30.762,-242.676,-5.371,26.367,913.293,408.64475203457636
1206,1686879685.4,-41.992,-14.16,6.836,-1.465,913.297,401.9291843547158
1207,1686879685.4,-77.637,18.555,-43.945,-90.332,913.301,410.84647488154184
1208,1686879685.41,-88.867,-612.305,-39.551,-69.336,913.305,411.4923468895924
1209,1686879685.41,-50.293,-273.926,66.895,28.809,913.309,411.3776130843153
1210,1686879685.42,-31.738,355.957,1.465,40.039,913.313,412.65868188436434
1211,1686879685.42,-73.242,-108.398,-61.523,-48.34,913.316,410.79559740390044
1212,1686879685.42,-90.332,-252.441,-3.418,-86.914,913.317,412.8269916201438
1213,1686879685.42,-54.688,139.648,9.766,-11.719,913.32,408.9989131633399
1214,1686879685.43,-29.297,147.461,-27.832,40.527,913.324,416.2642359368006
1215,1686879685.43,-53.711,-391.602,-58.105,-29.785,913.328,405.9854434136171
1216,1686879685.44,-83.496,-689.941,-32.227,-93.262,913.332,406.62922025835485
1217,1686879685.44,-65.43,-334.961,2.93,-38.086,913.336,407.9010286211834
1218,1686879685.44,-28.809,-54.199,4.883,43.457,913.34,409.6731231539383
1219,1686879685.45,-40.527,-421.875,-63.477,2.441,913.344,401.83393957608007
1220,1686879685.45,-82.52,-936.523,-14.648,-84.961,913.348,412.7131954350799
1221,1686879685.46,-69.824,-145.02,93.75,-52.246,913.352,411.04676987458356
1222,1686879685.46,-35.156,452.148,-0.977,35.645,913.356,410.9486893126122
1223,1686879685.46,-42.969,168.457,-26.367,9.277,913.36,411.11261657013347
1224,1686879685.47,-69.824,138.672,3.906,-81.055,913.364,408.977474715695
1225,1686879685.47,-74.707,342.285,-7.324,-74.707,913.368,409.00699430382485
1226,1686879685.48,-32.715,241.699,-38.574,26.855,913.372,408.8303971535118
1227,1686879685.48,-15.137,110.84,-5.859,58.105,913.376,416.2333379361065
1228,1686879685.48,-59.082,172.363,-4.883,-36.133,913.379,407.14693930870993
1229,1686879685.49,-84.961,-49.316,-44.922,-89.355,913.383,406.1159626912446
1230,1686879685.49,-50.293,-109.863,-24.902,-1.465,913.387,413.53594861683496
1231,1686879685.49,-20.02,-663.086,-49.805,62.012,913.391,405.89592063635104
1232,1686879685.5,-48.34,-625.0,17.578,-17.09,913.395,413.9382798801792
1233,1686879685.5,-89.355,252.441,24.902,-95.215,913.399,410.00693636756995
1234,1686879685.51,-71.289,94.727,-31.25,-37.598,913.403,406.8591474194825
1235,1686879685.51,-33.691,342.285,3.906,5.859,913.407,401.60228625495716
1236,1686879685.51,-29.785,29.297,-14.16,38.086,913.407,408.631807501722
1237,1686879685.51,-63.477,329.59,-25.879,-72.754,913.411,402.5938372653059
1238,1686879685.52,-65.918,-30.273,-18.555,-60.547,913.415,400.0345155727513
1239,1686879685.52,-27.832,-11.23,19.531,29.785,913.419,407.02713613869275
1240,1686879685.53,-24.414,86.914,-22.949,16.602,913.422,411.33936566760497
1241,1686879685.53,-58.105,-145.02,-26.367,-73.242,913.426,405.7387332406153
1242,1686879685.53,-78.125,-553.711,-57.617,-70.312,913.43,399.9533014160262
1243,1686879685.54,-51.758,-973.145,-17.09,25.391,913.434,405.4286088385276
1244,1686879685.54,-22.949,-237.793,83.496,42.969,913.438,415.75511201100966
1245,1686879685.54,-56.152,421.387,-17.09,-49.805,913.442,407.72955122253353
1246,1686879685.55,-87.891,-96.191,-25.391,-90.82,913.446,408.56424041763967
1247,1686879685.55,-55.664,-90.332,49.805,-9.277,913.45,402.7982021627648
1248,1686879685.56,-26.855,494.629,8.301,42.48,913.454,411.93244924769715
1249,1686879685.56,-55.176,401.855,-36.133,-30.762,913.458,403.54700983284806
1250,1686879685.56,-83.008,55.176,-38.086,-106.934,913.461,410.68993425671147
1251,1686879685.57,-75.684,178.711,-4.395,-65.918,913.465,404.4591703509085
1252,1686879685.57,-49.316,375.488,-27.832,22.949,913.469,399.42353818555176
1253,1686879685.58,-47.852,64.941,-75.195,-2.441,913.473,402.86250708488683
1254,1686879685.58,-81.543,-557.617,-33.203,-93.262,913.477,408.81730955634913
1255,1686879685.58,-88.867,-299.316,42.48,-78.613,913.481,416.48093565721285
1256,1686879685.59,-44.434,401.367,13.672,16.602,913.485,399.0505403164746
1257,1686879685.59,-27.832,225.098,-45.41,24.414,913.489,402.9128890951335
1258,1686879685.6,-69.336,-214.355,-57.129,-62.5,913.493,406.0225308407547
1259,1686879685.6,-88.379,-50.293,-0.488,-101.074,913.497,404.0463391434689
1260,1686879685.6,-59.57,380.371,5.371,-20.508,913.525,407.02279732677647
1261,1686879685.6,-36.621,39.062,-73.73,38.086,913.529,403.15152190262313
1262,1686879685.61,-57.129,-355.957,-61.523,-36.621,913.533,410.2352220803859
1263,1686879685.61,-89.355,63.477,-0.488,-104.004,913.537,405.6706975241509
1264,1686879685.62,-69.824,99.609,-37.109,-34.668,913.541,403.05216786540024
1265,1686879685.62,-27.832,-387.695,-62.5,49.805,913.545,408.1617465106563
1266,1686879685.62,-37.598,-918.945,-24.902,3.906,913.549,402.8988250160811
1267,1686879685.63,-71.289,-306.152,60.547,-80.566,913.553,406.8538814777589
1268,1686879685.63,-74.219,294.434,0.0,-51.758,913.557,409.2600412544043
1269,1686879685.64,-35.645,144.043,-16.602,42.969,913.56,408.4467201407371
1270,1686879685.64,-23.438,217.285,0.488,27.832,913.564,407.4559721899551
1271,1686879685.64,-59.082,342.285,-36.621,-64.453,913.568,402.9549278280031
1272,1686879685.68,-71.289,194.824,-44.922,-68.848,913.571,402.480358449381
1273,1686879685.68,-38.574,-40.527,-16.602,19.531,913.575,411.0038444630803
1274,1686879685.68,-26.855,156.25,4.883,38.574,913.579,408.9244275802939
1275,1686879685.69,-61.523,384.766,-27.344,-51.27,913.583,410.07851811293295
1276,1686879685.69,-90.332,171.875,-65.43,-84.961,913.587,407.23157394511014
1277,1686879685.7,-63.477,-502.93,-22.461,1.465,913.591,411.65895942309277
1278,1686879685.7,-34.18,-317.871,37.109,38.574,913.595,406.5976494340124
1279,1686879685.7,-53.711,365.723,-3.418,-55.664,913.599,408.5430364934658
1280,1686879685.7,-77.148,-36.621,-83.008,-90.82,913.602,409.31171472458345
1281,1686879685.71,-92.773,51.758,-53.711,-115.723,913.603,404.6709484299887
1282,1686879685.71,-82.031,-416.504,-48.828,-69.824,913.606,401.51713117487594
1283,1686879685.71,-77.637,-304.688,-45.41,-53.223,913.607,406.9407192695901
1284,1686879685.71,-38.086,190.43,18.555,16.113,913.61,408.0998112584477
1285,1686879685.71,-30.273,104.98,4.395,26.367,913.61,401.8700791643037
1286,1686879685.72,-22.949,266.113,-33.691,17.578,913.614,408.59438451193296
1287,1686879685.72,-35.645,462.402,-13.184,-10.742,913.614,409.9386076278081
1288,1686879685.72,-62.012,-421.387,-74.219,-64.941,913.618,413.47214879201545
1289,1686879685.72,-85.449,-898.438,-18.066,-75.195,913.621,406.08603246505083
1290,1686879685.73,-55.664,-331.055,57.129,2.93,913.625,401.7318260656549
1291,1686879685.73,-27.832,237.305,-2.441,39.551,913.629,410.8727373596704
1292,1686879685.74,-51.758,-71.777,-29.785,-28.809,913.633,396.4943444717921
1293,1686879685.74,-71.289,-103.516,21.973,-77.148,913.637,407.43796553185916
1294,1686879685.74,-41.016,328.613,0.488,-20.02,913.641,397.257487652641
1295,1686879685.75,-20.996,444.824,-45.41,31.25,913.645,398.2432160857393
