,timestamps,TP9,AF7,AF8,TP10,Secondary Timestamp,emg_signal
0,1686362217.66,-247.07,813.477,60.059,-92.285,1294.561,328.5908593314571
1,1686362217.67,-260.742,982.91,66.895,-19.531,1294.565,325.9671564550977
2,1686362217.67,-223.633,928.711,23.438,83.496,1294.569,334.07630243109514
3,1686362217.68,-197.754,829.102,50.781,69.824,1294.573,333.5629142108542
4,1686362217.68,-211.914,841.309,57.617,-4.395,1294.577,325.30168545460504
5,1686362217.68,-208.984,662.598,6.348,1.953,1294.581,334.2703948098645
6,1686362217.69,-205.566,776.367,37.598,13.672,1294.585,326.863281090514
7,1686362217.69,-202.637,344.727,12.207,-14.648,1294.589,332.25934252932007
8,1686362217.7,-214.355,255.371,69.824,-78.125,1294.593,333.169579949447
9,1686362217.7,-218.75,-977.539,99.121,-104.004,1294.597,330.06356267867875
10,1686362217.7,-191.406,912.598,6.348,7.812,1294.601,333.1519833183658
11,1686362217.71,-180.664,809.082,45.898,68.848,1294.604,330.767388154175
12,1686362217.71,-239.258,983.887,49.316,-25.391,1294.607,329.95404089396806
13,1686362217.72,-244.141,734.375,0.0,-73.73,1294.611,339.146135864484
14,1686362217.72,-222.656,364.746,33.691,-123.047,1294.615,329.503385451414
15,1686362217.72,-167.48,621.094,80.078,-120.117,1294.619,331.7185927140705
16,1686362217.73,-154.785,978.516,82.52,-120.117,1294.622,340.79344653219425
17,1686362217.73,-180.176,-975.586,39.062,-169.922,1294.626,323.06557959943194
18,1686362217.73,-205.078,351.074,-23.438,-183.594,1294.63,332.33975835356796
19,1686362217.74,-205.566,186.035,59.082,-120.605,1294.634,332.06324771483617
20,1686362217.74,-174.805,-983.887,104.98,-99.121,1294.64,331.6395760344561
21,1686362217.74,-178.223,855.469,6.348,-124.023,1294.644,327.37205104157414
22,1686362217.75,-197.754,442.383,35.156,-154.297,1294.647,335.84913688009135
23,1686362217.75,-165.527,711.426,91.797,-138.672,1294.651,328.6582029839284
24,1686362217.76,-148.926,960.449,20.996,-104.98,1294.655,327.0850622163775
25,1686362217.76,-164.062,710.938,-2.441,-150.879,1294.659,343.1556747425235
26,1686362217.76,-167.969,-45.898,-12.695,-171.875,1294.663,324.78125666557116
27,1686362217.77,-164.551,53.223,54.199,-85.449,1294.667,327.65460949999886
28,1686362217.77,-182.129,-965.332,108.887,22.949,1294.671,335.42113382051883
29,1686362217.78,-203.613,837.891,-7.812,22.949,1294.675,333.02851531820824
30,1686362217.78,-213.867,400.391,0.977,-55.664,1294.679,330.51023238822773
31,1686362217.78,-228.516,670.41,62.5,-74.707,1294.683,321.0326349834879
32,1686362217.78,-207.031,910.645,26.367,-81.055,1294.696,337.8806339108065
33,1686362217.79,-183.594,572.266,-19.531,-160.645,1294.7,339.1485413729171
34,1686362217.79,-187.988,416.016,-21.973,-223.633,1294.704,326.65631468046985
35,1686362217.8,-191.895,422.852,-5.371,-153.809,1294.708,334.4105191446659
36,1686362217.8,-178.711,408.203,16.113,-79.102,1294.712,340.25849287138885
37,1686362217.8,-185.547,168.457,-44.922,-74.219,1294.716,335.7380553970824
38,1686362217.81,-225.098,-396.973,-20.02,-92.773,1294.72,337.6940730660565
39,1686362217.81,-239.746,310.059,78.613,-92.285,1294.724,337.9222583416648
40,1686362217.82,-225.098,782.715,-9.766,-68.848,1294.728,340.1715925463375
41,1686362217.82,-206.055,422.363,-16.113,-83.008,1294.732,332.9331177538072
42,1686362217.82,-220.703,409.668,13.672,-124.512,1294.735,342.6346221700906
43,1686362217.83,-263.184,468.262,-13.672,-148.438,1294.739,333.42426254155066
44,1686362217.84,-265.625,233.887,-41.504,-89.844,1294.742,330.73680366416363
45,1686362217.85,-222.168,89.355,-13.184,39.551,1294.746,337.9740399670499
46,1686362217.85,-235.352,265.137,14.648,113.281,1294.75,326.8238506707337
47,1686362217.86,-264.648,302.734,-21.484,100.098,1294.753,327.4389923003739
48,1686362217.86,-254.395,78.613,-35.156,133.789,1294.757,328.5228537953252
49,1686362217.86,-229.98,-239.258,-22.949,237.305,1294.761,343.2194385217905
50,1686362217.87,-193.848,-144.043,-8.301,256.348,1294.765,332.5152882306065
51,1686362217.87,-164.062,-0.977,-5.371,163.086,1294.769,334.7148821415973
52,1686362217.88,-181.641,15.137,-17.09,104.98,1294.773,341.2696184476817
53,1686362217.88,-164.551,-549.805,-64.941,133.301,1294.777,339.4877810385162
54,1686362217.88,-124.023,-501.465,33.203,159.18,1294.781,346.31709429577484
55,1686362217.89,-159.18,607.422,63.965,146.484,1294.785,353.2603436975364
56,1686362217.89,-197.266,391.113,-33.691,161.621,1294.789,337.60242286990064
57,1686362217.9,-193.848,91.309,-15.625,213.867,1294.793,339.3517293715897
58,1686362217.9,-184.57,409.18,1.465,235.352,1294.797,341.6806211817348
59,1686362217.9,-192.383,285.645,-16.113,183.594,1294.801,338.53698255143246
60,1686362217.91,-200.195,185.059,5.859,97.168,1294.805,337.2073419213032
61,1686362217.91,-211.426,236.328,-5.859,19.043,1294.809,337.88911234487153
62,1686362217.92,-220.215,-483.398,-70.312,-11.23,1294.813,337.0428217628482
63,1686362217.92,-201.172,-797.852,-2.441,-14.16,1294.817,338.31472448917117
64,1686362217.92,-196.289,191.406,77.637,-4.883,1294.821,337.0468967880274
65,1686362217.93,-213.867,583.496,-1.953,-11.719,1294.824,333.2533505289109
66,1686362217.93,-224.121,271.484,-29.785,-28.809,1294.828,343.10953385402667
67,1686362217.94,-230.469,200.684,-1.465,-6.348,1294.832,336.6839761972873
68,1686362217.94,-206.055,353.027,-6.348,24.414,1294.845,327.2753586046593
69,1686362217.94,-181.152,270.02,-20.996,-33.203,1294.849,338.93737141496547
70,1686362217.94,-201.172,37.598,-22.949,-110.84,1294.853,342.6780012068984
71,1686362217.95,-221.191,-119.141,-15.137,-81.543,1294.857,344.624696540459
72,1686362217.95,-226.562,-27.832,-14.16,-1.953,1294.861,345.00293917105637
73,1686362217.96,-208.008,209.473,-18.555,28.809,1294.865,340.03955552263625
74,1686362217.96,-219.727,-445.801,-28.32,13.672,1294.869,334.92932081746176
75,1686362217.96,-225.098,-450.195,37.109,-45.41,1294.873,349.0978912307756
76,1686362217.97,-188.965,580.566,54.199,-50.781,1294.876,348.42707491821733
77,1686362217.97,-161.621,400.391,-34.18,48.828,1294.88,349.26820947270653
78,1686362217.97,-175.293,186.523,-33.203,95.215,1294.884,338.6821396460907
79,1686362217.98,-206.055,427.734,-3.418,62.012,1294.888,346.24183215330333
80,1686362217.98,-240.234,394.043,-11.23,52.246,1294.883,328.13488716562233
81,1686362217.99,-212.402,-7.812,-35.645,71.777,1294.887,338.4120970120965
82,1686362217.99,-167.969,-42.48,-15.137,103.516,1294.891,339.76228761981986
83,1686362218.0,-168.457,371.094,23.926,58.594,1294.895,336.8270878761465
84,1686362218.0,-174.316,279.785,-23.438,27.832,1294.899,343.751357575786
85,1686362218.0,-166.016,-323.242,-38.086,111.328,1294.903,340.0709034552089
86,1686362218.01,-147.461,-298.828,51.27,166.504,1294.907,338.4149016189582
87,1686362218.01,-148.926,413.086,40.039,130.371,1294.91,332.5828628718996
88,1686362218.01,-177.734,396.484,-38.574,86.914,1294.914,338.5263666368239
89,1686362218.02,-198.242,-187.988,9.277,60.059,1294.918,332.65352007987104
90,1686362218.02,-182.617,-34.668,83.008,24.902,1294.922,330.4963467216324
91,1686362218.03,-170.41,429.199,-1.465,-56.152,1294.926,339.4373255321715
92,1686362218.04,-177.734,38.086,-42.48,-165.039,1294.94,339.577919525041
93,1686362218.04,-183.594,-132.324,18.555,-169.922,1294.944,346.2416325232305
94,1686362218.05,-163.086,274.902,40.039,-89.844,1294.948,338.43445136546063
95,1686362218.05,-137.207,284.18,-12.207,-40.527,1294.952,339.7624291276717
96,1686362218.06,-154.297,79.59,-15.137,-70.801,1294.956,331.67335228485507
97,1686362218.06,-144.043,-466.797,-31.25,-69.336,1294.959,341.74013590465887
98,1686362218.06,-122.559,-671.875,45.41,-2.93,1294.963,349.8836280004307
99,1686362218.07,-109.863,564.453,108.398,17.09,1294.967,333.0077360902068
100,1686362218.07,-109.375,678.223,-25.879,-5.371,1294.971,340.27061228323834
101,1686362218.08,-156.738,243.652,-27.832,-14.16,1294.975,342.02079646723456
102,1686362218.08,-172.363,495.605,34.668,19.531,1294.979,328.80729444603423
103,1686362218.08,-147.949,568.359,9.277,72.266,1294.983,338.5514480104093
104,1686362218.09,-147.949,207.52,-16.602,126.953,1294.996,335.87860797232145
105,1686362218.09,-178.223,30.273,-2.441,120.605,1295.0,337.6953536809977
106,1686362218.09,-182.129,125.977,10.254,91.309,1295.003,341.34975971610083
107,1686362218.1,-147.461,219.238,23.926,98.633,1295.007,345.5373892063207
108,1686362218.1,-145.02,92.285,13.184,94.727,1295.011,334.4957142009749
109,1686362218.11,-162.598,-209.473,-1.465,44.922,1295.015,334.21940389314835
110,1686362218.11,-168.457,125.0,36.133,26.367,1295.019,337.75010287553715
111,1686362218.11,-144.531,546.387,56.152,48.828,1295.023,342.9446451610591
112,1686362218.12,-119.141,13.672,-21.484,33.691,1295.027,348.3214566806866
113,1686362218.12,-126.465,-478.027,31.738,-43.457,1295.031,348.02223290400417
114,1686362218.12,-127.441,414.551,106.934,-89.355,1295.035,337.490791884915
115,1686362218.13,-122.559,597.656,7.812,-44.922,1295.039,335.22767046617247
116,1686362218.13,-129.395,316.895,15.625,-17.09,1295.027,342.1496146036763
117,1686362218.13,-146.484,439.453,40.527,-58.105,1295.031,327.6792496283746
118,1686362218.14,-166.992,395.02,17.578,-88.379,1295.034,344.0090380992404
119,1686362218.14,-156.738,190.918,7.324,-60.059,1295.038,333.15316866115927
120,1686362218.15,-143.555,-103.516,18.555,-16.113,1295.042,343.26515298699496
121,1686362218.15,-147.461,111.328,57.129,-12.207,1295.046,337.8584585351343
122,1686362218.15,-155.762,424.316,38.574,-24.902,1295.05,339.4185812151008
123,1686362218.16,-150.391,307.617,0.0,-14.648,1295.054,343.2527800835068
124,1686362218.16,-118.164,138.184,38.086,26.367,1295.058,339.9156790983652
125,1686362218.16,-104.98,502.441,86.426,30.762,1295.062,343.50772646567293
126,1686362218.17,-133.789,866.699,54.688,-2.441,1295.066,344.1644398170354
127,1686362218.17,-144.043,385.254,-24.414,-1.465,1295.07,329.7323296789801
128,1686362218.18,-111.816,31.25,17.578,15.137,1295.074,330.12523639973176
129,1686362218.18,-107.422,624.512,99.609,12.695,1295.078,340.4331989209519
130,1686362218.18,-108.398,736.328,10.254,-8.789,1295.081,337.5815844156116
131,1686362218.19,-100.586,310.059,35.645,-24.902,1295.085,342.9501135136501
132,1686362218.19,-112.305,306.152,61.523,-15.625,1295.089,343.33739771780034
133,1686362218.2,-99.609,391.602,26.367,9.766,1295.093,337.4350193484791
134,1686362218.2,-99.121,428.223,34.18,-29.297,1295.097,335.45684117991067
135,1686362218.2,-125.977,-2.441,-23.438,-57.617,1295.101,345.9853795669033
136,1686362218.21,-121.582,-163.574,50.293,-49.316,1295.105,323.39321408047175
137,1686362218.21,-98.145,816.406,134.766,-88.379,1295.109,338.4252685650175
138,1686362218.22,-109.863,958.496,20.02,-164.551,1295.113,330.9612053432912
139,1686362218.22,-138.672,466.797,4.883,-188.965,1295.117,340.1739876539449
140,1686362218.24,-151.855,504.883,53.223,-125.488,1295.132,326.08000708542994
141,1686362218.24,-124.512,800.293,46.875,-71.289,1295.136,338.93685338134964
142,1686362218.24,-103.516,667.969,15.137,-75.195,1295.14,332.6261717746481
143,1686362218.25,-113.281,275.391,16.602,-105.957,1295.143,343.8172879997148
144,1686362218.25,-112.305,304.688,38.574,-130.859,1295.147,337.169648755663
145,1686362218.26,-92.773,473.145,34.668,-63.965,1295.151,340.5726136435063
146,1686362218.26,-92.773,593.262,23.926,-12.695,1295.155,352.9330425293829
147,1686362218.26,-120.117,-39.062,-30.273,-51.758,1295.159,352.8176883915323
148,1686362218.27,-154.297,-58.105,41.016,-45.41,1295.163,351.536951523482
149,1686362218.27,-137.207,790.039,51.758,11.23,1295.164,358.18653506143187
150,1686362218.27,-138.184,839.355,19.531,36.621,1295.168,358.5088344789839
151,1686362218.27,-143.066,-985.352,81.543,-8.789,1295.167,339.58611774889044
152,1686362218.28,-112.793,760.742,-8.301,22.949,1295.171,339.9268246241441
153,1686362218.28,-126.953,513.672,17.09,83.008,1295.171,337.47483896628785
154,1686362218.28,-140.137,484.863,37.109,86.426,1295.175,335.07856290504253
155,1686362218.28,-118.164,452.148,6.836,36.133,1295.175,343.8607643712798
156,1686362218.28,-146.484,620.605,-2.93,51.27,1295.179,344.27269154466046
157,1686362218.29,-151.855,346.191,-28.809,41.016,1295.183,336.4759771549938
158,1686362218.29,-156.738,147.461,21.973,64.941,1295.187,339.1119170480279
159,1686362218.29,-142.578,449.219,62.012,50.293,1295.191,347.74921043205876
160,1686362218.3,-140.137,782.715,34.668,14.16,1295.195,350.65267690281206
161,1686362218.3,-156.738,728.516,-1.953,13.184,1295.199,333.92376951406584
162,1686362218.31,-150.391,20.508,-33.691,61.523,1295.203,334.74953462551315
163,1686362218.31,-131.836,30.273,41.992,88.379,1295.207,342.9054306277237
164,1686362218.31,-142.578,834.961,38.086,49.805,1295.214,338.75216206662503
165,1686362218.32,-157.715,512.207,-33.203,13.184,1295.218,338.8335947870766
166,1686362218.32,-145.996,257.812,25.391,65.43,1295.222,337.7424628271705
167,1686362218.32,-111.328,456.543,35.156,111.816,1295.226,334.68930257253186
168,1686362218.33,-109.863,625.0,-7.812,44.434,1295.229,353.095161216169
169,1686362218.33,-153.809,540.039,-20.508,-47.363,1295.233,333.0529404343742
170,1686362218.34,-153.32,-155.273,-19.531,-27.344,1295.237,342.28086600650045
171,1686362218.34,-135.742,14.648,64.941,17.09,1295.241,331.2629462361795
172,1686362218.34,-123.047,-981.445,74.219,-16.113,1295.245,345.87005904747207
173,1686362218.35,-112.793,739.258,-31.738,-46.875,1295.249,340.51387262864495
174,1686362218.35,-110.84,490.723,-18.555,-40.039,1295.253,342.5154357756618
175,1686362218.35,-88.379,770.996,40.039,7.324,1295.257,343.29033100762433
176,1686362218.36,-80.078,822.754,12.695,14.648,1295.266,339.34677431414576
177,1686362218.36,-82.031,458.496,-19.531,-26.855,1295.269,328.74366258284505
178,1686362218.36,-103.027,299.805,-3.906,-20.996,1295.273,341.8765980585149
179,1686362218.37,-136.23,404.297,10.742,31.738,1295.277,337.1364670824532
180,1686362218.37,-124.023,502.441,10.742,73.242,1295.281,338.4083671079621
181,1686362218.38,-128.906,129.395,-35.645,64.453,1295.285,343.9897876791549
182,1686362218.38,-134.766,-350.586,41.992,-1.465,1295.289,343.1101585345272
183,1686362218.38,-113.77,529.297,104.492,-0.977,1295.293,344.98567301307685
184,1686362218.39,-92.285,952.148,6.348,75.684,1295.297,320.8565225777764
185,1686362218.39,-74.707,575.195,-6.836,56.641,1295.301,332.9497664411691
186,1686362218.4,-100.098,499.512,17.578,-8.789,1295.305,331.8575826685756
187,1686362218.4,-119.629,622.559,6.836,10.254,1295.309,335.87853123002816
188,1686362218.42,-95.215,479.492,-15.625,68.848,1295.312,341.1137195206047
189,1686362218.42,-90.82,346.68,7.324,43.945,1295.315,336.0355352406596
190,1686362218.42,-96.191,495.117,7.324,-69.336,1295.319,347.7237656413387
191,1686362218.43,-105.957,306.152,-15.625,-135.742,1295.323,342.65925416652175
192,1686362218.43,-101.562,304.688,18.555,-96.68,1295.327,342.2032048100558
193,1686362218.44,-72.754,-148.438,-10.254,-42.969,1295.331,332.99662147780396
194,1686362218.44,-76.66,-235.84,36.133,-61.523,1295.335,342.54490924249217
195,1686362218.44,-87.891,739.746,61.523,-116.211,1295.339,341.14502652012277
196,1686362218.45,-83.984,718.262,-21.973,-128.906,1295.343,336.7807166680539
197,1686362218.45,-79.102,318.848,20.02,-106.445,1295.347,336.3688984642492
198,1686362218.46,-83.984,631.348,67.871,-101.074,1295.351,338.93186643425184
199,1686362218.46,-120.605,782.715,-3.418,-105.957,1295.355,348.30689196862113
200,1686362218.46,-133.301,369.629,-27.344,-67.871,1295.357,343.5454298835178
201,1686362218.46,-112.793,342.285,0.488,-19.531,1295.36,332.93009402133924
202,1686362218.47,-130.371,619.141,13.672,-31.738,1295.364,332.7579818373141
203,1686362218.47,-128.906,501.953,-9.766,-105.957,1295.368,335.7245346463058
204,1686362218.48,-111.328,181.152,7.812,-137.207,1295.372,331.81144935549804
205,1686362218.48,-114.746,65.43,28.32,-108.398,1295.376,349.29984803784095
206,1686362218.48,-100.098,410.156,32.227,-144.531,1295.38,345.3515318843183
207,1686362218.49,-87.891,681.641,18.066,-229.004,1295.384,349.82210381464034
208,1686362218.49,-94.238,-60.059,-65.918,-249.512,1295.388,348.6547544705946
209,1686362218.5,-97.168,-382.812,35.645,-268.555,1295.392,338.822546945779
210,1686362218.5,-89.355,730.469,105.957,-310.547,1295.396,349.7386272985171
211,1686362218.5,-87.402,837.891,-16.602,-291.504,1295.399,341.54937183812746
212,1686362218.51,-97.168,346.68,-9.766,-248.047,1295.401,351.3319832157092
213,1686362218.51,-84.473,452.148,29.297,-204.59,1295.405,343.51548436184015
214,1686362218.51,-54.688,634.277,-1.953,-153.809,1295.409,346.4503201164179
215,1686362218.52,-59.082,357.422,-31.25,-131.836,1295.413,346.5857078325563
216,1686362218.52,-72.266,-149.902,3.418,-163.086,1295.417,342.1035491047952
217,1686362218.53,-83.984,-52.734,32.227,-144.043,1295.421,340.6979425906443
218,1686362218.53,-72.754,544.922,41.504,-79.102,1295.425,340.28398425672435
219,1686362218.53,-45.898,655.273,-16.113,-71.289,1295.429,349.369835996675
220,1686362218.54,-50.293,-2.93,-20.508,-77.637,1295.433,341.8697782511006
221,1686362218.54,-75.195,278.809,80.566,-75.195,1295.437,329.8071269821476
222,1686362218.54,-75.195,886.23,42.969,-47.363,1295.44,339.0419119001403
223,1686362218.55,-80.566,370.117,-39.551,-31.738,1295.444,343.5188651222478
224,1686362218.55,-108.887,69.824,-21.484,-58.594,1295.448,354.5822142316408
225,1686362218.56,-102.539,586.914,46.387,-66.406,1295.451,333.7153910249315
226,1686362218.56,-96.68,526.855,-13.184,-30.762,1295.455,337.22440813618516
227,1686362218.56,-77.637,212.891,24.902,-18.555,1295.459,348.1249377716157
228,1686362218.57,-65.43,386.719,41.016,-41.992,1295.463,341.48063814770745
229,1686362218.57,-80.078,284.18,-13.184,-29.785,1295.467,337.0790392485875
230,1686362218.58,-74.707,420.41,29.785,29.297,1295.471,337.58643308702193
231,1686362218.58,-52.246,215.332,-9.766,73.242,1295.475,343.35906855352164
232,1686362218.58,-55.664,-21.484,26.367,57.129,1295.479,355.33893453026053
233,1686362218.59,-94.727,741.211,64.941,-15.625,1295.483,347.2562679051059
234,1686362218.59,-86.914,695.312,-6.836,-24.902,1295.487,338.1054918492043
235,1686362218.59,-47.363,427.734,20.02,5.859,1295.491,346.12891024773745
236,1686362218.6,-35.156,565.43,34.18,-6.348,1295.495,339.93225781959984
237,1686362218.6,-44.434,468.75,-7.812,-21.484,1295.499,343.966205312235
238,1686362218.6,-58.594,285.645,-16.113,28.32,1295.503,343.4710836654205
239,1686362218.61,-60.547,-138.184,8.301,123.047,1295.506,336.7916870841847
240,1686362218.61,-41.016,138.184,62.012,150.879,1295.51,345.0980265696781
241,1686362218.62,-58.105,616.211,10.742,99.609,1295.514,351.68578295812137
242,1686362218.62,-80.078,410.156,-12.695,64.941,1295.518,341.38860418479635
243,1686362218.62,-69.824,-18.066,15.625,82.52,1295.522,342.1411811506761
244,1686362218.63,-53.711,319.336,80.566,107.422,1295.526,334.29546405840495
245,1686362218.63,-44.922,-948.242,39.551,57.129,1295.53,336.1598600990912
246,1686362218.64,-59.57,517.578,-37.598,-37.109,1295.534,337.25618478459677
247,1686362218.64,-44.434,279.785,-18.066,-20.996,1295.538,346.5418057624497
248,1686362218.64,-28.32,636.23,18.555,49.316,1295.538,340.86706853221847
249,1686362218.65,-57.129,645.508,-6.836,28.32,1295.542,326.9832185237223
250,1686362218.65,-91.797,237.305,-8.301,-4.395,1295.546,351.6008953730349
251,1686362218.65,-91.309,158.691,17.578,-5.859,1295.55,336.2011114189441
252,1686362218.66,-58.594,334.473,-12.695,53.223,1295.554,344.49249513041656
253,1686362218.66,-40.527,275.879,-15.625,114.258,1295.558,354.84743196886376
254,1686362218.67,-65.43,-125.488,-37.109,89.844,1295.562,361.7966510714327
255,1686362218.67,-107.91,-409.18,17.578,82.031,1295.566,348.5324643248739
256,1686362218.67,-97.656,490.234,71.777,93.75,1295.57,354.13950492547957
257,1686362218.68,-61.035,771.973,-8.789,81.055,1295.574,352.64586070931347
258,1686362218.68,-66.895,343.262,-4.883,51.27,1295.577,341.94680563128554
259,1686362218.68,-65.43,340.332,2.93,49.805,1295.581,348.86495471868244
260,1686362218.68,-66.895,474.121,-12.207,102.539,1295.596,345.5917483051063
261,1686362218.69,-64.453,319.824,-15.625,130.371,1295.599,344.2458651679827
262,1686362218.69,-48.34,138.672,-11.719,92.285,1295.603,344.4683791642362
263,1686362218.7,-51.758,25.391,-17.578,34.18,1295.607,359.2010941574763
264,1686362218.7,-49.316,48.828,-22.949,35.156,1295.611,347.9245556538754
265,1686362218.7,-31.738,230.469,-18.066,78.125,1295.615,343.6552203991555
266,1686362218.71,-20.02,-415.527,-38.086,85.938,1295.619,335.1853466841741
267,1686362218.71,-35.156,-520.02,41.016,60.059,1295.623,345.4177900847271
268,1686362218.72,-50.293,597.656,71.777,66.406,1295.627,347.4162791943182
269,1686362218.72,-38.574,538.574,-27.832,100.098,1295.631,339.55419908153544
270,1686362218.72,-41.992,176.27,-40.039,94.238,1295.635,344.82060077225907
271,1686362218.73,-58.594,349.609,-9.277,28.809,1295.639,343.4503143429327
272,1686362218.73,-64.453,337.402,-16.113,-4.395,1295.64,345.354997170894
273,1686362218.74,-46.387,62.5,-41.992,-21.484,1295.644,347.68761580711185
274,1686362218.74,-41.992,59.57,-31.25,-49.805,1295.648,340.93458777455265
275,1686362218.74,-65.43,256.836,-15.137,-60.547,1295.652,357.9005892989676
276,1686362218.75,-89.844,156.738,-38.574,-110.352,1295.656,345.7011825792749
277,1686362218.75,-88.867,-379.395,-49.805,-124.512,1295.66,341.20958806156494
278,1686362218.76,-55.664,-335.938,18.555,-78.613,1295.663,350.6357878236687
279,1686362218.76,-53.711,383.789,19.043,-97.656,1295.667,348.24786075549866
280,1686362218.76,-74.219,208.496,-39.551,-116.211,1295.671,345.5526518737885
281,1686362218.77,-72.266,-498.535,-33.203,-68.848,1295.675,341.6473624876662
282,1686362218.77,-62.012,-278.809,35.156,-35.156,1295.679,352.91822601259076
283,1686362218.78,-73.242,507.324,16.113,-59.082,1295.683,351.7074358977663
284,1686362218.79,-87.891,243.652,-50.293,-109.375,1295.687,347.6691752900879
285,1686362218.79,-99.121,-112.305,-20.996,-86.914,1295.69,337.2604093379983
286,1686362218.8,-81.543,104.98,-8.789,-26.367,1295.694,352.9243544015482
287,1686362218.8,-53.223,106.445,-36.133,-40.527,1295.698,343.0310266077269
288,1686362218.81,-60.059,5.371,-27.832,-128.906,1295.702,350.9925732668397
289,1686362218.81,-95.215,-596.68,-58.594,-172.852,1295.706,354.8437779136181
290,1686362218.81,-87.402,-475.098,-0.977,-134.766,1295.71,338.16682004281853
291,1686362218.82,-58.594,645.508,31.25,-95.703,1295.714,353.408762276234
292,1686362218.82,-67.383,357.422,-51.758,-126.465,1295.718,349.4876236523926
293,1686362218.82,-80.078,-23.926,-41.504,-183.105,1295.722,352.20693118859566
294,1686362218.83,-73.242,258.789,-6.348,-149.414,1295.726,346.3864013686724
295,1686362218.83,-45.898,363.77,-16.602,-106.445,1295.73,347.5559109751226
296,1686362218.84,-45.898,-94.238,-64.941,-125.488,1295.731,344.76329861202316
297,1686362218.84,-83.984,-276.855,-56.152,-148.926,1295.735,343.57409876115247
298,1686362218.84,-96.68,249.023,6.348,-109.863,1295.739,352.1854960472827
299,1686362218.85,-83.008,357.422,-22.461,-43.945,1295.743,336.84670007425893
300,1686362218.85,-79.59,21.484,-21.973,-50.293,1295.747,348.5300975139687
301,1686362218.86,-89.355,-222.656,-17.09,-79.59,1295.751,346.3644781632576
302,1686362218.86,-102.539,31.25,-17.578,-56.152,1295.755,344.78470946107063
303,1686362218.86,-87.402,411.133,-14.648,-39.062,1295.759,348.001484851847
304,1686362218.87,-67.871,-173.34,-63.477,-75.684,1295.763,361.51346043337594
305,1686362218.87,-82.52,-417.48,-15.137,-122.559,1295.767,358.0246764747144
306,1686362218.87,-94.727,417.969,15.625,-108.887,1295.771,352.6022312362812
307,1686362218.88,-72.266,363.77,-42.48,-61.035,1295.774,357.52683960173795
308,1686362218.88,-25.879,129.883,-17.09,-62.012,1295.777,369.17778861897295
309,1686362218.88,-18.555,250.0,-7.812,-104.004,1295.781,356.3568966842133
310,1686362218.89,-53.711,88.867,-51.758,-119.629,1295.784,357.8236101089052
311,1686362218.89,-66.406,-55.664,-27.344,-78.613,1295.788,353.2992898660494
312,1686362218.9,-42.48,-438.965,-19.043,-29.297,1295.792,366.4304495878942
313,1686362218.9,-37.109,-346.191,-10.742,-48.828,1295.796,365.6802871221771
314,1686362218.9,-80.078,429.688,-0.488,-105.469,1295.8,373.3953635744568
315,1686362218.91,-93.75,350.586,-55.176,-111.816,1295.804,367.04343845449864
316,1686362218.91,-68.848,-193.848,-11.23,-61.523,1295.808,364.26062292773037
317,1686362218.92,-66.895,189.941,52.246,-34.668,1295.812,367.66653782233846
318,1686362218.92,-66.406,630.859,-19.043,-90.332,1295.816,373.17166747663003
319,1686362218.92,-75.684,132.812,-56.641,-82.52,1295.82,374.1914582172469
320,1686362218.93,-94.238,34.668,-35.645,18.555,1295.823,384.87863800910026
321,1686362218.93,-90.82,378.418,-2.93,115.234,1295.827,366.54095384627976
322,1686362218.93,-95.215,327.637,-29.785,117.676,1295.831,364.7253936577697
323,1686362218.94,-115.723,-13.184,-12.207,16.113,1295.835,377.3681640281656
324,1686362218.94,-100.098,-82.031,-1.465,-63.477,1295.839,376.8001227364887
325,1686362218.95,-68.359,58.594,-31.25,-91.309,1295.843,380.7414519609255
326,1686362218.95,-61.523,107.91,-22.461,-135.742,1295.847,381.11734567294957
327,1686362218.95,-100.098,-296.875,-47.852,-183.105,1295.851,361.11776408291786
328,1686362218.96,-103.516,-524.414,13.184,-136.23,1295.854,390.5646774379874
329,1686362218.96,-83.008,429.199,61.035,-11.719,1295.858,387.8186265111286
330,1686362218.96,-75.684,679.199,-25.391,52.734,1295.862,380.36083587692946
331,1686362218.97,-93.262,182.617,-20.508,2.441,1295.866,386.0228128942451
332,1686362218.97,-96.191,185.547,18.555,-15.137,1295.867,378.0488936957051
333,1686362218.97,-65.918,426.758,-7.812,8.301,1295.87,385.88749235438473
334,1686362218.98,-62.5,218.75,-45.898,-57.617,1295.874,386.5329479341327
335,1686362218.98,-64.453,-115.234,-20.996,-137.207,1295.878,379.43783946876994
336,1686362218.99,-68.359,68.359,-19.043,-150.391,1295.882,391.65512225978904
337,1686362218.99,-60.059,119.629,-38.574,-112.793,1295.886,388.85330266388894
338,1686362218.99,-28.809,194.824,-12.207,-83.496,1295.89,381.3356687250771
339,1686362219.0,-17.09,-394.531,-52.246,-64.453,1295.894,383.06284010202995
340,1686362219.0,-43.457,-431.641,19.043,-36.133,1295.898,385.0234230767403
341,1686362219.0,-55.176,697.266,56.152,-26.367,1295.902,389.69816700039473
342,1686362219.01,-52.246,483.887,-35.645,0.488,1295.906,388.99196962450225
343,1686362219.01,-45.898,145.508,-60.059,19.043,1295.91,374.70656014009325
344,1686362219.02,-57.129,295.41,-32.227,-15.137,1295.914,390.9801024625242
345,1686362219.02,-76.172,291.016,-18.066,-21.973,1295.918,388.0007368309493
346,1686362219.02,-42.969,54.199,-24.414,-5.859,1295.921,386.3752893260057
347,1686362219.03,-9.766,84.961,-14.648,-15.625,1295.925,377.458492902239
348,1686362219.03,-37.109,200.684,-42.969,-32.715,1295.929,388.6300144020002
349,1686362219.04,-74.219,8.789,-51.27,9.766,1295.933,377.3760401436121
350,1686362219.04,-73.242,-347.168,-44.922,110.352,1295.937,375.66224884399736
351,1686362219.04,-75.195,-296.387,14.16,126.465,1295.941,387.0869903866243
352,1686362219.05,-89.355,478.027,24.414,17.09,1295.945,386.8258168428444
353,1686362219.05,-87.891,388.184,-42.969,-63.965,1295.949,375.8248062837333
354,1686362219.06,-63.965,-6.348,-34.18,-46.875,1295.953,388.63779568659703
355,1686362219.06,-16.113,145.508,-19.043,-53.711,1295.957,381.8978792397323
356,1686362219.06,-2.441,401.367,-11.719,-138.184,1295.97,377.55040832717407
357,1686362219.06,-32.715,200.195,-43.457,-163.574,1295.974,374.947637827238
358,1686362219.07,-56.641,-164.551,-36.133,-73.242,1295.978,381.5215360079721
359,1686362219.07,-55.176,-61.523,6.836,6.348,1295.982,375.2128533903483
360,1686362219.08,-51.758,212.402,-20.02,-24.414,1295.985,383.8933855415056
361,1686362219.08,-68.848,182.617,-45.898,-116.211,1295.989,376.1770151126408
362,1686362219.08,-85.449,-515.625,-41.992,-141.602,1295.993,366.9193659872854
363,1686362219.09,-71.777,-372.559,41.504,-111.328,1295.997,363.8541141226986
364,1686362219.09,-46.875,735.352,47.363,-83.984,1296.001,369.25937012066214
365,1686362219.1,-69.824,458.008,-56.152,-85.938,1296.005,367.75924271390846
366,1686362219.1,-89.844,96.191,-47.363,-92.285,1296.009,370.6058341185041
367,1686362219.1,-84.473,347.168,-11.719,-95.215,1296.013,375.33058841101905
368,1686362219.11,-73.73,374.512,-22.461,-125.0,1296.014,366.81357409708255
369,1686362219.11,-68.359,-124.512,-80.566,-155.762,1296.018,361.0384734258858
370,1686362219.12,-74.219,-252.93,-71.777,-151.855,1296.022,366.5859993954466
371,1686362219.12,-74.219,307.617,0.0,-125.0,1296.026,363.68920036197795
372,1686362219.12,-46.387,407.227,-38.086,-116.211,1296.03,374.41387991709234
373,1686362219.13,-45.898,-268.066,-71.289,-110.352,1296.034,368.57919018574273
374,1686362219.13,-78.613,-409.18,-6.348,-123.535,1296.038,366.13898819337487
375,1686362219.14,-77.637,383.789,11.23,-148.438,1296.042,370.84934536646546
376,1686362219.14,-56.641,444.336,-39.062,-123.535,1296.046,368.1265389940465
377,1686362219.14,-53.223,51.27,-43.945,-79.59,1296.05,365.37695504855697
378,1686362219.15,-90.332,43.945,-22.949,-66.895,1296.054,366.4909911057829
379,1686362219.15,-106.445,308.594,-19.043,-59.57,1296.057,363.2739055435379
380,1686362219.16,-103.516,217.285,-55.176,-50.293,1296.062,362.7369152245494
381,1686362219.17,-71.777,63.477,-50.781,-75.195,1296.065,360.18861727273344
382,1686362219.17,-55.176,140.137,-23.926,-145.508,1296.069,358.97282454998225
383,1686362219.18,-87.402,-32.227,-45.41,-147.461,1296.073,360.2068095284624
384,1686362219.18,-86.914,-15.137,-23.438,-41.504,1296.077,357.0930916575192
385,1686362219.18,-53.223,-448.242,-59.57,21.484,1296.081,354.2236468499594
386,1686362219.19,-69.824,-558.105,-3.906,15.137,1296.085,355.76715411072865
387,1686362219.19,-100.586,522.949,43.945,-37.109,1296.089,357.48501173275855
388,1686362219.2,-79.102,506.836,-42.48,-72.266,1296.093,358.4031288132118
389,1686362219.2,-68.848,236.816,-32.227,-69.336,1296.097,348.9567593401553
390,1686362219.2,-75.195,461.914,-4.395,-103.027,1296.101,359.72333058108836
391,1686362219.21,-85.938,430.176,-18.555,-160.156,1296.104,364.4894822282255
392,1686362219.21,-90.332,40.039,-45.41,-144.043,1296.107,349.8628986957505
393,1686362219.21,-71.777,-15.137,-31.25,-68.359,1296.11,352.1585922067621
394,1686362219.22,-62.988,331.055,-16.602,-44.434,1296.114,354.4103052240895
395,1686362219.22,-96.68,270.508,-29.785,-110.84,1296.118,361.3641446426374
396,1686362219.23,-104.492,-71.289,-19.043,-133.789,1296.122,363.00692315972503
397,1686362219.23,-91.309,-225.098,-11.23,-79.59,1296.126,347.81263607258785
398,1686362219.23,-92.773,-10.254,-9.766,-54.199,1296.13,346.81570345640836
399,1686362219.24,-94.238,283.203,-2.441,-134.277,1296.134,345.36143413734766
400,1686362219.24,-98.145,-135.254,-57.129,-205.566,1296.138,351.6464627207802
401,1686362219.24,-91.797,-491.699,8.301,-196.289,1296.142,345.9547654635571
402,1686362219.25,-66.406,470.215,71.777,-176.758,1296.146,355.27376070823385
403,1686362219.25,-62.5,596.191,-24.414,-168.945,1296.149,348.97396063878676
404,1686362219.26,-88.867,158.691,-34.18,-158.203,1296.151,345.4974912152384
405,1686362219.26,-89.844,245.605,-3.418,-125.488,1296.155,339.7524620609316
406,1686362219.26,-76.66,373.535,-20.508,-75.195,1296.159,339.90571177295715
407,1686362219.27,-64.453,122.559,-47.852,-21.484,1296.163,345.5460331901064
408,1686362219.27,-83.496,-337.891,-17.578,-14.648,1296.167,354.88016446342186
409,1686362219.28,-110.84,-190.918,6.836,-45.898,1296.171,344.6841057816763
410,1686362219.28,-89.355,402.832,-6.836,-19.531,1296.175,342.82260123683324
411,1686362219.28,-81.055,414.062,-48.828,-36.133,1296.179,341.8989201805533
412,1686362219.29,-109.863,-339.844,-33.691,-120.117,1296.183,344.70318097693735
413,1686362219.29,-138.672,-71.777,45.898,-152.832,1296.186,343.09108499649545
414,1686362219.3,-115.723,697.266,9.766,-124.023,1296.19,342.0532717335174
415,1686362219.3,-86.426,295.41,-66.895,-132.324,1296.194,342.6847758305915
416,1686362219.3,-93.262,-77.637,-57.129,-181.152,1296.198,349.2807366277936
417,1686362219.3,-98.633,285.645,0.488,-200.684,1296.202,337.1947315796195
418,1686362219.31,-96.191,383.789,-34.668,-133.789,1296.205,342.0506312154703
419,1686362219.31,-85.938,119.629,-7.324,-33.203,1296.209,337.0233598256582
420,1686362219.32,-79.102,73.242,-5.859,-62.5,1296.213,336.26187305485087
421,1686362219.32,-82.52,-27.832,-56.152,-151.855,1296.217,323.8912965499163
422,1686362219.32,-81.055,-15.137,-3.418,-141.602,1296.221,321.82405248212115
423,1686362219.33,-58.105,-187.5,-38.086,-83.008,1296.225,323.2263069139777
424,1686362219.33,-70.312,-223.633,-28.809,-72.754,1296.229,316.76230730861704
425,1686362219.34,-89.844,490.723,7.324,-117.188,1296.233,312.8470186087779
426,1686362219.34,-73.242,396.484,-53.711,-82.52,1296.237,304.42197241840637
427,1686362219.34,-64.453,19.531,-33.203,-50.781,1296.241,308.1701018998367
428,1686362219.34,-64.453,193.848,2.93,-120.605,1296.241,309.3032319986085
429,1686362219.35,-85.449,409.18,-6.836,-148.438,1296.245,323.03916898546026
430,1686362219.35,-111.816,223.633,-48.34,-128.418,1296.249,317.6248689250977
431,1686362219.36,-102.539,-495.117,-27.344,-83.496,1296.253,307.3769813071101
432,1686362219.36,-77.637,-238.281,29.297,-59.082,1296.257,313.61589868778856
433,1686362219.36,-62.988,321.289,-28.809,-70.312,1296.261,306.6210383656445
434,1686362219.37,-81.055,135.742,-41.016,-60.059,1296.265,306.51343403947834
435,1686362219.37,-97.168,-329.59,-21.973,15.137,1296.269,312.1973991067171
436,1686362219.38,-85.449,-72.754,39.062,66.406,1296.273,309.24188268072425
437,1686362219.38,-78.613,719.238,6.836,28.809,1296.277,308.2215049844316
438,1686362219.38,-97.168,293.457,-58.594,-3.418,1296.28,312.45310321401615
439,1686362219.39,-94.727,53.223,-40.527,18.555,1296.284,308.77851458904854
440,1686362219.39,-71.777,346.68,-7.324,70.312,1296.293,315.837357642177
441,1686362219.4,-57.617,369.629,-39.062,95.703,1296.297,308.7520356263015
442,1686362219.4,-72.754,-203.613,-67.383,48.828,1296.301,313.4412985728485
443,1686362219.4,-91.309,-250.488,-25.391,-14.648,1296.305,313.931569380428
444,1686362219.41,-70.312,338.379,-17.09,-26.855,1296.308,316.16146608974776
445,1686362219.41,-42.969,225.586,-40.527,-25.391,1296.312,305.7283094275569
446,1686362219.42,-69.336,-309.57,-47.363,-71.777,1296.316,315.6946155952115
447,1686362219.42,-115.723,-333.984,-3.906,-114.746,1296.32,316.596097996909
448,1686362219.42,-100.586,461.426,24.414,-92.773,1296.324,322.34015349000407
449,1686362219.43,-92.285,513.672,-40.039,-56.152,1296.328,314.04234101994405
450,1686362219.43,-121.094,122.07,-44.434,-68.359,1296.332,333.4660158744713
451,1686362219.44,-112.305,312.988,-8.301,-67.871,1296.346,336.2102967224752
452,1686362219.44,-136.23,109.375,-17.09,-78.613,1296.336,322.71796400896824
453,1686362219.44,-72.266,223.145,-46.875,-53.711,1296.349,329.28826207637127
454,1686362219.44,-69.824,34.18,-64.453,-63.477,1296.353,344.2949311346778
455,1686362219.45,-88.867,-111.816,-37.109,-69.824,1296.357,334.8399232375465
456,1686362219.45,-107.91,-151.855,-29.297,-2.93,1296.361,322.9503994421769
457,1686362219.46,-100.098,113.281,-18.066,64.941,1296.365,334.9443191072137
458,1686362219.46,-66.406,-375.0,-48.34,54.199,1296.369,332.73795763147194
459,1686362219.46,-82.52,-628.906,1.465,0.0,1296.373,348.5552541496643
460,1686362219.47,-115.234,439.453,38.086,-16.602,1296.377,336.6160157765077
461,1686362219.47,-102.539,540.039,-52.246,-6.348,1296.381,350.31945814877383
462,1686362219.47,-83.008,242.676,-52.246,-11.23,1296.385,339.16885018841606
463,1686362219.48,-77.637,390.137,-17.578,-61.523,1296.388,346.2844339238775
464,1686362219.48,-95.703,316.406,-23.926,-106.934,1296.379,340.88674320649136
465,1686362219.49,-96.68,-20.02,-41.992,-57.129,1296.383,347.7757246195594
466,1686362219.49,-68.359,-28.809,-34.668,-20.508,1296.387,350.6088030551679
467,1686362219.49,-83.008,282.715,-20.996,-25.879,1296.391,337.985954446259
468,1686362219.5,-102.539,207.031,-46.875,-47.363,1296.394,346.4799881357109
469,1686362219.5,-99.609,-344.238,-62.012,-50.781,1296.398,347.7584416475787
470,1686362219.51,-98.633,-352.051,-25.879,6.348,1296.402,344.9200684172514
471,1686362219.51,-100.586,199.219,-7.324,13.184,1296.406,352.3590628616802
472,1686362219.51,-108.398,349.609,-10.254,-53.711,1296.41,356.92787672885134
473,1686362219.52,-104.004,-250.488,-61.035,-80.566,1296.414,350.39561540786855
474,1686362219.52,-83.496,-373.535,-27.344,-55.176,1296.418,346.64521829832137
475,1686362219.52,-80.566,443.848,-8.301,-90.82,1296.422,346.7121069229188
476,1686362219.54,-93.75,279.297,-60.547,-184.082,1296.436,347.5771776147652
477,1686362219.54,-110.84,-22.949,-44.922,-213.867,1296.44,360.6229859682386
478,1686362219.55,-114.746,133.301,-31.738,-156.25,1296.444,353.10249503230193
479,1686362219.55,-116.699,28.809,-52.246,-136.719,1296.448,361.84589468846843
480,1686362219.56,-129.395,-40.527,-40.527,-154.785,1296.452,352.5085100767089
481,1686362219.56,-137.207,-555.176,-67.871,-117.188,1296.456,350.52878189110425
482,1686362219.56,-123.535,-480.957,-2.441,-105.469,1296.46,349.5789859924924
483,1686362219.57,-83.496,669.434,29.297,-131.348,1296.464,359.13835793363256
484,1686362219.57,-70.312,482.422,-54.199,-130.371,1296.468,351.2910836351377
485,1686362219.58,-99.121,-69.824,-49.316,-133.301,1296.472,348.89664237231364
486,1686362219.58,-116.699,95.215,-19.043,-88.379,1296.476,358.50022228436103
487,1686362219.58,-89.844,453.613,-4.395,-1.465,1296.479,350.2793964289093
488,1686362219.59,-100.586,82.031,-69.336,11.719,1296.482,354.98252768005784
489,1686362219.59,-138.672,-294.434,-86.426,-62.012,1296.485,359.76153745301775
490,1686362219.59,-151.855,166.992,-13.184,-116.699,1296.489,358.5722679840815
491,1686362219.6,-143.555,354.004,-29.785,-115.234,1296.493,350.9214429363813
492,1686362219.6,-102.051,28.809,-31.738,-118.652,1296.497,357.94179909439475
493,1686362219.61,-103.027,-220.703,-25.879,-154.297,1296.501,356.56353170047015
494,1686362219.61,-114.258,-20.996,-15.137,-147.949,1296.505,355.08300611430803
495,1686362219.61,-110.84,342.285,-17.09,-91.797,1296.509,363.52369966944445
496,1686362219.62,-99.121,-187.012,-62.5,-41.992,1296.513,358.6817501025121
497,1686362219.62,-107.422,-433.105,-20.02,-68.848,1296.517,361.17041670123183
498,1686362219.62,-138.184,382.324,15.137,-142.578,1296.521,346.54645479699155
499,1686362219.63,-143.555,317.383,-51.27,-126.953,1296.525,358.916488760468
500,1686362219.63,-120.117,-59.082,-32.715,-83.984,1296.527,357.9249585104043
501,1686362219.63,-109.863,124.023,11.719,-130.859,1296.53,351.11883085929935
502,1686362219.64,-135.742,329.102,-25.879,-200.684,1296.534,339.23489050693274
503,1686362219.64,-137.695,107.91,-43.945,-200.684,1296.538,342.17797272473933
504,1686362219.65,-100.586,-418.457,-22.461,-131.348,1296.542,343.6712087114497
505,1686362219.65,-76.66,-270.508,0.488,-119.629,1296.546,355.75182550930464
506,1686362219.65,-107.422,359.863,-6.836,-179.688,1296.55,350.5685688908324
507,1686362219.66,-130.371,318.848,-50.781,-192.871,1296.554,351.3453954267097
508,1686362219.66,-123.047,-247.559,-18.066,-137.207,1296.558,351.52102189298756
509,1686362219.66,-117.188,99.609,42.48,-129.395,1296.562,352.02355802980725
510,1686362219.67,-106.445,595.215,-28.809,-179.688,1296.566,342.2804237101454
511,1686362219.67,-115.723,131.836,-67.871,-173.828,1296.569,338.08675578267207
512,1686362219.68,-94.238,0.977,-49.805,-98.145,1296.574,338.70290764470985
513,1686362219.68,-57.129,330.078,-18.555,-34.18,1296.578,346.01538661273554
514,1686362219.68,-82.031,279.297,-42.48,-78.613,1296.582,336.57669482949444
515,1686362219.69,-104.492,-267.578,-68.848,-139.648,1296.586,342.12025048215725
516,1686362219.69,-98.145,-267.578,-58.594,-85.938,1296.589,331.93975882630855
517,1686362219.7,-82.52,104.98,-37.598,0.977,1296.593,329.93425433772546
518,1686362219.7,-57.129,244.629,-26.855,6.836,1296.597,349.5871051279348
519,1686362219.7,-86.426,-184.57,-62.988,-45.41,1296.601,339.8931170562038
520,1686362219.71,-103.027,-404.785,-11.719,-82.031,1296.605,332.70323328938025
521,1686362219.71,-69.336,481.934,22.949,-78.613,1296.609,337.3681794723461
522,1686362219.72,-66.406,490.723,-48.34,-67.383,1296.613,341.4319831208722
523,1686362219.72,-57.129,56.152,-50.781,-82.031,1296.617,351.97885007578344
524,1686362219.72,-74.707,66.406,-30.273,-56.152,1296.622,355.13112889029975
525,1686362219.72,-83.496,273.438,-19.043,-23.926,1296.626,348.42085689298665
526,1686362219.73,-45.41,215.82,-33.691,-42.48,1296.63,341.49649209541764
527,1686362219.73,-55.664,-69.336,-47.852,-82.52,1296.634,369.92788365783974
528,1686362219.74,-90.82,-104.004,-37.598,-99.609,1296.638,375.6669818131129
529,1686362219.74,-101.074,-12.695,-45.898,-57.129,1296.642,362.60041486517196
530,1686362219.74,-81.055,110.84,-32.227,-13.672,1296.646,416.032775344426
531,1686362219.75,-66.895,-406.738,-62.012,-51.758,1296.65,402.88338695573907
532,1686362219.75,-75.195,-605.469,-1.465,-120.605,1296.654,404.6202890219498
533,1686362219.76,-69.336,488.281,43.945,-127.93,1296.658,399.1196470565348
534,1686362219.76,-48.828,520.996,-43.457,-97.656,1296.661,402.65424693199026
535,1686362219.76,-68.848,219.727,-42.969,-125.488,1296.665,434.5649355941068
536,1686362219.77,-112.305,368.652,-20.02,-153.809,1296.664,440.9391362919075
537,1686362219.77,-126.953,300.781,-32.715,-89.844,1296.668,432.10367029893916
538,1686362219.78,-113.281,-2.441,-43.945,-4.883,1296.672,453.5324093099748
539,1686362219.78,-98.145,10.742,-16.602,-17.09,1296.675,462.00620797614494
540,1686362219.78,-100.098,196.777,-36.133,-112.793,1296.679,478.2952466654792
541,1686362219.79,-116.699,-31.738,-55.176,-166.992,1296.683,488.9357485907208
542,1686362219.79,-110.352,-367.188,-39.551,-160.645,1296.687,488.4905577041148
543,1686362219.79,-86.914,-358.887,-17.578,-143.066,1296.691,492.545598671737
544,1686362219.8,-93.75,195.801,15.625,-160.645,1296.695,487.03452613224835
545,1686362219.8,-119.141,308.105,-37.109,-198.242,1296.699,504.6685191427966
546,1686362219.81,-129.395,-167.969,-16.113,-155.762,1296.703,495.1885891525828
547,1686362219.81,-113.77,-79.59,33.691,-100.586,1296.707,515.270062303883
548,1686362219.81,-115.723,337.891,-22.461,-124.023,1296.72,503.46760927919644
549,1686362219.81,-148.926,80.078,-49.805,-153.809,1296.724,501.5761378981685
550,1686362219.82,-151.855,-101.562,-41.992,-114.746,1296.728,514.2617559643672
551,1686362219.82,-139.648,-76.66,-16.113,-62.988,1296.732,513.7725167254032
552,1686362219.83,-142.578,-52.734,-41.992,-71.289,1296.735,516.7619102295796
553,1686362219.83,-151.367,-6.348,-38.086,-168.457,1296.739,524.2062024409503
554,1686362219.83,-136.719,-599.609,-39.062,-213.867,1296.743,522.2959607569146
555,1686362219.84,-118.164,-476.562,6.836,-162.598,1296.747,516.0586450722016
556,1686362219.84,-105.957,600.586,23.438,-147.461,1296.751,517.5185587387581
557,1686362219.84,-122.559,324.219,-60.059,-171.875,1296.755,521.9527850860719
558,1686362219.85,-141.602,-146.484,-57.129,-156.25,1296.759,519.633779435225
559,1686362219.85,-119.629,68.848,-20.996,-126.465,1296.763,523.6288774540291
560,1686362219.86,-84.961,365.234,-10.742,-105.469,1296.765,517.1074029219927
561,1686362219.86,-102.051,-32.715,-77.637,-76.172,1296.769,514.6436295498141
562,1686362219.86,-143.066,-339.844,-88.867,-80.078,1296.773,516.0389493803098
563,1686362219.87,-146.484,179.688,-3.418,-99.609,1296.777,502.1101280194561
564,1686362219.87,-129.883,317.383,-41.992,-99.121,1296.781,506.44038381738784
565,1686362219.88,-121.582,-343.75,-87.402,-104.492,1296.785,507.9648038403105
566,1686362219.88,-135.742,-448.73,-25.879,-129.395,1296.789,505.51079951823607
567,1686362219.88,-135.742,300.781,6.348,-131.348,1296.792,495.310637006238
568,1686362219.89,-106.445,324.219,-43.945,-73.73,1296.796,486.7390760514284
569,1686362219.89,-97.656,-28.809,-39.062,-40.527,1296.8,499.0004841574821
570,1686362219.9,-105.469,-40.527,-18.555,-103.027,1296.804,487.3823594529184
571,1686362219.9,-107.422,211.914,-25.391,-145.996,1296.808,477.22826006671767
572,1686362219.92,-96.191,100.098,-38.086,-95.703,1296.815,451.8909818615175
573,1686362219.92,-93.262,-113.77,-33.203,-75.195,1296.819,462.62119475569295
574,1686362219.92,-116.211,89.844,-24.414,-150.391,1296.823,453.10105075315073
575,1686362219.93,-143.555,23.926,-47.852,-234.863,1296.827,448.60695315777866
576,1686362219.93,-137.207,-20.02,-20.996,-248.535,1296.831,427.20989636985246
577,1686362219.94,-106.934,-484.375,-64.941,-228.516,1296.835,445.97726487369454
578,1686362219.94,-115.234,-459.961,6.348,-249.023,1296.839,408.32434458435563
579,1686362219.94,-143.555,605.469,34.18,-237.305,1296.843,420.2664946922906
580,1686362219.95,-154.785,385.254,-61.523,-145.508,1296.846,405.74913022136536
581,1686362219.95,-129.395,69.824,-30.273,-109.863,1296.85,417.90897145262807
582,1686362219.96,-83.008,337.402,-10.254,-167.969,1296.854,386.9567911724976
583,1686362219.96,-87.402,347.656,-25.391,-225.098,1296.858,391.76356290827823
584,1686362219.96,-113.281,0.0,-46.875,-190.43,1296.857,385.8621398556277
585,1686362219.96,-92.773,-36.621,-35.645,-116.699,1296.86,390.152544593084
586,1686362219.97,-89.355,298.828,-11.23,-104.492,1296.864,359.7487829613089
587,1686362219.97,-113.281,66.406,-57.617,-120.605,1296.868,363.32128913423145
588,1686362219.98,-121.582,-270.02,-36.621,-141.113,1296.872,356.8991426351195
589,1686362219.98,-85.938,-205.566,-9.766,-145.02,1296.876,332.43401051517037
590,1686362219.98,-66.895,133.301,-8.301,-125.488,1296.88,334.2180474419582
591,1686362219.99,-86.426,409.668,-20.508,-148.926,1296.884,319.80723808727566
592,1686362219.99,-97.656,-251.465,-79.59,-171.387,1296.888,327.4180037901358
593,1686362220.0,-115.234,-603.516,1.465,-166.016,1296.892,302.71180359241384
594,1686362220.0,-98.145,410.156,58.105,-168.457,1296.896,302.8740856546323
595,1686362220.0,-92.773,552.734,-45.41,-209.961,1296.899,293.3458703433058
596,1686362220.0,-134.766,83.008,-42.969,-264.16,1296.902,295.56413646198814
597,1686362220.01,-127.441,186.523,0.977,-269.043,1296.905,274.767061454199
598,1686362220.01,-95.703,364.746,-17.09,-250.488,1296.909,269.79616509075674
599,1686362220.02,-90.332,146.484,-43.457,-245.605,1296.913,272.1066700416613
600,1686362220.02,-108.398,-333.496,-22.461,-256.836,1296.917,248.03178028521882
601,1686362220.02,-116.211,-206.543,4.883,-231.445,1296.921,260.52249329585885
602,1686362220.03,-97.168,202.148,-9.277,-150.879,1296.925,245.3772408651152
603,1686362220.03,-80.566,309.082,-22.461,-118.164,1296.929,248.76645423485155
604,1686362220.04,-81.055,-338.379,-53.223,-129.395,1296.933,229.46267869823265
605,1686362220.04,-109.375,-206.055,2.441,-156.25,1296.937,247.43488339954374
606,1686362220.04,-105.469,715.82,11.23,-151.367,1296.941,244.20969256021723
607,1686362220.05,-71.777,369.629,-45.898,-128.418,1296.945,241.76021205312836
608,1686362220.05,-65.918,153.32,-42.969,-211.426,1296.948,236.49667771282006
609,1686362220.06,-77.148,291.992,-13.672,-279.785,1296.952,233.43227117841255
610,1686362220.06,-76.172,266.602,-41.992,-186.035,1296.956,233.20573042362585
611,1686362220.06,-36.621,24.902,-24.902,-116.211,1296.96,223.77517795402136
612,1686362220.07,-31.25,-19.531,-17.578,-166.504,1296.964,235.54397125602276
613,1686362220.07,-67.871,-39.551,-39.062,-190.43,1296.968,236.8372702693347
614,1686362220.08,-73.242,97.168,0.488,-117.676,1296.971,225.79348666040184
615,1686362220.08,-54.688,-85.449,-41.016,-60.547,1296.975,231.90461301032255
616,1686362220.08,-45.41,-374.512,-20.02,-90.332,1296.979,239.97038996840428
617,1686362220.09,-53.711,273.438,29.297,-163.086,1296.983,229.14352348581363
618,1686362220.09,-82.52,423.34,-35.156,-188.477,1296.987,231.26946203898962
619,1686362220.09,-87.891,-43.457,-4.395,-177.246,1296.991,233.2084209051236
620,1686362220.1,-47.363,67.871,43.945,-197.266,1296.992,237.70793356006456
621,1686362220.1,-35.645,429.688,-20.02,-212.891,1296.996,238.711488867838
622,1686362220.1,-61.523,201.66,-40.527,-208.008,1296.999,223.1980750259131
623,1686362220.11,-63.477,-108.398,-22.461,-163.574,1297.003,233.8064583312245
624,1686362220.11,-32.715,113.281,-6.348,-132.324,1297.007,233.9076997331983
625,1686362220.12,-34.18,123.047,-49.316,-154.297,1297.011,237.29054757275236
626,1686362220.12,-67.383,-22.949,-38.086,-165.039,1297.015,234.34221606976928
627,1686362220.12,-68.359,-451.66,-35.645,-120.117,1297.019,235.75368975211063
628,1686362220.13,-44.434,-188.965,22.461,-79.59,1297.023,245.61630005725866
629,1686362220.13,-35.645,756.348,25.391,-96.68,1297.027,242.25377358055235
630,1686362220.14,-67.871,328.125,-36.133,-149.902,1297.031,251.60524815996348
631,1686362220.14,-79.59,-98.633,-41.504,-189.453,1297.035,242.41339752667446
632,1686362220.14,-46.387,198.73,-14.16,-155.273,1297.04,237.78132872832296
633,1686362220.15,-28.32,523.926,0.0,-108.887,1297.044,262.72855343937766
634,1686362220.15,-41.504,0.977,-66.895,-102.539,1297.048,260.8993632288737
635,1686362220.15,-60.059,-254.395,-57.617,-135.254,1297.052,254.45272646057612
636,1686362220.16,-40.039,233.887,-6.348,-157.227,1297.056,251.9895414178617
637,1686362220.16,-18.066,203.613,-27.832,-183.105,1297.06,269.54235606480415
638,1686362220.17,-24.414,-282.715,-53.711,-237.305,1297.064,253.06933020213782
639,1686362220.17,-35.645,-318.848,-1.465,-239.746,1297.068,260.927166045829
640,1686362220.17,-28.32,455.566,35.156,-187.5,1297.071,263.58555032722944
641,1686362220.18,-27.832,489.258,-24.414,-161.133,1297.075,257.723171039363
642,1686362220.18,-53.223,142.09,-19.531,-216.309,1297.079,264.82317989334285
643,1686362220.18,-88.867,155.273,7.324,-230.957,1297.083,263.9852562738981
644,1686362220.19,-103.516,288.574,-6.836,-172.852,1297.095,249.7435073572613
645,1686362220.19,-83.496,174.805,-30.762,-104.98,1297.099,266.88442112378056
646,1686362220.19,-87.402,-25.391,-35.156,-91.309,1297.103,265.2775338372395
647,1686362220.2,-123.047,-67.871,-9.277,-149.414,1297.107,258.9629212449032
648,1686362220.2,-125.0,38.574,-23.438,-170.41,1297.111,275.47836561515913
649,1686362220.21,-99.121,161.133,-31.738,-132.812,1297.115,277.59882401761314
650,1686362220.21,-106.445,-457.031,-52.246,-123.535,1297.119,280.52699905733726
651,1686362220.21,-119.629,-503.906,14.16,-183.105,1297.122,292.8421613077955
652,1686362220.22,-121.094,535.156,44.922,-244.141,1297.126,276.33420490329416
653,1686362220.22,-111.816,429.688,-39.551,-186.035,1297.13,281.0914080985375
654,1686362220.22,-80.566,135.742,-45.898,-90.332,1297.134,274.88532755190727
655,1686362220.23,-106.445,295.41,-22.461,-91.797,1297.138,279.59375755857235
656,1686362220.23,-141.113,255.859,-11.23,-117.676,1297.129,286.2624726666323
657,1686362220.24,-113.77,-40.527,-42.969,-43.457,1297.133,296.57833451225406
658,1686362220.24,-83.984,-98.633,-31.25,17.09,1297.137,303.9732973265184
659,1686362220.24,-68.848,182.617,-18.555,-44.922,1297.14,292.98604444334296
660,1686362220.25,-67.871,72.266,-22.461,-125.977,1297.144,294.8121871729063
661,1686362220.25,-63.477,-458.008,-57.129,-112.793,1297.148,288.366040964029
662,1686362220.26,-56.152,-574.707,-2.93,-74.219,1297.152,297.23110479818973
663,1686362220.26,-58.105,341.797,51.27,-120.117,1297.156,300.3285346857645
664,1686362220.26,-85.938,437.5,-45.898,-189.453,1297.16,292.3431795768257
665,1686362220.27,-97.656,-136.719,-22.949,-188.477,1297.164,300.1598265258109
666,1686362220.27,-76.172,43.945,19.531,-126.465,1297.168,315.36196696176364
667,1686362220.28,-48.34,325.195,-21.973,-103.027,1297.172,304.7221760006038
668,1686362220.29,-46.387,63.477,-58.105,-157.227,1297.186,311.92398785359035
669,1686362220.3,-82.031,-185.547,-37.598,-152.344,1297.19,316.3275744770929
670,1686362220.3,-68.848,6.348,-12.695,-40.039,1297.194,318.76142681473453
671,1686362220.3,-47.363,-19.531,-28.809,44.922,1297.198,311.7502837516176
672,1686362220.31,-60.547,-86.914,-29.785,5.371,1297.202,324.5312359106722
673,1686362220.31,-89.844,-614.258,-52.246,-76.66,1297.206,322.3512161751329
674,1686362220.32,-107.422,-575.195,21.484,-82.031,1297.21,321.1679877283571
675,1686362220.32,-83.008,376.953,33.203,-66.406,1297.214,318.91290865945984
676,1686362220.32,-70.312,238.77,-33.203,-103.027,1297.218,324.6168222850736
677,1686362220.33,-89.844,-3.418,-11.719,-116.211,1297.222,323.99034639253034
678,1686362220.33,-100.586,244.629,-4.395,-73.242,1297.225,324.7761827160837
679,1686362220.33,-68.359,345.215,-22.461,-10.742,1297.229,334.77235634231744
680,1686362220.34,-45.898,3.906,-37.598,-19.531,1297.235,320.68906170985434
681,1686362220.34,-44.922,-148.926,-55.664,-93.75,1297.239,324.2882667787785
682,1686362220.35,-41.992,68.848,-25.391,-105.957,1297.242,325.14703257246856
683,1686362220.35,-53.711,125.977,-27.344,-67.871,1297.246,325.70738989107906
684,1686362220.36,-41.016,-162.598,-23.438,-61.523,1297.25,332.660909862297
685,1686362220.36,-34.668,-382.324,-0.977,-139.16,1297.254,323.91924500821574
686,1686362220.36,-55.176,-102.539,-11.23,-214.844,1297.258,319.57658075903333
687,1686362220.37,-44.922,202.148,-20.508,-167.969,1297.262,325.8386973742119
688,1686362220.37,-47.363,-272.461,-59.082,-92.285,1297.266,333.7985521433437
689,1686362220.38,-53.711,-591.309,-41.016,-118.164,1297.27,330.0930685650626
690,1686362220.38,-46.387,79.102,3.418,-169.434,1297.274,324.6204990690091
691,1686362220.38,-21.973,-158.691,-18.066,-89.844,1297.276,321.53818860399434
692,1686362220.38,-39.062,291.992,-46.387,-148.926,1297.278,331.0109056848519
693,1686362220.38,-9.766,-94.238,28.809,-92.285,1297.28,342.1591453151461
694,1686362220.39,-19.531,173.34,-35.645,-120.117,1297.284,340.6030297182678
695,1686362220.39,-40.039,-107.422,-53.711,-93.262,1297.288,336.3338381552415
696,1686362220.4,-32.715,-439.941,-6.836,-31.738,1297.292,331.11704706672697
697,1686362220.4,-20.996,-264.648,18.066,-41.992,1297.296,334.8023261754235
698,1686362220.4,-27.344,185.059,-12.695,-129.395,1297.3,333.82337128410677
699,1686362220.41,-46.387,132.812,-45.41,-161.133,1297.304,339.1980419004708
700,1686362220.41,-44.434,-386.23,-2.93,-132.812,1297.308,331.0417258139087
701,1686362220.42,-16.113,-23.926,57.617,-132.324,1297.312,335.28433546938766
702,1686362220.42,-22.949,476.562,-13.672,-208.984,1297.315,325.39500807419506
703,1686362220.42,-73.242,-34.668,-62.988,-268.066,1297.319,341.3982490246706
704,1686362220.43,-70.312,-340.332,-39.062,-228.516,1297.326,341.26284698171685
705,1686362220.43,-19.043,82.52,7.324,-171.387,1297.329,333.6881693308215
706,1686362220.44,-16.113,332.031,-13.184,-153.809,1297.333,341.97284320772195
707,1686362220.44,-48.828,-204.102,-57.129,-189.941,1297.337,330.01594765791526
708,1686362220.44,-55.176,-452.148,-68.359,-198.242,1297.341,348.31058915449387
709,1686362220.45,-38.086,-54.688,-24.414,-132.324,1297.345,336.0175056926271
710,1686362220.45,-25.391,77.148,-19.043,-101.562,1297.349,351.4674496773822
711,1686362220.45,-39.551,-354.492,-57.617,-171.387,1297.353,331.3945828054055
712,1686362220.46,-56.641,-509.277,7.812,-226.562,1297.357,335.46243096564984
713,1686362220.46,-26.855,328.125,61.035,-227.051,1297.361,335.2244913436341
714,1686362220.47,-4.883,380.371,-29.297,-233.887,1297.365,339.9606794980285
715,1686362220.47,-20.02,-9.766,-33.691,-287.109,1297.368,337.7834526158897
716,1686362220.47,-33.203,19.531,-9.277,-328.125,1297.367,349.9195565073444
717,1686362220.48,-22.461,170.41,-22.949,-300.293,1297.371,339.867719602043
718,1686362220.48,-0.488,61.035,-24.414,-238.77,1297.374,354.0756672238255
719,1686362220.48,-3.418,-262.695,-27.832,-178.223,1297.378,352.81734631495027
720,1686362220.49,-34.668,-270.508,-15.625,-156.25,1297.382,347.87064855590944
721,1686362220.49,-39.062,-120.605,-31.25,-93.75,1297.386,347.45609952402305
722,1686362220.5,-21.973,54.688,-35.156,-41.992,1297.39,333.58571588426315
723,1686362220.5,9.766,-488.77,-45.898,-54.688,1297.394,350.22294137896176
724,1686362220.5,35.645,-592.773,23.926,-82.031,1297.398,361.5681373052587
725,1686362220.51,70.312,439.453,47.363,-86.914,1297.402,357.27610775430287
726,1686362220.51,129.883,343.262,-43.945,-18.555,1297.406,339.9654493707501
727,1686362220.51,165.039,69.824,-45.898,-1.953,1297.41,334.3132029699469
728,1686362220.52,156.738,177.734,-26.367,-71.289,1297.414,350.22111155867634
729,1686362220.52,147.949,187.988,-17.09,-83.496,1297.418,340.01730766316825
730,1686362220.52,160.156,-198.73,-64.941,-54.199,1297.421,341.2478918199438
731,1686362220.53,182.617,-263.672,-54.688,-69.824,1297.425,339.886067675338
732,1686362220.53,184.57,69.824,-34.668,-158.691,1297.429,341.8036589042293
733,1686362220.54,173.34,-141.602,-52.246,-205.078,1297.433,339.5924124932682
734,1686362220.54,198.242,-499.512,-52.246,-150.391,1297.437,354.22755336929004
735,1686362220.54,225.098,-666.016,-14.16,-118.164,1297.441,332.41568061340683
736,1686362220.55,215.82,210.938,43.945,-166.992,1297.445,351.8774181051578
737,1686362220.55,187.012,392.09,-38.086,-166.992,1297.449,355.49759823123395
738,1686362220.56,183.594,-60.059,-35.645,-118.164,1297.453,360.52883185384985
739,1686362220.56,211.426,92.285,-1.953,-116.211,1297.457,360.78648352737366
740,1686362220.58,236.328,198.73,-21.973,-185.059,1297.471,356.9518017197463
741,1686362220.58,220.703,-25.879,-43.457,-236.328,1297.475,362.6402671745409
742,1686362220.58,198.73,-191.895,-33.691,-221.191,1297.479,348.76824694637185
743,1686362220.59,214.844,-190.918,-14.648,-216.797,1297.483,343.8596944835184
744,1686362220.59,219.727,-125.488,-29.297,-246.094,1297.487,354.1085588564745
745,1686362220.6,184.082,-78.125,-43.945,-317.383,1297.491,359.7246041787586
746,1686362220.6,171.387,-681.152,-67.383,-310.059,1297.495,363.26220744965434
747,1686362220.6,212.402,-606.445,-17.09,-197.754,1297.499,360.63168380276517
748,1686362220.61,248.047,358.887,21.973,-112.305,1297.503,342.6781814441502
749,1686362220.61,239.746,298.828,-35.645,-89.844,1297.53,359.69553869197364
750,1686362220.61,224.121,265.137,-49.316,-126.953,1297.507,357.5711236772799
751,1686362220.61,233.887,-71.777,-53.711,-145.02,1297.534,356.6473206297996
752,1686362220.62,215.332,-148.926,-37.109,-144.043,1297.511,347.43404865316813
753,1686362220.62,199.707,-230.957,-48.34,-180.176,1297.538,346.6555504328564
754,1686362220.62,216.797,47.852,-13.672,-138.672,1297.542,371.6819321894881
755,1686362220.62,228.516,130.371,3.906,-98.633,1297.514,353.0090540487699
756,1686362220.62,242.676,30.273,-47.852,-126.953,1297.546,359.1338417747065
757,1686362220.63,222.656,-364.746,-48.828,-181.152,1297.55,354.8520319493126
758,1686362220.63,187.5,-345.215,-3.906,-242.188,1297.553,358.4869877123295
759,1686362220.63,175.293,4.395,-20.996,-277.832,1297.557,353.2714459030252
760,1686362220.64,185.547,144.531,-32.715,-228.027,1297.561,355.51277656652456
761,1686362220.64,175.293,-381.348,-73.73,-178.223,1297.565,367.5926997575405
762,1686362220.65,166.016,-692.383,-54.688,-182.129,1297.569,351.5932964902139
763,1686362220.65,143.555,-2.93,-1.953,-178.223,1297.573,362.99632230435043
764,1686362220.68,149.902,205.078,-46.387,-107.91,1297.576,361.85838879986505
765,1686362220.68,152.832,-153.32,-38.574,-54.199,1297.58,358.64944778104245
766,1686362220.69,130.859,-138.672,6.836,-100.098,1297.584,364.21096606344565
767,1686362220.69,115.723,-60.547,-41.504,-133.301,1297.588,362.85936591486325
768,1686362220.7,129.395,-40.527,-32.715,-102.051,1297.592,367.94640117325804
769,1686362220.7,156.25,-526.855,-58.594,-78.613,1297.596,364.4544233041427
770,1686362220.7,149.902,-491.699,-11.719,-116.211,1297.6,366.8338014101025
771,1686362220.71,117.676,415.039,11.719,-181.152,1297.604,358.34810275355983
772,1686362220.71,107.422,-286.621,-66.406,-145.02,1297.607,364.506960907629
773,1686362220.71,98.145,128.418,-49.316,-175.781,1297.608,366.5937899545702
774,1686362220.71,127.441,-456.055,-48.828,-105.957,1297.611,366.89557477088516
775,1686362220.72,117.676,-65.43,-23.926,-118.164,1297.612,359.5276237804404
776,1686362220.72,139.648,41.016,7.324,-90.82,1297.615,362.9009039332675
777,1686362220.72,120.605,177.734,-11.719,-89.844,1297.616,348.2840001741956
778,1686362220.72,131.836,222.168,-31.25,-154.297,1297.619,358.0258675753883
779,1686362220.72,99.121,146.973,-24.902,-121.582,1297.619,360.80168790957333
780,1686362220.73,135.742,-311.035,-66.406,-196.777,1297.623,364.4957975552107
781,1686362220.73,162.109,-613.77,-41.992,-168.457,1297.627,352.53683169918753
782,1686362220.73,146.484,26.367,0.488,-168.945,1297.631,355.4332492364875
783,1686362220.74,142.578,290.527,-34.668,-214.844,1297.635,360.086579123288
784,1686362220.74,128.906,-248.047,-12.207,-246.582,1297.639,350.0561829519598
785,1686362220.74,88.379,-266.113,37.109,-196.289,1297.643,364.2888067045817
786,1686362220.75,102.051,144.531,-2.441,-125.488,1297.646,357.54110454592325
787,1686362220.75,118.652,136.23,-42.969,-168.945,1297.65,360.94141325266423
788,1686362220.76,82.031,-545.41,-82.52,-245.605,1297.652,353.6071780649628
789,1686362220.76,72.754,-576.66,-18.555,-243.652,1297.656,359.03951669772454
790,1686362220.76,110.352,264.648,0.488,-196.777,1297.66,356.200383526996
791,1686362220.77,121.094,104.98,-48.34,-173.34,1297.664,356.2580032855206
792,1686362220.77,107.422,-579.102,-38.086,-224.121,1297.668,356.36166173562094
793,1686362220.78,82.031,-520.02,-9.277,-255.859,1297.671,361.9599984301579
794,1686362220.78,81.055,152.344,14.16,-216.797,1297.675,372.8330972717737
795,1686362220.78,125.0,300.781,-16.113,-175.781,1297.679,352.7304935688766
796,1686362220.79,121.094,-465.332,-40.527,-188.965,1297.683,367.0299370114453
797,1686362220.79,96.68,-344.238,32.715,-236.328,1297.687,370.14439356864045
798,1686362220.79,132.324,469.727,6.348,-187.5,1297.691,369.42904401213616
799,1686362220.8,157.227,143.066,-53.223,-103.516,1297.695,363.87826852031725
800,1686362220.8,151.855,-68.359,-43.945,-143.066,1297.698,364.61155910273123
801,1686362220.8,130.371,81.055,-7.812,-191.895,1297.702,368.81676898593986
802,1686362220.81,116.211,83.496,-33.203,-176.27,1297.706,357.1166809557807
803,1686362220.81,123.047,-135.742,-32.715,-175.781,1297.71,354.36694813705543
804,1686362220.82,114.258,-187.5,-37.109,-217.773,1297.714,358.35895851714577
805,1686362220.82,86.426,-241.699,-44.922,-277.832,1297.718,353.04236619429645
806,1686362220.82,82.031,-209.961,0.0,-255.371,1297.722,358.74798505216694
807,1686362220.83,92.773,-389.648,-43.457,-185.547,1297.726,357.57738255801075
808,1686362220.83,76.66,-624.512,11.719,-181.152,1297.729,356.0743250850958
809,1686362220.84,59.57,209.961,59.57,-248.047,1297.733,368.2515492172812
810,1686362220.84,55.176,354.492,-44.434,-307.617,1297.737,360.1690785926048
811,1686362220.84,83.984,-26.367,-25.391,-269.043,1297.741,350.66136587871483
812,1686362220.85,115.723,135.742,2.441,-215.332,1297.741,355.0414784660146
813,1686362220.85,96.68,198.73,-28.32,-237.793,1297.745,361.24355448892635
814,1686362220.85,74.707,-46.875,-54.688,-257.324,1297.749,359.96314721792317
815,1686362220.86,82.031,-360.84,-40.039,-166.016,1297.753,343.09545831921605
816,1686362220.86,108.398,-126.465,-12.695,-109.863,1297.757,371.5564387592571
817,1686362220.87,112.305,20.02,-42.48,-182.617,1297.761,363.2451327381834
818,1686362220.87,78.613,-86.914,-37.598,-232.91,1297.765,353.00936752018833
819,1686362220.87,66.895,-559.082,-34.18,-224.121,1297.769,357.7225968078281
820,1686362220.88,94.238,-464.844,-2.441,-182.129,1297.773,366.0474157455465
821,1686362220.88,93.262,433.105,9.277,-169.922,1297.776,358.1827960551838
822,1686362220.88,82.52,235.352,-44.922,-191.406,1297.78,355.39138284207826
823,1686362220.89,78.125,-109.863,-30.273,-172.363,1297.784,349.3584898147666
824,1686362220.89,89.844,241.211,-2.93,-126.953,1297.8,357.2923020477066
825,1686362220.9,84.473,361.328,-31.738,-118.652,1297.804,359.31866856212787
826,1686362220.9,64.941,-66.895,-46.387,-161.621,1297.808,359.1200528284402
827,1686362220.9,66.895,-175.293,-39.062,-200.195,1297.812,356.86514807593665
828,1686362220.91,68.359,72.754,-38.086,-198.242,1297.816,358.09644340376474
829,1686362220.91,84.473,-33.203,-52.734,-219.238,1297.82,358.4290648536163
830,1686362220.92,76.172,-457.52,-59.57,-255.371,1297.824,359.88272861945916
831,1686362220.92,52.734,-469.238,-25.879,-246.094,1297.828,352.1353181444509
832,1686362220.92,62.012,301.758,18.555,-189.941,1297.832,362.9570096965665
833,1686362220.93,80.566,402.344,-48.34,-133.301,1297.836,348.8419912459581
834,1686362220.93,86.914,-93.262,-36.621,-147.949,1297.84,366.6783181174682
835,1686362220.94,83.496,-234.375,2.93,-191.895,1297.843,351.3925303064365
836,1686362220.94,91.797,92.285,-19.043,-164.062,1297.836,358.341724794986
837,1686362220.94,108.887,236.816,-37.109,-104.004,1297.84,354.43298561210446
838,1686362220.94,93.75,-131.348,-47.852,-126.465,1297.844,352.6604755031527
839,1686362220.95,47.852,-256.836,-3.418,-199.219,1297.847,351.77326606367507
840,1686362220.95,50.293,29.297,-30.762,-237.793,1297.851,368.41412498393913
841,1686362220.96,90.82,151.855,-41.992,-224.121,1297.855,360.5118242721084
842,1686362220.96,75.684,-451.172,-37.598,-192.383,1297.859,355.360945034819
843,1686362220.96,32.715,-407.227,1.953,-232.422,1297.863,360.38964908339153
844,1686362220.97,14.16,524.902,28.809,-252.441,1297.867,351.73052683356235
845,1686362220.97,16.602,317.383,-48.34,-190.918,1297.871,356.76759147730655
846,1686362220.98,51.758,102.051,-40.527,-141.602,1297.875,347.2114608028622
847,1686362220.98,52.734,311.035,-11.719,-141.602,1297.879,354.2098829586778
848,1686362220.98,6.836,255.859,-25.879,-169.922,1297.905,350.35116527019244
849,1686362220.99,-5.371,-103.516,-63.477,-153.32,1297.909,354.83790772503363
850,1686362220.99,23.438,-255.371,-45.898,-107.91,1297.913,361.76203094417576
851,1686362221.0,2.441,179.688,-4.395,-109.863,1297.917,357.4083935505993
852,1686362221.0,-21.973,245.605,-48.34,-142.09,1297.921,356.0350277296221
853,1686362221.0,-5.371,-320.801,-97.656,-125.977,1297.925,345.82653231803863
854,1686362221.01,17.09,-813.477,-41.992,-71.777,1297.929,365.39934819420205
855,1686362221.01,39.551,104.004,51.27,-69.824,1297.933,344.2976016475247
856,1686362221.01,46.387,666.992,-45.898,-95.703,1297.936,356.18264946675316
857,1686362221.02,27.832,-27.344,-28.809,-73.242,1297.94,356.6187724708183
858,1686362221.02,23.926,10.742,48.34,-16.602,1297.944,368.42924026223125
859,1686362221.03,39.551,380.371,-27.344,-8.789,1297.948,366.97317945506126
860,1686362221.04,19.043,198.242,-71.777,-66.406,1297.936,346.2384328895706
861,1686362221.04,18.066,-42.969,-49.805,-99.609,1297.94,355.13715911662365
862,1686362221.05,35.645,89.844,-26.367,-93.262,1297.944,365.2744829143535
863,1686362221.05,61.035,16.113,-55.664,-58.594,1297.948,355.18133900900756
864,1686362221.06,74.707,-32.227,-41.504,-58.594,1297.952,358.23484762347465
865,1686362221.06,56.152,-510.254,-62.988,-82.52,1297.956,337.19052703713976
866,1686362221.06,41.504,-675.293,-0.488,-50.781,1297.96,350.8706567015648
867,1686362221.07,50.781,571.289,47.852,-16.113,1297.964,348.82470103665815
868,1686362221.07,56.152,562.988,-63.965,-11.719,1297.968,359.88361243822493
869,1686362221.08,46.875,20.508,-18.555,-62.012,1297.971,355.5409575864025
870,1686362221.08,48.34,301.27,11.719,-77.637,1297.975,355.76302443932036
871,1686362221.08,45.41,413.574,-36.133,-27.344,1297.979,347.9234294920674
872,1686362221.08,39.551,62.012,-60.059,-22.949,1297.981,354.9418866215336
873,1686362221.09,36.133,-160.156,-81.055,-102.051,1297.985,360.99820366464076
874,1686362221.09,37.109,32.227,-40.039,-135.742,1297.989,352.25706725655465
875,1686362221.1,53.223,186.035,-20.02,-82.52,1297.993,362.82162684857474
876,1686362221.1,50.781,53.711,-37.109,-43.945,1297.997,352.6425049236178
877,1686362221.1,35.645,-220.703,-34.18,-92.773,1298.001,353.1053804948723
878,1686362221.11,24.414,-55.176,-40.039,-140.137,1298.005,346.9774279042476
879,1686362221.11,21.484,141.113,-18.066,-84.473,1298.009,367.24911185795406
880,1686362221.12,44.434,-258.789,-62.5,-23.438,1298.013,345.58589488559613
881,1686362221.12,48.828,-532.715,-35.156,-60.059,1298.017,355.5706115270124
882,1686362221.12,18.555,275.879,18.066,-103.516,1298.021,364.11921984173284
883,1686362221.13,14.16,410.156,-54.688,-81.543,1298.024,363.0862180131474
884,1686362221.15,37.598,49.316,-43.945,-76.66,1298.056,344.59521071266425
885,1686362221.15,15.137,191.895,-17.09,-97.656,1298.06,350.71925594063276
886,1686362221.15,-9.766,193.359,-42.48,-115.234,1298.064,347.63436991293406
887,1686362221.16,1.953,-112.793,-80.078,-74.707,1298.068,342.6725612840937
888,1686362221.16,33.203,-453.125,-15.625,-16.113,1298.072,352.5057673764751
889,1686362221.17,56.152,-239.258,23.926,-20.996,1298.076,346.7347333256476
890,1686362221.17,31.25,263.672,-33.691,-71.289,1298.079,361.4996807852434
891,1686362221.17,6.836,199.219,-65.43,-91.797,1298.083,357.65036632596826
892,1686362221.18,-19.043,-155.762,-48.828,-108.887,1298.072,359.15283961665125
893,1686362221.18,-0.488,-396.973,-14.16,-45.41,1298.087,357.67897615878536
894,1686362221.18,-1.953,236.816,-12.207,-110.84,1298.076,360.70833160746787
895,1686362221.18,11.719,-159.18,21.973,-33.691,1298.091,362.2575128276091
896,1686362221.18,8.789,308.594,-62.012,-158.691,1298.079,372.37709356456884
897,1686362221.18,17.578,326.172,-50.293,-98.633,1298.095,355.43991215092655
898,1686362221.19,-18.555,-84.473,-51.27,-218.75,1298.083,363.34207331391127
899,1686362221.19,-1.953,25.879,-80.078,-134.277,1298.099,339.5979216065466
900,1686362221.19,-28.809,-163.574,-50.293,-195.312,1298.087,357.62748020117397
901,1686362221.2,-13.184,-33.691,-56.641,-110.84,1298.091,353.71084017095757
902,1686362221.2,-18.066,-134.277,-57.129,-96.191,1298.095,358.1309165719091
903,1686362221.2,-26.367,-279.297,-23.438,-134.766,1298.099,342.6456242994745
904,1686362221.21,-27.344,-116.211,-1.953,-125.0,1298.103,361.8727477336152
905,1686362221.21,-19.531,204.102,-31.25,-93.262,1298.107,352.47627083462726
906,1686362221.21,-12.207,164.062,-55.176,-128.418,1298.111,355.2844279586746
907,1686362221.22,-33.691,-374.512,-36.133,-203.613,1298.115,357.1046658366386
908,1686362221.24,-36.621,-494.629,0.488,-244.629,1298.135,371.6926909125116
909,1686362221.24,-15.137,-11.23,-29.785,-211.426,1298.138,356.68377539197013
910,1686362221.24,-10.254,190.918,-58.105,-166.504,1298.142,350.5679891394311
911,1686362221.25,-17.578,-502.93,-87.402,-172.852,1298.146,357.1005503423229
912,1686362221.25,-11.23,-876.465,-20.02,-164.551,1298.15,352.39987728131496
913,1686362221.26,11.719,34.18,5.371,-115.723,1298.154,357.9835013448166
914,1686362221.26,27.344,337.891,-46.387,-76.66,1298.158,356.32093101897874
915,1686362221.26,30.273,-216.797,-20.996,-91.797,1298.162,358.60053672571394
916,1686362221.27,21.973,-55.176,11.719,-160.645,1298.166,359.0715724249474
917,1686362221.27,21.973,51.27,-33.203,-194.336,1298.164,345.48408993072786
918,1686362221.27,15.625,19.531,-33.691,-186.523,1298.168,364.22905426791925
919,1686362221.27,8.789,390.625,-24.902,-170.898,1298.17,358.4218289268608
920,1686362221.28,24.414,43.945,-46.387,-142.09,1298.174,357.57334130320595
921,1686362221.28,32.227,-277.832,-59.082,-121.094,1298.172,356.5436040178437
922,1686362221.28,39.551,-352.539,-41.504,-110.352,1298.176,365.89654015559546
923,1686362221.28,38.574,-77.148,-58.105,-156.25,1298.178,350.53094097916266
924,1686362221.28,17.09,-10.742,-31.738,-147.949,1298.18,344.9210097336949
925,1686362221.29,-10.742,-211.426,-72.754,-160.156,1298.183,343.83797231963644
926,1686362221.29,11.23,-556.641,-36.133,-152.832,1298.187,352.2968372858086
927,1686362221.29,34.668,-259.766,-7.324,-167.48,1298.191,358.87373661233283
928,1686362221.3,36.621,28.809,-26.367,-218.262,1298.195,354.4678558262656
929,1686362221.3,32.227,26.367,-31.738,-216.797,1298.199,343.9776041941595
930,1686362221.31,27.344,-511.719,-69.336,-152.344,1298.203,362.9396220466727
931,1686362221.31,34.668,-749.512,6.836,-120.605,1298.207,345.66385480988623
932,1686362221.31,34.18,194.824,44.434,-195.312,1298.22,359.19983072519346
933,1686362221.32,-2.93,242.188,-47.852,-261.23,1298.224,354.79054246711246
934,1686362221.32,-20.02,-111.816,-56.641,-236.816,1298.228,343.95614120033156
935,1686362221.32,-4.395,-145.996,-20.02,-180.664,1298.232,354.4502904735061
936,1686362221.33,6.348,-142.578,-46.875,-179.688,1298.236,358.35891178650564
937,1686362221.33,-9.277,-132.324,-51.758,-224.609,1298.239,353.7939955625168
938,1686362221.34,-38.086,-686.035,-59.57,-208.984,1298.243,357.2482717811157
939,1686362221.34,-34.18,-872.07,-9.766,-178.711,1298.247,359.8964348363078
940,1686362221.34,-1.953,260.742,64.453,-165.527,1298.251,362.55323003290846
941,1686362221.35,16.602,367.676,-41.992,-185.059,1298.255,350.4135812909463
942,1686362221.35,-2.441,-98.145,-62.012,-254.395,1298.259,370.82913401666286
943,1686362221.35,-1.465,100.098,-27.344,-250.977,1298.263,357.58597404082684
944,1686362221.36,27.344,151.855,-27.832,-185.059,1298.265,359.0012399123355
945,1686362221.36,32.715,-188.965,-41.504,-166.504,1298.269,348.02779697403696
946,1686362221.36,20.02,-333.984,-53.711,-180.176,1298.273,358.45849875085753
947,1686362221.37,13.184,-42.48,-32.715,-138.672,1298.277,355.81758654373874
948,1686362221.37,36.621,64.941,-44.434,-51.758,1298.281,349.8005601128309
949,1686362221.38,59.57,-493.164,-95.215,-17.09,1298.285,341.9008977827864
950,1686362221.38,18.066,-627.441,-50.781,-57.617,1298.289,345.49179373078516
951,1686362221.38,-21.484,39.551,-8.789,-114.258,1298.293,355.57087646535626
952,1686362221.39,4.395,8.301,-41.016,-109.375,1298.296,355.5029613279086
953,1686362221.39,20.02,-479.492,-62.012,-112.793,1298.3,347.8753888930612
954,1686362221.4,4.395,-399.414,-37.598,-170.41,1298.304,354.16091208236713
955,1686362221.4,-22.949,224.609,-25.879,-198.73,1298.308,351.3705952557357
956,1686362221.42,-32.715,82.52,-60.059,-118.652,1298.311,367.98420214446475
957,1686362221.42,1.465,-233.398,-41.992,-28.809,1298.315,357.44740809935877
958,1686362221.42,6.836,-66.406,-24.902,-58.594,1298.319,349.8849919630384
959,1686362221.43,-27.832,-103.516,-54.199,-95.215,1298.323,344.04662845669014
960,1686362221.43,-18.066,-229.004,-48.828,-50.781,1298.327,354.9856906076876
961,1686362221.44,25.879,-662.109,-63.477,-13.184,1298.331,357.8835285558129
962,1686362221.44,41.992,-526.367,-3.418,-56.641,1298.335,347.8421911879201
963,1686362221.44,34.668,423.828,0.488,-125.977,1298.339,354.8772470150106
964,1686362221.45,15.625,115.723,-59.57,-121.582,1298.343,355.93456830485803
965,1686362221.45,21.484,-147.949,-39.062,-63.965,1298.347,353.9869466814991
966,1686362221.46,32.227,-13.184,-52.246,-60.547,1298.351,347.2358284788691
967,1686362221.46,18.066,-17.578,-44.434,-126.465,1298.354,358.642528406525
968,1686362221.46,-0.488,-204.102,-74.707,-179.688,1298.356,350.8381804675608
969,1686362221.46,16.602,-378.418,-69.336,-158.691,1298.36,350.6570892873813
970,1686362221.47,31.738,49.316,-23.438,-142.09,1298.364,351.23658769223516
971,1686362221.47,10.742,89.355,-59.082,-198.242,1298.368,345.702474718079
972,1686362221.48,-20.996,-311.035,-51.27,-282.227,1298.372,358.26308873861643
973,1686362221.48,7.812,-538.086,-39.062,-288.086,1298.376,344.3401931532119
974,1686362221.48,31.25,-166.016,-24.902,-250.977,1298.38,352.234415565513
975,1686362221.49,9.277,155.762,-43.945,-269.531,1298.384,349.5637684795985
976,1686362221.49,-19.043,-522.949,-101.562,-259.277,1298.388,360.10422554721856
977,1686362221.5,-45.898,-661.621,-31.25,-158.691,1298.392,349.41006968390974
978,1686362221.5,-26.855,200.195,9.277,-100.098,1298.396,354.16019098053016
979,1686362221.5,-13.672,159.668,-61.523,-147.949,1298.399,356.9361809023254
980,1686362221.51,-30.273,-224.609,-62.988,-232.91,1298.405,358.3165380606394
981,1686362221.51,-25.879,-319.336,-32.227,-265.137,1298.409,355.117382710549
982,1686362221.51,-8.789,-185.059,-28.809,-236.328,1298.413,361.15082100155234
983,1686362221.52,0.0,-123.047,-37.109,-188.965,1298.417,340.53675470609727
984,1686362221.52,-34.18,-667.969,-54.199,-182.129,1298.421,357.06797596519885
985,1686362221.53,-63.965,-768.066,-42.969,-175.293,1298.425,342.6635766715399
986,1686362221.53,-33.203,21.973,-14.648,-116.211,1298.429,352.58926078818115
987,1686362221.53,-4.395,216.797,-55.664,-98.145,1298.432,351.51035716050177
988,1686362221.54,-17.578,-442.871,-20.508,-158.203,1298.436,360.4265345158261
989,1686362221.54,-31.738,-268.555,41.992,-216.309,1298.44,358.66531280601345
990,1686362221.54,-26.367,254.395,-21.484,-171.387,1298.444,354.17669836333215
991,1686362221.55,-14.648,-96.68,-55.176,-133.301,1298.448,351.7410139421581
992,1686362221.55,5.859,-253.906,-50.293,-192.383,1298.448,358.57738812104475
993,1686362221.56,-4.395,-108.887,-29.785,-262.695,1298.452,338.72906270574697
994,1686362221.56,-16.602,-106.934,-47.363,-254.883,1298.456,352.29590490460544
995,1686362221.56,8.789,-395.996,-59.082,-207.031,1298.46,354.0499350409252
996,1686362221.57,15.137,-486.328,-57.129,-198.73,1298.464,353.2192998079027
997,1686362221.57,-11.23,-387.207,-40.527,-195.312,1298.468,344.0718820430321
998,1686362221.58,-3.418,-212.891,-18.066,-166.016,1298.472,346.7263739516381
999,1686362221.58,35.645,-427.246,-66.895,-138.184,1298.475,343.4622866036646
1000,1686362221.58,44.922,-859.375,-20.02,-147.461,1298.479,365.5113202811853
1001,1686362221.59,18.555,-43.457,38.574,-177.734,1298.483,357.529055949648
1002,1686362221.59,4.395,175.781,-54.199,-175.293,1298.487,358.662440909988
1003,1686362221.59,16.113,-232.422,-44.434,-116.699,1298.491,360.37495130332405
1004,1686362221.6,23.438,-133.301,-21.973,-79.102,1298.492,344.3103477389758
1005,1686362221.6,27.832,-34.18,-39.062,-104.98,1298.495,350.3035861428937
1006,1686362221.6,19.531,-187.988,-58.105,-141.602,1298.499,354.21162403458857
1007,1686362221.61,11.719,-512.695,-52.734,-128.418,1298.503,357.2915811324003
1008,1686362221.61,14.648,-344.238,-31.25,-65.43,1298.507,338.64852603501464
1009,1686362221.62,4.883,-228.516,-67.383,-36.621,1298.511,350.39939302311876
1010,1686362221.62,-21.973,-384.277,-53.223,-77.637,1298.515,345.90838601579026
1011,1686362221.62,-16.113,-771.484,-50.293,-78.125,1298.519,347.5257171753809
1012,1686362221.63,17.09,-696.289,25.391,-28.32,1298.523,349.4230410483903
1013,1686362221.63,30.273,326.66,52.734,-74.707,1298.527,344.9740305883756
1014,1686362221.64,7.812,132.812,-59.57,-171.387,1298.531,356.66098155811324
1015,1686362221.64,-17.578,-232.91,-58.105,-198.73,1298.535,344.61178392352684
1016,1686362221.64,-3.906,66.406,-9.766,-150.391,1298.539,349.02693951632045
1017,1686362221.65,4.883,88.867,-31.25,-132.324,1298.543,349.417509749754
1018,1686362221.65,-17.09,-281.738,-52.734,-182.129,1298.546,351.386660941747
1019,1686362221.65,-18.555,-405.273,-31.25,-227.539,1298.55,348.3022194952891
1020,1686362221.66,-8.301,-177.734,-30.762,-183.594,1298.554,362.8868433868969
1021,1686362221.66,13.672,-230.957,-41.016,-113.281,1298.558,355.3440042264428
1022,1686362221.67,9.766,-588.379,-61.035,-135.254,1298.562,351.26811145218244
1023,1686362221.67,2.441,-580.078,-21.973,-195.801,1298.566,350.0627000115299
1024,1686362221.67,-1.953,84.961,24.902,-193.359,1298.57,342.70460992409386
1025,1686362221.68,-1.953,19.531,-48.828,-169.434,1298.574,343.3689741074615
1026,1686362221.68,2.93,-342.285,-0.488,-194.336,1298.578,357.6181048024957
1027,1686362221.68,-7.324,104.98,-21.484,-169.922,1298.595,350.6120794998209
1028,1686362221.68,1.465,-197.266,36.621,-209.473,1298.582,359.3516273821765
1029,1686362221.69,-20.02,9.766,-51.27,-119.629,1298.599,345.28971912576174
1030,1686362221.69,-8.301,-379.883,-42.969,-123.535,1298.603,346.07954696005584
1031,1686362221.7,-1.953,-458.984,1.953,-176.27,1298.607,344.95339723923985
1032,1686362221.7,-17.578,-174.316,-24.414,-197.266,1298.611,350.7371020231223
1033,1686362221.7,-7.324,-50.293,-39.062,-127.93,1298.615,357.3348867403496
1034,1686362221.71,15.137,-635.254,-50.781,-73.242,1298.619,349.1130484834416
1035,1686362221.71,-7.324,-605.957,-4.395,-90.82,1298.623,346.7450060783313
1036,1686362221.72,-35.645,290.039,16.602,-100.586,1298.626,354.43313066308224
1037,1686362221.72,-36.621,155.762,-34.668,-54.688,1298.63,359.3309214883927
1038,1686362221.72,-33.691,5.859,-33.203,9.766,1298.634,346.83065918294193
1039,1686362221.73,-28.809,-29.785,-37.109,-11.23,1298.638,348.4537906397519
1040,1686362221.73,-29.785,-91.797,-14.648,-56.152,1298.633,351.1451832902358
1041,1686362221.74,-31.25,-226.562,-59.082,-33.691,1298.637,354.36236498208706
1042,1686362221.74,-10.254,-376.465,-62.988,13.184,1298.641,351.4341679497617
1043,1686362221.74,-1.465,79.102,1.465,-30.762,1298.645,349.9542692407459
1044,1686362221.75,-18.066,90.82,-43.945,-103.516,1298.649,355.5329415364476
1045,1686362221.75,-30.273,-531.25,-73.242,-119.141,1298.653,349.1352506984475
1046,1686362221.76,-17.09,-545.898,-18.555,-100.098,1298.657,352.38917544478767
1047,1686362221.76,3.418,227.051,20.508,-104.004,1298.661,351.6917156458965
1048,1686362221.76,-20.508,151.367,-52.734,-153.809,1298.665,340.7711201920532
1049,1686362221.77,-39.062,-363.281,-22.949,-172.363,1298.669,348.7179388679315
1050,1686362221.77,-15.137,-218.75,36.621,-143.066,1298.673,361.2053446833506
1051,1686362221.78,6.836,157.715,-19.531,-110.352,1298.676,358.72711549357865
1052,1686362221.79,5.371,-18.066,-42.48,-112.793,1298.69,348.3819191843287
1053,1686362221.8,-16.602,-271.484,-35.645,-134.277,1298.694,350.1143573386827
1054,1686362221.8,-29.297,-306.641,-13.672,-98.145,1298.698,358.5089616048363
1055,1686362221.8,13.184,-242.676,-8.789,-55.664,1298.702,359.9477220477664
1056,1686362221.81,26.855,-83.496,-24.414,-124.023,1298.706,351.6091670879729
1057,1686362221.81,-3.418,-575.195,-80.566,-187.012,1298.709,355.6613688221576
1058,1686362221.82,-8.301,-934.082,15.625,-155.762,1298.713,355.97114252968095
1059,1686362221.82,6.348,211.426,88.379,-112.793,1298.717,361.6567520366443
1060,1686362221.82,-0.488,508.301,-33.203,-122.559,1298.721,346.3484056246969
1061,1686362221.83,-16.113,46.387,-32.715,-179.199,1298.725,348.14162625574613
1062,1686362221.83,-11.23,156.738,-16.602,-186.035,1298.729,342.87723952998175
1063,1686362221.83,-10.742,185.547,-16.113,-136.719,1298.733,353.66250418324
1064,1686362221.84,10.254,-41.016,-40.039,-103.027,1298.732,356.547979953231
1065,1686362221.84,-0.977,-182.617,-60.059,-95.703,1298.736,349.527220137355
1066,1686362221.84,-28.809,0.977,-23.438,-118.164,1298.74,363.69917782814
1067,1686362221.85,-30.762,73.73,-18.066,-117.676,1298.743,338.92877157682756
1068,1686362221.85,-22.461,-190.918,-43.457,-91.309,1298.747,351.9471596004556
1069,1686362221.86,-5.859,-375.977,-25.879,-121.582,1298.751,347.98758670313094
1070,1686362221.86,-42.48,-261.23,-17.578,-175.781,1298.755,348.82495699356974
1071,1686362221.86,-62.5,68.359,-15.625,-145.02,1298.759,353.51592004302876
1072,1686362221.87,-18.555,-230.469,-62.988,-67.871,1298.763,336.5851809129707
1073,1686362221.87,9.766,-714.844,-0.977,-74.219,1298.767,352.2843362593287
1074,1686362221.87,13.672,192.871,65.43,-159.668,1298.771,358.06928504263993
1075,1686362221.88,7.324,405.273,-33.691,-203.613,1298.775,349.07593528457596
1076,1686362221.88,7.324,13.184,-16.602,-177.246,1298.776,367.8238555300002
1077,1686362221.88,30.273,85.449,6.348,-128.418,1298.78,355.7198479292563
1078,1686362221.89,33.203,110.84,-19.043,-114.746,1298.784,346.76022469616726
1079,1686362221.89,9.277,-133.789,-40.527,-106.445,1298.788,366.87161151539004
1080,1686362221.9,1.953,-519.043,-2.93,-70.312,1298.792,354.92227924683345
1081,1686362221.9,18.555,-332.52,38.086,-83.008,1298.796,359.3624782270698
1082,1686362221.9,18.066,154.297,-11.23,-180.176,1298.8,353.4961324575983
1083,1686362221.91,-3.906,148.926,-30.273,-213.867,1298.804,360.5151447676038
1084,1686362221.91,17.578,-595.703,-28.809,-126.465,1298.808,347.4837453962698
1085,1686362221.92,47.852,-371.582,35.156,-94.727,1298.812,343.5622494165789
1086,1686362221.92,21.484,562.5,30.762,-139.16,1298.816,352.2906381359044
1087,1686362221.92,-26.855,81.543,-48.828,-175.781,1298.819,355.59695235497406
1088,1686362221.93,-38.086,-171.875,-36.133,-159.18,1298.824,352.1713443303138
1089,1686362221.93,-13.672,213.379,2.441,-103.516,1298.828,359.0518280764275
1090,1686362221.93,-13.184,85.449,-29.297,-80.566,1298.832,343.3130478186463
1091,1686362221.94,-44.922,-275.879,-46.875,-113.281,1298.835,353.3772170395474
1092,1686362221.94,-59.57,-250.488,-34.18,-149.902,1298.839,351.32445643728516
1093,1686362221.95,-40.039,-163.574,-22.949,-147.461,1298.843,332.2834557708197
1094,1686362221.95,-14.16,-32.227,-18.555,-163.086,1298.847,353.8083702377898
1095,1686362221.95,-13.672,-357.422,-59.57,-204.102,1298.851,349.9781591663627
1096,1686362221.96,-20.508,-485.84,-8.301,-224.609,1298.855,354.30159815243366
1097,1686362221.96,-15.137,235.84,27.344,-178.711,1298.859,357.6810345044634
1098,1686362221.96,-11.23,172.363,-44.434,-111.328,1298.863,347.0158467853016
1099,1686362221.97,-8.789,-270.508,-4.883,-119.141,1298.867,358.9718419181024
1100,1686362221.97,-20.508,-127.441,38.086,-174.805,1298.866,349.3738933782799
1101,1686362221.97,-27.832,254.883,0.488,-203.613,1298.87,354.8069154196731
1102,1686362221.98,-10.254,124.023,-41.016,-215.82,1298.874,354.3560908618655
1103,1686362221.98,-16.113,-190.918,-18.066,-254.395,1298.878,350.33561239926576
1104,1686362221.99,-42.48,-129.395,-6.836,-302.734,1298.882,353.4342611245533
1105,1686362221.99,-48.828,-114.258,-45.41,-285.645,1298.886,355.4729486099923
1106,1686362221.99,-22.461,-46.387,-18.066,-212.891,1298.89,356.9116447964199
1107,1686362222.0,-7.324,-528.809,-59.57,-187.988,1298.894,361.6328391446636
1108,1686362222.0,-23.438,-475.098,-14.16,-243.164,1298.898,348.6571561640903
1109,1686362222.0,-27.344,477.051,22.949,-270.508,1298.902,351.58412968507685
1110,1686362222.01,-17.09,204.59,-34.668,-252.93,1298.905,357.2986239008761
1111,1686362222.01,-10.742,-3.906,-39.062,-263.672,1298.909,349.42023274416823
1112,1686362222.02,-11.719,3.418,-17.578,-317.383,1298.918,339.970234236241
1113,1686362222.02,-39.551,-3.906,-0.488,-338.867,1298.922,341.56016569285794
1114,1686362222.03,-23.438,-138.672,-56.641,-291.992,1298.926,351.7031439094432
1115,1686362222.03,20.02,-276.367,-56.152,-219.727,1298.929,358.4739489564098
1116,1686362222.03,-10.742,102.539,-23.438,-192.871,1298.933,349.44923488572095
1117,1686362222.04,-21.484,-43.457,-51.27,-162.598,1298.937,353.3318828645445
1118,1686362222.04,-3.418,-479.98,-53.711,-112.305,1298.941,350.6022462023404
1119,1686362222.04,-2.441,-439.453,-3.906,-129.395,1298.945,360.79916933243703
1120,1686362222.05,5.371,316.895,32.227,-204.102,1298.949,354.4694528891303
1121,1686362222.05,-27.832,242.676,-52.246,-208.496,1298.953,346.5841262530954
1122,1686362222.06,-46.875,-191.895,-31.738,-168.457,1298.957,353.74293068148313
1123,1686362222.06,-13.184,183.594,-22.949,-160.156,1298.971,346.9587343889293
1124,1686362222.06,-19.531,-9.277,-2.93,-150.879,1298.961,353.6667123139244
1125,1686362222.06,-29.297,-44.922,-40.039,-211.426,1298.975,347.34571607270686
1126,1686362222.07,-52.246,-283.203,-40.527,-235.352,1298.979,358.933664615913
1127,1686362222.07,-54.199,-256.348,-6.348,-241.699,1298.983,346.94472663388706
1128,1686362222.08,-32.715,-183.594,-23.438,-262.207,1298.986,354.8261465424687
1129,1686362222.08,-29.297,-117.188,-33.691,-269.531,1298.99,350.98026521988805
1130,1686362222.08,-51.27,-594.238,-46.875,-260.254,1298.994,351.58679557995754
1131,1686362222.09,-49.805,-874.512,26.367,-207.031,1298.998,338.1528039237147
1132,1686362222.09,-16.113,238.77,91.309,-170.41,1299.002,353.4751735889414
1133,1686362222.1,-20.02,457.52,-26.367,-175.293,1299.006,344.97010216545584
1134,1686362222.1,-45.898,3.418,-32.715,-172.852,1299.01,343.95015428540927
1135,1686362222.1,-47.363,143.555,2.441,-157.715,1299.014,343.38728645227957
1136,1686362222.11,-8.789,203.125,-8.301,-123.535,1299.046,345.1370449097189
1137,1686362222.11,12.695,-86.426,-42.48,-115.234,1299.05,353.7910242132482
1138,1686362222.12,-1.953,-270.996,-41.016,-130.371,1299.054,350.8830113343115
1139,1686362222.12,-22.949,14.16,-0.488,-80.078,1299.058,371.3684605019015
1140,1686362222.12,-16.113,1.953,-32.227,2.441,1299.062,350.70438017152446
1141,1686362222.13,9.766,-500.977,-59.57,23.926,1299.066,358.1810340039815
1142,1686362222.13,-9.766,-574.707,-15.137,-15.137,1299.07,350.54281946752434
1143,1686362222.13,-55.664,-56.641,8.789,-46.387,1299.073,354.9249005931474
1144,1686362222.14,-19.531,168.457,-10.254,-32.227,1299.077,353.47474979486157
1145,1686362222.14,-552.246,-434.082,-55.176,-10.254,1299.081,350.5043005066183
1146,1686362222.15,-1000.0,-530.273,-1.953,-66.895,1299.085,353.679219807627
1147,1686362222.15,-979.98,279.785,41.504,-129.395,1299.089,359.3355613235588
1148,1686362222.16,-995.605,227.539,-30.762,-97.656,1299.061,346.4449969627323
1149,1686362222.17,-1000.0,18.555,3.418,-53.711,1299.065,347.98371758407507
1150,1686362222.17,-996.582,20.02,13.184,-85.938,1299.069,341.20850526169806
1151,1686362222.18,-1000.0,-58.105,-44.922,-140.137,1299.073,351.4908078720798
1152,1686362222.18,-986.328,-243.652,-34.18,-122.07,1299.077,349.4234116850897
1153,1686362222.18,-873.047,-549.316,11.719,-95.703,1299.081,365.49358194520266
1154,1686362222.19,-799.316,129.395,42.48,-105.957,1299.085,343.9227763364629
1155,1686362222.19,-746.582,386.719,-19.043,-105.957,1299.089,352.60632145489427
1156,1686362222.2,-674.316,-119.141,-24.902,-55.664,1299.093,342.4785981651403
1157,1686362222.2,-597.656,90.332,18.066,-42.48,1299.097,348.57845622186653
1158,1686362222.2,-554.688,375.488,0.488,-95.703,1299.1,360.7846943755852
1159,1686362222.21,-550.781,198.242,-33.203,-147.949,1299.104,350.27772356550497
1160,1686362222.21,-524.414,-288.086,-64.453,-130.859,1299.136,357.11126954476373
1161,1686362222.21,-475.586,-62.012,8.789,-73.242,1299.139,346.5843117275357
1162,1686362222.22,-410.156,415.039,14.648,-74.219,1299.143,346.31085574557636
1163,1686362222.22,-362.793,221.191,-51.758,-136.719,1299.147,352.15720858592243
1164,1686362222.23,-362.793,-505.859,-74.707,-132.324,1299.151,351.0362952571402
1165,1686362222.23,-349.609,-472.656,20.996,-68.848,1299.155,361.8379155704004
1166,1686362222.23,-303.711,323.242,20.508,-37.598,1299.159,341.09410442973416
1167,1686362222.24,-275.391,348.633,-44.434,-90.82,1299.163,350.4443062797749
1168,1686362222.24,-283.203,-395.996,-22.949,-88.379,1299.167,351.4269961953512
1169,1686362222.24,-275.391,16.113,40.039,-25.391,1299.171,348.0393246828531
1170,1686362222.25,-223.633,480.957,-30.273,-1.465,1299.175,345.7150874583019
1171,1686362222.25,-198.73,5.371,-37.598,-19.043,1299.179,337.90575382954637
1172,1686362222.26,-217.285,-176.758,53.223,-68.359,1299.152,334.96471830046136
1173,1686362222.26,-224.609,252.441,23.926,-57.617,1299.156,349.698325515898
1174,1686362222.26,-190.918,312.012,-40.039,-31.25,1299.159,353.49167964872123
1175,1686362222.27,-168.945,-173.34,-30.762,-73.73,1299.163,351.5930175798607
1176,1686362222.27,-194.824,-373.535,37.598,-140.137,1299.167,357.81170555945124
1177,1686362222.28,-201.66,-2.93,23.926,-131.836,1299.171,345.79341840208946
1178,1686362222.28,-174.316,284.18,-5.859,-67.871,1299.175,345.055165578802
1179,1686362222.28,-150.391,97.168,-11.719,-54.199,1299.179,353.8361262161675
1180,1686362222.29,-168.457,-39.551,21.484,-83.984,1299.183,350.27688645563603
1181,1686362222.29,-183.594,311.035,16.113,-84.961,1299.187,357.27773560083523
1182,1686362222.29,-166.016,255.859,-6.348,-49.805,1299.191,344.2097650584639
1183,1686362222.3,-133.301,-134.766,-53.711,-47.363,1299.195,339.5374781772183
1184,1686362222.3,-115.723,-127.441,-43.945,-100.586,1299.203,357.3712477784182
1185,1686362222.31,-131.836,-1.465,-1.465,-136.23,1299.207,345.04471363049913
1186,1686362222.31,-139.16,91.309,-21.973,-86.426,1299.211,334.98953037953555
1187,1686362222.32,-128.418,-290.527,-70.801,-32.715,1299.215,351.2008474881338
1188,1686362222.32,-101.562,-191.406,33.691,-89.844,1299.219,351.4298649876733
1189,1686362222.32,-100.098,129.883,-3.418,-153.32,1299.223,344.20264580377255
1190,1686362222.33,-113.281,-87.402,-63.965,-129.395,1299.227,343.58577149877135
1191,1686362222.33,-84.961,-424.316,-28.32,-55.664,1299.231,344.72395275595454
1192,1686362222.33,-71.289,50.293,28.32,-34.18,1299.235,349.9906555149636
1193,1686362222.34,-111.328,487.793,4.395,-96.68,1299.239,352.67135160842815
1194,1686362222.34,-126.465,79.59,-35.645,-107.91,1299.242,347.54254245921345
1195,1686362222.34,-72.754,179.688,-5.859,-35.645,1299.242,349.25870127050257
1196,1686362222.35,-99.609,-30.273,-1.953,-35.156,1299.246,345.92440415784546
1197,1686362222.35,-79.102,151.367,-33.203,-116.211,1299.246,360.17050915238053
1198,1686362222.35,-96.191,-183.594,-40.527,-150.879,1299.25,356.7119018463949
1199,1686362222.36,-89.355,-313.965,-21.484,-125.0,1299.253,358.1120648473321
1200,1686362222.36,-71.289,-108.887,-9.277,-117.188,1299.257,353.61747104182155
1201,1686362222.36,-49.805,-17.09,-1.953,-152.344,1299.261,354.79571371113593
1202,1686362222.37,-53.711,-166.504,-25.391,-159.18,1299.265,359.52674585496317
1203,1686362222.37,-60.059,-841.797,-49.316,-92.773,1299.269,364.25625625193436
1204,1686362222.38,-44.434,-205.078,78.613,-45.898,1299.273,356.1974989358372
1205,1686362222.38,-40.039,699.219,41.016,-89.355,1299.277,342.58967720682364
1206,1686362222.38,-62.012,150.391,-54.199,-131.348,1299.281,355.6322651153627
1207,1686362222.39,-70.312,89.355,-11.719,-104.98,1299.285,345.31929056114444
1208,1686362222.39,-39.062,300.781,-10.742,-96.191,1299.3,348.8995943295773
1209,1686362222.4,-29.297,129.883,-20.02,-124.512,1299.304,355.91759243429163
1210,1686362222.4,-47.852,-217.285,-41.016,-160.156,1299.308,341.5399274708348
1211,1686362222.4,-74.707,-68.359,-15.137,-193.848,1299.312,340.9702739950233
1212,1686362222.41,-86.426,109.863,3.418,-183.594,1299.316,357.81634080147205
1213,1686362222.41,-71.777,-162.598,-34.668,-188.965,1299.32,341.00052631587107
1214,1686362222.42,-80.078,-703.613,-49.316,-219.727,1299.324,340.0554908406588
1215,1686362222.42,-87.402,-353.027,54.688,-261.23,1299.328,356.1157853959882
1216,1686362222.42,-79.59,440.43,23.926,-279.297,1299.331,332.7139309991212
1217,1686362222.43,-62.988,194.824,-39.551,-233.398,1299.335,347.45134886911774
1218,1686362222.43,-50.781,-178.223,14.648,-188.965,1299.339,356.6666545938353
1219,1686362222.44,-62.5,70.312,-2.441,-151.855,1299.343,355.004624960793
1220,1686362222.44,-63.477,125.488,-31.25,-109.863,1299.346,344.59907234391477
1221,1686362222.44,-41.504,-24.902,-26.855,-92.773,1299.35,351.8261035790718
1222,1686362222.44,-38.574,-118.652,-19.043,-122.07,1299.354,357.77279002801066
1223,1686362222.45,-62.012,-257.324,-22.461,-188.477,1299.358,349.23373996832277
1224,1686362222.45,-69.824,-20.508,-3.906,-180.664,1299.362,358.97858796654816
1225,1686362222.46,-49.316,-175.781,-32.715,-83.984,1299.366,348.2547229683249
1226,1686362222.46,-35.156,-826.172,-20.508,-48.34,1299.369,361.02527987413697
1227,1686362222.46,-44.922,-67.871,77.637,-104.98,1299.373,349.3520154271136
1228,1686362222.47,-60.547,522.949,15.625,-147.461,1299.377,349.85335442444267
1229,1686362222.47,-75.684,-169.922,-34.18,-126.465,1299.381,351.5085889073811
1230,1686362222.47,-40.527,-256.348,60.547,-113.281,1299.385,341.6436596145627
1231,1686362222.48,-24.902,420.41,41.992,-156.25,1299.389,353.8044498848634
1232,1686362222.48,-58.594,254.395,-25.879,-178.223,1299.391,357.678685272638
1233,1686362222.49,-54.688,-192.383,-26.367,-136.719,1299.395,349.7256062639358
1234,1686362222.49,-33.691,15.625,-5.859,-98.633,1299.399,345.3444769378335
1235,1686362222.49,-48.34,178.223,-8.789,-145.996,1299.403,356.6611105097287
1236,1686362222.5,-73.73,-57.617,-31.25,-216.309,1299.406,348.63433275035385
1237,1686362222.5,-63.477,-540.039,-20.02,-184.57,1299.41,352.7456553382833
1238,1686362222.51,-53.223,-303.223,22.949,-115.234,1299.414,349.85153164004095
1239,1686362222.51,-59.082,230.957,8.301,-124.023,1299.418,359.2867682907419
1240,1686362222.51,-85.449,-39.062,-46.875,-177.246,1299.422,348.31174246829744
1241,1686362222.52,-100.098,-680.176,-33.203,-185.059,1299.426,349.80859726409415
1242,1686362222.52,-83.496,-147.461,18.066,-160.156,1299.43,348.4454106584794
1243,1686362222.52,-72.266,145.996,-29.297,-148.926,1299.434,341.84169727004087
1244,1686362222.54,-84.473,-254.883,-20.996,-148.926,1299.436,358.2072589863414
1245,1686362222.54,-101.074,-283.203,57.617,-116.211,1299.44,340.91805599140156
1246,1686362222.55,-99.121,58.105,30.273,-62.012,1299.444,355.6421528835274
1247,1686362222.55,-80.078,14.16,-19.531,-55.176,1299.448,343.7925851817363
1248,1686362222.56,-74.707,-215.332,-23.438,-95.215,1299.452,352.89007714184214
1249,1686362222.56,-89.355,-641.113,3.418,-91.309,1299.456,352.7919637626756
1250,1686362222.56,-67.871,-71.289,56.641,-62.5,1299.46,335.6125776629435
1251,1686362222.57,-44.434,477.539,1.465,-62.988,1299.463,350.26745167566986
1252,1686362222.57,-69.336,-142.09,-40.527,-79.102,1299.467,342.7095425679556
1253,1686362222.58,-93.75,-310.059,56.152,-121.582,1299.471,356.4819907185263
1254,1686362222.58,-82.031,264.648,52.246,-127.441,1299.475,344.2914752791529
1255,1686362222.58,-68.848,231.445,-18.555,-92.285,1299.479,346.3946627032943
1256,1686362222.59,-62.012,-125.0,-41.016,-118.652,1299.484,352.65516237237944
1257,1686362222.59,-63.477,-132.812,-19.531,-194.824,1299.488,345.7814202015842
1258,1686362222.59,-60.547,-112.305,0.0,-226.074,1299.492,337.0448055688663
1259,1686362222.6,-41.992,-2.93,-9.277,-200.684,1299.496,338.9400011781483
1260,1686362222.6,-38.574,-335.938,-64.941,-149.902,1299.5,349.7290058651914
1261,1686362222.61,-54.688,-364.258,-21.973,-125.488,1299.504,339.73384139372075
1262,1686362222.61,-68.359,53.711,37.109,-125.488,1299.508,347.23835928088994
1263,1686362222.61,-55.664,117.676,-10.742,-92.285,1299.512,348.99468045941944
1264,1686362222.62,-30.762,-465.82,-20.508,-52.734,1299.516,356.27465436037846
1265,1686362222.62,-43.945,-52.734,62.5,-72.754,1299.519,351.6598251058707
1266,1686362222.62,-72.754,387.207,19.531,-118.652,1299.523,335.7685596826622
1267,1686362222.63,-65.918,-3.418,-23.926,-95.703,1299.527,345.4066744004712
1268,1686362222.63,-54.688,-18.066,21.973,-67.871,1299.527,343.42342081004784
1269,1686362222.64,-46.875,183.105,7.812,-109.375,1299.531,356.6717284104328
1270,1686362222.64,-56.152,65.43,-30.762,-165.527,1299.534,345.63054113527943
1271,1686362222.64,-55.176,-371.582,-24.414,-170.898,1299.538,353.9464092609164
1272,1686362222.65,-30.762,-519.043,41.016,-135.254,1299.542,340.5934327839969
1273,1686362222.65,-18.066,-48.828,32.227,-133.301,1299.546,347.68557568468214
1274,1686362222.66,-23.438,136.719,4.395,-189.941,1299.55,343.7177324075224
1275,1686362222.66,-35.645,-139.16,-10.254,-209.961,1299.554,347.45424233115597
1276,1686362222.66,-37.109,-588.867,-2.441,-157.227,1299.558,348.06402398321694
1277,1686362222.67,-42.48,254.395,66.406,-127.441,1299.562,342.1735822485581
1278,1686362222.67,-65.918,583.984,5.371,-125.488,1299.566,343.2166409576982
1279,1686362222.67,-83.984,-33.203,-42.48,-89.355,1299.57,350.2729781836408
1280,1686362222.69,-63.477,73.73,-3.906,-50.781,1299.589,351.28539386301725
1281,1686362222.7,-44.922,280.273,1.465,-34.668,1299.593,348.54756438570877
1282,1686362222.7,-52.246,118.652,-21.973,-76.66,1299.597,342.68524936350724
1283,1686362222.7,-50.293,-173.828,-28.809,-139.16,1299.601,356.763139963792
1284,1686362222.71,-46.387,-19.043,-7.324,-142.578,1299.605,346.35292816291025
1285,1686362222.71,-39.062,-49.316,-13.672,-133.789,1299.608,349.70379470807615
1286,1686362222.72,-40.527,-136.23,-31.25,-191.406,1299.612,337.28059067698246
1287,1686362222.72,-57.617,-617.188,-62.5,-255.859,1299.616,343.6477219781421
1288,1686362222.72,-66.406,-484.375,62.988,-253.418,1299.62,344.8756386360023
1289,1686362222.73,-58.594,576.172,69.824,-201.172,1299.624,345.8312480335608
1290,1686362222.73,-27.832,473.145,-31.738,-180.664,1299.628,360.64558420987214
1291,1686362222.74,-53.223,54.688,-10.742,-220.703,1299.632,353.1486595884315
