,timestamps,TP9,AF7,AF8,TP10,Secondary Timestamp,emg_signal
0,1686621059.99,23.438,166.016,25.879,5.859,437.886,366.8035947344657
1,1686621059.99,13.184,-112.793,57.617,3.906,437.89,357.0997306614399
2,1686621059.99,-70.312,33.203,26.367,-76.66,437.894,362.5797779800602
3,1686621060.0,-78.125,157.227,29.785,-92.285,437.898,363.88699630205275
4,1686621060.0,-3.418,72.754,23.926,-16.113,437.902,360.4354322301932
5,1686621060.01,17.09,-114.258,12.695,6.348,437.906,370.3483045859413
6,1686621060.01,-52.734,-93.75,57.617,-67.871,437.91,362.8056427314747
7,1686621060.01,-99.121,101.562,33.691,-94.727,437.913,365.81384945041015
8,1686621060.02,-31.25,-282.715,-12.207,-12.695,437.917,365.2138219821439
9,1686621060.02,26.367,-348.633,99.121,26.855,437.921,372.2796760355449
10,1686621060.02,-33.691,246.094,40.039,-45.41,437.925,364.38086858673535
11,1686621060.03,-101.074,-63.477,-31.738,-101.562,437.929,376.4920267352717
12,1686621060.03,-101.074,-63.477,-31.738,-101.562,437.929,359.48094105662074
13,1686621060.03,-55.664,-420.41,32.227,-48.34,437.927,369.25916349721166
14,1686621060.03,12.695,-12.695,78.613,11.719,437.93,366.3159422670109
15,1686621060.04,-25.391,433.105,22.949,-24.414,437.934,370.56556355457053
16,1686621060.04,-104.492,136.23,-16.113,-94.727,437.938,370.6392510676174
17,1686621060.05,-70.312,-552.246,59.082,-67.383,437.942,362.9011359368594
18,1686621060.05,25.391,-274.902,77.148,19.531,437.946,356.24391956701066
19,1686621060.05,19.531,64.453,20.508,17.09,437.95,368.2111295531525
20,1686621060.06,-63.965,-232.91,-5.859,-61.035,437.954,371.6970994694898
21,1686621060.06,-78.125,-893.555,22.949,-70.312,437.958,356.106636318705
22,1686621060.06,11.23,-557.129,142.09,8.789,437.962,368.07588887825295
23,1686621060.07,42.48,401.367,62.5,31.25,437.966,362.08902626765155
24,1686621060.07,-47.363,239.746,-40.527,-49.805,437.969,370.32344227665624
25,1686621060.08,-102.051,6.836,27.344,-89.844,437.973,368.11483641803466
26,1686621060.08,-32.715,322.754,50.293,-27.344,437.976,371.14558055250046
27,1686621060.08,35.645,456.055,0.0,14.648,437.98,370.86957265330113
28,1686621060.09,-15.625,60.059,-20.02,-30.273,437.984,375.5103117688431
29,1686621060.09,-87.891,-158.691,25.879,-85.449,437.988,373.533455731291
30,1686621060.1,-40.039,-182.617,20.508,-48.828,437.992,373.4917932952363
31,1686621060.1,30.273,5.371,21.973,20.508,437.996,374.3990534114511
32,1686621060.1,-4.395,-252.441,-29.297,0.488,438.0,370.16865892656955
33,1686621060.11,-88.379,-707.031,75.195,-73.242,438.004,368.13623021230626
34,1686621060.11,-75.195,57.617,95.703,-71.289,438.008,368.2744878792576
35,1686621060.12,11.23,452.637,10.254,9.766,438.012,368.75429879549154
36,1686621060.12,9.766,110.84,-2.441,12.695,438.015,368.78263048789097
37,1686621060.12,-74.707,41.016,0.0,-73.242,438.03,369.09869072329985
38,1686621060.12,-97.656,183.594,18.555,-90.82,438.034,367.43352253407744
39,1686621060.13,-14.648,201.172,36.133,-16.113,438.038,364.97747944084597
40,1686621060.13,24.414,134.277,91.797,8.301,438.041,357.94975234486526
41,1686621060.14,-48.34,102.051,18.066,-65.43,438.045,363.76453540561613
42,1686621060.14,-106.445,-260.742,-1.953,-102.051,438.049,363.2594083642686
43,1686621060.14,-42.48,-277.832,43.945,-38.574,438.053,362.97424396755184
44,1686621060.15,21.484,-744.629,-14.648,23.926,438.057,362.9330068446147
45,1686621060.15,-22.461,-980.957,34.18,-17.578,438.061,357.87788688107383
46,1686621060.15,-92.285,-128.418,48.828,-97.656,438.065,369.43546309345066
47,1686621060.16,-59.57,112.305,2.441,-60.547,438.069,366.4112036529474
48,1686621060.16,23.438,192.871,39.062,27.344,438.073,372.3023531246009
49,1686621060.17,1.953,467.285,16.113,0.977,438.075,363.98625148901095
50,1686621060.17,-78.613,305.664,-11.23,-87.891,438.079,371.4767662739399
51,1686621060.17,-77.637,-42.969,17.578,-90.82,438.083,367.4750191885132
52,1686621060.18,11.719,106.934,77.148,-6.348,438.087,369.68579775725567
53,1686621060.18,25.391,402.832,26.855,7.324,438.091,368.50220243148664
54,1686621060.19,-63.477,34.18,-10.742,-67.871,438.095,361.9314375674948
55,1686621060.19,-102.539,-551.758,12.207,-88.379,438.098,361.33251765198213
56,1686621060.19,-20.508,-408.691,66.406,-26.367,438.102,371.52413543387155
57,1686621060.2,28.809,70.801,38.086,3.418,438.106,369.95000914068123
58,1686621060.2,-42.969,159.668,-4.883,-57.617,438.11,367.5640358671203
59,1686621060.2,-112.305,-481.445,-67.383,-108.398,438.114,365.56333450171974
60,1686621060.21,-50.781,-612.793,96.68,-50.293,438.118,360.0674046333024
61,1686621060.21,31.25,372.07,91.309,14.648,438.119,366.6435369229065
62,1686621060.21,-17.09,385.742,-27.344,-29.297,438.123,370.6567007237068
63,1686621060.22,-102.051,-129.395,54.199,-104.98,438.127,365.7043065076869
64,1686621060.22,-70.312,122.559,65.43,-83.008,438.131,355.05746258142767
65,1686621060.22,11.719,430.176,21.973,-12.207,438.135,363.09834673725004
66,1686621060.23,-11.23,-52.734,-11.23,-30.762,438.139,366.0716557655427
67,1686621060.23,-106.445,-830.566,-20.508,-98.145,438.143,372.08875799498674
68,1686621060.24,-104.492,-649.414,84.473,-93.75,438.147,368.2960605763862
69,1686621060.24,-4.395,299.316,77.637,-16.113,438.151,366.45819938971044
70,1686621060.24,15.137,343.75,-15.625,9.277,438.155,372.4602577189179
71,1686621060.25,-73.73,-507.812,50.781,-66.895,438.158,361.19566352365274
72,1686621060.25,-102.051,-363.281,77.148,-103.027,438.162,370.78342940414836
73,1686621060.27,-22.949,288.574,41.992,-35.156,438.168,364.1861676636281
74,1686621060.28,26.367,238.281,21.973,7.812,438.172,363.2746490470333
75,1686621060.28,-42.48,-89.844,41.504,-45.41,438.176,368.47702040474127
76,1686621060.28,-109.863,56.641,59.57,-100.098,438.18,372.28551634463685
77,1686621060.29,-62.5,312.012,29.785,-60.547,438.184,361.14899625602146
78,1686621060.29,6.836,15.137,15.137,9.277,438.188,359.40294491765906
79,1686621060.3,-17.09,-246.582,59.082,-18.555,438.192,364.76795360603626
80,1686621060.3,-97.168,110.352,48.828,-104.004,438.196,371.9604025090595
81,1686621060.3,-77.148,197.266,42.48,-79.59,438.2,368.7072199320884
82,1686621060.31,7.812,-109.375,-2.441,0.977,438.204,359.7860070053665
83,1686621060.31,4.395,-2.441,37.109,-4.883,438.207,361.70629424817696
84,1686621060.31,-76.172,261.719,29.785,-85.449,438.211,367.29569964920347
85,1686621060.32,-94.238,99.121,10.742,-101.562,438.212,359.66268035862004
86,1686621060.32,-14.648,-167.969,55.176,-25.391,438.216,366.4105229248574
87,1686621060.32,20.02,61.035,53.711,1.953,438.22,360.6019493838306
88,1686621060.33,-48.828,350.098,18.066,-69.336,438.224,366.90324973085063
89,1686621060.33,-101.074,30.762,-17.578,-107.422,438.228,372.6465755788101
90,1686621060.34,-34.668,-602.051,4.883,-20.996,438.232,368.30357362766694
91,1686621060.34,22.949,-424.316,49.316,29.297,438.235,368.58340631145546
92,1686621060.34,-33.691,45.898,36.133,-41.016,438.239,368.2662862968581
93,1686621060.35,-105.469,5.371,-29.785,-102.539,438.243,354.00078364913435
94,1686621060.35,-67.871,-826.66,13.184,-54.688,438.247,368.5499912266225
95,1686621060.35,15.625,-544.434,146.484,9.277,438.251,365.89573607254147
96,1686621060.36,-10.742,378.906,44.922,-16.113,438.255,368.12149152306444
97,1686621060.38,-100.586,102.051,-9.277,-94.238,438.272,364.35620598218486
98,1686621060.38,-83.984,-37.598,62.5,-95.703,438.276,362.24529306391986
99,1686621060.38,8.789,367.188,72.266,-23.438,438.28,354.328023826475
100,1686621060.39,7.324,431.152,29.297,-21.973,438.283,360.04243236643805
101,1686621060.39,-80.078,-39.062,-13.184,-96.68,438.287,363.97422973160195
102,1686621060.4,-108.398,-413.574,29.297,-113.281,438.291,367.53156785655955
103,1686621060.4,-18.555,-118.164,63.477,-33.203,438.295,367.653462255569
104,1686621060.4,33.691,421.875,38.574,4.395,438.299,370.08218574412973
105,1686621060.4,0.977,126.465,20.508,-17.578,438.301,368.6481739134065
106,1686621060.41,-49.316,-172.363,-50.293,-63.477,438.303,363.8091599458619
107,1686621060.41,-108.398,56.152,39.551,-110.84,438.305,365.8543827979449
108,1686621060.41,-106.934,-699.219,113.281,-116.211,438.307,369.15110236098263
109,1686621060.41,-80.566,293.945,44.922,-85.449,438.309,363.5579478360989
110,1686621060.41,-23.926,173.34,132.812,-53.711,438.311,364.70020453093304
111,1686621060.42,14.16,392.09,35.156,5.859,438.313,365.08733999193885
112,1686621060.42,61.035,515.625,12.207,25.391,438.315,368.51542223472444
113,1686621060.42,-8.789,72.266,41.504,-5.859,438.317,372.5178136174614
114,1686621060.42,-106.934,-302.734,26.855,-86.426,438.321,369.47409897406453
115,1686621060.43,-90.332,-244.629,57.129,-77.148,438.325,371.2651418665159
116,1686621060.43,9.766,-103.027,36.621,12.207,438.329,368.0472359322811
117,1686621060.44,14.648,-536.133,49.805,24.902,438.333,354.57465682812506
118,1686621060.44,-63.477,-114.258,65.918,-46.387,438.336,362.08303557489415
119,1686621060.44,-86.426,314.941,29.785,-63.965,438.34,373.9302666750526
120,1686621060.45,-8.301,-2.441,17.09,8.789,438.344,361.44680183305235
121,1686621060.45,33.203,-735.84,15.625,55.176,438.348,358.3200503720091
122,1686621060.46,-28.809,-421.875,107.91,-6.348,438.352,364.3855551808407
123,1686621060.46,-84.473,233.887,45.898,-59.57,438.356,362.4105724342626
124,1686621060.46,-17.578,92.773,29.297,12.695,438.36,367.4032770124893
125,1686621060.47,64.453,280.273,83.496,88.379,438.364,371.4239981607995
126,1686621060.47,12.695,187.5,18.555,35.645,438.368,366.2105251495008
127,1686621060.48,-74.707,-93.75,1.465,-50.781,438.372,360.96938114497476
128,1686621060.48,-48.828,-337.402,4.395,-30.762,438.375,362.79410306927076
129,1686621060.48,37.598,-360.84,88.379,49.805,438.379,361.80530397117224
130,1686621060.49,34.668,169.434,81.543,40.527,438.383,369.07464615699763
131,1686621060.49,-58.594,244.629,12.695,-44.434,438.387,367.6977351405852
132,1686621060.49,-72.754,-254.395,-18.066,-44.922,438.391,364.8133876002295
133,1686621060.49,19.043,54.199,79.102,35.156,438.391,367.7540674235545
134,1686621060.5,43.945,634.277,48.34,50.293,438.395,372.5457983120607
135,1686621060.5,-49.316,327.637,0.488,-31.25,438.399,366.03038676429827
136,1686621060.51,-90.82,-25.879,115.723,-68.359,438.403,362.33943113787666
137,1686621060.51,-11.23,139.16,75.684,5.371,438.407,360.26474172741615
138,1686621060.51,44.434,190.43,32.715,42.969,438.411,362.8894706488074
139,1686621060.52,-19.043,-76.66,8.301,-19.043,438.415,363.95631392110056
140,1686621060.52,-95.703,-865.723,-9.766,-69.824,438.419,363.16568728395316
141,1686621060.52,-36.133,-703.613,145.508,-25.879,438.422,362.03233779550567
142,1686621060.53,53.223,402.832,105.469,33.691,438.426,365.9186468965509
143,1686621060.53,16.602,446.777,-13.184,0.0,438.43,358.9685705019475
144,1686621060.54,-72.754,37.598,22.949,-67.871,438.434,355.3502229192802
145,1686621060.56,-53.711,15.625,60.059,-41.016,438.452,367.0382309428439
146,1686621060.56,42.48,449.707,52.734,41.016,438.456,369.240579240339
147,1686621060.56,40.039,297.363,2.441,33.691,438.46,358.71845021124994
148,1686621060.57,-49.316,-109.863,61.035,-53.711,438.464,365.3225905156619
149,1686621060.57,-58.594,123.047,61.523,-69.336,438.468,364.0351570081818
150,1686621060.58,23.438,223.145,22.461,16.602,438.471,357.4895532142624
151,1686621060.58,40.039,-121.582,-4.395,44.434,438.475,364.5521633142311
152,1686621060.58,-43.457,-454.102,69.824,-37.598,438.479,356.3549406070187
153,1686621060.58,-72.266,352.051,22.949,-68.848,438.495,363.00875255480486
154,1686621060.59,-86.914,103.516,76.172,-80.078,438.483,361.28746324451913
155,1686621060.59,-37.109,208.008,12.207,-32.227,438.498,354.0843547544025
156,1686621060.59,-16.113,375.0,31.25,-16.113,438.487,369.21980897621785
157,1686621060.59,29.785,-40.039,45.41,32.715,438.502,361.2888723405366
158,1686621060.59,46.387,161.621,20.508,41.504,438.491,358.0850166286863
159,1686621060.6,8.301,173.34,29.785,11.719,438.506,356.1531990671455
160,1686621060.6,-3.906,264.16,19.531,-3.906,438.495,356.45358174686993
161,1686621060.6,-84.961,200.195,0.977,-77.637,438.51,367.24037731030796
162,1686621060.6,-94.238,-208.496,3.906,-84.473,438.514,357.62674512179694
163,1686621060.61,-7.324,-816.895,19.043,13.672,438.518,361.16491467050724
164,1686621060.61,11.719,-578.125,128.906,26.367,438.522,352.7503675537962
165,1686621060.62,-65.918,297.363,60.547,-62.988,438.526,356.9045789455251
166,1686621060.62,-91.309,113.77,-41.992,-78.613,438.53,356.60026091915836
167,1686621060.62,-17.578,-705.078,38.574,3.418,438.534,352.69996655614796
168,1686621060.63,20.996,-123.047,87.891,29.785,438.537,357.6970907497779
169,1686621060.64,-38.086,465.332,-2.441,-43.945,438.542,345.5195746105079
170,1686621060.65,-94.238,56.152,11.719,-95.703,438.546,359.0904498303092
171,1686621060.65,-37.598,115.723,79.59,-41.992,438.55,355.87805151337255
172,1686621060.66,37.109,482.422,49.805,21.484,438.554,362.7180657834916
173,1686621060.66,-7.324,441.406,5.859,-25.391,438.558,360.11665279949887
174,1686621060.66,-92.285,-193.359,-2.93,-91.797,438.562,366.43458704439786
175,1686621060.67,-62.988,-506.348,52.734,-60.547,438.566,363.39493286094614
176,1686621060.67,29.785,-41.992,88.867,16.113,438.569,363.3587518048049
177,1686621060.68,14.16,350.586,20.508,0.488,438.573,360.0111617929147
178,1686621060.68,-86.426,-348.633,-62.988,-82.52,438.577,348.17888041073127
179,1686621060.68,-83.496,-581.543,107.91,-79.102,438.581,362.7064910656082
180,1686621060.69,10.254,341.797,102.539,-2.441,438.585,363.5910629635272
181,1686621060.69,25.391,447.754,-10.254,7.812,438.586,375.4960331758721
182,1686621060.69,-53.223,-52.734,42.48,-69.336,438.59,363.7472705758253
183,1686621060.7,-88.867,-32.227,74.707,-86.914,438.594,368.10084362151264
184,1686621060.7,-10.254,354.98,52.734,-8.789,438.598,367.269195578963
185,1686621060.7,38.574,338.867,9.766,28.809,438.601,366.4127347944297
186,1686621060.71,-32.227,-229.492,68.359,-36.133,438.605,362.04247889004927
187,1686621060.71,-89.355,-388.672,76.66,-93.75,438.609,364.3122263475524
188,1686621060.72,-22.461,-161.621,53.223,-29.785,438.613,366.67961164653985
189,1686621060.72,44.434,-19.043,46.387,34.18,438.617,363.2101561974704
190,1686621060.72,-9.277,-753.418,0.977,-13.184,438.621,371.73525963164286
191,1686621060.73,-91.797,-777.832,180.176,-89.355,438.625,370.74536838835917
192,1686621060.73,-54.199,169.434,169.922,-71.777,438.629,361.75685133944296
193,1686621060.74,35.645,314.453,13.672,7.812,438.633,384.47486134802364
194,1686621060.74,21.484,285.156,35.645,-0.977,438.637,373.2296120468531
195,1686621060.74,-60.547,331.543,31.738,-76.172,438.641,376.9874553856072
196,1686621060.75,-64.453,283.691,37.598,-76.66,438.645,380.8841452210219
197,1686621060.75,15.137,121.094,40.527,2.441,438.649,359.9717915525152
198,1686621060.76,29.297,-94.727,27.832,18.066,438.653,376.96759374832186
199,1686621060.76,-51.27,-88.379,53.223,-56.641,438.657,366.18997308288306
200,1686621060.76,-83.496,179.688,47.852,-88.379,438.661,378.308641567839
201,1686621060.77,-8.301,-159.668,13.184,-8.301,438.664,370.80420232191955
202,1686621060.77,43.945,-389.648,134.766,43.945,438.668,378.713003458903
203,1686621060.78,-17.578,37.598,102.539,-23.438,438.672,374.3204431105721
204,1686621060.78,-35.156,-299.805,-10.254,-37.598,438.676,370.95613273247045
205,1686621060.78,-86.426,80.078,13.184,-88.379,438.676,380.61903218636115
206,1686621060.78,41.992,58.105,77.148,30.762,438.68,366.26296511634956
207,1686621060.79,7.324,508.301,44.922,-10.742,438.684,377.01580417085887
208,1686621060.79,-77.637,170.898,10.254,-84.961,438.688,377.8309508014743
209,1686621060.8,-60.547,-208.008,125.977,-59.57,438.692,378.5650798920848
210,1686621060.8,31.738,-76.66,110.84,23.438,438.696,371.61668841163987
211,1686621060.8,27.344,68.848,43.945,14.16,438.699,375.1648564834877
212,1686621060.81,-72.754,-180.664,20.508,-82.031,438.703,380.86191529305444
213,1686621060.81,-103.516,-903.32,8.301,-98.145,438.707,378.8107368517597
214,1686621060.81,-18.066,-708.496,197.266,-16.602,438.711,373.40201062901
215,1686621060.82,30.273,370.117,175.293,7.324,438.715,378.7258740466274
216,1686621060.82,-49.316,311.523,-16.602,-65.43,438.719,373.5899262496712
217,1686621060.83,-109.863,-86.426,43.945,-111.328,438.725,373.77843574053736
218,1686621060.83,-37.598,79.102,114.746,-46.875,438.728,373.76440251336436
219,1686621060.84,36.133,495.117,66.406,12.207,438.732,373.7858972711376
220,1686621060.84,-27.832,229.98,20.02,-36.621,438.736,378.9583373929801
221,1686621060.84,-106.934,-207.031,78.125,-101.562,438.74,375.5334284752083
222,1686621060.85,-62.988,-153.809,81.055,-52.246,438.744,380.89690612757613
223,1686621060.85,15.137,137.695,54.199,21.973,438.748,383.64983077583696
224,1686621060.85,-17.578,-128.906,-15.137,-7.812,438.752,374.1950608841237
225,1686621060.86,-108.887,-530.273,86.914,-98.145,438.756,373.240688608905
226,1686621060.86,-85.449,126.465,113.77,-83.984,438.76,381.8111063539273
227,1686621060.87,10.742,424.316,40.527,3.906,438.764,375.1713285037537
228,1686621060.87,-74.219,163.086,32.715,-65.918,438.766,375.5542845558537
229,1686621060.87,14.648,147.461,20.996,11.23,438.768,385.0980555780591
230,1686621060.87,-101.562,291.504,46.387,-88.867,438.77,375.02317920313743
231,1686621060.88,-18.066,243.652,36.621,-6.348,438.773,386.52194123828633
232,1686621060.88,17.578,18.555,74.219,31.738,438.777,380.5997844634934
233,1686621060.88,-56.641,52.246,52.246,-47.852,438.781,387.48525705983735
234,1686621060.89,-105.957,-147.461,30.762,-105.469,438.785,378.61372000258865
235,1686621060.89,-39.551,-248.047,41.992,-42.48,438.789,387.1651354747314
236,1686621060.9,24.902,-731.445,-10.742,24.902,438.793,381.3273688449793
237,1686621060.9,-28.809,-977.051,58.105,-25.391,438.797,383.2330807306118
238,1686621060.9,-99.609,-80.566,71.289,-101.562,438.801,390.32673104946474
239,1686621060.91,-63.477,210.449,11.719,-65.918,438.805,377.77627774617076
240,1686621060.91,18.555,198.73,58.105,19.531,438.809,369.7694605393349
241,1686621060.92,2.93,406.738,26.367,1.953,438.825,374.81385661711397
242,1686621060.92,-87.402,312.988,-5.859,-89.355,438.829,375.52815729587184
243,1686621060.92,-81.055,10.254,26.855,-78.125,438.833,367.8283307623606
244,1686621060.93,12.695,153.32,90.332,8.301,438.837,366.69063022485955
245,1686621060.93,20.02,439.453,35.156,16.602,438.841,374.5031357702456
246,1686621060.94,-65.918,70.312,1.465,-62.5,438.845,368.6293868090976
247,1686621060.94,-104.98,-502.441,-20.02,-90.332,438.849,369.34953363697787
248,1686621060.94,-34.18,-867.676,59.57,-14.648,438.853,373.99995111967183
249,1686621060.95,22.949,68.359,127.93,20.508,438.857,369.7363987339667
250,1686621060.95,-41.504,476.562,-2.93,-53.711,438.861,371.955342374494
251,1686621060.96,-116.699,-169.434,-32.227,-106.934,438.864,361.5002534481344
252,1686621060.96,18.555,549.316,46.387,17.09,438.87,374.6358794229426
253,1686621060.96,-62.5,54.688,52.246,-53.223,438.868,377.73470375880834
254,1686621060.96,-22.461,378.906,0.488,-19.531,438.874,372.6255245632332
255,1686621060.97,-102.051,-140.137,47.852,-101.562,438.877,365.2813723206857
256,1686621060.97,-71.289,7.812,74.707,-79.102,438.881,373.4541801624445
257,1686621060.98,19.043,355.957,41.992,12.207,438.885,366.2207131024672
258,1686621060.98,8.301,20.508,-3.418,4.395,438.889,362.27157046587445
259,1686621060.98,-91.797,-834.961,10.254,-82.031,438.893,366.0308736778707
260,1686621060.99,-94.727,-649.902,149.414,-89.844,438.897,367.42289798234657
261,1686621060.99,6.348,157.227,62.988,-13.184,438.901,360.63510756787787
262,1686621060.99,23.926,-1.953,-17.578,6.348,438.905,358.79953417307337
263,1686621061.0,-66.895,-536.133,71.777,-73.73,438.909,362.04355132483175
264,1686621061.0,-101.074,-78.125,76.172,-113.281,438.913,364.72606023648433
265,1686621061.02,-23.926,384.766,23.438,-43.945,438.917,358.23579086216154
266,1686621061.02,32.715,228.516,25.391,2.441,438.921,352.53037705889506
267,1686621061.03,-24.414,147.949,35.645,-50.781,438.925,361.1740203368457
268,1686621061.03,-93.262,198.73,25.391,-98.145,438.929,357.5931476928601
269,1686621061.04,-41.016,321.777,30.273,-42.969,438.933,358.55133981015683
270,1686621061.04,27.344,-60.547,0.488,21.484,438.937,360.7188105869876
271,1686621061.04,-11.719,-353.516,21.973,-21.484,438.941,351.5702560153737
272,1686621061.05,-97.656,92.773,45.41,-90.332,438.945,364.7977146889675
273,1686621061.05,-82.52,235.352,14.16,-63.965,438.949,358.0959905897503
274,1686621061.06,17.09,-107.91,-5.859,26.367,438.952,356.30424058342214
275,1686621061.06,18.555,-101.562,30.273,18.066,438.956,358.5216027430779
276,1686621061.06,-72.266,-12.207,28.809,-80.078,438.96,360.3099756418271
277,1686621061.06,-85.938,-42.969,23.438,-86.426,438.961,358.1252855907275
278,1686621061.07,-6.836,-284.18,-18.066,0.0,438.965,356.6816945599592
279,1686621061.07,33.203,15.625,23.926,28.809,438.969,363.4746942193275
280,1686621061.08,-27.344,343.75,5.371,-52.246,438.973,366.3032090902807
281,1686621061.08,-98.633,-15.625,-16.602,-109.863,438.977,347.35305679663514
282,1686621061.08,-38.086,-327.637,94.727,-52.246,438.981,360.0816711780224
283,1686621061.09,44.922,-121.582,59.082,22.461,438.985,350.13301224879893
284,1686621061.09,-10.254,-25.879,13.184,-16.113,438.988,363.95510274709517
285,1686621061.1,-87.402,-281.738,-11.23,-92.285,438.992,362.78292818596134
286,1686621061.1,-52.246,-836.914,22.949,-45.898,438.996,366.0080830251572
287,1686621061.1,31.738,-270.996,181.641,34.18,439.0,356.684867989517
288,1686621061.11,7.324,497.559,33.691,4.883,439.004,366.2937615266525
289,1686621061.11,-86.914,161.621,-60.059,-72.266,439.01,354.4337899312068
290,1686621061.12,-75.195,-125.977,21.973,-54.688,439.014,360.0918810495317
291,1686621061.12,24.902,139.16,70.801,32.227,439.018,352.921886680912
292,1686621061.12,28.32,504.395,15.625,31.738,439.022,356.72443021092397
293,1686621061.13,-63.965,44.922,-30.762,-51.758,439.026,365.396433917967
294,1686621061.13,-91.309,-527.344,31.25,-76.172,439.03,364.68855593781905
295,1686621061.14,-5.859,-92.285,78.125,-2.441,439.034,362.9047079046723
296,1686621061.14,43.457,507.812,10.742,27.832,439.038,367.4653612228164
297,1686621061.14,-37.598,-116.699,-85.449,-41.504,439.041,354.15763579372003
298,1686621061.15,-101.562,-582.52,50.293,-95.703,439.045,350.8138546215345
299,1686621061.15,-30.762,235.352,69.824,-42.48,439.049,365.95775503932583
300,1686621061.15,-12.207,67.383,-27.344,-10.742,439.051,356.45372164015464
301,1686621061.16,42.48,479.98,-12.695,27.344,439.053,347.603967242847
302,1686621061.16,-93.75,64.453,13.184,-81.055,439.054,373.77185045738696
303,1686621061.16,-55.176,316.406,54.199,-54.199,439.058,368.20522081392244
304,1686621061.17,27.832,341.797,-5.371,18.066,439.062,360.0796358469938
305,1686621061.17,1.953,-48.828,18.555,-2.93,439.066,355.801925408172
306,1686621061.17,-83.984,-305.664,27.832,-84.473,439.07,363.67844294270554
307,1686621061.18,-81.055,-243.164,11.23,-82.031,439.074,364.9226071727598
308,1686621061.18,3.906,-96.68,20.996,-0.977,439.078,361.68909323717514
309,1686621061.18,13.184,-733.887,-46.875,20.02,439.082,377.77473652570205
310,1686621061.19,-79.59,-988.77,6.836,-59.082,439.086,365.6520414463904
311,1686621061.19,-98.633,-68.848,50.781,-96.68,439.09,363.6833658356084
312,1686621061.2,-9.277,268.066,-7.324,-21.484,439.093,372.4620786056454
313,1686621061.2,28.809,268.066,1.953,20.508,439.098,366.575644386596
314,1686621061.2,-34.18,371.094,0.488,-48.34,439.102,373.77756524612647
315,1686621061.21,-90.82,291.016,-9.766,-98.145,439.106,375.47521512070387
316,1686621061.21,-40.527,140.137,14.648,-35.156,439.11,370.99186525118
317,1686621061.22,31.738,272.949,41.992,30.762,439.114,378.22984149162244
318,1686621061.22,-18.066,124.023,-11.23,-14.648,439.118,371.4970263767287
319,1686621061.22,-103.027,-172.852,8.301,-96.191,439.121,379.17287443452716
320,1686621061.23,-68.848,-461.914,-26.367,-66.406,439.125,385.36238122543443
321,1686621061.23,21.973,-814.941,19.043,18.066,439.129,372.45448496702386
322,1686621061.24,18.066,109.375,56.152,-0.977,439.133,371.261275704913
323,1686621061.24,-76.172,365.723,-27.344,-87.891,439.137,374.0245371453176
324,1686621061.24,-90.332,-181.152,-10.742,-100.098,439.141,382.62749279305956
325,1686621061.24,3.418,216.797,39.062,-10.254,439.141,371.4964705347703
326,1686621061.25,25.391,609.375,8.789,13.672,439.145,376.1262878055969
327,1686621061.25,-54.688,276.367,-28.809,-63.965,439.149,371.6322343763677
328,1686621061.26,-90.82,-133.301,61.523,-86.426,439.153,383.1335006325735
329,1686621061.26,-23.926,27.344,51.758,-21.484,439.157,378.5452420431105
330,1686621061.26,33.203,146.484,26.367,17.09,439.16,374.4689142536282
331,1686621061.27,-27.344,-56.152,-2.441,-40.039,439.164,376.12341335740825
332,1686621061.27,-119.629,-849.609,-28.809,-99.121,439.168,378.2849096312148
333,1686621061.28,-74.707,-755.371,136.23,-61.035,439.172,385.11523840328647
334,1686621061.28,21.973,201.172,53.711,2.441,439.176,386.6270201878343
335,1686621061.28,-6.348,91.309,-47.363,-25.391,439.18,389.55428510148545
336,1686621061.29,-100.098,-293.457,84.473,-107.422,439.184,389.4889432898298
337,1686621061.29,-76.172,137.695,73.73,-98.145,439.2,387.99493674316756
338,1686621061.3,19.531,488.281,9.766,-5.371,439.203,387.0135001516204
339,1686621061.3,13.184,264.648,-17.09,-0.488,439.207,387.9906621215172
340,1686621061.3,-78.613,120.117,5.859,-82.52,439.211,386.42581476479927
341,1686621061.31,-98.633,190.918,22.461,-98.633,439.215,385.0970421874334
342,1686621061.31,-11.23,145.02,7.812,-16.113,439.219,385.53775948933793
343,1686621061.32,17.578,-219.238,3.418,19.043,439.223,381.6520921215012
344,1686621061.32,-60.547,-510.742,83.984,-64.941,439.227,380.4550947949195
345,1686621061.32,-97.656,70.312,61.523,-107.91,439.231,385.15760730426507
346,1686621061.33,-27.832,331.543,2.93,-29.785,439.235,385.3576442742228
347,1686621061.33,31.738,131.836,-8.789,26.855,439.239,382.2333751712491
348,1686621061.33,-22.461,120.117,-14.648,-37.598,439.243,384.57145461770557
349,1686621061.34,-102.051,-36.621,14.16,-107.91,439.233,387.20930175610505
350,1686621061.34,-54.688,7.324,23.438,-61.523,439.237,379.32424895554465
351,1686621061.34,32.715,-170.41,-8.301,22.461,439.241,388.8347723945336
352,1686621061.35,16.113,82.031,5.859,1.465,439.245,384.84434625648845
353,1686621061.35,-76.66,245.117,3.418,-92.285,439.249,394.33898254364624
354,1686621061.36,-98.145,-183.105,-5.371,-104.492,439.252,389.74708985387497
355,1686621061.36,-20.996,-746.094,2.441,-17.578,439.256,383.5162532543012
356,1686621061.36,-6.836,-447.754,68.848,-9.766,439.26,389.8709381597479
357,1686621061.37,-93.75,308.594,12.695,-105.469,439.264,385.5444382948726
358,1686621061.37,-126.465,12.207,-30.273,-134.277,439.268,391.5444336914235
359,1686621061.37,-40.527,-247.559,124.023,-52.734,439.272,387.78125921137877
360,1686621061.38,9.766,363.281,74.707,-14.648,439.276,395.0871763748282
361,1686621061.4,-64.453,473.633,-39.062,-72.266,439.293,399.9201522054541
362,1686621061.4,-120.117,63.965,-24.902,-116.699,439.297,387.07803412790736
363,1686621061.4,-54.199,-66.895,17.578,-59.57,439.301,393.95907608944725
364,1686621061.41,24.902,201.172,66.406,3.418,439.305,389.0571271984955
365,1686621061.41,-20.02,433.105,15.625,-41.016,439.308,391.04505101065837
366,1686621061.42,-104.004,-259.277,-44.434,-110.84,439.312,402.57471996861693
367,1686621061.42,-72.754,-958.008,63.965,-77.148,439.316,395.7777044059899
368,1686621061.42,27.832,-34.18,128.906,6.836,439.32,390.8080974330599
369,1686621061.43,17.578,500.488,7.324,-14.16,439.324,405.9271450277123
370,1686621061.43,-76.172,-83.984,-44.434,-91.797,439.328,393.43773509693125
371,1686621061.44,-75.195,-17.578,14.16,-85.938,439.332,398.01380252373093
372,1686621061.44,27.344,337.402,-9.277,15.625,439.336,392.7224606168081
373,1686621061.44,11.719,378.906,24.902,-1.465,439.336,400.47469998495234
374,1686621061.44,-62.5,-46.875,12.207,-74.707,439.339,392.8884488464745
375,1686621061.45,-96.191,0.977,42.48,-105.957,439.343,396.92549719338956
376,1686621061.45,-14.16,356.934,36.133,-21.973,439.347,401.96002196699175
377,1686621061.46,19.043,214.844,13.672,1.953,439.351,394.7616549941368
378,1686621061.46,-50.293,-448.242,48.828,-69.336,439.355,384.2431541307523
379,1686621061.46,-109.375,-527.344,50.293,-115.234,439.359,390.69323165654527
380,1686621061.47,-50.781,-231.934,34.668,-57.129,439.363,396.80058214381404
381,1686621061.47,24.902,-98.633,14.16,6.348,439.367,389.1681781331478
382,1686621061.47,-30.273,-788.086,-34.668,-31.738,439.371,386.3554446949665
383,1686621061.48,-111.328,-977.539,65.918,-96.191,439.375,383.4683478572846
384,1686621061.48,-67.383,-7.324,83.984,-66.406,439.378,383.25669237221547
385,1686621061.49,27.832,331.055,-9.277,14.648,439.383,390.2956401501034
386,1686621061.49,18.555,255.859,2.93,6.348,439.386,375.9793360168089
387,1686621061.49,-70.312,268.066,9.766,-77.637,439.39,384.26058299541455
388,1686621061.5,-77.637,254.883,22.461,-84.961,439.394,392.4984883428069
389,1686621061.5,8.301,161.621,30.273,1.953,439.398,376.14424396331054
390,1686621061.51,31.25,-42.48,33.691,21.484,439.402,384.447924277528
391,1686621061.51,-50.781,-171.875,18.555,-52.246,439.406,381.88246272002937
392,1686621061.51,-91.309,24.414,32.227,-87.891,439.41,386.9008890393565
393,1686621061.52,-17.578,-308.105,-16.113,-15.625,439.414,372.7242956086154
394,1686621061.52,33.203,-787.598,41.504,36.621,439.418,370.8607393585706
395,1686621061.52,-19.531,91.309,62.5,-28.32,439.422,372.54834150504735
396,1686621061.53,-92.285,294.922,8.789,-90.332,439.426,356.2585008754109
397,1686621061.53,-53.711,-95.215,22.461,-45.41,439.426,365.56360203954983
398,1686621061.53,20.02,332.031,43.457,23.926,439.43,354.35577100027206
399,1686621061.54,-8.301,548.34,11.23,-13.672,439.434,355.8964296335688
400,1686621061.54,-87.891,195.312,-2.93,-91.797,439.438,369.02576438104177
401,1686621061.55,-75.684,-204.59,105.469,-75.195,439.442,363.4435457061741
402,1686621061.55,15.625,-75.195,100.098,13.184,439.446,365.9204094771147
403,1686621061.55,17.578,84.473,13.184,7.812,439.45,354.6617662429803
404,1686621061.56,-76.172,-205.078,-14.16,-79.102,439.454,365.8853052165806
405,1686621061.56,-103.516,-885.254,6.348,-84.961,439.457,359.19527190657385
406,1686621061.56,-7.324,-562.988,134.277,-6.348,439.461,353.7774729612423
407,1686621061.57,37.598,204.59,67.871,17.578,439.465,367.42231293620455
408,1686621061.57,-44.434,-69.336,-5.371,-57.617,439.469,360.5877399291809
409,1686621061.58,-91.797,-328.125,104.492,-104.98,439.473,363.89873581830227
410,1686621061.58,-24.902,243.164,102.539,-45.41,439.477,371.35955361601685
411,1686621061.58,31.25,549.805,17.09,11.23,439.481,364.8445876016982
412,1686621061.59,-19.043,186.523,12.695,-39.062,439.485,389.5484946743986
413,1686621061.59,-95.215,34.668,47.363,-105.469,439.489,373.16660396756055
414,1686621061.6,-57.617,-26.367,51.758,-62.988,439.493,375.67635548583445
415,1686621061.6,34.668,44.922,44.922,22.461,439.497,414.7275240456263
416,1686621061.6,-0.488,-231.445,-20.508,-11.23,439.501,406.10779222735965
417,1686621061.61,-108.398,-567.383,83.984,-108.887,439.504,401.61971347507193
418,1686621061.61,-86.426,106.934,87.891,-93.262,439.508,438.6752695653379
419,1686621061.62,19.043,412.109,2.441,9.277,439.512,428.7241456920813
420,1686621061.62,22.949,142.578,3.906,18.555,439.516,431.51013350570025
421,1686621061.62,-61.523,-30.762,2.441,-72.266,439.532,439.438264275195
422,1686621061.62,-89.844,-72.754,44.434,-101.074,439.536,433.0493149212542
423,1686621061.63,-6.836,126.953,40.527,-24.902,439.539,444.664706233406
424,1686621061.63,38.574,-171.875,-1.953,16.113,439.543,443.9001772302042
425,1686621061.64,-27.832,-133.301,13.672,-52.246,439.547,444.09112108398557
426,1686621061.64,-85.449,-149.414,44.434,-98.633,439.551,460.2314175225356
427,1686621061.64,-28.32,-279.297,44.434,-40.039,439.555,459.96102964660497
428,1686621061.65,34.18,-791.016,4.395,25.879,439.559,450.96738135995133
429,1686621061.65,-17.578,-661.133,133.301,-34.668,439.563,479.15710909928134
430,1686621061.66,-93.75,124.023,69.336,-111.328,439.567,481.6685226967618
431,1686621061.66,-62.012,81.055,17.09,-66.406,439.571,470.28410917715365
432,1686621061.66,21.973,151.855,82.031,12.207,439.575,475.5252577562918
433,1686621061.67,2.441,437.012,33.691,-2.93,439.563,481.29279461597963
434,1686621061.67,-85.449,335.449,-7.324,-83.984,439.567,472.95359177824406
435,1686621061.68,-85.449,13.184,8.789,-95.703,439.571,487.23089301713253
436,1686621061.68,-7.324,-26.855,65.918,-17.09,439.575,497.1960402972057
437,1686621061.68,6.836,145.02,46.387,-1.953,439.579,492.095307647692
438,1686621061.69,-71.289,33.203,2.93,-78.125,439.583,491.0746789577857
439,1686621061.69,-109.375,-480.469,-18.555,-102.539,439.587,486.5681786833664
440,1686621061.69,-34.668,-888.672,54.199,-27.344,439.591,490.2627160367276
441,1686621061.7,25.391,20.996,116.211,14.16,439.595,493.93647827583175
442,1686621061.7,-42.48,445.801,11.23,-50.293,439.599,501.0643118159062
443,1686621061.71,-115.723,-168.457,-12.207,-106.445,439.602,492.1638557477762
444,1686621061.71,27.832,406.738,41.992,28.809,439.62,500.1830742124726
445,1686621061.71,-52.246,-45.898,73.242,-48.828,439.606,481.82037731243514
446,1686621061.71,-16.602,261.719,-16.113,-25.879,439.623,496.036902218034
447,1686621061.72,-102.051,-181.641,38.574,-117.188,439.627,492.8957045217099
448,1686621061.72,-68.359,-66.406,40.527,-82.031,439.631,478.8590212120339
449,1686621061.72,26.367,167.48,20.996,5.859,439.635,483.1191729647373
450,1686621061.73,9.766,-98.633,-12.695,-1.465,439.639,491.8272709458327
451,1686621061.73,-89.844,-839.355,-44.922,-71.289,439.643,474.3720106004309
452,1686621061.74,-101.074,-993.164,107.91,-78.125,439.647,468.2446148668818
453,1686621061.74,1.465,4.883,133.789,-4.395,439.651,484.1475561369789
454,1686621061.74,27.344,285.156,-5.371,22.461,439.655,482.6283945095945
455,1686621061.75,-49.805,-335.449,93.262,-53.711,439.659,474.0962498812304
456,1686621061.75,-82.031,1.953,97.168,-93.75,439.663,464.8498970599468
457,1686621061.77,-14.648,423.34,21.484,-24.902,439.667,458.9632399398696
458,1686621061.77,31.25,285.156,19.043,23.438,439.671,462.0101723276265
459,1686621061.78,-36.133,126.465,37.109,-36.621,439.675,436.64274510544607
460,1686621061.78,-109.863,130.371,54.199,-103.516,439.679,438.77608690359665
461,1686621061.79,-63.965,264.16,28.32,-56.152,439.683,433.67010440136664
462,1686621061.79,7.812,-32.715,6.836,16.113,439.687,419.38401331462836
463,1686621061.79,-24.902,-312.012,54.199,-21.484,439.69,417.4319505671146
464,1686621061.8,-98.633,53.223,37.109,-105.469,439.694,414.8430125734845
465,1686621061.8,-77.637,98.145,11.23,-85.938,439.698,421.16985891345655
466,1686621061.8,10.254,-388.672,13.672,4.883,439.702,390.66059431475213
467,1686621061.81,10.254,-447.754,105.957,9.766,439.706,393.6825056751492
468,1686621061.81,-69.336,152.344,51.27,-77.637,439.71,395.10600424955095
469,1686621061.81,-89.355,125.977,0.0,-94.727,439.711,409.57681917880353
470,1686621061.82,-7.812,-115.234,51.27,-9.766,439.715,368.661319594504
471,1686621061.82,33.691,213.379,36.133,10.254,439.719,372.2945462389873
472,1686621061.83,-37.109,342.285,12.695,-68.848,439.723,377.4345783894481
473,1686621061.83,-94.238,-63.477,2.441,-106.445,439.727,363.6101858049897
474,1686621061.83,-20.508,-433.105,70.312,-27.344,439.731,359.826443773594
475,1686621061.84,38.574,-300.293,49.805,23.438,439.735,353.55866876245165
476,1686621061.84,-19.043,-53.711,18.066,-41.504,439.739,351.1007764600995
477,1686621061.84,-91.309,-97.168,-22.461,-104.98,439.742,337.68676865197415
478,1686621061.85,-61.035,-812.988,31.738,-55.664,439.746,327.08906842360193
479,1686621061.85,24.414,-426.27,205.566,18.066,439.75,332.07829985755933
480,1686621061.86,-1.465,111.816,44.922,-13.672,439.754,332.7239860273014
481,1686621061.86,-93.75,-268.555,-23.438,-96.68,439.759,314.1516714161516
482,1686621061.86,-81.055,-260.254,90.332,-83.008,439.762,321.3555857282262
483,1686621061.87,9.766,243.164,79.102,10.254,439.766,303.92500486974154
484,1686621061.87,20.02,452.148,8.789,14.16,439.77,307.62738148546885
485,1686621061.88,-63.965,-63.965,-11.23,-69.336,439.774,305.1455598131861
486,1686621061.88,-102.539,-635.742,49.316,-97.168,439.778,300.1403033867734
487,1686621061.88,-21.484,-181.641,109.863,-24.902,439.782,304.05143720205535
488,1686621061.89,26.367,433.105,24.902,11.719,439.786,296.28665288815546
489,1686621061.89,-54.688,-187.988,-49.805,-62.5,439.79,296.4365761824979
490,1686621061.9,-116.211,-646.973,94.727,-108.887,439.794,296.92821139360507
491,1686621061.9,-40.527,138.184,103.027,-37.598,439.798,292.989086369046
492,1686621061.9,37.598,417.969,0.488,28.809,439.802,294.06006440980707
493,1686621061.9,-24.902,27.344,-29.297,-33.691,439.803,294.7988493217883
494,1686621061.91,-112.305,-166.504,-3.418,-108.887,439.807,296.4175520652871
495,1686621061.91,-66.895,-51.758,66.895,-67.383,439.81,290.7763129175843
496,1686621061.92,28.32,210.938,45.898,15.625,439.814,286.6806900259852
497,1686621061.92,4.395,-308.105,-22.461,-3.418,439.818,293.3633905229767
498,1686621061.92,-85.449,-520.996,1.465,-83.496,439.822,293.79295118727475
499,1686621061.93,-76.172,-291.992,64.453,-83.008,439.826,290.62837953381626
500,1686621061.93,13.672,-160.645,35.156,-7.324,439.83,292.45968331871387
501,1686621061.94,15.625,-734.375,-23.438,7.812,439.834,289.5081660852766
502,1686621061.94,-73.73,-672.852,115.234,-69.336,439.838,293.62783774139825
503,1686621061.94,-95.703,123.535,67.871,-104.004,439.842,296.28163469597274
504,1686621061.95,-20.996,150.391,5.371,-29.297,439.846,287.2918179525399
505,1686621061.95,20.02,240.723,64.453,24.414,439.847,294.0839333462741
506,1686621061.96,-40.039,408.203,18.555,-31.25,439.851,298.1643652418559
507,1686621061.96,-103.516,248.535,9.277,-96.191,439.855,307.96009385610546
508,1686621061.96,-58.105,42.969,41.016,-60.547,439.859,292.5365533043797
509,1686621061.97,27.344,27.832,36.621,6.836,439.863,291.85336765672025
510,1686621061.97,-12.207,-83.008,17.578,-21.484,439.867,299.44853862084324
511,1686621061.98,-104.004,-195.312,30.762,-103.027,439.871,302.23043673639796
512,1686621061.98,-85.449,-432.129,-11.23,-84.473,439.875,305.46953883691094
513,1686621061.98,-0.977,-853.516,39.062,2.441,439.879,304.889849165937
514,1686621061.99,-4.883,-5.859,99.121,-13.672,439.883,312.0003015114755
515,1686621061.99,-93.75,352.539,2.441,-89.355,439.886,306.92905922229596
516,1686621061.99,-99.121,-131.348,10.254,-88.379,439.89,314.82429797053925
517,1686621061.99,6.348,160.156,60.547,-12.207,439.891,309.69697038470696
518,1686621062.0,30.273,461.914,23.438,7.324,439.895,313.8731026164124
519,1686621062.0,-52.246,184.57,0.977,-64.941,439.898,307.0087063779651
520,1686621062.01,-94.727,-196.777,70.312,-97.656,439.902,306.06829289134805
521,1686621062.01,-30.273,-30.762,48.34,-31.25,439.906,310.7783828804448
522,1686621062.01,28.809,12.207,23.438,14.16,439.91,324.4709153391364
523,1686621062.02,-29.785,-253.906,8.301,-48.34,439.914,312.39745123179927
524,1686621062.02,-109.375,-883.301,-35.156,-106.445,439.918,316.99237586816315
525,1686621062.02,-60.547,-987.793,106.934,-54.199,439.922,315.06834676065085
526,1686621062.03,39.551,63.965,182.129,18.066,439.926,316.9534548815891
527,1686621062.03,6.836,307.617,-4.883,-19.043,439.93,313.2300774563232
528,1686621062.04,-93.75,-137.207,11.23,-107.422,439.934,318.2915398892428
529,1686621062.04,-77.148,99.609,73.73,-88.379,439.949,315.1567254993012
530,1686621062.04,13.184,417.48,35.645,-3.418,439.953,325.8299578900787
531,1686621062.05,10.742,233.887,-1.465,-8.789,439.957,319.35429679144573
532,1686621062.05,-77.148,4.395,17.578,-98.633,439.961,323.1155328029551
533,1686621062.06,-96.68,0.0,37.109,-115.234,439.965,324.91015750951243
534,1686621062.06,-11.23,6.348,16.602,-29.297,439.969,319.5838400513883
535,1686621062.06,18.555,-252.441,-4.395,2.93,439.973,332.0988364601187
536,1686621062.07,-65.43,-537.109,156.25,-66.895,439.976,324.2900572134985
537,1686621062.07,-106.934,-37.598,127.93,-114.258,439.98,332.2795786841782
538,1686621062.08,-31.738,138.184,-12.695,-51.27,439.984,338.653491269769
539,1686621062.08,29.297,-246.582,-29.785,13.184,439.988,334.9104244479816
540,1686621062.08,-30.762,-127.93,48.34,-42.48,439.992,333.810486580971
541,1686621062.08,-110.84,156.25,40.527,-116.211,439.994,335.5199157526628
542,1686621062.09,-67.383,63.477,12.207,-66.406,439.998,338.73573057228015
543,1686621062.09,20.02,-45.898,72.266,8.301,440.002,329.2461525292185
544,1686621062.1,0.488,175.781,33.203,-21.973,440.006,326.1087861535846
545,1686621062.1,-91.309,129.395,8.789,-102.051,440.01,336.06515205365906
546,1686621062.1,-85.449,-248.047,40.039,-94.727,440.014,341.498836308652
547,1686621062.11,3.418,-856.445,16.602,0.0,440.017,339.9648317104627
548,1686621062.11,10.254,-692.871,147.461,2.441,440.021,336.1843747723952
549,1686621062.12,-68.359,74.219,78.613,-81.055,440.025,343.55177999880834
550,1686621062.12,-91.309,-17.09,-4.883,-97.656,440.029,340.09799586309794
551,1686621062.12,-11.719,-102.051,95.703,-25.879,440.033,335.27668427801206
552,1686621062.13,23.926,118.164,66.895,0.488,440.037,344.0980692321982
553,1686621062.14,-46.875,-10.254,-8.789,-67.871,440.042,344.52822208695704
554,1686621062.15,-106.934,-375.977,19.043,-107.91,440.046,342.62707117837715
555,1686621062.15,-49.316,-353.516,126.465,-44.922,440.05,336.7047833308458
556,1686621062.16,30.762,243.164,79.59,18.555,440.054,347.80559877010376
557,1686621062.16,-19.043,368.164,-12.695,-26.855,440.057,345.9230280509175
558,1686621062.16,-112.305,-339.355,-6.348,-98.145,440.061,343.65944393250476
559,1686621062.17,-78.613,-610.352,158.691,-68.848,440.065,351.68448295902755
560,1686621062.17,19.531,240.723,155.762,11.719,440.069,348.9207475543066
561,1686621062.18,8.789,434.082,2.441,-5.859,440.073,344.5861932800011
562,1686621062.18,-84.473,-269.043,-38.086,-90.82,440.077,342.3415137800376
563,1686621062.18,-89.355,-230.469,46.387,-91.309,440.081,345.84934606528003
564,1686621062.19,2.93,335.449,79.59,-2.441,440.085,346.94231861434946
565,1686621062.19,23.926,305.176,17.09,17.578,440.086,354.57853269575116
566,1686621062.19,-60.547,-137.695,-5.859,-70.801,440.09,360.0036469350375
567,1686621062.2,-96.191,-312.5,21.484,-105.957,440.094,354.4136571633947
568,1686621062.2,-17.09,-91.797,89.844,-23.926,440.098,355.46484074091666
569,1686621062.2,36.133,133.301,32.227,21.484,440.102,348.5967186887424
570,1686621062.21,-35.156,-645.508,-20.508,-40.527,440.106,352.8832732926314
571,1686621062.21,-101.074,-833.984,83.984,-100.586,440.109,348.6332794419535
572,1686621062.22,-46.875,-224.609,96.68,-57.617,440.113,363.21664557855945
573,1686621062.22,27.344,27.344,-0.977,15.625,440.117,348.85823195230574
574,1686621062.22,-16.113,-675.781,6.836,-20.996,440.121,351.7119896948918
575,1686621062.23,-90.332,-446.777,170.898,-110.84,440.125,346.46726634065845
576,1686621062.23,-58.105,227.051,76.66,-79.59,440.129,345.7444104826869
577,1686621062.24,20.508,161.133,8.301,15.625,440.133,357.635225132127
578,1686621062.24,9.766,166.992,62.012,8.301,440.137,353.8565031401112
579,1686621062.24,-80.078,194.824,29.297,-83.008,440.141,354.5945544068695
580,1686621062.25,-84.961,137.695,29.785,-90.82,440.145,356.24219021835785
581,1686621062.25,7.812,-31.738,35.156,-0.977,440.149,343.8000915896337
582,1686621062.26,30.762,-153.809,39.062,22.949,440.152,353.0642714995066
583,1686621062.26,-42.48,-265.625,35.645,-39.062,440.156,345.6620448760709
584,1686621062.26,-80.078,-235.84,61.035,-71.777,440.16,360.88505404071776
585,1686621062.27,-27.832,-398.438,2.93,-15.137,440.164,355.0656803476732
586,1686621062.27,21.484,-830.566,39.062,37.598,440.168,356.988339030367
587,1686621062.28,-27.344,-34.668,99.609,-31.25,440.172,355.5200941746334
588,1686621062.28,-98.145,237.305,5.859,-105.469,440.176,350.1991913999256
589,1686621062.28,-54.688,-139.16,23.438,-48.828,440.176,358.22968910393206
590,1686621062.28,21.484,254.883,65.918,28.809,440.18,365.3526925999516
591,1686621062.29,-7.812,424.805,10.742,-9.277,440.184,353.35233032761766
592,1686621062.29,-87.891,94.238,-6.348,-85.938,440.188,351.33840581321317
593,1686621062.3,-74.219,-268.555,85.449,-66.406,440.192,355.69908661432123
594,1686621062.3,11.23,-184.57,77.148,15.137,440.195,371.4810776608067
595,1686621062.3,13.184,-75.684,20.02,17.09,440.199,369.3499056077316
596,1686621062.31,-67.871,-318.359,7.324,-52.246,440.203,358.2459208023068
597,1686621062.31,-90.82,-917.48,-5.371,-60.547,440.207,364.3337766863108
598,1686621062.31,-6.836,-949.219,116.699,7.812,440.211,357.2874649292356
599,1686621062.32,33.203,95.703,115.723,23.438,440.215,360.92126438050377
600,1686621062.32,-42.969,221.68,-35.156,-47.363,440.219,362.56201556941505
601,1686621062.33,-95.215,-126.465,35.156,-95.703,440.223,360.97482146919225
602,1686621062.33,-22.461,263.184,61.523,-23.438,440.227,358.7173248963677
603,1686621062.33,43.457,514.648,8.301,41.504,440.231,363.20302842266995
604,1686621062.34,-12.207,181.641,-20.508,-11.23,440.235,362.6523772801182
605,1686621062.34,-89.355,-76.172,10.254,-81.543,440.238,365.73686549658527
606,1686621062.35,-55.664,-126.465,44.922,-45.41,440.242,357.1550235029706
607,1686621062.35,29.785,-40.039,23.438,31.25,440.246,371.13129651272885
608,1686621062.35,3.906,-272.461,-22.949,7.324,440.25,365.5409500988322
609,1686621062.36,-88.379,-593.262,85.938,-78.125,440.254,358.6649445279748
610,1686621062.36,-75.684,-11.719,85.449,-73.73,440.258,357.2589618269473
611,1686621062.36,20.02,184.57,-11.23,13.184,440.262,360.28961551451016
612,1686621062.37,28.809,-254.883,-51.27,18.555,440.266,360.2566865638412
613,1686621062.37,-59.082,-153.32,18.555,-64.453,440.266,351.0412084781075
614,1686621062.37,-86.914,223.633,36.133,-83.008,440.27,360.6859734021049
615,1686621062.38,-5.859,223.145,-7.324,-9.766,440.274,354.63584782524373
616,1686621062.38,33.691,119.629,56.641,14.648,440.278,359.21714217564687
617,1686621062.38,-36.133,102.539,8.789,-51.758,440.281,366.80224143964904
618,1686621062.39,-95.703,-173.34,6.836,-94.727,440.285,365.45166597219236
619,1686621062.39,-39.062,-267.09,37.109,-41.504,440.289,367.5203725039999
620,1686621062.4,20.02,-795.898,3.906,23.438,440.293,363.00120397599176
621,1686621062.4,-28.32,-695.312,127.441,-17.578,440.297,362.45281806326176
622,1686621062.4,-100.098,84.473,55.176,-93.262,440.301,365.90137583577615
623,1686621062.41,-67.871,86.426,-22.461,-62.988,440.305,362.8800573500686
624,1686621062.41,20.02,196.289,67.383,14.648,440.309,363.0146365043706
625,1686621062.42,3.906,383.301,41.992,0.0,440.315,356.8354643959307
626,1686621062.42,-82.031,41.992,-15.625,-90.82,440.319,365.99844056840845
627,1686621062.43,-79.59,-315.43,21.973,-92.285,440.323,362.9320800716997
628,1686621062.43,8.301,-165.039,102.539,-10.254,440.327,366.8033942433547
629,1686621062.43,30.762,269.531,30.273,7.324,440.331,367.90910439851166
630,1686621062.44,-56.152,48.828,-12.207,-62.012,440.335,353.84514082192754
631,1686621062.44,-101.074,-501.953,-1.953,-97.656,440.339,363.0498945916188
632,1686621062.44,-28.809,-527.832,165.039,-10.742,440.343,363.10666499397774
633,1686621062.45,35.156,301.27,138.184,42.48,440.346,360.5833604228004
634,1686621062.45,-34.18,376.465,-36.621,-38.574,440.35,365.255077791637
635,1686621062.46,-109.863,-215.82,-12.695,-103.027,440.354,359.2326364200538
636,1686621062.46,25.879,439.941,25.879,7.324,440.369,366.2648222789834
637,1686621062.46,-48.34,0.0,45.898,-53.711,440.358,360.37905223268285
638,1686621062.46,-16.602,292.48,-8.789,-28.809,440.373,365.20631063780075
639,1686621062.47,-97.656,-225.586,26.855,-103.027,440.377,368.53057126946356
640,1686621062.47,-67.871,-217.285,27.344,-77.148,440.381,366.9202082878155
641,1686621062.48,16.113,3.418,37.598,5.859,440.385,362.83742405745875
642,1686621062.48,8.301,-88.867,8.789,1.465,440.389,359.91792241113956
643,1686621062.48,-75.195,-795.41,-58.105,-69.824,440.393,362.33841281046557
644,1686621062.49,-81.055,-1000.0,64.453,-85.938,440.397,363.3454497833378
645,1686621062.49,16.113,-27.344,138.184,-1.465,440.401,353.5545959148022
646,1686621062.5,37.109,411.621,-7.812,30.762,440.404,360.4278185780155
647,1686621062.5,-49.805,60.547,-3.906,-41.016,440.408,359.25261310357905
648,1686621062.5,-95.703,116.699,41.016,-90.332,440.412,369.0798905327054
649,1686621062.52,-26.367,305.664,0.0,-35.645,440.417,359.75681561234154
650,1686621062.52,35.156,239.258,-10.742,13.184,440.421,367.05404120166105
651,1686621062.53,-14.648,136.719,14.648,-38.086,440.425,357.3700727964855
652,1686621062.53,-89.844,127.93,7.812,-103.516,440.428,363.33450303279307
653,1686621062.54,-53.223,232.91,10.742,-65.43,440.432,362.6179725195977
654,1686621062.54,23.438,-82.031,4.395,10.254,440.436,364.72255603338357
655,1686621062.54,-8.789,-635.254,35.156,-23.926,440.44,356.9512552068333
656,1686621062.55,-84.961,-310.059,53.223,-109.375,440.444,364.2584474221893
657,1686621062.55,-68.359,121.582,20.508,-92.285,440.448,363.2506052002068
658,1686621062.56,10.742,-174.805,-24.414,-7.324,440.452,363.0539547533013
659,1686621062.56,13.672,-307.617,48.34,0.0,440.456,362.0481095758879
660,1686621062.56,-71.289,40.039,55.664,-90.332,440.46,370.1870789903336
661,1686621062.56,-91.797,57.617,16.602,-110.352,440.461,360.0965702600989
662,1686621062.57,-6.836,-38.086,16.113,-11.23,440.465,363.1383888447365
663,1686621062.57,35.156,239.746,9.766,23.926,440.469,362.9348671693607
664,1686621062.58,-34.668,334.961,-17.578,-45.41,440.473,358.1898119165746
665,1686621062.58,-92.773,-10.742,-34.18,-86.426,440.477,365.3077613738888
666,1686621062.58,-29.297,-584.473,11.719,-30.273,440.48,354.4133839509667
667,1686621062.59,39.551,-361.328,49.805,18.555,440.484,366.7387724710874
668,1686621062.59,-15.625,89.355,41.992,-35.645,440.488,363.9424126247885
669,1686621062.6,-89.355,-20.02,-11.719,-103.027,440.492,358.99082187578216
670,1686621062.6,-61.523,-859.375,-9.766,-54.199,440.496,355.0789687126547
671,1686621062.6,26.367,-596.68,167.969,16.113,440.5,358.6111477819094
672,1686621062.61,18.555,365.723,64.941,-15.625,440.504,371.7200309301589
673,1686621062.62,-75.195,124.512,-51.27,-90.82,440.522,365.50116662564045
674,1686621062.63,-64.941,-64.941,45.41,-70.801,440.526,359.0990025066706
675,1686621062.63,24.414,372.559,40.039,14.648,440.53,372.15948126724857
676,1686621062.64,31.25,537.598,8.789,10.254,440.534,367.82787039929775
677,1686621062.64,-54.688,91.309,-19.043,-68.359,440.537,363.09226588460234
678,1686621062.64,-93.262,-419.434,13.184,-92.773,440.541,365.6318579163355
679,1686621062.65,-20.02,-138.184,70.312,-16.602,440.545,361.7376248633789
680,1686621062.65,30.273,436.523,13.672,23.926,440.549,366.5198200484123
681,1686621062.65,-12.695,-359.375,-68.359,-25.879,440.551,360.2817180101006
682,1686621062.66,-34.18,-109.863,-70.801,-42.969,440.553,370.25055555358887
683,1686621062.66,-89.355,-224.609,-6.348,-95.703,440.555,360.4871530545024
684,1686621062.66,-95.215,-632.324,73.73,-101.074,440.557,360.53487772641785
685,1686621062.66,-48.34,262.695,34.668,-61.523,440.559,363.4081534244665
686,1686621062.66,-17.578,45.41,59.082,-40.039,440.561,364.7909444130602
687,1686621062.67,29.785,313.477,-1.953,21.973,440.563,366.0212800526877
688,1686621062.67,54.199,168.945,-40.039,24.902,440.565,359.18849129971784
689,1686621062.67,8.789,-7.324,23.926,-4.395,440.567,358.9122885756613
690,1686621062.67,-81.543,-279.785,-9.766,-86.426,440.571,357.2434487107075
691,1686621062.68,-83.008,-257.324,20.508,-83.008,440.574,360.71466468855806
692,1686621062.68,-2.441,-240.234,27.832,-2.441,440.578,361.4867776513512
693,1686621062.68,13.184,-438.477,17.09,16.113,440.582,351.55918649049124
694,1686621062.69,-66.406,-44.922,11.719,-76.172,440.586,372.13291058369975
695,1686621062.69,-107.422,275.391,0.977,-113.77,440.59,363.2349979976683
696,1686621062.7,-22.949,72.754,-38.086,-34.18,440.594,360.5842477118726
697,1686621062.7,29.297,-676.27,-34.668,24.902,440.597,367.72808137803935
698,1686621062.7,-38.574,-458.984,50.293,-37.109,440.601,360.71597410592886
699,1686621062.71,-102.051,-112.793,-8.789,-94.238,440.605,360.71810550693215
700,1686621062.71,-47.852,-234.863,27.344,-37.109,440.609,356.5341285285138
701,1686621062.72,25.391,-17.578,78.125,27.832,440.613,368.80117116906735
702,1686621062.72,-11.719,38.574,12.207,-15.137,440.617,366.31816566730265
703,1686621062.72,-86.914,-72.266,-3.906,-87.402,440.621,356.36768770022434
704,1686621062.73,-57.129,-317.383,-10.742,-63.965,440.625,363.7186314977614
705,1686621062.73,25.391,-411.133,131.836,12.695,440.628,368.2347945487743
706,1686621062.74,17.578,370.605,83.496,6.348,440.632,358.7051701873213
707,1686621062.74,-77.148,393.066,-47.852,-75.684,440.636,363.87669349225274
708,1686621062.74,-104.98,-160.156,-21.484,-98.145,440.64,355.90435567935737
709,1686621062.74,-14.16,177.246,31.25,-21.973,440.641,361.4788233110753
710,1686621062.75,19.043,566.895,16.113,2.93,440.645,362.4881727794248
711,1686621062.75,-67.871,302.246,-20.996,-72.754,440.649,360.8589287062646
712,1686621062.76,-110.352,-130.371,35.156,-106.445,440.653,356.83164013810506
713,1686621062.76,-40.527,-50.781,15.625,-41.992,440.657,367.37061640781366
714,1686621062.76,17.578,51.27,-15.625,8.789,440.661,364.65400383745964
715,1686621062.77,-36.133,-123.047,-8.789,-41.992,440.664,369.68186073736814
716,1686621062.77,-112.793,-824.707,-54.199,-100.098,440.668,366.3555939785308
717,1686621062.78,-70.312,-1000.0,67.383,-57.617,440.672,355.500942037015
718,1686621062.78,22.949,53.711,129.395,8.789,440.676,360.17762238882375
719,1686621062.78,-3.418,371.582,-23.926,-18.555,440.68,353.6071188001843
720,1686621062.79,-90.332,11.23,-2.93,-104.004,440.684,363.70005838016993
721,1686621062.79,-75.195,227.539,60.547,-94.238,440.699,368.52985430096317
722,1686621062.8,7.324,478.516,17.09,0.977,440.703,361.1275861398287
723,1686621062.8,12.207,278.32,-26.367,10.254,440.707,364.8386954417105
724,1686621062.8,-67.871,85.938,9.766,-74.219,440.711,360.507676963647
725,1686621062.81,-86.914,119.629,5.371,-95.703,440.715,356.3438741504489
726,1686621062.81,-4.395,119.629,12.207,-11.23,440.719,365.79336941428903
727,1686621062.82,31.25,-181.641,-15.137,28.32,440.723,360.1734171175088
728,1686621062.82,-52.246,-756.836,60.547,-41.504,440.727,362.07856275118934
729,1686621062.82,-101.562,-149.414,99.121,-102.051,440.731,352.13110221821313
730,1686621062.83,-31.738,361.816,5.859,-56.641,440.735,360.3030770222266
731,1686621062.83,24.902,73.73,-39.062,0.977,440.739,351.7071108551198
732,1686621062.83,-31.738,105.469,-6.348,-51.758,440.742,364.4532707046558
733,1686621062.83,-109.375,273.438,14.648,-118.164,440.744,375.4418877706302
734,1686621062.84,-73.73,211.914,8.301,-69.824,440.748,363.7699518575432
735,1686621062.84,14.648,36.133,22.949,14.648,440.752,359.63906135709
736,1686621062.85,-5.859,233.887,20.996,-15.137,440.755,356.6025923765024
737,1686621062.85,-97.656,176.27,5.371,-104.98,440.759,359.42500440487686
738,1686621062.85,-93.262,-250.0,-11.23,-93.75,440.763,374.01783220184393
739,1686621062.86,-13.672,-817.383,-5.859,2.441,440.767,364.74470410381076
740,1686621062.86,3.418,-633.301,116.211,15.137,440.771,357.7499297947056
741,1686621062.86,-68.848,231.934,50.293,-65.918,440.775,378.64294561723295
742,1686621062.87,-105.957,-21.484,-61.035,-90.82,440.779,371.8917663899604
743,1686621062.87,-32.227,-616.211,145.508,-11.23,440.783,359.1169423571666
744,1686621062.88,20.508,123.535,200.195,31.25,440.787,372.41488072208665
745,1686621062.9,-40.527,491.211,-3.906,-39.062,440.792,359.1206405482049
746,1686621062.9,-108.398,4.883,-20.02,-97.656,440.796,371.8482926392501
747,1686621062.9,-54.199,-20.02,54.688,-37.109,440.8,361.8532528874751
748,1686621062.91,24.902,396.973,49.316,33.691,440.804,366.1882631930778
749,1686621062.91,-15.625,450.684,-24.414,-19.531,440.808,362.05224139186845
750,1686621062.92,-96.191,-253.906,-22.949,-99.121,440.811,372.71917689571677
751,1686621062.92,-58.594,-601.562,100.586,-62.988,440.815,356.0209500159736
752,1686621062.92,32.715,209.473,84.961,19.043,440.819,360.9427367803175
753,1686621062.93,13.184,464.355,-15.137,4.883,440.823,361.22004359550385
754,1686621062.93,-71.777,-163.574,-62.5,-77.637,440.827,364.24384714591787
755,1686621062.93,-70.801,-164.062,6.836,-85.449,440.831,365.52376552676037
756,1686621062.94,21.484,280.273,44.922,-0.977,440.835,365.51194838219396
757,1686621062.94,41.016,130.371,-21.973,28.809,440.836,360.00403786169676
758,1686621062.94,-46.387,-466.309,-74.219,-42.48,440.84,362.4729122014938
759,1686621062.95,-86.426,-292.48,8.789,-83.008,440.844,363.50828164971597
760,1686621062.95,-13.184,309.082,36.621,-18.066,440.848,370.21287888017883
761,1686621062.96,31.25,225.098,-13.184,18.066,440.852,357.58846922045143
762,1686621062.96,-34.668,-301.758,35.645,-44.922,440.856,370.95054741907967
763,1686621062.96,-96.191,-465.332,32.715,-101.562,440.86,364.5826558831264
764,1686621062.97,-49.805,-187.988,28.32,-55.664,440.863,364.1845399855678
765,1686621062.97,14.16,100.098,-12.207,9.766,440.867,350.6382639442098
766,1686621062.98,-25.879,-677.246,-42.48,-22.461,440.871,364.94433753238593
767,1686621062.98,-99.609,-643.066,90.82,-97.656,440.875,366.34550377386233
768,1686621062.98,-71.289,71.777,73.242,-76.66,440.879,364.6321687138325
769,1686621062.99,20.02,156.25,-2.441,9.766,440.883,367.52177180891556
770,1686621062.99,12.207,203.125,4.883,11.23,440.887,367.0162535992545
771,1686621062.99,-84.961,94.727,-11.23,-73.73,440.891,374.24200084160276
772,1686621063.0,-98.145,-64.453,18.555,-90.332,440.895,365.016282300841
773,1686621063.0,-1.465,-3.418,9.766,-6.836,440.899,365.6404246788721
774,1686621063.01,23.438,-237.793,-1.465,15.625,440.903,361.39796429103114
775,1686621063.01,-60.547,-197.754,42.969,-65.918,440.907,348.44850449104905
776,1686621063.01,-94.727,148.926,25.879,-105.469,440.911,363.1414317917573
777,1686621063.02,-23.438,-155.273,-23.438,-39.062,440.914,365.6113706818909
778,1686621063.02,36.133,-403.32,87.402,14.648,440.918,364.7057532503776
779,1686621063.02,-10.742,233.398,51.27,-33.203,440.922,362.0055562788746
780,1686621063.03,-88.867,174.316,-31.25,-96.191,440.926,371.69886228403266
781,1686621063.03,-59.57,-165.039,20.508,-47.852,440.926,371.14939474896977
782,1686621063.03,20.02,220.215,25.391,20.996,440.93,366.3690687666257
783,1686621063.04,-5.371,432.129,-16.602,-16.602,440.934,358.02092466513835
784,1686621063.04,-103.516,122.07,-16.113,-105.469,440.938,359.6369511840915
785,1686621063.05,-97.656,-261.23,54.688,-93.75,440.942,361.50881171176985
786,1686621063.05,-4.395,-149.414,73.242,-4.395,440.945,361.12318931633166
787,1686621063.05,-7.324,36.621,17.578,-6.348,440.949,361.7078454366894
788,1686621063.06,-96.191,-151.855,-17.09,-83.008,440.953,373.965826027474
789,1686621063.06,-108.398,-861.328,-48.828,-87.891,440.957,364.9637575735133
790,1686621063.06,-25.879,-980.469,68.359,-2.93,440.961,356.8906382183859
791,1686621063.07,18.555,108.887,115.234,22.461,440.965,361.48042343695266
792,1686621063.07,-53.223,300.293,-31.738,-45.41,440.969,361.80189059887607
793,1686621063.08,-110.84,-30.273,22.461,-103.027,440.973,368.32520410113017
794,1686621063.08,-42.969,292.48,46.875,-42.969,440.977,365.772490841412
795,1686621063.08,22.949,459.961,-8.301,18.066,440.981,363.7339715455968
796,1686621063.09,-39.062,205.078,-12.695,-37.598,440.984,359.51836509022866
797,1686621063.09,-125.488,2.93,16.602,-104.004,440.988,363.1943446387223
798,1686621063.1,-84.473,-93.75,29.297,-69.824,440.992,375.4983121220015
799,1686621063.1,-1.953,32.715,34.18,0.977,440.996,367.78064988922915
800,1686621063.1,-23.438,-203.613,-48.828,-14.16,441.0,373.77006648146875
801,1686621063.11,-107.91,-740.234,94.727,-94.727,441.004,369.15110807560177
802,1686621063.11,-91.797,-41.016,148.926,-94.727,441.008,367.92045251079594
803,1686621063.12,-2.93,463.867,12.695,-9.277,441.012,370.9251096408143
804,1686621063.12,10.254,55.176,-39.551,0.977,441.016,357.62174183584165
805,1686621063.12,-67.871,-2.441,-14.648,-77.148,441.016,362.8279592190126
806,1686621063.12,-102.051,246.094,13.184,-104.98,441.02,359.6243388953699
807,1686621063.13,-29.297,246.582,4.395,-35.156,441.023,367.32912232483307
808,1686621063.13,16.113,145.508,46.875,12.207,441.027,367.15258863396934
809,1686621063.14,-43.457,124.512,-5.371,-45.898,441.031,369.24131069039805
810,1686621063.14,-100.098,-159.18,12.695,-107.91,441.035,376.70396426705264
811,1686621063.14,-37.109,-207.031,19.043,-58.594,441.039,373.62927353843185
812,1686621063.15,34.18,-684.082,-4.395,15.137,441.043,369.0281168930239
813,1686621063.15,-3.906,-640.625,168.457,-27.832,441.047,357.63031076203845
814,1686621063.15,-79.59,167.969,83.008,-100.586,441.051,371.3026633344983
815,1686621063.16,-49.316,70.312,18.555,-60.547,441.055,366.6611622941466
816,1686621063.16,43.945,15.625,85.449,28.32,441.059,365.1931485007818
817,1686621063.17,32.227,403.32,16.113,16.113,441.074,369.36528002203795
818,1686621063.17,-55.176,356.445,-22.461,-65.43,441.078,363.8707689307429
819,1686621063.17,-69.336,-33.203,-19.531,-72.754,441.082,360.1217951355117
820,1686621063.18,17.578,55.664,57.617,5.371,441.086,374.1895664636315
821,1686621063.18,45.898,421.387,27.344,26.855,441.09,373.4411903163892
822,1686621063.19,-49.316,129.395,-13.184,-57.129,441.094,367.7232851494963
823,1686621063.19,-105.469,-488.281,-11.719,-101.074,441.098,371.0025909102152
824,1686621063.19,-42.48,-565.918,170.898,-32.715,441.102,363.67405103083917
825,1686621063.2,12.695,276.855,176.27,8.301,441.106,368.81532470591765
826,1686621063.2,-52.246,411.621,-19.531,-46.387,441.109,375.68635686978877
827,1686621063.2,-128.906,-142.09,-40.039,-100.098,441.113,366.7682341493027
828,1686621063.21,-72.754,68.359,30.273,-61.035,441.117,366.7222129974001
829,1686621063.21,5.371,462.402,27.344,6.348,441.109,372.77766427504406
830,1686621063.21,-31.25,118.164,-39.551,-15.625,441.113,370.7183056299981
831,1686621063.22,-116.211,-540.527,-64.453,-90.332,441.117,370.08861714722116
832,1686621063.22,-94.238,-188.477,19.531,-74.219,441.12,361.3183034524076
833,1686621063.23,1.953,315.918,13.184,6.348,441.124,366.0565218473659
834,1686621063.23,3.418,-40.039,-29.297,7.324,441.128,361.46202180645
835,1686621063.23,-89.355,-814.453,-44.434,-68.848,441.132,370.40861062629284
836,1686621063.24,-100.586,-711.914,158.691,-85.449,441.136,377.90953987301856
837,1686621063.24,-4.395,290.039,145.996,-8.301,441.14,362.2003979881384
838,1686621063.24,30.273,365.234,-37.598,20.996,441.144,368.5239408543832
839,1686621063.25,-45.898,-36.133,27.344,-58.105,441.148,373.8672313880465
840,1686621063.25,-96.191,137.695,45.898,-107.91,441.152,373.019322099129
841,1686621063.27,-25.391,390.137,20.996,-32.715,441.167,367.7775158446389
842,1686621063.27,28.32,301.27,-25.879,21.484,441.171,367.2420057854298
843,1686621063.28,-31.25,167.48,-1.953,-47.852,441.175,366.8366526195363
844,1686621063.28,-99.609,27.344,22.461,-112.305,441.179,369.7923735365892
845,1686621063.29,-64.941,6.836,61.035,-64.453,441.183,367.51036597016827
846,1686621063.29,12.207,-96.191,6.348,8.301,441.186,374.8576587792461
847,1686621063.29,-17.578,-812.012,0.0,-31.25,441.19,369.13576139519415
848,1686621063.3,-105.469,-292.48,65.43,-122.559,441.194,359.69630934981797
849,1686621063.3,-90.332,234.375,29.785,-106.445,441.198,373.43073771682833
850,1686621063.3,2.441,52.734,-4.395,-12.207,441.202,361.1288737750513
851,1686621063.31,6.348,269.531,15.137,3.906,441.206,364.5878765890279
852,1686621063.31,-77.637,382.324,17.578,-67.383,441.21,364.2510010209873
853,1686621063.31,-95.703,131.836,-18.066,-80.566,441.21,360.73444317105566
854,1686621063.32,-7.324,-78.613,12.207,2.93,441.214,371.0345217422481
855,1686621063.32,37.109,218.75,33.691,31.738,441.218,371.6247406060864
856,1686621063.33,-33.203,363.281,-5.371,-45.41,441.222,364.3816027896498
857,1686621063.33,-92.773,-21.973,-32.715,-96.68,441.226,370.05495418910226
858,1686621063.33,-29.297,-638.672,-0.977,-32.715,441.23,370.4472629681641
859,1686621063.34,35.645,-341.309,21.484,19.531,441.234,371.8709464208141
860,1686621063.34,-10.254,-27.832,0.977,-28.809,441.238,361.86459004638124
861,1686621063.34,-86.426,-248.535,-10.742,-93.75,441.242,368.2254086477232
862,1686621063.35,-58.105,-869.141,-17.578,-52.246,441.246,373.48981421586933
863,1686621063.35,30.762,-601.074,154.297,20.508,441.249,370.8936103899582
864,1686621063.36,18.555,354.492,89.355,-6.836,441.253,368.60788302520615
865,1686621063.36,-63.477,184.082,-61.035,-92.773,441.258,374.9114767891113
866,1686621063.36,-74.707,-26.367,30.762,-100.586,441.262,366.3969440788152
867,1686621063.37,6.836,344.727,47.363,-19.531,441.266,373.0079967729825
868,1686621063.37,28.32,458.008,-6.348,-6.836,441.27,371.5033134429829
869,1686621063.38,-55.176,67.383,-39.062,-97.656,441.274,360.8674774873305
870,1686621063.38,-95.703,-352.539,7.324,-123.535,441.277,368.01869986879734
871,1686621063.38,-16.113,-90.82,82.031,-40.039,441.281,364.27306186166464
872,1686621063.39,37.598,477.051,34.18,0.488,441.285,376.7018230398466
873,1686621063.39,-30.762,-98.633,-84.961,-62.5,441.289,360.79253823405384
874,1686621063.4,-99.609,-906.25,29.297,-118.164,441.293,372.0198799928953
875,1686621063.4,-36.621,-127.441,120.605,-67.871,441.297,366.03962074470667
876,1686621063.4,43.945,246.582,9.766,0.0,441.301,375.8330368481711
877,1686621063.4,-6.348,-72.266,-20.996,-44.922,441.302,366.31124072063034
878,1686621063.41,-89.844,19.043,20.508,-117.676,441.305,361.657714472357
879,1686621063.41,-60.547,270.02,32.227,-86.914,441.309,367.04400837889455
880,1686621063.42,17.09,390.137,20.996,-1.465,441.313,371.3284487096736
881,1686621063.42,-10.254,36.133,14.648,-8.301,441.317,365.19250661771486
882,1686621063.42,-95.703,-273.926,-5.859,-83.496,441.321,367.46954850704174
883,1686621063.43,-91.797,-285.156,46.387,-83.984,441.325,382.1352552759056
884,1686621063.43,0.488,-110.352,35.645,0.488,441.329,364.49910356835363
885,1686621063.44,20.508,-632.324,-27.344,29.297,441.333,366.21176816659045
886,1686621063.44,-58.594,-664.551,157.227,-53.711,441.337,371.82884347165515
887,1686621063.44,-93.262,116.699,96.191,-94.727,441.341,362.6504580720858
888,1686621063.45,-11.719,100.586,-25.879,-16.602,441.345,376.23557656788205
889,1686621063.45,45.41,75.684,62.012,28.32,441.348,360.0136829967404
890,1686621063.46,-18.066,329.102,28.32,-37.598,441.352,369.6938276765943
891,1686621063.46,-84.961,264.648,-7.324,-100.586,441.356,366.80706598751925
892,1686621063.46,-36.133,-4.883,27.344,-41.504,441.36,369.0398564569984
893,1686621063.47,34.668,57.617,101.074,33.691,441.364,366.5717238742315
894,1686621063.47,-9.277,-25.879,14.16,-7.324,441.368,369.3189518210779
895,1686621063.48,-89.355,-113.77,37.598,-91.309,441.372,374.32854705088215
896,1686621063.48,-66.406,-289.062,-11.719,-72.754,441.376,368.86395228399203
897,1686621063.48,15.137,-691.895,104.492,11.719,441.379,369.8711514158381
898,1686621063.49,17.578,132.812,187.988,5.859,441.383,362.52727002244103
899,1686621063.49,-62.5,330.566,-20.996,-73.242,441.387,366.809009234485
900,1686621063.49,-70.801,-208.496,-19.531,-87.891,441.391,372.7259532025525
901,1686621063.5,10.254,117.188,43.945,-19.043,441.392,369.90333633692643
902,1686621063.5,38.086,455.078,14.648,11.23,441.396,367.7158228350592
903,1686621063.5,-44.434,-60.059,-37.109,-55.664,441.4,369.15895394658514
904,1686621063.51,-103.027,-642.09,-13.184,-102.051,441.404,375.064397933566
905,1686621063.51,-31.738,-163.574,55.664,-32.227,441.408,366.793471877603
906,1686621063.52,30.273,111.816,24.414,23.438,441.412,365.87917672997173
907,1686621063.52,-17.09,-194.336,-1.953,-31.738,441.416,380.70460075692097
908,1686621063.52,-84.961,-857.422,-39.551,-93.75,441.42,366.3937884079134
909,1686621063.53,-39.551,-672.852,196.777,-56.641,441.424,365.0308466636818
910,1686621063.53,55.176,383.789,223.145,18.066,441.427,369.88588025415424
911,1686621063.53,31.738,370.117,-12.695,4.395,441.431,367.6401420189752
912,1686621063.54,-54.688,-39.062,19.531,-72.754,441.435,371.5731276153453
913,1686621063.56,-51.27,175.293,47.852,-64.941,441.453,373.2329815345389
914,1686621063.56,33.691,454.102,14.648,16.602,441.457,373.7772457618945
915,1686621063.56,32.227,274.902,-20.996,19.531,441.461,370.8508553361287
916,1686621063.57,-59.082,82.52,13.184,-65.918,441.464,369.1108583591118
917,1686621063.57,-85.938,-15.137,6.348,-91.797,441.468,356.76745989479144
918,1686621063.58,-11.719,-12.695,18.066,-20.996,441.472,369.79748585837604
919,1686621063.58,30.273,-204.59,1.953,13.184,441.476,377.21232833635867
920,1686621063.58,-41.992,-856.445,22.949,-47.852,441.48,373.2207523777491
921,1686621063.58,-92.773,292.48,9.277,-97.168,441.494,370.4089117250609
922,1686621063.59,-101.074,-292.969,75.684,-104.98,441.484,367.4197752382993
923,1686621063.59,-63.965,152.344,-3.418,-68.848,441.498,374.5785387045561
924,1686621063.59,-38.574,308.105,21.973,-52.734,441.488,361.942927527919
925,1686621063.59,17.09,28.809,12.695,5.371,441.501,364.86444076654846
926,1686621063.6,34.18,122.07,-31.738,15.137,441.492,368.94981453978534
927,1686621063.6,2.93,253.906,13.184,-7.812,441.505,375.0169738425453
928,1686621063.6,-11.719,208.008,-3.418,-28.809,441.496,375.13117279566444
929,1686621063.6,-83.496,238.77,-18.555,-86.426,441.509,362.8631161742302
930,1686621063.6,-84.473,-262.207,-10.254,-86.914,441.513,369.6302882969172
931,1686621063.61,3.418,-529.297,65.43,-10.742,441.517,368.42313552231576
932,1686621063.61,26.367,-236.328,35.645,7.324,441.521,364.8171050225249
933,1686621063.62,-50.293,-104.492,-12.207,-68.848,441.525,371.4822795951402
934,1686621063.62,-81.055,-91.309,-9.766,-91.797,441.529,371.63617610313
935,1686621063.62,-10.254,-799.316,-32.715,0.488,441.533,360.8653936410549
936,1686621063.63,32.715,-961.914,61.035,37.109,441.537,370.23752769378837
937,1686621063.64,-21.484,30.762,43.945,-37.109,441.555,375.74410603096754
938,1686621063.65,-86.426,91.797,-42.969,-95.703,441.559,368.9740892821751
939,1686621063.65,-33.203,8.301,45.898,-45.41,441.563,381.004199495243
940,1686621063.66,45.41,457.52,36.621,30.762,441.567,372.69220826656914
941,1686621063.66,3.906,455.078,-29.785,-2.93,441.57,365.36626737768745
942,1686621063.66,-86.914,-257.324,-33.203,-80.078,441.574,365.50130369002756
943,1686621063.67,-66.895,-552.734,127.93,-57.617,441.578,371.925914267922
944,1686621063.67,33.691,243.164,125.0,27.832,441.582,363.3325962885298
945,1686621063.68,24.902,497.559,-31.738,15.137,441.586,376.15154043520846
946,1686621063.68,-80.078,-166.504,-51.27,-78.125,441.59,362.2503947715479
947,1686621063.68,-93.262,-307.129,53.711,-86.914,441.594,357.2801919380098
948,1686621063.69,-2.441,309.082,62.988,0.977,441.598,367.306082750952
949,1686621063.69,26.367,456.055,-19.043,30.273,441.586,371.0964023403307
950,1686621063.69,-63.477,-256.836,-83.496,-41.992,441.59,371.5254405594075
951,1686621063.7,-108.398,-309.57,23.926,-93.262,441.594,367.5263037870221
952,1686621063.7,-25.879,319.824,52.246,-33.203,441.598,362.85795765035806
953,1686621063.7,38.574,305.664,-21.973,26.367,441.602,369.4761780793937
954,1686621063.71,-29.297,-270.508,19.531,-32.227,441.606,355.21499837370413
955,1686621063.71,-104.004,-509.277,25.879,-99.609,441.61,374.79020856185286
956,1686621063.72,-49.805,-207.52,30.762,-46.387,441.614,370.4717108072192
957,1686621063.72,34.668,128.906,-12.695,26.367,441.618,374.99557027089793
958,1686621063.72,-8.789,-671.875,-36.621,-9.766,441.621,368.00483685307825
959,1686621063.73,-94.238,-750.488,107.422,-92.773,441.625,366.4786165011782
960,1686621063.73,-62.5,181.152,62.988,-80.566,441.629,361.1777714284696
961,1686621063.74,19.531,124.512,-41.504,5.859,441.633,366.47724750444587
962,1686621063.74,9.766,-595.215,6.836,9.277,441.637,364.6477110460876
963,1686621063.74,-76.172,-121.582,41.016,-77.637,441.641,375.4444839248915
964,1686621063.75,-94.238,304.688,-0.488,-102.051,441.645,372.74849908714197
965,1686621063.75,-14.648,68.848,12.207,-26.855,441.648,372.6364821197638
966,1686621063.76,16.602,-53.223,20.508,8.789,441.652,368.1282658348012
967,1686621063.76,-48.34,-97.168,28.809,-63.965,441.656,362.2327114772801
968,1686621063.76,-91.797,161.621,6.836,-104.98,441.66,372.112128712862
969,1686621063.77,-37.109,-158.203,-32.227,-34.668,441.664,365.44110825830376
970,1686621063.77,24.414,-485.352,104.98,29.297,441.668,377.67316059200436
971,1686621063.78,-23.926,228.027,62.5,-19.531,441.672,354.5103297899266
972,1686621063.78,-94.238,242.676,-42.969,-97.656,441.676,357.0400517104659
973,1686621063.78,-55.176,-171.387,-6.348,-64.453,441.677,369.8708686733277
974,1686621063.79,24.414,189.941,19.043,18.555,441.681,372.3188273408958
975,1686621063.79,8.301,382.324,-8.301,-6.348,441.685,365.36972646573093
976,1686621063.8,-74.707,-142.09,-22.461,-93.75,441.689,362.4575810145256
977,1686621063.8,-76.172,-663.574,-20.508,-80.566,441.693,372.07530126586187
978,1686621063.8,14.16,-366.211,26.855,11.719,441.697,362.1209082920962
979,1686621063.81,19.043,-8.789,18.066,18.555,441.701,376.48536530699033
980,1686621063.81,-71.777,-212.402,-20.02,-70.312,441.704,369.5728470114623
981,1686621063.81,-103.027,-879.395,-31.738,-94.238,441.708,372.2122291954124
982,1686621063.82,-18.555,-594.727,188.965,-23.926,441.712,363.0756107979813
983,1686621063.82,29.297,370.117,112.793,12.695,441.716,369.5949462712669
984,1686621063.83,-48.828,115.234,-57.617,-49.316,441.72,372.88591534513
985,1686621063.83,-99.609,-112.793,46.387,-101.562,441.723,367.1099401399107
986,1686621063.83,-43.457,269.531,32.715,-44.434,441.727,372.20264676867646
987,1686621063.83,25.879,507.812,0.977,27.344,441.731,367.76691789688095
988,1686621063.84,-7.812,255.371,-31.738,-14.16,441.735,373.4506902817157
989,1686621063.84,-87.891,-34.668,-10.254,-95.215,441.738,367.0412725394954
990,1686621063.85,-68.359,-109.863,39.551,-70.801,441.742,383.2325999880291
991,1686621063.85,14.16,2.93,36.133,20.508,441.746,370.71835062892944
992,1686621063.85,0.488,-241.211,-25.879,11.719,441.75,360.83810271345567
993,1686621063.86,-83.496,-674.316,101.074,-75.684,441.754,369.9669097668307
994,1686621063.86,-77.148,-53.711,124.512,-70.801,441.758,375.83916984878755
995,1686621063.86,12.695,418.457,0.0,15.625,441.762,360.6599704279096
996,1686621063.87,24.414,-25.391,-31.25,25.391,441.766,360.95129320965106
997,1686621063.87,-47.852,-132.324,86.914,-55.176,441.766,364.78316793727595
998,1686621063.87,-75.684,207.031,60.059,-95.215,441.77,372.3899433321208
999,1686621063.88,-7.324,202.637,-0.488,-18.555,441.774,366.1927662642701
1000,1686621063.88,40.527,98.633,51.758,33.203,441.777,361.48779268679215
1001,1686621063.88,-27.344,134.277,8.301,-30.762,441.781,369.035841962494
1002,1686621063.89,-98.145,-120.117,1.465,-91.309,441.785,371.31853378476126
1003,1686621063.89,-40.527,-181.641,45.898,-43.945,441.789,373.17625326573784
1004,1686621063.9,34.668,-686.035,-28.32,45.898,441.793,370.4082534833596
1005,1686621063.9,-11.23,-937.988,107.91,13.672,441.797,371.054870354337
1006,1686621063.9,-91.797,-30.762,166.992,-77.637,441.801,369.3531859832469
1007,1686621063.91,-67.383,194.824,-1.465,-59.57,441.805,383.95962098519266
1008,1686621063.91,14.648,53.223,52.246,9.277,441.809,369.16329349604973
1009,1686621063.92,16.113,338.379,32.227,8.789,441.815,371.5613815903509
1010,1686621063.92,-54.688,347.168,-23.438,-54.199,441.819,365.07198084203645
1011,1686621063.92,-63.477,46.387,-3.906,-70.312,441.822,368.47679757121944
1012,1686621063.93,18.555,185.059,67.383,13.184,441.826,364.80792222104645
1013,1686621063.93,44.922,459.473,23.926,44.434,441.83,370.0309400031867
1014,1686621063.94,-48.828,101.562,-22.949,-36.621,441.834,365.64385100694795
1015,1686621063.94,-100.586,-448.73,-11.23,-86.914,441.838,373.00331007617893
1016,1686621063.94,-19.531,-527.344,193.359,-20.02,441.842,367.00565978719504
1017,1686621063.95,42.48,303.711,207.52,33.691,441.846,370.3164263496573
1018,1686621063.95,-16.113,459.473,-27.832,-26.367,441.85,365.88717794346445
1019,1686621063.96,-94.727,-197.754,-29.785,-97.168,441.854,370.1032414385636
1020,1686621063.96,42.48,463.867,47.363,28.32,441.869,365.90693208646496
1021,1686621063.96,-48.828,-118.164,50.293,-50.293,441.858,365.9493450454649
1022,1686621063.96,10.742,395.996,-19.043,-2.93,441.872,370.9764345063157
1023,1686621063.97,-84.473,-340.82,-74.707,-73.242,441.876,371.5320747542073
1024,1686621063.97,-68.848,-178.223,25.879,-59.082,441.88,363.01386112003155
1025,1686621063.98,20.508,283.203,19.043,14.648,441.884,363.2062488824046
1026,1686621063.98,17.09,-9.277,-30.273,7.812,441.888,375.6941716937067
1027,1686621063.98,-76.172,-780.762,-44.434,-66.895,441.892,359.59009950342886
1028,1686621063.99,-95.215,-1000.0,48.34,-70.312,441.896,365.4168243429068
1029,1686621063.99,0.977,-37.109,208.984,6.348,441.9,368.76599796349063
1030,1686621063.99,43.945,403.809,46.387,39.551,441.904,362.05429521107925
1031,1686621064.0,-32.227,110.84,2.441,-36.621,441.908,362.8089741102246
1032,1686621064.0,-87.402,192.871,45.898,-96.191,441.912,366.8606974400273
1033,1686621064.01,-23.926,334.961,6.836,-37.109,441.915,366.18191409305325
1034,1686621064.01,47.852,80.566,6.836,29.785,441.919,363.6188989555407
1035,1686621064.02,-5.371,-190.43,68.848,-11.23,441.923,370.94986970068567
1036,1686621064.02,-81.543,62.012,50.293,-75.684,441.927,373.0693339146588
1037,1686621064.02,-35.645,294.922,16.602,-39.551,441.931,361.2095346767318
1038,1686621064.03,43.945,-44.434,8.789,38.086,441.935,366.5311396166722
1039,1686621064.03,5.371,-520.02,58.594,12.207,441.939,362.0481883465949
1040,1686621064.04,-77.637,-66.406,59.082,-70.312,441.943,370.4860601284558
1041,1686621064.04,-62.988,231.934,10.742,-57.129,441.947,367.0720780152351
1042,1686621064.04,19.043,9.277,-4.395,24.414,441.95,359.47224670378466
1043,1686621064.05,35.156,125.488,16.113,25.391,441.954,365.13154353951256
1044,1686621064.05,-33.203,313.477,17.578,-49.316,441.958,366.04529410796397
1045,1686621064.06,-72.266,132.812,-5.371,-82.52,441.961,375.7364102866156
1046,1686621064.07,-4.395,-98.145,11.23,-20.996,441.965,375.1989470709178
1047,1686621064.07,42.48,207.031,29.297,26.855,441.968,363.94778303966126
1048,1686621064.08,-35.156,248.535,2.93,-41.016,441.972,365.8986127309746
1049,1686621064.08,-98.633,-238.281,7.324,-93.75,441.976,364.79333049200903
1050,1686621064.08,-38.574,-832.52,3.418,-27.344,441.98,362.71007598192216
1051,1686621064.09,29.297,-772.461,96.68,24.902,441.984,370.7804047967504
1052,1686621064.09,-9.277,5.371,104.492,-31.25,441.988,359.3203673955088
1053,1686621064.1,-88.867,-25.879,-20.508,-97.168,441.992,365.5831627178601
1054,1686621064.1,-60.547,-689.453,73.73,-50.293,441.996,363.242940780219
1055,1686621064.1,41.992,-23.438,250.488,25.391,442.0,364.7981321255654
1056,1686621064.11,24.414,539.062,53.223,1.953,442.004,367.361415738985
1057,1686621064.12,-79.59,53.711,-57.129,-80.078,442.022,371.73732425449884
1058,1686621064.13,-85.938,-162.109,62.012,-93.75,442.026,367.1920953980155
1059,1686621064.13,2.441,250.488,62.988,-11.23,442.03,373.51304748425247
1060,1686621064.14,27.344,460.449,2.93,20.02,442.033,381.25040603304006
1061,1686621064.14,-60.547,40.527,-21.973,-58.594,442.037,369.28053865608587
1062,1686621064.14,-101.074,-443.848,9.277,-93.75,442.041,369.8434238266963
1063,1686621064.15,-17.578,-340.82,58.594,-25.391,442.045,371.02033938585674
1064,1686621064.15,36.133,106.445,80.078,21.973,442.049,365.06333726222834
1065,1686621064.15,12.695,59.082,-34.668,3.906,442.051,367.7046561985535
1066,1686621064.16,-29.785,-152.344,-27.344,-38.086,442.053,368.6114354087563
1067,1686621064.16,-76.172,37.109,13.672,-86.426,442.055,371.49545435260234
1068,1686621064.16,-101.074,-903.809,33.203,-96.68,442.057,372.55821954976216
1069,1686621064.16,-62.012,242.188,35.156,-81.543,442.059,367.07843848203396
1070,1686621064.16,-43.457,-194.336,192.871,-49.316,442.061,372.1341582710923
1071,1686621064.17,23.438,254.883,14.648,4.883,442.062,370.8649077733403
1072,1686621064.17,42.48,422.363,55.664,26.367,442.065,369.36482866960154
1073,1686621064.17,17.09,-85.938,23.438,8.789,442.066,367.19874952104874
1074,1686621064.17,-70.312,-318.848,13.672,-72.754,442.07,361.42790960918916
1075,1686621064.18,-81.543,-277.344,20.996,-83.008,442.074,373.68931048496114
1076,1686621064.18,2.93,-197.266,21.973,-2.441,442.078,364.88898621065135
1077,1686621064.18,24.902,-470.703,60.547,22.949,442.082,371.08279986778456
1078,1686621064.19,-50.293,-312.5,70.801,-60.059,442.086,362.77697733243025
1079,1686621064.19,-89.844,162.109,25.879,-100.098,442.09,366.1664716914792
1080,1686621064.2,-17.09,124.023,11.23,-28.809,442.094,383.87127751171664
1081,1686621064.2,21.973,-758.301,-32.227,26.367,442.101,364.0494274721357
1082,1686621064.2,-42.969,-711.426,172.363,-38.086,442.105,368.9931206347624
1083,1686621064.21,-103.516,87.402,114.746,-107.422,442.109,380.9456546292172
1084,1686621064.21,-56.152,68.359,-2.441,-66.895,442.113,368.31198050351753
1085,1686621064.22,32.715,215.82,96.191,10.742,442.117,371.92151225199206
1086,1686621064.22,2.93,90.332,8.789,-0.977,442.121,373.02986071145466
1087,1686621064.22,-79.59,-71.289,32.227,-88.379,442.125,378.0811420115361
1088,1686621064.23,-67.871,-232.91,-6.348,-62.988,442.129,376.1176119126997
1089,1686621064.23,14.16,-464.355,164.062,23.926,442.132,374.97186151473494
1090,1686621064.24,20.02,280.273,166.016,8.301,442.136,361.93162351450377
1091,1686621064.24,-64.941,345.703,-37.598,-67.383,442.14,356.9257110122802
1092,1686621064.24,-92.773,-272.949,-15.137,-91.309,442.144,363.9901353581435
1093,1686621064.26,-10.254,-38.574,48.34,-10.254,442.156,356.9930941728787
1094,1686621064.26,30.273,527.832,43.945,28.32,442.16,360.9269311193614
1095,1686621064.27,-39.551,343.75,-41.504,-45.41,442.164,360.5077150084714
1096,1686621064.27,-98.145,-469.727,-38.574,-92.773,442.168,373.092205869089
1097,1686621064.28,-41.016,-283.691,127.93,-41.016,442.172,368.42904499898583
1098,1686621064.28,33.203,136.23,39.551,12.207,442.176,368.7542125668224
1099,1686621064.28,-13.672,-94.727,-39.062,-25.879,442.18,372.52616295469596
1100,1686621064.29,-87.402,-818.848,-39.551,-80.078,442.184,370.3641219494432
1101,1686621064.29,-48.34,-748.535,177.246,-42.969,442.187,367.4419743759597
1102,1686621064.29,-69.824,172.363,49.805,-68.848,442.2,364.7080038936145
1103,1686621064.29,39.062,295.898,208.008,18.066,442.191,369.0420299647476
1104,1686621064.3,18.066,424.316,19.043,6.836,442.204,369.1015696787405
1105,1686621064.3,18.066,375.488,-30.273,-3.906,442.195,365.2658802152438
1106,1686621064.3,22.461,75.195,-21.484,14.16,442.208,375.5041670418074
1107,1686621064.3,-77.148,13.184,1.953,-69.824,442.199,371.5464428967522
1108,1686621064.3,-60.059,-291.504,36.621,-74.707,442.212,364.9299462171891
1109,1686621064.31,-96.68,-0.488,51.758,-102.539,442.216,368.50385781730677
1110,1686621064.31,-18.555,45.898,-2.93,-22.461,442.22,370.8893787240266
1111,1686621064.32,32.715,-178.711,24.902,24.902,442.224,369.7894846876065
1112,1686621064.32,-33.203,-244.141,76.66,-32.715,442.228,365.9387829758279
1113,1686621064.32,-93.262,36.621,41.016,-91.797,442.232,362.61697586667117
1114,1686621064.33,-34.668,306.641,8.789,-38.086,442.236,372.67832977000165
1115,1686621064.33,30.762,-132.812,-42.969,39.551,442.239,368.05622929168544
1116,1686621064.33,-95.703,2.441,55.176,-91.309,442.244,361.1436646991826
1117,1686621064.34,-18.066,-536.621,55.176,-11.23,442.243,362.7108256289094
1118,1686621064.34,-62.5,137.695,-4.883,-46.387,442.248,373.4813465147908
1119,1686621064.34,32.227,-10.742,23.438,24.902,442.252,368.4653232795824
1120,1686621064.35,21.484,212.891,1.465,-10.742,442.256,371.52836892376195
1121,1686621064.35,-70.312,95.703,-8.789,-86.426,442.26,362.09488878473894
1122,1686621064.35,-89.844,-276.855,8.301,-88.379,442.264,374.8913308622759
1123,1686621064.36,-7.812,-809.57,-1.953,-10.254,442.267,381.0634551489917
1124,1686621064.36,22.949,-776.367,85.449,13.184,442.271,363.2176716165764
1125,1686621064.36,-48.34,37.598,53.711,-70.801,442.275,373.58865697025817
1126,1686621064.37,-83.496,-29.297,-62.988,-97.168,442.279,366.13756112492786
1127,1686621064.37,-18.066,-626.465,91.797,-22.949,442.283,366.66377768306506
1128,1686621064.38,33.203,56.641,200.195,17.09,442.287,364.662538653483
1129,1686621064.4,-25.391,473.633,-2.441,-40.039,442.292,353.93682967449075
1130,1686621064.4,-96.191,-11.719,-36.621,-96.68,442.296,366.98996066251385
1131,1686621064.4,-47.852,-72.754,48.34,-47.852,442.3,369.66843448386504
1132,1686621064.41,32.227,326.66,48.34,23.926,442.304,370.6257405853982
1133,1686621064.41,-1.953,389.16,-10.254,-13.672,442.308,367.1850910462895
1134,1686621064.42,-92.773,-267.578,-32.227,-93.262,442.311,366.24376891325613
1135,1686621064.42,-70.801,-620.117,110.84,-70.801,442.315,366.4206771462442
1136,1686621064.42,21.973,-103.516,107.422,9.766,442.319,353.14970674159804
1137,1686621064.43,19.531,301.27,-4.395,-2.93,442.323,370.2983532813428
1138,1686621064.43,-65.918,-168.457,-35.156,-81.543,442.327,366.46993587045364
1139,1686621064.43,-75.684,-480.957,85.938,-80.566,442.331,375.5219013846756
1140,1686621064.44,12.695,214.844,75.195,-2.93,442.335,363.22824534266454
1141,1686621064.44,41.016,415.527,-19.531,23.926,442.336,360.6658575658291
1142,1686621064.44,-41.992,-51.758,-40.039,-49.805,442.34,363.2217224678952
1143,1686621064.45,-90.332,-56.641,3.906,-95.215,442.344,355.9420966515149
1144,1686621064.45,-16.113,244.629,20.508,-22.461,442.348,363.58314104442275
1145,1686621064.46,44.434,164.062,-6.836,33.691,442.352,364.00130818517954
1146,1686621064.46,-19.043,-326.66,1.953,-24.902,442.356,355.0655230433945
1147,1686621064.46,-90.82,-495.605,15.137,-88.867,442.36,367.82437351880634
1148,1686621064.47,-33.691,-256.836,41.016,-42.48,442.363,361.29821887975254
1149,1686621064.47,47.363,-42.969,17.09,33.203,442.367,363.7191419073075
1150,1686621064.47,6.348,-739.258,-52.246,13.672,442.371,356.94549586380424
1151,1686621064.48,-75.195,-756.348,145.508,-68.848,442.375,362.03026220562606
1152,1686621064.48,-56.152,160.645,126.465,-74.219,442.379,365.6723766279064
1153,1686621064.49,21.484,279.297,-33.203,9.277,442.394,359.15302796182203
1154,1686621064.49,23.438,149.902,41.504,17.578,442.398,364.95148271207694
1155,1686621064.49,-57.617,222.656,40.527,-65.43,442.402,356.6853867595164
1156,1686621064.5,-84.473,251.465,20.02,-90.332,442.406,365.55878626250023
1157,1686621064.5,-6.836,162.109,10.742,-17.09,442.41,369.5731006926188
1158,1686621064.51,29.785,-27.344,10.254,21.973,442.414,354.5861789235493
1159,1686621064.51,-41.992,-135.742,5.859,-43.457,442.418,365.79784663832766
1160,1686621064.51,-98.145,68.359,10.254,-94.238,442.422,359.8300049745056
1161,1686621064.52,-31.738,-189.453,-4.395,-30.762,442.426,371.05191677407424
1162,1686621064.52,35.156,-455.566,157.715,36.133,442.43,371.32377149883973
1163,1686621064.52,2.441,216.309,110.84,-10.254,442.434,356.80356546253483
1164,1686621064.53,-65.918,-226.074,3.418,-55.176,442.426,350.84087548174756
1165,1686621064.53,-80.566,229.492,-44.434,-84.961,442.437,362.8040977515421
1166,1686621064.53,26.855,76.66,66.406,21.973,442.43,366.72330686362227
1167,1686621064.54,15.137,472.656,25.391,1.953,442.434,362.5875002494899
1168,1686621064.54,-78.125,223.633,-26.367,-71.289,442.438,365.40099046521937
1169,1686621064.54,-78.613,-506.348,-14.16,-52.734,442.442,357.3606897595545
1170,1686621064.55,16.113,-394.043,54.199,24.414,442.446,366.94918547872913
1171,1686621064.55,37.109,50.781,24.902,31.25,442.45,360.436866267842
1172,1686621064.56,-49.316,-179.688,-45.898,-40.039,442.453,356.26510565728074
1173,1686621064.56,-90.332,-827.637,-17.09,-74.219,442.457,350.77281354551025
1174,1686621064.56,-15.137,-482.91,251.465,-12.695,442.461,358.4586341722304
1175,1686621064.57,46.387,443.848,172.852,28.809,442.465,360.7576784473578
1176,1686621064.57,-25.391,173.34,-70.801,-33.691,442.469,358.93882055856875
1177,1686621064.59,-106.445,-411.133,123.047,-102.051,442.487,365.24833945072396
1178,1686621064.6,-53.223,82.031,140.625,-54.199,442.491,358.5896962728374
1179,1686621064.6,19.531,416.992,-19.531,24.902,442.495,368.50920669931037
1180,1686621064.6,-17.09,-75.684,-3.418,-16.113,442.499,364.8009012037674
1181,1686621064.61,-88.379,-392.578,58.105,-91.309,442.503,358.97766858697696
1182,1686621064.61,-61.523,-222.656,49.805,-63.477,442.507,369.37293252009835
1183,1686621064.62,23.926,1.953,10.742,13.184,442.511,367.32072153574603
1184,1686621064.62,5.859,-189.453,-38.086,3.906,442.515,359.09758626116195
1185,1686621064.62,-88.379,-562.5,121.582,-80.566,442.519,365.87234448506837
1186,1686621064.63,-83.984,41.504,132.324,-97.168,442.523,355.61074591907675
1187,1686621064.63,10.254,411.133,-3.418,-16.602,442.527,360.5246500384342
1188,1686621064.63,29.785,136.719,-37.109,1.953,442.53,369.30816363080737
1189,1686621064.63,-51.27,72.754,-22.949,-78.613,442.53,360.23347062083616
1190,1686621064.64,-98.145,171.387,23.438,-114.746,442.534,367.3024502019358
1191,1686621064.64,-23.438,181.152,18.555,-42.969,442.538,360.3313807625883
1192,1686621064.65,37.109,67.871,10.742,7.324,442.542,353.91368176700206
1193,1686621064.65,-26.855,33.691,-22.461,-53.223,442.546,363.18635393001097
1194,1686621064.65,-99.609,-215.82,6.348,-103.516,442.55,357.2782196465082
1195,1686621064.66,-52.246,-378.418,24.414,-48.828,442.554,363.080589307095
1196,1686621064.66,34.18,-469.727,65.918,20.996,442.558,363.27149253123
1197,1686621064.66,4.395,-127.441,72.266,-16.602,442.562,349.57694585054276
1198,1686621064.67,9.277,-925.781,104.98,10.254,442.574,366.0161864916597
1199,1686621064.67,-84.473,176.27,-11.23,-95.215,442.566,356.13809964603377
1200,1686621064.67,-74.219,-16.113,133.301,-84.473,442.578,356.67217820248675
1201,1686621064.67,-58.105,47.363,0.977,-61.523,442.569,360.8757885314648
1202,1686621064.67,-92.285,7.324,-20.508,-104.98,442.582,357.25633623547765
1203,1686621064.68,28.32,-757.812,-16.113,28.809,442.573,355.3934235983869
1204,1686621064.68,-15.137,46.875,52.734,-32.227,442.586,360.32680620515686
1205,1686621064.68,22.461,446.289,34.18,-4.395,442.59,361.44708615939
1206,1686621064.69,-53.223,72.754,-42.969,-64.941,442.594,352.1295407109114
1207,1686621064.69,-99.609,-414.062,28.809,-91.797,442.598,359.9057065770358
1208,1686621064.69,-26.367,-179.688,192.383,-18.066,442.602,353.42340744194695
1209,1686621064.7,38.574,140.137,80.078,36.133,442.606,359.75623959714073
1210,1686621064.7,-10.742,252.93,-10.254,-16.113,442.609,360.54450128182
1211,1686621064.7,-88.379,-298.828,-81.055,-73.242,442.613,357.75833648947287
1212,1686621064.71,-54.199,-880.859,83.984,-30.273,442.617,356.94914945671
1213,1686621064.71,29.785,52.734,233.398,31.25,442.619,362.6476605402435
1214,1686621064.71,0.977,417.969,-2.441,-0.977,442.623,356.4360309738185
1215,1686621064.72,-81.055,-124.512,-43.457,-88.379,442.627,361.6918690742297
1216,1686621064.72,-69.336,65.918,46.387,-79.59,442.631,357.298774238221
1217,1686621064.72,17.09,341.309,23.926,11.23,442.635,364.9565583140233
1218,1686621064.73,18.555,17.578,-19.043,17.09,442.638,354.9113420852661
1219,1686621064.73,-74.219,-772.461,-74.707,-56.641,442.642,359.57726426082473
1220,1686621064.74,-89.844,-713.379,155.273,-83.496,442.646,357.62417236165726
1221,1686621064.74,6.836,270.02,233.887,-16.602,442.65,358.6737432179605
1222,1686621064.74,47.852,384.277,-11.23,27.832,442.654,364.0222991093526
1223,1686621064.75,-32.715,-169.434,25.391,-44.434,442.658,365.82302659253367
1224,1686621064.75,-96.68,-202.637,87.402,-105.469,442.662,362.8004642895825
1225,1686621064.77,-35.156,294.922,35.645,-50.293,442.666,365.3952031417206
1226,1686621064.77,32.227,251.465,-24.414,14.16,442.67,363.74704150371736
1227,1686621064.78,-20.508,-195.312,62.012,-26.855,442.674,351.27860866193083
1228,1686621064.78,-100.098,-23.438,70.801,-92.773,442.678,359.39181683609854
1229,1686621064.78,-64.453,274.414,20.02,-53.711,442.682,357.5457414377263
1230,1686621064.79,28.32,-61.035,1.465,30.273,442.686,356.1487695032861
1231,1686621064.79,7.324,-453.125,111.816,14.16,442.69,356.78240472605836
1232,1686621064.8,-78.125,27.832,92.285,-72.266,442.694,365.8795666373405
1233,1686621064.8,-70.801,199.219,-11.23,-66.406,442.697,358.73118267946575
1234,1686621064.8,7.812,-43.457,2.93,2.93,442.701,366.4818541248388
1235,1686621064.81,17.09,104.004,76.66,9.277,442.705,360.36923094363857
1236,1686621064.81,-62.988,311.035,23.438,-61.035,442.709,363.1329906484839
1237,1686621064.82,-100.586,88.867,-34.18,-88.379,442.711,358.00016861183275
1238,1686621064.82,-18.555,-281.738,-28.809,-11.719,442.715,355.7188591875943
1239,1686621064.82,43.457,65.918,22.461,32.227,442.719,358.1241480870476
1240,1686621064.83,-25.391,355.469,9.766,-41.016,442.723,357.77698548149715
1241,1686621064.83,-93.262,-40.039,-43.945,-93.262,442.727,360.5762368369888
1242,1686621064.84,-34.668,-702.637,-10.742,-18.066,442.73,362.2259202800646
1243,1686621064.84,40.527,-518.066,135.742,44.434,442.734,372.9790947736083
1244,1686621064.84,-5.859,66.406,75.684,-6.836,442.738,360.3797754163806
1245,1686621064.85,-94.238,-46.387,-67.871,-91.309,442.742,365.731827582776
1246,1686621064.85,-68.359,-761.23,-2.93,-69.824,442.746,359.69938959203347
1247,1686621064.85,25.879,-256.348,180.176,14.16,442.75,358.4074128020551
1248,1686621064.86,18.555,428.223,30.273,-8.789,442.754,358.62337892409784
1249,1686621064.86,-70.312,110.84,-68.848,-88.379,442.758,363.24709092886945
1250,1686621064.86,-81.543,-43.457,36.621,-85.449,442.762,363.6988672506525
1251,1686621064.87,-0.977,287.598,40.039,-2.441,442.766,357.6518250749181
1252,1686621064.87,17.578,372.07,-16.602,26.367,442.77,365.73452320895694
1253,1686621064.88,-72.754,-149.414,-27.832,-52.246,442.773,360.8294257104805
1254,1686621064.88,-116.699,-612.793,25.879,-94.727,442.777,354.76832414855215
1255,1686621064.88,-34.668,-296.387,53.223,-25.879,442.781,365.7049223459596
1256,1686621064.89,22.461,295.41,21.973,20.508,442.785,368.7155282412342
1257,1686621064.89,-39.551,-116.699,-54.688,-28.32,442.789,356.7389915498433
1258,1686621064.9,-107.91,-632.324,126.465,-85.449,442.793,367.72068231453795
1259,1686621064.9,-45.898,50.293,150.879,-32.715,442.797,358.4537597265603
1260,1686621064.9,38.086,426.758,-10.742,41.016,442.801,350.8846164333666
1261,1686621064.9,2.441,67.871,-43.945,-9.277,442.801,365.34974628404285
1262,1686621064.91,-83.496,-53.711,-15.625,-85.938,442.805,351.84999621513055
1263,1686621064.91,-70.801,154.785,40.527,-71.289,442.809,359.8486849215159
1264,1686621064.92,15.137,266.602,18.066,2.441,442.813,361.4129436873567
1265,1686621064.92,15.625,-70.312,-9.277,9.277,442.817,360.00536774504747
1266,1686621064.92,-70.312,-400.879,-13.672,-66.895,442.82,372.87120153664654
1267,1686621064.93,-97.656,-357.422,31.738,-88.379,442.824,365.8885752675032
1268,1686621064.93,-10.254,-194.336,34.18,-15.625,442.828,357.05089882720245
1269,1686621064.94,21.973,-720.703,-56.152,28.809,442.832,361.3802201315586
1270,1686621064.94,-56.152,-1000.0,38.086,-33.203,442.836,362.35433099245836
1271,1686621064.94,-100.586,-232.91,115.234,-97.168,442.84,363.43958143331713
1272,1686621064.95,-39.062,154.297,16.113,-42.969,442.844,354.5539857560144
1273,1686621064.95,26.367,167.969,18.066,20.02,442.848,357.9977699966672
1274,1686621064.96,-18.555,325.195,3.906,-27.344,442.852,357.1400375593365
1275,1686621064.96,-93.262,224.121,-15.137,-94.727,442.856,363.0266601415447
1276,1686621064.96,-54.199,4.395,12.695,-57.129,442.86,355.04034545918273
1277,1686621064.97,33.203,129.883,60.059,20.996,442.863,351.6480970925168
1278,1686621064.97,-1.953,38.086,1.953,-3.418,442.867,354.7178039503342
1279,1686621064.98,-94.727,-95.215,8.789,-86.426,442.871,362.80776332324666
1280,1686621064.98,-82.031,-241.211,-0.977,-80.566,442.875,367.1226349420404
1281,1686621064.98,7.812,-528.32,140.137,5.859,442.879,350.99178930124367
1282,1686621064.99,14.648,-42.48,117.676,18.066,442.883,358.9178179824338
1283,1686621064.99,-72.754,220.703,-58.105,-67.383,442.887,362.8879086250118
1284,1686621064.99,-102.539,-261.719,-39.551,-95.703,442.891,362.7125190783935
1285,1686621064.99,-25.879,-146.973,169.922,-13.184,442.891,354.0826781992845
1286,1686621065.0,24.414,439.453,87.891,29.785,442.895,359.2214023302912
1287,1686621065.0,-40.527,263.672,-41.016,-45.898,442.899,360.7100580705092
1288,1686621065.01,-107.422,-196.777,6.348,-106.934,442.902,360.1868567543543
1289,1686621065.01,-50.293,-69.824,3.906,-41.992,442.906,366.398117112379
1290,1686621065.01,26.855,60.547,-6.348,23.926,442.91,365.3294339985673
1291,1686621065.02,-12.207,-135.254,3.418,-21.484,442.914,366.26101011134017
1292,1686621065.02,-95.215,-837.402,-40.039,-80.566,442.918,357.4347942810758
1293,1686621065.02,-61.523,-740.234,168.945,-50.781,442.922,360.0825246654236
1294,1686621065.03,45.898,303.711,213.867,20.996,442.926,367.25597442812716
1295,1686621065.03,31.25,378.418,-30.273,2.93,442.93,369.8968894996402
1296,1686621065.04,-69.824,-173.34,-18.555,-76.66,442.934,366.8035947344657
