,timestamps,TP9,AF7,AF8,TP10,Secondary Timestamp,emg_signal
0,1686017109.04,-29.785,340.332,155.273,-2.93,118873.463,342.1833273931309
1,1686017109.04,-36.621,399.902,107.91,1.465,118873.467,331.2112325634819
2,1686017109.05,-51.27,-69.336,-186.523,-8.301,118873.471,336.783534102625
3,1686017109.05,-48.828,-286.133,-156.25,-3.906,118873.475,340.14108707281963
4,1686017109.06,-41.504,137.207,123.535,11.719,118873.479,330.34989912135273
5,1686017109.06,-34.18,231.934,91.309,12.207,118873.483,327.05983560387955
6,1686017109.06,-37.109,-201.66,-128.906,-3.906,118873.487,326.6261874298786
7,1686017109.07,-40.039,-558.594,-180.176,-13.672,118873.491,330.0725505536141
8,1686017109.07,-37.109,35.645,194.824,-4.395,118873.495,332.4945931108018
9,1686017109.07,-30.762,524.414,192.383,2.441,118873.498,329.50317179843694
10,1686017109.08,-22.949,174.316,18.066,-12.207,118873.502,331.7537355234551
11,1686017109.08,-15.137,-174.316,-96.191,-20.996,118873.506,325.7905444297343
12,1686017109.08,-19.043,37.109,-7.812,-15.625,118873.504,333.9997231505875
13,1686017109.09,-16.113,495.605,183.105,-4.883,118873.508,330.59114698952226
14,1686017109.09,-11.719,-70.312,-113.281,0.488,118873.512,336.30612517046706
15,1686017109.1,-36.621,-422.363,-157.715,-16.602,118873.516,328.65620384554035
16,1686017109.1,-46.875,-10.742,77.637,-16.602,118873.52,336.20771388010417
17,1686017109.1,-33.203,89.844,125.488,0.488,118873.524,328.98277030260545
18,1686017109.11,-29.297,-418.945,-120.605,-2.93,118873.528,339.61314647071833
19,1686017109.11,-37.598,-695.312,-164.062,-29.785,118873.532,335.2768158450804
20,1686017109.11,-40.039,187.012,205.566,-40.039,118873.536,338.31373251866603
21,1686017109.12,-33.691,344.727,119.629,-22.461,118873.54,337.3552174810018
22,1686017109.12,-27.344,240.234,82.031,-13.672,118873.543,338.08224444193354
23,1686017109.13,-34.668,393.066,126.953,-32.227,118873.547,332.4860328153568
24,1686017109.13,-40.527,403.32,80.078,-51.27,118873.608,331.3817120308072
25,1686017109.13,-37.598,156.25,-40.039,-38.086,118873.612,330.2619359061285
26,1686017109.14,-26.367,106.445,-35.156,-23.926,118873.616,326.2543973787126
27,1686017109.14,-30.762,405.273,118.164,-38.086,118873.62,335.7259223929888
28,1686017109.14,-46.875,394.531,31.25,-61.035,118873.624,334.9675609735235
29,1686017109.15,-34.18,-124.512,-239.258,-49.805,118873.628,335.0547594339089
30,1686017109.15,-21.973,-678.711,-296.875,-29.297,118873.632,330.59342962843954
31,1686017109.16,-22.461,-117.676,79.59,-31.738,118873.636,330.7058506534632
32,1686017109.16,-25.879,471.191,183.105,-41.504,118873.64,333.80277218186217
33,1686017109.16,-28.32,-97.656,-119.629,-37.109,118873.643,330.0881142656343
34,1686017109.17,-24.902,-248.047,-96.68,-22.461,118873.647,333.9619083485137
35,1686017109.17,-26.367,205.078,131.348,-21.973,118873.651,333.45071484789565
36,1686017109.19,-36.133,143.066,9.766,-34.668,118873.615,338.7451766202413
37,1686017109.19,-33.203,-408.691,-227.539,-38.086,118873.619,334.1556201118573
38,1686017109.2,-23.926,-420.41,-56.641,-27.344,118873.623,323.16028805783304
39,1686017109.2,-25.391,412.109,227.051,-26.367,118873.627,335.08045570952214
40,1686017109.2,-29.297,453.613,72.754,-38.574,118873.63,328.1370738670123
41,1686017109.21,-35.645,-123.535,-153.809,-44.434,118873.634,331.01487751806695
42,1686017109.21,-31.25,-156.25,-7.324,-38.574,118873.638,339.6406416750015
43,1686017109.22,-16.602,338.379,160.156,-20.508,118873.642,328.75459480128796
44,1686017109.22,-20.996,199.707,-44.922,-30.762,118873.646,325.07640728196384
45,1686017109.22,-32.227,-571.289,-287.598,-49.805,118873.65,330.7902526733404
46,1686017109.23,-27.344,-470.703,-34.668,-44.922,118873.654,327.6684857377795
47,1686017109.23,-17.578,458.008,268.066,-37.109,118873.658,337.685055747323
48,1686017109.23,-15.137,354.004,46.387,-38.574,118873.655,332.31123525534514
49,1686017109.24,-20.02,-103.516,-86.914,-53.711,118873.659,330.85652119053253
50,1686017109.24,-19.531,101.074,72.754,-55.664,118873.662,322.4486344748779
51,1686017109.25,-13.672,496.582,165.527,-46.875,118873.666,322.4549462562771
52,1686017109.25,-8.789,282.715,-11.23,-42.48,118873.67,341.93603382628856
53,1686017109.25,-10.254,-288.574,-262.695,-48.828,118873.674,327.1104608751311
54,1686017109.26,-21.484,-156.738,-62.012,-61.523,118873.678,332.5429360364911
55,1686017109.26,-15.137,383.789,204.59,-50.293,118873.682,329.65239633494997
56,1686017109.26,-13.184,184.57,-19.043,-39.551,118873.686,327.94557727362223
57,1686017109.27,-26.367,-798.828,-383.789,-42.969,118873.69,325.1016486600124
58,1686017109.27,-39.551,-450.195,-31.25,-56.152,118873.694,330.97714102380655
59,1686017109.28,-35.645,196.777,167.969,-48.828,118873.698,335.35216192151825
60,1686017109.28,-22.949,-383.301,-115.723,-32.715,118873.7,322.4850915751464
61,1686017109.28,-22.949,-625.977,-98.633,-38.574,118873.703,328.973513616956
62,1686017109.29,-26.855,173.828,205.078,-61.035,118873.707,332.29739819495774
63,1686017109.29,-26.855,383.301,101.074,-66.406,118873.711,323.384821043596
64,1686017109.3,-17.578,179.688,86.914,-42.48,118873.715,332.8734978857038
65,1686017109.3,-13.672,62.5,65.43,-38.086,118873.719,328.96723795099774
66,1686017109.3,-18.555,91.309,34.18,-56.641,118873.723,331.2170334743645
67,1686017109.31,-25.391,349.609,90.332,-58.105,118873.727,328.07482374448216
68,1686017109.31,-22.949,-368.164,-197.754,-32.715,118873.731,334.18559376991226
69,1686017109.31,-19.531,-473.145,-81.543,-36.621,118873.735,328.29316785927097
70,1686017109.32,-29.785,481.934,231.445,-66.406,118873.739,340.01822524010964
71,1686017109.32,-32.715,253.906,-17.09,-70.312,118873.742,327.4035491803042
72,1686017109.32,-19.531,49.316,-48.828,-48.34,118873.748,337.6753188413141
73,1686017109.33,-17.09,388.184,132.324,-34.668,118873.751,329.8215708999535
74,1686017109.33,-32.227,290.039,9.277,-55.664,118873.755,331.0717580353352
75,1686017109.34,-38.086,-158.203,-231.445,-72.266,118873.759,330.3979936523239
76,1686017109.34,-34.18,-273.926,-156.738,-50.781,118873.763,335.1422491402796
77,1686017109.34,-18.066,45.898,126.953,-25.391,118873.767,329.25012493150655
78,1686017109.35,-10.742,161.621,129.395,-29.297,118873.771,328.14020212762017
79,1686017109.35,-27.832,-221.68,-149.414,-41.992,118873.775,328.02385311747827
80,1686017109.36,-36.133,-569.824,-179.199,-41.016,118873.779,339.4783728041322
81,1686017109.36,-24.902,144.531,231.445,-33.691,118873.783,328.22433728878576
82,1686017109.36,-15.625,591.797,187.012,-17.578,118873.787,331.0894493951733
83,1686017109.37,-19.531,-3.906,-94.238,-18.066,118873.791,332.7398502980135
84,1686017109.37,-30.273,-176.758,-43.945,-33.691,118873.789,329.7925101534404
85,1686017109.37,-26.367,316.895,165.039,-25.391,118873.793,330.28886905779643
86,1686017109.38,-17.09,534.668,127.93,-21.484,118873.797,332.3005432835701
87,1686017109.38,-24.414,-166.504,-193.848,-38.574,118873.801,326.74265051843787
88,1686017109.38,-37.109,-502.93,-169.434,-54.199,118873.805,329.1051519942598
89,1686017109.39,-32.227,-45.898,81.055,-49.316,118873.809,331.7913928021649
90,1686017109.39,-25.391,137.207,109.863,-30.273,118873.813,334.97856101340903
91,1686017109.4,-23.926,-398.926,-179.199,-22.949,118873.816,340.5579345211073
92,1686017109.4,-14.648,-731.934,-199.219,-17.578,118873.82,329.47072333042047
93,1686017109.4,-22.949,197.754,208.984,-31.25,118873.824,333.8745109074965
94,1686017109.41,-24.902,439.453,152.344,-30.762,118873.828,326.0489338157917
95,1686017109.41,-20.996,268.066,77.148,-24.902,118873.832,331.4319889054871
96,1686017109.41,-36.133,360.352,133.789,-46.387,118873.835,334.5566147980951
97,1686017109.42,-32.715,312.988,46.875,-41.504,118873.839,324.54768473708555
98,1686017109.42,-15.625,1.953,-102.051,-18.555,118873.842,335.6376105089257
99,1686017109.42,-17.09,138.672,50.293,-18.066,118873.846,336.1660036673998
100,1686017109.43,-28.809,392.09,78.613,-31.25,118873.85,326.1778507851931
101,1686017109.43,-37.109,98.145,-115.234,-37.109,118873.854,336.9196294808438
102,1686017109.44,-31.25,-283.203,-210.938,-26.367,118873.858,324.9580939329567
103,1686017109.44,-15.137,-629.395,-231.445,-7.324,118873.862,330.59074040131947
104,1686017109.44,-22.949,-107.91,72.266,-19.531,118873.866,326.852888985063
105,1686017109.45,-40.039,442.383,180.176,-43.945,118873.87,328.96454335982133
106,1686017109.45,-33.691,-59.082,-89.355,-23.438,118873.874,330.99146166096136
107,1686017109.46,-25.391,-457.52,-152.832,-6.836,118873.878,327.98270945520136
108,1686017109.46,-22.461,38.574,131.348,-17.09,118873.893,335.7567395018591
109,1686017109.46,-33.691,409.668,144.531,-33.203,118873.897,325.9872140921871
110,1686017109.47,-37.598,-297.363,-171.875,-22.949,118873.901,343.2842279768417
111,1686017109.47,-26.367,-400.879,-69.824,-11.23,118873.905,327.3854339780703
112,1686017109.47,-24.902,354.98,182.617,-20.508,118873.909,336.0888935155803
113,1686017109.48,-36.133,149.414,-62.988,-33.203,118873.913,326.4180757467945
114,1686017109.48,-42.969,-584.961,-266.602,-44.434,118873.917,329.61310873330393
115,1686017109.48,-27.832,-436.035,0.488,-24.414,118873.92,334.93069101874636
116,1686017109.49,-18.066,524.902,274.414,-19.531,118873.924,327.6368134406107
117,1686017109.49,-31.738,353.516,23.926,-45.898,118873.928,337.7237060552809
118,1686017109.5,-38.086,-137.207,-114.258,-59.57,118873.932,329.6036031038714
119,1686017109.5,-30.273,123.047,92.773,-40.039,118873.936,336.77072962438916
120,1686017109.5,-21.973,535.156,201.172,-30.762,118873.939,328.1054812225943
121,1686017109.51,-22.461,283.203,-37.109,-39.062,118873.943,330.7387500331007
122,1686017109.51,-35.645,-138.672,-195.312,-45.898,118873.946,331.1091598569094
123,1686017109.52,-38.086,166.504,74.707,-39.551,118873.95,333.3125852856131
124,1686017109.52,-30.273,526.367,173.828,-27.344,118873.954,337.3189912802586
125,1686017109.52,-32.227,13.672,-158.691,-26.855,118873.958,332.8794073708468
126,1686017109.53,-41.016,-528.809,-250.488,-38.086,118873.962,327.9243544633528
127,1686017109.53,-39.551,-24.414,113.281,-39.062,118873.966,334.00549417631566
128,1686017109.53,-27.832,404.785,148.438,-23.926,118873.97,327.45501349459965
129,1686017109.54,-23.926,103.516,6.836,-26.855,118873.974,328.5113690634074
130,1686017109.54,-32.715,-54.199,-1.465,-35.156,118873.978,332.67547421487876
131,1686017109.55,-24.902,-32.715,-56.641,-22.461,118873.982,335.6093235907068
132,1686017109.55,-2.441,-115.234,-46.875,16.113,118873.984,335.9237736545974
133,1686017109.55,-30.762,-436.523,-118.652,4.395,118873.988,333.5916751799097
134,1686017109.56,-66.406,-694.336,-145.02,-35.156,118873.992,332.9270166497218
135,1686017109.56,-54.199,53.711,173.828,-33.203,118873.996,337.8092160284785
136,1686017109.56,-28.809,323.73,131.836,-12.695,118874.0,335.6962340472317
137,1686017109.57,-13.672,-30.273,-33.691,14.16,118874.003,336.09101386956786
138,1686017109.57,-31.25,-66.895,-13.672,12.207,118874.007,332.2905477641352
139,1686017109.58,-36.621,262.207,126.465,12.207,118874.011,338.07577848081115
140,1686017109.58,-26.367,246.582,44.922,31.25,118874.015,332.7432335308709
141,1686017109.58,-21.973,-311.523,-104.004,45.41,118874.019,333.1730291733437
142,1686017109.59,-15.625,-156.738,45.41,50.781,118874.023,335.83344199656824
143,1686017109.59,-23.438,380.371,160.645,48.34,118874.027,328.6367702974665
144,1686017109.61,-32.715,93.75,-17.578,57.617,118874.06,330.7081280232923
145,1686017109.61,-14.16,16.602,-11.23,81.543,118874.064,331.4855556468914
146,1686017109.62,-7.324,325.684,123.047,84.961,118874.067,329.2644725741467
147,1686017109.62,-8.789,129.395,-27.832,64.453,118874.071,330.8813079684268
148,1686017109.62,-5.859,-279.297,-258.301,60.547,118874.075,327.794335170698
149,1686017109.63,2.93,-582.031,-201.172,81.543,118874.079,339.5172284986226
150,1686017109.63,7.324,-126.953,162.109,85.449,118874.083,333.5478976452205
151,1686017109.64,0.488,370.117,170.898,69.336,118874.087,333.5853559935725
152,1686017109.64,-1.465,-259.277,-186.523,65.918,118874.091,336.9105293713836
153,1686017109.64,5.371,-600.586,-166.504,81.543,118874.095,334.6465995124966
154,1686017109.65,13.672,175.293,210.938,100.098,118874.099,326.11422383578974
155,1686017109.65,11.719,307.129,104.492,101.562,118874.103,328.03853304151374
156,1686017109.65,3.906,-507.324,-247.559,75.195,118874.074,335.2049193304019
157,1686017109.66,4.395,-595.215,-129.883,58.105,118874.078,335.45111281172734
158,1686017109.66,11.23,270.996,217.285,77.637,118874.082,330.5609595402997
159,1686017109.66,3.418,427.734,125.0,82.52,118874.086,332.2861832476833
160,1686017109.67,-12.207,59.082,-83.984,58.105,118874.09,332.3770955546198
161,1686017109.67,-7.812,-197.754,-153.809,52.734,118874.094,326.0895556418145
162,1686017109.68,1.953,-112.793,37.109,65.43,118874.098,329.09369078595836
163,1686017109.68,-1.465,35.156,95.703,59.082,118874.102,324.6240559332624
164,1686017109.68,-5.859,-399.414,-82.52,39.551,118874.106,326.8708819493849
165,1686017109.69,-7.324,-391.602,7.812,31.25,118874.109,325.2676869493373
166,1686017109.69,-2.93,301.27,211.426,40.527,118874.113,327.572827079141
167,1686017109.7,4.883,354.98,107.91,44.922,118874.117,327.672594606222
168,1686017109.7,-2.441,-235.352,-130.859,27.832,118874.119,324.47444074198165
169,1686017109.7,-15.625,-176.758,32.715,9.766,118874.123,332.07212930955234
170,1686017109.71,-11.719,314.453,168.457,15.137,118874.127,327.7345282252304
171,1686017109.71,4.395,183.594,53.223,36.133,118874.131,331.21457651303234
172,1686017109.71,4.395,70.801,-10.254,31.25,118874.135,329.22538779776056
173,1686017109.72,-7.324,-79.59,-127.441,3.418,118874.139,331.7936377196513
174,1686017109.72,-2.93,33.203,22.461,-2.441,118874.143,331.0227375556411
175,1686017109.72,-5.859,-10.742,-4.883,12.695,118874.146,332.83331512697356
176,1686017109.73,-9.277,-615.723,-244.629,15.137,118874.15,329.79919581188483
177,1686017109.73,-12.695,-158.691,77.637,-7.324,118874.154,334.83482405771707
178,1686017109.74,-18.066,394.531,200.195,-18.066,118874.158,332.6170227235599
179,1686017109.74,-9.766,-193.848,-89.355,3.418,118874.162,331.8894954369251
180,1686017109.74,-4.395,-612.793,-127.441,12.695,118874.164,332.74478316402553
181,1686017109.75,-19.043,141.602,191.406,-6.836,118874.168,334.63252615328776
182,1686017109.75,-21.973,289.551,83.008,-23.926,118874.172,336.069312840746
183,1686017109.76,-10.742,-24.414,-29.785,-23.926,118874.176,327.4694289788187
184,1686017109.76,-9.766,106.445,67.383,-21.484,118874.18,336.0163400512689
185,1686017109.76,-9.766,62.5,9.277,-28.809,118874.184,326.21578193220427
186,1686017109.77,-20.508,-97.656,-107.422,-50.781,118874.188,326.43411051389694
187,1686017109.77,-31.738,-531.738,-183.105,-50.781,118874.192,326.4252025314433
188,1686017109.77,-23.926,-436.035,16.113,-33.203,118874.196,320.0317196668259
189,1686017109.78,-24.902,412.598,249.512,-36.133,118874.199,330.89927346723016
190,1686017109.78,-30.273,190.918,23.926,-43.945,118874.203,335.6092933340532
191,1686017109.79,-26.367,-193.848,-17.09,-54.199,118874.207,330.7883323670114
192,1686017109.79,-18.066,135.742,161.621,-37.109,118874.209,326.07922920850564
193,1686017109.79,-19.531,486.816,186.523,-31.25,118874.213,328.23618005283197
194,1686017109.8,-28.809,75.195,-94.238,-49.805,118874.217,336.6782571504414
195,1686017109.8,-27.344,-296.875,-180.664,-49.316,118874.221,331.41997221789916
196,1686017109.8,-20.02,103.027,102.539,-28.32,118874.225,336.23174231121436
197,1686017109.81,-13.672,141.113,86.426,-17.578,118874.229,331.04693758173704
198,1686017109.81,-13.672,-314.453,-177.734,-22.949,118874.233,333.60596383585363
199,1686017109.82,-24.414,-692.871,-257.324,-29.785,118874.237,333.651425462309
200,1686017109.82,-31.25,-137.695,121.094,-26.855,118874.241,335.68281651541713
201,1686017109.82,-22.461,395.996,207.031,-16.602,118874.244,324.3622640909795
202,1686017109.83,-19.531,137.207,36.133,-26.855,118874.248,327.4818341780299
203,1686017109.83,-31.25,-236.328,-71.777,-48.34,118874.252,332.0507281196326
204,1686017109.85,-43.457,-81.543,21.484,-50.293,118874.273,322.32594033651736
205,1686017109.85,-34.668,257.324,167.48,-30.762,118874.277,336.26176480140043
206,1686017109.86,-19.043,-348.145,-137.695,-20.02,118874.28,323.52645498228827
207,1686017109.86,-35.156,-784.668,-184.082,-37.109,118874.284,338.5795770412321
208,1686017109.87,-41.992,-22.461,174.316,-48.34,118874.288,332.0851993621914
209,1686017109.87,-29.297,154.785,119.141,-40.039,118874.292,336.4613664958579
210,1686017109.87,-25.391,-518.066,-90.332,-40.039,118874.296,333.07257355900896
211,1686017109.88,-29.297,-504.883,-40.039,-48.34,118874.3,328.64140589606507
212,1686017109.88,-29.297,329.102,99.609,-42.969,118874.314,331.3145098066034
213,1686017109.88,-37.109,271.484,197.754,-55.176,118874.304,329.6859761330391
214,1686017109.88,-24.902,102.051,-5.859,-27.832,118874.318,328.1140538329093
215,1686017109.88,-31.738,283.691,71.289,-44.434,118874.308,324.169898613444
216,1686017109.89,-22.461,53.223,-27.344,-8.789,118874.322,327.9875508258817
217,1686017109.89,-21.973,121.582,13.672,-36.133,118874.312,328.69139649152686
218,1686017109.89,-26.855,319.336,93.262,-15.137,118874.326,328.2404327083891
219,1686017109.89,-29.297,253.906,91.797,-39.551,118874.316,328.0245580471375
220,1686017109.89,-34.668,56.641,-97.168,-24.902,118874.329,333.8662923722169
221,1686017109.9,-27.344,-363.281,-223.145,-22.461,118874.333,333.0872059000767
222,1686017109.9,-16.602,-143.555,-9.766,-6.348,118874.337,337.0675606972639
223,1686017109.9,-17.578,287.598,154.297,-13.184,118874.341,329.963550617996
224,1686017109.91,-27.832,325.195,106.445,-28.32,118874.345,326.7830782480764
225,1686017109.91,-24.902,-111.816,-105.957,-22.949,118874.349,324.748354474371
226,1686017109.92,-13.184,-882.812,-330.566,-4.883,118874.353,326.7549897709286
227,1686017109.92,-20.508,-579.59,17.578,-2.93,118874.357,320.8396168555429
228,1686017109.94,-27.832,158.691,208.984,-18.066,118874.359,329.6553978083762
229,1686017109.94,-27.344,-314.941,-101.562,-21.973,118874.363,324.30996722005466
230,1686017109.95,-23.926,-488.281,-58.594,-4.883,118874.367,331.4738018997828
231,1686017109.95,-22.949,397.949,261.23,10.254,118874.371,334.37608081014395
232,1686017109.96,-28.32,449.219,96.68,-1.465,118874.375,331.9955916854541
233,1686017109.96,-27.832,-131.836,-140.137,-13.672,118874.379,328.85836077152436
234,1686017109.96,-28.32,-374.512,-53.223,-2.441,118874.383,322.8417764196476
235,1686017109.97,-21.484,53.711,174.805,24.902,118874.387,326.63775850475906
236,1686017109.97,-19.531,344.238,103.516,11.719,118874.391,336.35200091367216
237,1686017109.97,-34.668,-447.754,-257.812,-17.578,118874.394,324.5298271156429
238,1686017109.98,-40.039,-565.43,-92.773,-11.719,118874.398,330.5063190396729
239,1686017109.98,-28.32,348.145,225.098,9.766,118874.402,333.2175340714555
240,1686017109.98,-22.461,290.527,75.195,9.766,118874.405,329.8170397502572
241,1686017109.99,-37.109,-64.453,-35.645,-19.531,118874.409,325.9431862383059
242,1686017109.99,-40.039,125.488,87.402,-21.484,118874.413,339.07033445158726
243,1686017110.0,-24.902,347.656,131.348,7.812,118874.417,332.7922475639244
244,1686017110.0,-16.113,166.016,1.953,24.902,118874.421,330.5594676873599
245,1686017110.0,-23.438,-248.047,-191.895,9.766,118874.425,337.78072201981576
246,1686017110.01,-27.344,-200.195,-49.316,-13.672,118874.429,337.78716198599494
247,1686017110.01,-19.043,304.688,194.336,-3.418,118874.432,328.0337516212654
248,1686017110.02,-20.02,-17.578,-49.316,6.348,118874.436,332.154651996667
249,1686017110.02,-25.879,-680.664,-263.672,-2.441,118874.44,338.41925726366804
250,1686017110.02,-32.715,-128.906,68.359,-18.066,118874.444,332.8535909308416
251,1686017110.03,-28.32,153.32,161.621,-17.578,118874.448,333.6228177578311
252,1686017110.03,-12.695,-405.762,-107.422,2.93,118874.449,329.09231787265026
253,1686017110.03,-18.066,-658.203,-124.023,-9.766,118874.453,333.7393918286918
254,1686017110.04,-33.203,27.832,194.336,-39.062,118874.457,334.8188353829784
255,1686017110.04,-29.297,290.527,129.883,-38.574,118874.461,342.1437043689924
256,1686017110.04,-14.16,103.516,99.609,-20.02,118874.465,339.0643830657749
257,1686017110.05,-14.648,-39.551,70.312,-19.531,118874.469,337.8716978281932
258,1686017110.05,-28.32,-17.578,84.961,-46.387,118874.473,340.1366047021114
259,1686017110.06,-40.527,220.703,99.609,-59.082,118874.477,335.21867109460993
260,1686017110.06,-32.715,-451.66,-188.477,-36.133,118874.48,333.2791615446794
261,1686017110.06,-17.09,-527.344,-32.227,-27.344,118874.484,337.34575933504186
262,1686017110.07,-26.367,371.094,236.328,-39.551,118874.488,338.80345973603255
263,1686017110.07,-37.109,154.297,-3.906,-46.387,118874.492,340.84866293011174
264,1686017110.08,-29.297,-104.98,-24.902,-38.574,118874.501,331.19159722469254
265,1686017110.08,-17.09,288.086,159.668,-21.973,118874.505,335.2432778827512
266,1686017110.08,-27.832,524.902,156.25,-33.691,118874.508,339.5805240307095
267,1686017110.09,-34.668,114.258,-93.75,-52.246,118874.512,337.87814241146333
268,1686017110.09,-28.32,-187.5,-171.875,-40.039,118874.516,334.44551648913114
269,1686017110.1,-20.02,-68.848,33.691,-18.555,118874.52,343.13035259466
270,1686017110.1,-17.09,127.93,139.648,-27.832,118874.524,336.64547481698446
271,1686017110.1,-28.809,-68.359,-94.727,-52.246,118874.528,333.41393784534745
272,1686017110.11,-29.297,-635.254,-235.84,-41.992,118874.532,336.46843624562484
273,1686017110.11,-19.531,10.742,210.938,-23.926,118874.536,343.22372992895663
274,1686017110.11,-19.531,573.242,220.703,-26.367,118874.54,337.59572044629175
275,1686017110.12,-31.25,-144.043,-124.512,-45.898,118874.544,347.17561995601415
276,1686017110.13,-33.691,-427.734,-109.375,-47.363,118874.554,344.2262336498971
277,1686017110.14,-23.438,286.621,184.57,-30.762,118874.558,338.9500048614867
278,1686017110.14,-20.508,269.043,96.68,-20.996,118874.562,329.57529717586993
279,1686017110.14,-29.297,-197.266,-51.758,-26.855,118874.566,342.6615367515812
280,1686017110.15,-38.574,-132.812,1.953,-33.203,118874.57,345.1980663077981
281,1686017110.15,-38.086,-59.57,7.324,-17.09,118874.574,339.5635795847401
282,1686017110.16,-22.461,-14.16,91.797,1.953,118874.578,345.89402618087837
283,1686017110.16,-23.926,-442.871,-145.02,0.488,118874.582,338.62993807186473
284,1686017110.16,-43.457,-850.586,-184.57,-27.344,118874.586,338.77933056485926
285,1686017110.17,-38.086,18.555,249.023,-32.715,118874.59,340.28266792988376
286,1686017110.17,-34.668,205.078,104.98,-44.434,118874.588,340.9143745935545
287,1686017110.17,-22.949,334.961,177.734,-14.16,118874.593,342.0234328260013
288,1686017110.17,-40.527,354.004,125.0,-52.246,118874.592,335.1941524790803
289,1686017110.18,-21.484,104.98,75.684,-20.996,118874.597,339.5731181236039
290,1686017110.18,-20.02,166.016,27.344,-28.809,118874.596,346.4883746782997
291,1686017110.18,-5.371,44.434,-8.301,-9.766,118874.599,343.15380930303945
292,1686017110.18,-15.625,227.539,69.824,-20.508,118874.603,347.00903654372223
293,1686017110.19,-22.461,-0.977,-95.215,-31.738,118874.607,352.772398941529
294,1686017110.19,-19.043,-336.426,-142.09,-22.461,118874.611,336.13128191494735
295,1686017110.2,-11.719,-151.855,20.508,-17.578,118874.615,340.89975725177044
296,1686017110.2,-11.23,216.309,101.074,-26.855,118874.619,336.37887414167307
297,1686017110.2,-20.996,266.113,93.75,-43.457,118874.623,346.5386715141293
298,1686017110.21,-1.953,-132.812,-75.195,-18.066,118874.627,334.2896859667924
299,1686017110.21,-23.926,-538.086,-0.488,-22.949,118874.643,338.2433677110286
300,1686017110.21,15.137,-1000.0,-377.93,20.508,118874.631,347.9564240840889
301,1686017110.21,-62.5,293.457,212.891,-73.242,118874.647,344.6950162665407
302,1686017110.22,-50.781,-65.918,-30.762,-49.316,118874.651,352.4035666255496
303,1686017110.22,-25.879,78.125,116.211,-15.137,118874.654,347.9817871189652
304,1686017110.22,-20.508,410.645,159.668,-16.602,118874.658,337.4887149525209
305,1686017110.23,-28.32,103.516,-62.988,-37.598,118874.662,336.8791529661457
306,1686017110.23,-28.32,-550.293,-268.555,-36.133,118874.666,348.68079966372113
307,1686017110.24,-20.02,-629.395,-93.75,-18.555,118874.67,343.00679229407655
308,1686017110.24,-16.113,159.668,236.816,-22.461,118874.674,343.4681239596383
309,1686017110.24,-15.137,287.598,90.82,-29.297,118874.678,343.171497510673
310,1686017110.25,-21.973,-189.941,-99.121,-31.738,118874.682,346.76579647328765
311,1686017110.25,-21.484,-50.781,62.012,-20.996,118874.686,347.21769465138846
312,1686017110.25,-10.254,430.176,204.59,-7.812,118874.689,342.8251250873975
313,1686017110.26,-13.672,250.977,44.922,-19.043,118874.692,346.3693146158046
314,1686017110.26,-31.25,-90.332,-86.914,-43.457,118874.696,339.5516152783753
315,1686017110.26,-31.738,143.555,86.426,-43.457,118874.7,346.667780913181
316,1686017110.27,-15.137,360.84,148.438,-20.02,118874.704,333.28313301426533
317,1686017110.27,-20.996,-100.098,-109.863,-26.367,118874.708,346.3159718831456
318,1686017110.28,-34.668,-553.711,-181.152,-46.387,118874.712,344.5515903899464
319,1686017110.28,-34.668,-35.156,143.555,-38.086,118874.716,345.4961793597963
320,1686017110.28,-20.508,408.203,184.57,-14.16,118874.72,343.89590930134887
321,1686017110.29,-7.324,55.664,16.602,-7.812,118874.724,349.6721700830381
322,1686017110.29,-19.043,-341.309,-125.488,-26.855,118874.728,344.72459927219165
323,1686017110.3,-25.879,-287.598,-29.297,-35.645,118874.732,343.5441952829294
324,1686017110.31,-13.184,73.73,162.109,-13.672,118874.735,342.99182431441267
325,1686017110.32,-11.719,-240.723,-80.078,9.277,118874.739,327.0376282465377
326,1686017110.32,-27.832,-735.84,-149.414,-6.348,118874.743,338.3735568884167
327,1686017110.32,-35.156,-8.301,210.938,-30.762,118874.747,336.28245314892166
328,1686017110.33,-33.203,290.527,142.578,-18.555,118874.75,334.32935048749977
329,1686017110.33,-31.25,-84.473,-0.977,1.465,118874.754,336.05029591574777
330,1686017110.34,-34.668,-145.02,42.969,-9.766,118874.758,334.03409953026835
331,1686017110.34,-40.527,175.781,164.551,-22.949,118874.762,335.6988240372153
332,1686017110.34,-36.621,223.633,88.867,-17.09,118874.766,335.05739348035274
333,1686017110.35,-25.391,-285.645,-65.918,4.883,118874.77,330.48008713719713
334,1686017110.35,-17.09,-184.57,66.406,10.254,118874.774,332.7594468323469
335,1686017110.36,-19.531,328.125,159.18,-13.184,118874.778,323.98613317958757
336,1686017110.36,-25.391,-7.324,-27.344,-13.672,118874.779,336.17124300737055
337,1686017110.36,-20.996,-195.312,-17.578,9.766,118874.783,326.8393602626444
338,1686017110.37,-13.672,196.289,152.344,10.742,118874.787,328.30071035709136
339,1686017110.37,-21.973,367.188,137.207,-7.324,118874.791,333.3087206837546
340,1686017110.37,-32.715,-36.621,-104.004,-13.672,118874.795,324.35046852044235
341,1686017110.38,-26.367,-436.523,-192.383,-2.93,118874.799,318.93982412830303
342,1686017110.38,-15.625,-93.262,96.68,2.93,118874.802,326.2595479711452
343,1686017110.38,-24.902,328.613,181.152,-7.324,118874.806,316.9273738882011
344,1686017110.39,-33.203,-116.699,-122.559,-11.719,118874.81,321.70851659387466
345,1686017110.39,-17.09,-693.359,-222.656,3.418,118874.814,317.9517462187044
346,1686017110.4,-2.441,15.625,189.453,17.578,118874.818,325.44597551792964
347,1686017110.4,-8.789,274.902,157.227,3.418,118874.822,319.7579061983145
348,1686017110.4,-25.391,-531.738,-205.566,-17.578,118874.825,317.5960991434289
349,1686017110.41,-22.949,-584.961,-123.047,-2.93,118874.829,325.1456630283327
350,1686017110.41,-8.301,235.352,229.492,17.578,118874.833,322.9708410796827
351,1686017110.42,-12.695,224.121,95.703,7.324,118874.837,323.0692201705803
352,1686017110.42,-28.809,-346.191,-109.863,-18.066,118874.841,312.2956187149871
353,1686017110.42,-29.785,-499.023,-26.855,-23.926,118874.844,314.93328024174116
354,1686017110.43,-17.09,-1.465,185.547,-4.395,118874.848,328.947933110371
355,1686017110.43,-10.742,359.375,176.758,7.324,118874.852,322.527750349943
356,1686017110.43,-21.973,-367.188,-140.137,-6.836,118874.856,318.94507656902874
357,1686017110.44,-32.227,-490.723,-33.203,-24.414,118874.86,324.2286559936513
358,1686017110.44,-17.09,337.891,221.68,-8.301,118874.864,313.1624615567999
359,1686017110.45,-7.324,293.457,74.219,-1.465,118874.868,310.2822221391
360,1686017110.45,-16.602,24.414,3.418,-27.832,118874.87,323.6654703576277
361,1686017110.45,-25.879,140.625,83.008,-41.992,118874.873,326.31205877440647
362,1686017110.46,-23.926,355.469,141.602,-33.203,118874.877,321.95672132254447
363,1686017110.46,-13.672,223.145,59.082,-9.766,118874.881,315.8865220086495
364,1686017110.46,-15.137,-15.625,-77.637,-15.137,118874.885,325.47913629072747
365,1686017110.47,-29.785,-167.48,-112.793,-40.527,118874.889,312.96015409219336
366,1686017110.47,-28.32,-176.27,-24.902,-37.598,118874.893,315.40419259817264
367,1686017110.48,-10.742,-229.492,-62.988,-10.742,118874.897,316.4429240395852
368,1686017110.48,-13.184,-765.137,-224.121,-0.488,118874.901,315.28658524944797
369,1686017110.48,-26.855,-320.312,96.68,-24.902,118874.905,315.06607897524304
370,1686017110.49,-23.926,302.246,195.801,-37.109,118874.909,321.0781876306095
371,1686017110.49,-14.16,-80.078,34.668,-17.09,118874.913,313.4980939725356
372,1686017110.49,-14.648,-107.91,85.938,-7.812,118874.914,322.3251782080101
373,1686017110.5,-19.043,314.453,188.965,-28.32,118874.918,317.3971182597716
374,1686017110.5,-21.484,278.809,78.125,-45.41,118874.922,316.2333645515227
375,1686017110.5,-20.508,-237.793,-65.43,-30.273,118874.926,313.60256506494255
376,1686017110.51,-20.02,-166.992,34.668,-17.578,118874.93,315.7821741919454
377,1686017110.51,-34.18,37.109,73.73,-31.738,118874.934,326.144771944403
378,1686017110.52,-40.039,-141.113,-33.691,-41.016,118874.938,318.89053110993444
379,1686017110.52,-26.367,-528.809,-204.59,-20.996,118874.941,322.18708205233344
380,1686017110.52,-20.996,-595.703,-18.555,1.465,118874.945,314.82097651947015
381,1686017110.53,-18.555,129.883,233.398,-6.836,118874.949,319.65696567221255
382,1686017110.53,-20.996,209.473,70.312,-18.555,118874.953,319.74387308389106
383,1686017110.54,-22.949,-188.965,-40.527,-19.531,118874.957,310.19185923916706
384,1686017110.54,-19.531,21.484,112.793,-14.16,118874.959,315.6750731132199
385,1686017110.54,-20.02,457.031,207.031,-3.418,118874.963,320.46217850503814
386,1686017110.55,-22.461,218.262,-3.418,-16.602,118874.967,317.253427040724
387,1686017110.55,-20.508,-44.922,-88.379,-31.25,118874.971,313.8559633145559
388,1686017110.55,-23.438,256.348,128.906,-20.02,118874.975,327.9206290119646
389,1686017110.56,-24.902,183.105,50.781,-13.184,118874.979,317.72668377669885
390,1686017110.56,-33.203,-296.387,-241.211,-22.949,118874.983,314.4582231199771
391,1686017110.56,-36.133,-640.137,-243.652,-31.25,118874.987,313.76394711086334
392,1686017110.57,-29.297,-68.848,147.949,-29.297,118874.991,317.6657050156311
393,1686017110.57,-20.02,466.309,215.82,-14.16,118874.995,318.3722424957076
394,1686017110.58,-20.508,85.938,3.418,-18.066,118874.998,318.51678223226065
395,1686017110.58,-33.691,-308.594,-156.738,-36.133,118875.002,321.68761348305026
396,1686017110.58,-27.344,-261.719,-49.316,-20.02,118875.005,328.496299051648
397,1686017110.59,-13.184,225.098,186.523,2.441,118875.009,315.48328687395843
398,1686017110.59,-17.578,-176.27,-91.797,-1.953,118875.013,324.0598445250174
399,1686017110.6,-33.203,-730.957,-174.316,-21.484,118875.017,328.3563765286425
400,1686017110.6,-34.668,12.207,160.156,-34.668,118875.021,324.1126481866777
401,1686017110.6,-20.996,197.754,138.672,-9.277,118875.025,324.50811402164345
402,1686017110.61,-25.391,-468.75,-82.031,0.0,118875.029,321.93536125110916
403,1686017110.61,-47.363,-534.668,-83.008,-32.715,118875.033,323.3780182124066
404,1686017110.62,-39.062,238.77,198.73,-27.344,118875.036,322.0313921593157
405,1686017110.62,-20.02,281.25,113.281,-0.488,118875.04,321.0617399838965
406,1686017110.62,-29.297,168.457,82.031,-10.254,118875.044,323.58530445571
407,1686017110.63,-43.945,279.297,138.184,-39.062,118875.048,329.9810966055019
408,1686017110.63,-43.457,327.637,99.121,-55.664,118875.062,322.47558412578184
409,1686017110.63,-36.621,57.129,-25.879,-41.016,118875.066,320.7123687672136
410,1686017110.64,-38.574,-122.07,-38.574,-23.926,118875.07,314.78648837926585
411,1686017110.64,-41.992,185.547,121.582,-34.668,118875.074,325.7805257587192
412,1686017110.64,-52.246,292.48,105.957,-58.594,118875.078,318.20764280755867
413,1686017110.65,-46.387,-181.152,-196.777,-49.316,118875.082,324.29817953617373
414,1686017110.65,-33.691,-813.477,-312.012,-21.973,118875.086,321.9718054066452
415,1686017110.66,-34.668,-258.789,117.676,-27.344,118875.09,319.4225266552043
416,1686017110.66,-38.574,283.203,169.922,-47.852,118875.094,324.50559768318965
417,1686017110.66,-47.852,-70.312,10.742,-56.152,118875.098,332.32590812112034
418,1686017110.67,-37.109,-25.391,64.453,-35.156,118875.101,320.88970073950503
419,1686017110.67,-27.832,103.027,93.262,-32.715,118875.105,321.504879041339
420,1686017110.69,-41.016,17.09,62.988,-51.27,118875.109,329.6682665235638
421,1686017110.69,-42.48,-492.188,-195.312,-49.805,118875.113,328.77642449655315
422,1686017110.7,-35.156,-557.129,-112.793,-39.062,118875.117,321.3235145378858
423,1686017110.7,-25.391,260.742,211.914,-31.25,118875.121,329.2345856479889
424,1686017110.7,-18.555,207.031,87.891,-37.109,118875.125,327.72244567908433
425,1686017110.71,-27.832,-586.914,-248.047,-50.781,118875.129,326.04155228652877
426,1686017110.71,-30.273,-684.082,-155.273,-44.434,118875.133,329.8512732525496
427,1686017110.72,-18.066,264.648,282.715,-38.086,118875.137,324.07103276742856
428,1686017110.72,-20.996,319.336,104.492,-47.852,118875.14,332.2699613066447
429,1686017110.72,-36.621,-60.547,22.949,-62.012,118875.144,324.9762582784118
430,1686017110.73,-34.668,89.844,135.742,-55.664,118875.148,330.4947538317056
431,1686017110.73,-31.25,375.977,166.016,-38.086,118875.152,332.204901829607
432,1686017110.75,-35.645,253.418,62.988,-37.598,118875.169,332.88026387195987
433,1686017110.75,-41.016,-35.156,-82.031,-59.57,118875.173,327.48209473841405
434,1686017110.76,-42.48,70.312,49.316,-73.242,118875.177,326.43413522820236
435,1686017110.76,-37.598,308.594,151.855,-45.898,118875.181,332.0217733908606
436,1686017110.76,-28.809,172.852,38.086,-19.531,118875.185,335.8202892729392
437,1686017110.77,-31.738,-264.16,-171.875,-31.738,118875.189,333.75829135939637
438,1686017110.77,-40.527,-327.148,-119.629,-49.316,118875.193,324.9205107391388
439,1686017110.78,-34.18,-17.09,128.906,-41.992,118875.197,330.1260121663623
440,1686017110.78,-23.926,-406.25,-80.078,-13.184,118875.258,325.42374764996345
441,1686017110.78,-25.879,-90.332,-11.23,-22.949,118875.201,330.3541550421847
442,1686017110.78,-22.461,-660.645,-89.844,-27.344,118875.262,324.5053331058992
443,1686017110.78,-31.738,-784.18,-273.926,-27.344,118875.205,333.6578882232053
444,1686017110.79,-30.762,27.344,208.008,-50.293,118875.266,330.9553165204171
445,1686017110.79,-36.621,-345.703,65.43,-38.086,118875.208,332.9577392367362
446,1686017110.79,-32.227,260.254,124.512,-37.109,118875.27,328.1423623138658
447,1686017110.79,-30.762,142.578,171.875,-25.391,118875.212,328.80690467055047
448,1686017110.79,-30.273,28.32,83.496,-22.461,118875.274,336.52432569102655
449,1686017110.8,-28.32,-108.887,76.172,-29.785,118875.278,320.7902523564684
450,1686017110.8,-32.715,19.043,86.914,-49.805,118875.281,333.87649031855017
451,1686017110.8,-36.133,180.176,72.754,-57.129,118875.285,328.44715196051936
452,1686017110.81,-28.32,-228.516,-59.57,-40.039,118875.289,333.1260063446796
453,1686017110.81,-25.391,-280.273,48.34,-34.668,118875.293,327.51476925565873
454,1686017110.82,-34.668,167.48,144.043,-47.363,118875.297,333.0853986071438
455,1686017110.82,-35.156,212.891,70.312,-49.805,118875.301,330.6134250208134
456,1686017110.84,-26.855,-621.582,-232.91,-31.738,118875.269,333.4293604232329
457,1686017110.85,-20.508,-685.547,-98.145,-16.113,118875.273,330.3636233697565
458,1686017110.85,-25.879,259.277,243.652,-30.762,118875.277,333.4752367436861
459,1686017110.86,-41.504,124.512,46.387,-57.129,118875.281,324.0391854216169
460,1686017110.86,-39.062,-113.281,-47.363,-41.016,118875.284,331.804294377881
461,1686017110.86,-28.32,-28.32,77.148,-16.602,118875.288,340.3665098195519
462,1686017110.87,-29.785,140.625,166.016,-28.32,118875.292,335.9508800301445
463,1686017110.87,-30.273,-549.316,-144.043,-34.668,118875.291,333.49966461548075
464,1686017110.87,-36.133,-77.637,-73.242,-36.621,118875.296,337.63881124416963
465,1686017110.87,-25.879,-64.453,117.188,-23.926,118875.295,329.8172657853753
466,1686017110.87,-30.762,-435.059,-171.875,-31.738,118875.3,333.6165738259837
467,1686017110.88,-26.855,393.066,182.617,-21.973,118875.299,329.3247021854527
468,1686017110.88,-13.184,180.176,204.102,-13.184,118875.304,331.9697562504399
469,1686017110.88,-28.809,-216.797,-95.215,-36.621,118875.303,327.15158919039925
470,1686017110.88,-9.277,493.652,192.871,0.0,118875.308,326.7696416151019
471,1686017110.88,-32.715,-464.355,-69.336,-48.34,118875.306,336.880301458068
472,1686017110.89,-25.391,-103.027,-66.895,-20.02,118875.312,328.6378959694072
473,1686017110.89,-23.438,-41.016,123.535,-35.156,118875.31,330.4385930672275
474,1686017110.89,-7.812,-78.125,103.516,-14.16,118875.314,332.1656294432966
475,1686017110.9,-14.648,-204.102,-10.742,-19.531,118875.318,331.5811706463486
476,1686017110.9,-33.691,-187.5,-0.977,-33.691,118875.322,334.92566752191243
477,1686017110.9,-35.156,181.152,154.785,-36.621,118875.326,339.1907455838771
478,1686017110.91,-20.508,345.215,136.719,-22.949,118875.33,334.5290767942131
479,1686017110.91,-18.066,-355.957,-194.336,-13.672,118875.334,337.79700873606686
480,1686017110.91,-29.297,-1000.0,-393.555,-16.602,118875.334,343.3676935008658
481,1686017110.92,-35.645,-470.703,49.805,-20.996,118875.338,336.1877105290034
482,1686017110.92,-34.668,71.289,202.148,-10.254,118875.342,335.6634128459657
483,1686017110.92,-35.156,-22.461,104.492,-6.348,118875.346,336.68548294175304
484,1686017110.93,-46.875,220.703,135.742,-25.879,118875.35,331.61837532469804
485,1686017110.93,-49.316,62.012,33.203,-41.992,118875.354,331.3475285663133
486,1686017110.94,-37.109,-229.492,-41.016,-33.691,118875.358,332.474561995771
487,1686017110.94,-33.203,-688.477,-161.133,-11.719,118875.362,340.23943463073215
488,1686017110.94,-43.945,-190.43,129.883,-22.949,118875.366,341.5288328742367
489,1686017110.95,-48.34,430.664,214.355,-39.551,118875.37,338.45888640207573
490,1686017110.95,-41.016,160.645,58.594,-25.391,118875.373,336.12570053391147
491,1686017110.96,-29.785,-36.133,53.711,-4.883,118875.377,329.66873487807464
492,1686017110.96,-17.578,83.008,111.816,-3.418,118875.379,331.47156297651185
493,1686017110.96,-28.809,366.211,142.09,-17.578,118875.383,332.00867343675077
494,1686017110.97,-41.992,-265.137,-151.367,-28.32,118875.387,332.1748708964681
495,1686017110.97,-24.902,-439.453,-82.031,-9.766,118875.391,331.67610283463097
496,1686017110.98,-21.484,332.031,214.355,-0.488,118875.395,340.70839658317857
497,1686017110.98,-35.156,154.785,39.551,-17.09,118875.399,337.0546553376027
498,1686017110.98,-42.48,-619.629,-289.062,-21.484,118875.403,334.38516986386713
499,1686017110.99,-36.133,-731.934,-123.535,1.465,118875.407,332.3954478873969
500,1686017110.99,-26.367,241.699,289.551,1.953,118875.411,333.61640954816335
501,1686017110.99,-36.133,312.5,80.078,-21.484,118875.414,334.8234342674549
502,1686017111.0,-36.621,-52.734,-4.883,-25.879,118875.418,330.7307628743725
503,1686017111.0,-28.809,186.523,155.762,-14.16,118875.422,325.4645978609806
504,1686017111.0,-26.855,496.094,205.078,-2.441,118875.439,334.9255650704491
505,1686017111.01,-22.949,276.367,13.184,-7.812,118875.443,323.8050839505403
506,1686017111.01,-23.926,-95.215,-119.629,-25.391,118875.446,328.55163145322695
507,1686017111.02,-20.508,122.559,91.309,-13.672,118875.45,324.7592104092322
508,1686017111.02,-4.883,384.277,154.297,9.766,118875.454,324.38380837553524
509,1686017111.02,-5.859,-54.688,-134.766,-1.465,118875.458,321.9810439308081
510,1686017111.03,-16.113,-623.047,-287.598,-20.508,118875.462,331.1364246288065
511,1686017111.03,-18.555,-308.105,15.137,-19.531,118875.466,330.00795006317554
512,1686017111.03,-9.277,126.953,173.828,-7.324,118875.47,321.4912763969042
513,1686017111.04,-7.812,-57.617,44.922,-7.324,118875.474,321.33221619952883
514,1686017111.04,-25.879,-169.434,-5.371,-36.133,118875.478,321.646469995085
515,1686017111.05,-26.855,-96.191,56.641,-39.062,118875.482,316.6016945518526
516,1686017111.06,-9.766,20.996,125.488,-14.648,118875.485,338.4161044547308
517,1686017111.07,-1.465,-197.754,-48.828,5.859,118875.489,332.8386810152337
518,1686017111.07,-13.672,-687.988,-143.555,2.93,118875.493,351.468551158251
519,1686017111.08,-22.461,8.301,196.289,-15.137,118875.497,352.61125110220684
520,1686017111.08,-17.578,273.926,121.582,-4.395,118875.501,357.75101605667413
521,1686017111.08,-5.859,-102.539,-21.973,13.184,118875.505,364.73854775647425
522,1686017111.09,-13.672,-169.434,33.691,-1.465,118875.509,360.38890170868535
523,1686017111.09,-36.133,160.645,167.48,-28.809,118875.512,370.15454447038996
524,1686017111.1,-31.25,265.625,64.941,-26.367,118875.516,361.07341375864564
525,1686017111.1,-19.531,-260.742,-83.496,-11.719,118875.52,367.7476006315878
526,1686017111.1,-24.414,-404.785,15.625,-21.484,118875.524,376.15576737130885
527,1686017111.11,-31.738,127.441,128.906,-44.922,118875.528,373.85147392676834
528,1686017111.11,-33.203,155.762,50.781,-41.016,118875.53,376.07768307855054
529,1686017111.11,-27.344,-225.098,-17.09,-16.602,118875.534,376.5558969047769
530,1686017111.12,-20.996,-52.246,122.559,-11.719,118875.538,390.1796101332735
531,1686017111.12,-26.855,337.891,187.988,-27.344,118875.542,382.66972697446664
532,1686017111.12,-24.414,101.562,6.836,-35.156,118875.546,389.7537990454524
533,1686017111.13,-9.766,-275.391,-114.746,-20.508,118875.55,392.0355782966618
534,1686017111.13,-13.184,-73.242,87.402,-9.766,118875.554,392.69079057942577
535,1686017111.14,-29.297,308.105,186.035,-29.297,118875.558,389.38744142031055
536,1686017111.14,-31.738,-86.426,-120.605,-39.062,118875.562,394.34547487342746
537,1686017111.14,-29.297,-714.844,-263.184,-17.09,118875.565,403.1548693105544
538,1686017111.15,-26.855,-65.918,131.836,-7.324,118875.569,401.9893429176985
539,1686017111.15,-28.32,235.352,155.273,-27.832,118875.573,397.83054327102184
540,1686017111.15,-32.227,-556.641,-209.961,-41.016,118875.576,407.16109618033653
541,1686017111.16,-34.18,-688.965,-160.645,-31.25,118875.58,413.4896654569714
542,1686017111.16,-33.691,151.367,224.609,-18.066,118875.584,399.91760354528896
543,1686017111.16,-26.367,434.57,161.133,-17.09,118875.588,398.17645236904434
544,1686017111.17,-34.668,-91.309,-84.473,-38.574,118875.592,404.88320565032177
545,1686017111.17,-31.25,-428.711,-96.68,-41.504,118875.596,406.5830455381388
546,1686017111.18,-17.578,-20.02,137.207,-20.508,118875.599,400.19038779300763
547,1686017111.18,-10.742,372.559,177.246,-11.23,118875.603,401.2664703903573
548,1686017111.18,-16.113,-387.207,-207.52,-17.09,118875.607,399.4609215959803
549,1686017111.19,-28.809,-757.812,-196.777,-32.715,118875.611,403.18003622138184
550,1686017111.19,-28.809,141.113,213.379,-29.297,118875.615,394.63419659181943
551,1686017111.2,-15.625,272.461,119.141,-6.348,118875.619,390.7576795248297
552,1686017111.2,-11.719,10.742,18.555,-11.719,118875.619,393.3965164151292
553,1686017111.2,-21.484,127.441,106.445,-26.367,118875.623,394.640396265051
554,1686017111.21,-24.414,307.617,135.254,-24.414,118875.627,402.51167318323417
555,1686017111.21,-17.09,62.012,8.301,-8.301,118875.631,401.4765962318013
556,1686017111.22,-23.438,-195.801,-78.613,-10.254,118875.635,394.65535939628796
557,1686017111.22,-35.645,-176.27,-77.637,-32.227,118875.639,400.7409025482752
558,1686017111.22,-32.227,-146.484,-32.227,-31.738,118875.642,403.4126161333961
559,1686017111.23,-24.414,-265.137,-51.27,-14.16,118875.646,392.451414015132
560,1686017111.23,-23.438,-765.625,-211.426,-16.113,118875.65,395.38801732171925
561,1686017111.23,-29.297,-252.93,92.773,-30.762,118875.654,398.5615935317391
562,1686017111.24,-36.621,341.797,207.52,-43.457,118875.658,387.6719442207069
563,1686017111.24,-39.551,-229.492,-67.871,-34.18,118875.662,398.82897224952455
564,1686017111.24,-27.344,-403.32,-62.988,-19.531,118875.664,388.43263227002035
565,1686017111.25,-27.344,214.844,180.664,-34.18,118875.668,393.98298797997506
566,1686017111.25,-33.691,248.535,94.238,-44.434,118875.672,384.4555109894785
567,1686017111.26,-25.879,-39.062,2.441,-26.855,118875.676,388.1496388275137
568,1686017111.26,-20.508,0.977,47.363,-20.02,118875.68,387.9308369355479
569,1686017111.26,-27.344,-54.199,15.625,-38.086,118875.684,375.2821804944527
570,1686017111.27,-39.551,-180.176,-39.062,-43.457,118875.688,376.78762578007724
571,1686017111.27,-39.062,-627.441,-241.699,-36.621,118875.691,374.92331260980313
572,1686017111.28,-32.715,-707.031,-105.469,-26.367,118875.695,376.1354077210075
573,1686017111.28,-27.832,232.422,273.926,-26.855,118875.699,380.98471567619026
574,1686017111.28,-31.25,215.82,102.539,-39.551,118875.703,377.37359698622123
575,1686017111.29,-33.203,-139.648,44.434,-41.016,118875.707,374.13396396688313
576,1686017111.29,-14.16,179.199,182.617,-23.438,118875.709,380.6982785880801
577,1686017111.29,-6.836,459.961,193.848,-18.555,118875.713,368.45438734959777
578,1686017111.3,-21.484,118.164,-36.133,-34.668,118875.717,368.03687341755426
579,1686017111.3,-34.668,-159.668,-99.121,-42.969,118875.721,364.74029521190005
580,1686017111.3,-30.273,133.301,124.023,-21.973,118875.725,370.5186685031768
581,1686017111.31,-21.484,84.961,39.062,-9.766,118875.729,366.30164621170906
582,1686017111.31,-22.461,-324.219,-219.238,-28.809,118875.733,364.1432797853226
583,1686017111.32,-31.738,-747.07,-319.336,-34.668,118875.737,355.8781952220328
584,1686017111.32,-31.738,-448.73,38.574,-20.508,118875.741,357.4295622039779
585,1686017111.32,-20.996,159.18,225.586,-17.578,118875.745,355.6816480215083
586,1686017111.33,-26.367,-80.566,-10.742,-35.156,118875.749,366.1983642227788
587,1686017111.33,-40.039,-550.781,-139.648,-54.688,118875.752,357.8449143127789
588,1686017111.33,-42.969,-195.801,94.727,-56.152,118875.754,359.6148195437442
589,1686017111.34,-28.32,320.801,207.031,-36.133,118875.758,354.8235697358068
590,1686017111.34,-24.902,-210.449,-84.961,-29.297,118875.762,358.59938414206766
591,1686017111.34,-35.645,-522.949,-110.352,-49.316,118875.766,363.9287428902936
592,1686017111.35,-31.25,122.559,133.789,-58.594,118875.77,348.0918444584559
593,1686017111.35,-21.973,47.852,80.566,-40.039,118875.774,353.4049179839648
594,1686017111.36,-25.391,-570.801,-105.469,-26.367,118875.778,348.7591438577934
595,1686017111.36,-36.133,-591.309,-103.027,-42.969,118875.781,345.5173578624486
596,1686017111.36,-32.227,158.203,180.176,-50.293,118875.785,344.4270125665185
597,1686017111.37,-14.16,218.75,103.516,-20.996,118875.789,343.687984885228
598,1686017111.37,-11.23,59.57,62.5,-6.836,118875.793,349.42092350542123
599,1686017111.38,-20.996,-37.109,64.453,-29.785,118875.797,341.1296022421256
600,1686017111.38,-27.832,95.703,101.074,-48.34,118875.814,347.3690385642115
601,1686017111.38,-23.926,134.766,42.48,-41.016,118875.818,344.11084632348366
602,1686017111.39,-15.625,-174.316,-9.766,-22.949,118875.821,339.6910816051351
603,1686017111.39,-23.438,57.129,153.809,-25.391,118875.825,342.62259095631697
604,1686017111.4,-35.156,282.227,109.863,-48.828,118875.829,336.9752508109212
605,1686017111.4,-27.344,-196.777,-165.527,-46.387,118875.833,338.69254039117425
606,1686017111.4,-12.207,-662.109,-203.613,-21.973,118875.837,334.8122288985054
607,1686017111.41,-10.742,-77.637,151.855,-25.879,118875.841,329.3921994417989
608,1686017111.41,-18.555,315.43,158.691,-43.945,118875.845,327.7962150983262
609,1686017111.41,-26.855,-52.734,1.953,-45.898,118875.849,326.82901358435913
610,1686017111.42,-21.973,-2.93,89.844,-29.297,118875.853,314.0325939729195
611,1686017111.42,-12.207,147.949,125.488,-15.137,118875.857,314.6568833505125
612,1686017111.44,-24.902,5.371,47.852,-34.668,118875.859,308.0792704077717
613,1686017111.44,-32.715,-526.367,-178.711,-41.504,118875.863,304.1909479671529
614,1686017111.45,-12.207,-653.32,-124.023,-4.395,118875.867,307.87127361392544
615,1686017111.45,-10.742,248.047,235.352,-3.906,118875.871,295.6168089197845
616,1686017111.46,-28.32,412.109,138.184,-32.715,118875.875,300.50364241172167
617,1686017111.46,-38.086,-427.734,-195.312,-35.156,118875.879,299.3318129051109
618,1686017111.46,-32.715,-579.59,-72.266,-25.391,118875.883,287.5980686817684
619,1686017111.47,-21.973,293.457,267.578,-16.113,118875.886,291.20779101441343
620,1686017111.47,-34.668,406.25,106.445,-34.18,118875.89,292.1384165389461
621,1686017111.47,-58.105,-124.512,-89.355,-65.918,118875.894,292.60590043175125
622,1686017111.48,-59.57,-106.934,31.25,-62.988,118875.898,290.2490093710285
623,1686017111.48,-43.945,345.703,186.523,-36.133,118875.902,287.8340135822416
624,1686017111.48,-39.062,251.465,54.199,-31.738,118875.905,289.3739483151787
625,1686017111.49,-45.898,-36.621,-73.73,-48.34,118875.908,285.9382259611062
626,1686017111.49,-46.875,92.285,70.801,-51.27,118875.912,269.59962102709443
627,1686017111.5,-34.668,310.059,146.973,-34.18,118875.916,294.6744083606985
628,1686017111.5,-23.926,69.824,-40.039,-25.879,118875.92,272.37414838698743
629,1686017111.5,-35.156,-505.859,-248.047,-39.551,118875.924,276.89026361057574
630,1686017111.51,-45.41,-420.41,-104.004,-57.129,118875.928,271.2579285104679
631,1686017111.51,-37.598,174.805,173.34,-48.34,118875.932,266.5617457939995
632,1686017111.51,-25.879,-34.18,-17.578,-29.785,118875.936,270.5410266248745
633,1686017111.52,-25.391,-631.348,-201.66,-35.156,118875.94,262.3692953224114
634,1686017111.52,-35.645,-106.934,131.836,-54.199,118875.944,269.18971543623013
635,1686017111.53,-33.691,98.633,132.324,-46.387,118875.948,272.00275275265034
636,1686017111.53,-20.508,-452.637,-75.684,-13.672,118875.949,276.59788214427624
637,1686017111.53,-29.297,-542.969,-98.145,-15.137,118875.953,270.67015401214957
638,1686017111.54,-40.527,-21.484,131.836,-43.945,118875.957,268.1178814124969
639,1686017111.54,-37.109,138.184,122.559,-39.062,118875.961,267.0380585131495
640,1686017111.54,-32.715,22.949,96.68,-16.113,118875.965,267.5632450847857
641,1686017111.55,-22.461,-131.836,67.871,-11.23,118875.969,273.6367770374966
642,1686017111.55,-23.926,-187.012,15.625,-24.902,118875.973,269.28006451427615
643,1686017111.56,-36.621,-87.891,68.848,-44.434,118875.976,272.36534306910914
644,1686017111.56,-36.621,-571.777,-131.836,-33.203,118875.98,268.6245009522052
645,1686017111.56,-24.902,-679.688,-88.379,-12.695,118875.984,266.6699357867259
646,1686017111.57,-23.438,224.609,250.977,-28.32,118875.988,271.66990861696934
647,1686017111.57,-27.344,165.527,71.777,-40.527,118875.992,272.5022628507316
648,1686017111.57,-32.715,-71.289,14.648,-29.785,118875.995,268.7133293848924
649,1686017111.58,-24.902,271.484,155.762,-11.23,118875.999,270.78758309997653
650,1686017111.58,-26.855,446.289,153.32,-19.531,118876.002,274.08954048993354
651,1686017111.58,-43.457,96.191,-52.246,-39.551,118876.006,273.2466745753946
652,1686017111.59,-40.527,-159.668,-108.887,-26.855,118876.01,262.7093964598766
653,1686017111.59,-24.902,-108.887,27.344,-9.277,118876.014,266.18308079937503
654,1686017111.6,-23.438,81.543,126.465,-24.414,118876.018,266.1503237079771
655,1686017111.6,-30.762,-91.797,-58.594,-32.715,118876.022,272.65753636986665
656,1686017111.6,-29.785,-641.113,-271.973,-18.066,118876.026,272.5301898460089
657,1686017111.61,-22.461,-285.156,55.176,-8.301,118876.03,280.4932364668877
658,1686017111.61,-21.484,214.844,215.82,-7.812,118876.034,270.15762151044976
659,1686017111.62,-30.273,-208.984,-93.75,-22.461,118876.038,274.53539235175845
660,1686017111.62,-38.086,-794.922,-230.469,-36.133,118876.04,275.20834875051816
661,1686017111.62,-33.203,-41.992,207.031,-23.926,118876.044,267.9039978403811
662,1686017111.63,-25.879,378.418,196.289,-10.742,118876.048,275.5819973734822
663,1686017111.63,-34.18,95.703,24.414,-25.879,118876.052,270.4668484109978
664,1686017111.64,-40.039,53.223,24.902,-29.785,118876.056,273.54618019845753
665,1686017111.64,-30.273,-39.062,-38.086,-5.859,118876.06,273.2850126675645
666,1686017111.64,-21.484,-57.617,26.855,0.977,118876.064,277.87573177776864
667,1686017111.65,-27.832,-475.098,-118.164,-16.113,118876.068,275.8078786574916
668,1686017111.65,-40.527,-558.105,-109.375,-40.527,118876.072,271.72567810004205
669,1686017111.65,-43.457,260.254,205.566,-41.504,118876.076,276.80592818126416
670,1686017111.66,-30.762,325.684,119.629,-15.137,118876.08,275.20708508826317
671,1686017111.66,-24.902,63.477,34.18,-12.207,118876.083,276.80406452348956
672,1686017111.66,-37.598,-82.031,-31.25,-23.926,118876.085,274.309861169188
673,1686017111.67,-43.457,140.625,61.523,-22.461,118876.088,279.64476562389166
674,1686017111.67,-24.902,172.852,54.688,5.371,118876.092,279.6716185657777
675,1686017111.68,-14.16,-151.855,-24.902,20.508,118876.096,278.68566315804856
676,1686017111.68,-21.484,7.812,95.703,-2.441,118876.1,274.97644745841353
677,1686017111.68,-26.855,-47.852,-57.617,-11.23,118876.104,285.31943192470925
678,1686017111.69,-20.996,-311.035,-170.41,6.836,118876.108,274.3340579688534
679,1686017111.69,-13.672,-716.797,-177.734,24.414,118876.112,293.24477773424775
680,1686017111.69,-16.602,-300.781,80.566,9.277,118876.116,282.06899604453326
681,1686017111.7,-33.203,242.676,154.785,-8.301,118876.12,281.13856680757743
682,1686017111.7,-33.691,-45.898,45.898,0.0,118876.124,278.6072225112957
683,1686017111.71,-10.254,-216.309,39.551,25.391,118876.128,289.9693729347462
684,1686017111.71,-7.324,10.254,116.699,31.738,118876.144,291.4165137714104
685,1686017111.71,-28.32,309.57,139.16,10.254,118876.147,283.2321853189349
686,1686017111.72,-38.086,-394.043,-222.656,17.09,118876.151,284.51005445901274
687,1686017111.72,-29.785,-725.098,-122.07,27.344,118876.155,299.21078625167104
688,1686017111.72,-27.344,119.141,210.449,1.465,118876.159,294.03351247652586
689,1686017111.73,-35.645,92.773,35.156,-22.461,118876.163,293.727404268816
690,1686017111.73,-35.156,-611.328,-180.664,-17.09,118876.167,286.75556299142806
691,1686017111.74,-28.809,-604.98,-90.332,5.371,118876.171,295.4423979735147
692,1686017111.74,-23.438,190.918,229.004,14.16,118876.175,298.12399180844466
693,1686017111.74,-28.32,280.762,100.586,1.953,118876.179,286.6304689843722
694,1686017111.75,-39.062,-3.906,1.953,-10.254,118876.183,299.8983971305342
695,1686017111.75,-28.809,90.332,103.027,0.488,118876.187,291.9808775478632
696,1686017111.75,-14.648,347.656,156.25,10.254,118876.189,284.14897657687396
697,1686017111.76,-21.484,205.078,21.973,-1.465,118876.193,287.9918975758149
698,1686017111.76,-27.344,-102.051,-88.867,-14.16,118876.197,298.4386285271978
699,1686017111.77,-20.02,93.262,85.938,-9.766,118876.201,291.7188134581461
700,1686017111.77,-13.672,359.375,166.016,4.883,118876.205,300.01888903338136
701,1686017111.77,-20.996,-32.715,-82.031,1.953,118876.209,295.6086804157037
702,1686017111.78,-37.598,-702.637,-320.312,-25.391,118876.212,293.9516573475117
703,1686017111.78,-40.039,-363.281,13.184,-35.645,118876.216,308.91336580502923
704,1686017111.78,-25.391,339.355,253.418,-19.043,118876.22,297.6126909320179
705,1686017111.79,-23.926,-32.227,-44.922,-8.789,118876.224,300.96116477291804
706,1686017111.79,-41.992,-538.574,-183.105,-32.227,118876.228,306.1580892831471
707,1686017111.8,-45.41,-255.371,41.016,-50.781,118876.232,303.6354883210819
708,1686017111.81,-29.297,68.848,145.02,-25.879,118876.234,300.2783099991364
709,1686017111.82,-31.25,-208.008,-46.875,-18.555,118876.238,297.7721577347457
710,1686017111.82,-47.363,-517.09,-157.715,-43.457,118876.242,296.1268023755567
711,1686017111.82,-53.711,136.23,164.062,-54.688,118876.246,308.9886276145938
712,1686017111.83,-43.457,272.461,126.953,-43.457,118876.25,306.64706426334595
713,1686017111.83,-31.738,-147.949,-40.527,-35.645,118876.254,303.56511888987467
714,1686017111.84,-33.691,-182.617,5.859,-40.039,118876.258,300.3728967662432
715,1686017111.84,-38.086,-14.648,32.227,-52.734,118876.262,303.23317147193427
716,1686017111.84,-40.039,-76.172,23.438,-49.805,118876.266,308.3681064867295
717,1686017111.85,-34.18,-555.664,-146.973,-29.297,118876.27,302.6869857433661
718,1686017111.85,-29.297,-630.371,-118.164,-34.668,118876.273,308.9735846403355
719,1686017111.86,-36.133,167.969,183.594,-62.012,118876.277,313.8712719078322
720,1686017111.86,-36.621,64.453,40.039,-48.828,118876.28,303.3768116853912
721,1686017111.86,-32.715,-40.039,57.129,-26.367,118876.283,310.7222085676977
722,1686017111.87,-24.902,286.133,164.062,-27.344,118876.287,308.7679581482998
723,1686017111.87,-28.32,375.977,130.859,-41.992,118876.291,303.4668743018099
724,1686017111.87,-36.133,54.199,-60.059,-55.176,118876.295,308.6931355370349
725,1686017111.88,-35.156,-324.707,-219.238,-49.316,118876.299,310.90222344302697
726,1686017111.88,-30.273,-155.762,25.879,-36.621,118876.303,315.33975025150534
727,1686017111.88,-28.809,272.461,205.566,-41.504,118876.307,311.0722826084213
728,1686017111.89,-35.645,-120.605,-146.484,-49.805,118876.311,308.0037129166883
729,1686017111.89,-35.645,-669.922,-234.375,-36.621,118876.315,307.52971714347956
730,1686017111.9,-29.297,-195.801,117.676,-25.879,118876.319,312.5581567069827
731,1686017111.9,-30.762,-1.465,116.211,-33.691,118876.322,309.41253232935316
732,1686017111.9,-34.668,-507.324,-152.832,-46.387,118876.325,308.7671885248975
733,1686017111.91,-30.273,-837.402,-202.637,-42.969,118876.328,312.5810724078691
734,1686017111.91,-22.949,-90.332,209.961,-33.691,118876.332,314.2753738273846
735,1686017111.92,-23.926,419.922,209.961,-38.086,118876.336,306.0803813992732
736,1686017111.92,-27.344,-157.227,-75.684,-49.316,118876.34,314.0757392137441
737,1686017111.92,-23.438,-582.031,-54.688,-40.527,118876.344,309.02731296831513
738,1686017111.93,-14.648,-24.902,194.336,-22.461,118876.348,315.5280876337482
739,1686017111.93,-9.766,402.344,178.711,-14.648,118876.352,314.12921833490975
740,1686017111.93,-16.602,-353.027,-156.738,-25.879,118876.356,320.84544199583866
741,1686017111.94,-36.621,-557.129,-62.988,-41.992,118876.36,312.6930709962259
742,1686017111.94,-34.18,308.594,254.883,-30.273,118876.364,324.73745843316965
743,1686017111.95,-20.996,355.469,109.863,-20.996,118876.368,329.93379901006284
744,1686017111.95,-30.762,83.496,1.465,-36.133,118876.369,320.4338434105133
745,1686017111.95,-39.062,-130.371,-36.133,-51.27,118876.373,318.9293099851385
746,1686017111.96,-30.273,23.438,41.504,-42.969,118876.377,324.3898228529358
747,1686017111.96,-17.09,179.688,99.609,-14.16,118876.381,318.22262906630556
748,1686017111.96,-22.461,-209.473,-49.316,-20.02,118876.385,319.29526028777093
749,1686017111.97,-41.504,-342.285,-106.445,-43.945,118876.388,314.437949734122
750,1686017111.97,-41.992,-65.918,43.945,-46.875,118876.392,313.41767081703256
751,1686017111.98,-26.855,-37.598,15.137,-33.203,118876.396,325.2763282202013
752,1686017111.98,-31.25,-485.84,-106.934,-38.574,118876.4,324.0963553492026
753,1686017111.98,-39.551,-83.008,128.418,-61.523,118876.404,316.908573748561
754,1686017111.99,-38.574,300.293,127.93,-66.406,118876.408,322.7203185162768
755,1686017111.99,-31.25,-83.984,33.203,-42.48,118876.412,329.06348947622064
756,1686017111.99,-24.902,-186.035,35.645,-30.273,118876.415,318.42794329010644
757,1686017112.0,-28.32,232.422,165.527,-41.504,118876.419,325.0759396425451
758,1686017112.0,-34.668,274.902,102.051,-48.34,118876.422,326.93894081194
759,1686017112.0,-30.273,-451.172,-199.219,-31.25,118876.426,321.667974358015
760,1686017112.01,-21.973,-677.246,-149.902,-16.602,118876.43,316.8495881543514
761,1686017112.01,-26.367,-119.141,107.91,-32.715,118876.434,322.6596960595579
762,1686017112.02,-32.227,-81.543,61.035,-42.969,118876.438,317.47155231444225
763,1686017112.02,-23.438,-594.238,-149.414,-25.391,118876.442,330.92922069813596
764,1686017112.02,-20.02,-486.328,4.883,-13.184,118876.446,325.27823531528907
765,1686017112.03,-20.508,387.695,276.855,-28.809,118876.45,329.55715133462286
766,1686017112.03,-26.855,235.84,47.363,-45.41,118876.454,329.72174094386185
767,1686017112.04,-30.273,-48.828,-4.883,-39.062,118876.458,330.0331613965702
768,1686017112.04,-22.949,159.18,129.395,-20.996,118876.459,329.0122357907106
769,1686017112.04,-19.043,393.066,155.273,-23.926,118876.463,326.0314423664884
770,1686017112.05,-25.879,127.93,-68.848,-47.852,118876.467,316.43577766104937
771,1686017112.05,-31.25,-137.207,-139.16,-63.965,118876.471,325.8803583178688
772,1686017112.05,-20.996,141.113,87.891,-49.316,118876.475,315.9916761681329
773,1686017112.06,-13.184,70.801,20.996,-36.621,118876.479,322.9139522473015
774,1686017112.06,-29.785,-317.383,-229.98,-47.363,118876.483,322.724859554862
775,1686017112.06,-40.527,-879.395,-405.762,-51.758,118876.487,322.75879599921507
776,1686017112.07,-38.086,-437.012,43.457,-42.48,118876.491,324.5656918518116
777,1686017112.07,-27.344,385.742,273.438,-24.414,118876.495,331.28108308345395
778,1686017112.08,-26.855,125.977,69.824,-20.996,118876.498,329.04668204966515
779,1686017112.08,-45.41,-273.926,-27.832,-41.992,118876.502,326.62843915886464
780,1686017112.08,-43.457,-117.676,61.523,-47.363,118876.504,331.2970374206824
781,1686017112.09,-27.344,353.027,205.566,-29.297,118876.508,320.48884225157747
782,1686017112.09,-23.926,-188.965,-100.586,-24.414,118876.512,328.65957470751613
783,1686017112.1,-35.156,-601.562,-164.062,-43.457,118876.516,321.1464884531329
784,1686017112.1,-34.668,78.613,160.645,-47.363,118876.52,325.14458763677567
785,1686017112.1,-25.879,132.324,125.977,-21.973,118876.524,325.3549952179341
786,1686017112.11,-23.926,-526.855,-140.137,-3.418,118876.528,337.1513394990778
787,1686017112.11,-33.203,-586.914,-124.512,-20.508,118876.532,326.65229895934715
788,1686017112.11,-36.133,29.297,116.699,-41.504,118876.535,334.4657873680774
789,1686017112.12,-17.578,-46.875,50.293,-26.367,118876.539,321.58496805568467
790,1686017112.12,-9.277,-178.711,48.828,-6.836,118876.543,318.59641421305054
791,1686017112.13,-21.484,41.992,124.512,-17.578,118876.547,330.09252674547196
792,1686017112.13,-30.273,258.789,120.605,-38.086,118876.557,319.88131661284257
793,1686017112.14,-28.809,50.293,26.855,-29.785,118876.561,328.7100450248016
794,1686017112.14,-23.926,0.0,41.504,-11.23,118876.565,325.7381264395585
795,1686017112.14,-24.414,238.281,126.953,-25.391,118876.569,323.6755484359473
796,1686017112.15,-33.203,232.91,81.543,-44.922,118876.573,322.77167436666974
797,1686017112.15,-35.156,-282.227,-214.355,-36.621,118876.577,328.27046414009277
798,1686017112.16,-23.926,-697.266,-247.559,-6.836,118876.581,322.07649723729907
799,1686017112.16,-20.508,-121.582,107.422,-8.789,118876.585,325.58277837389795
800,1686017112.16,-28.32,196.777,129.883,-33.691,118876.588,329.50908584917784
801,1686017112.17,-33.203,-124.512,-7.812,-47.852,118876.592,337.07691044612295
802,1686017112.17,-30.273,-54.199,45.898,-42.48,118876.596,329.19615941765807
803,1686017112.17,-26.855,83.984,110.84,-25.391,118876.6,338.37785360779156
804,1686017112.17,-38.574,-89.355,24.414,-44.434,118876.608,332.8664373474671
805,1686017112.18,-51.27,-545.41,-213.867,-61.035,118876.612,330.48325738389934
806,1686017112.18,-45.898,-469.238,-89.844,-42.969,118876.616,328.06348898697604
807,1686017112.19,-37.109,249.512,210.938,-28.32,118876.62,331.0199530416812
808,1686017112.19,-35.645,342.285,136.23,-38.086,118876.624,325.9487446694061
809,1686017112.19,-38.086,-306.641,-196.777,-41.992,118876.628,327.02121314113776
810,1686017112.2,-43.945,-1000.0,-446.289,-29.785,118876.632,330.54551888389074
811,1686017112.2,-28.32,-529.297,11.719,-17.578,118876.636,327.43278484182116
812,1686017112.2,-20.996,239.258,225.098,-17.09,118876.639,332.7338694985966
813,1686017112.21,-29.297,46.387,85.449,-37.109,118876.643,325.68076914712003
814,1686017112.21,-28.809,117.188,143.066,-38.574,118876.647,331.84441138597856
815,1686017112.22,-19.531,387.695,180.664,-13.184,118876.651,327.47419186620607
816,1686017112.23,-18.066,290.039,77.637,-9.766,118876.658,331.27350944959966
817,1686017112.24,-29.297,-143.555,-117.676,-24.414,118876.662,330.1494372898659
818,1686017112.24,-24.902,-160.645,-22.461,-27.832,118876.666,319.77578479527926
819,1686017112.25,-10.742,274.414,189.453,-15.137,118876.67,325.39772569807485
820,1686017112.25,-9.766,262.695,63.965,-2.93,118876.674,325.96919979148527
821,1686017112.25,-19.531,-612.793,-266.602,-19.531,118876.678,327.30196551348746
822,1686017112.26,-30.273,-559.082,-51.758,-40.039,118876.681,332.90735163665664
823,1686017112.26,-22.461,278.809,259.277,-22.461,118876.685,323.7826956736766
824,1686017112.26,-12.207,36.621,-19.043,-4.395,118876.689,325.7246922307002
825,1686017112.27,-13.184,-294.434,-141.113,-16.113,118876.693,327.6977549671569
826,1686017112.27,-20.996,134.277,105.469,-32.227,118876.697,327.70531659683513
827,1686017112.28,-17.09,59.57,-26.367,-28.809,118876.701,326.09824228377016
828,1686017112.28,0.977,-513.672,-214.844,-3.906,118876.699,328.64021032990627
829,1686017112.28,-2.441,-577.637,-124.512,-6.348,118876.703,331.9323089648283
830,1686017112.29,-19.531,86.914,163.574,-41.992,118876.707,322.8658775227086
831,1686017112.29,-21.973,183.594,104.98,-40.527,118876.711,336.7582165407241
832,1686017112.29,-21.973,-126.465,-30.273,-20.02,118876.715,322.097479982657
833,1686017112.3,-32.227,-255.371,-11.719,-24.414,118876.719,330.04673305583094
834,1686017112.3,-43.945,-207.031,34.668,-42.48,118876.723,326.46042855552577
835,1686017112.3,-45.41,51.758,92.773,-50.781,118876.727,334.72934534724004
836,1686017112.31,-36.621,-461.426,-186.523,-32.715,118876.73,326.34974880256834
837,1686017112.31,-30.273,-731.445,-145.508,-17.09,118876.734,316.85897810845523
838,1686017112.32,-42.48,173.34,250.0,-39.551,118876.738,328.5049741872577
839,1686017112.32,-52.246,149.414,72.266,-57.129,118876.742,333.56494489379634
840,1686017112.32,-31.738,-110.352,26.855,-35.156,118876.744,325.9088541783663
841,1686017112.33,-17.578,175.293,170.898,-12.695,118876.748,320.2305750908485
842,1686017112.33,-22.949,370.605,170.41,-20.02,118876.752,324.01664688299206
843,1686017112.34,-23.926,90.82,-33.203,-28.809,118876.756,334.43833507300593
844,1686017112.34,-21.484,-128.418,-104.98,-21.484,118876.76,330.6558225664883
845,1686017112.34,-16.602,-57.617,48.828,-10.254,118876.764,331.4858634797476
846,1686017112.35,-17.578,-119.141,65.43,-14.648,118876.768,326.89909438502985
847,1686017112.35,-20.996,-342.773,-143.555,-29.785,118876.772,336.7741341015302
848,1686017112.35,-20.02,-870.605,-341.797,-22.949,118876.776,321.26242090842305
849,1686017112.36,-18.066,-341.309,91.797,-13.184,118876.78,323.00319454620404
850,1686017112.36,-22.949,474.121,282.227,-20.02,118876.784,338.3153567246618
851,1686017112.37,-27.344,-214.355,-85.449,-24.414,118876.787,329.5312549402456
852,1686017112.37,-30.273,-552.734,-102.051,-39.062,118876.789,327.2812492976048
853,1686017112.37,-32.227,167.48,183.105,-30.273,118876.793,320.71615081113094
854,1686017112.38,-20.996,278.32,134.766,-7.324,118876.797,326.7442788438992
855,1686017112.38,-24.902,-18.066,-5.859,-26.855,118876.801,330.8394979195535
856,1686017112.38,-31.738,-107.91,-12.207,-45.898,118876.805,323.54513703491153
857,1686017112.39,-27.344,-86.426,61.035,-30.762,118876.809,321.5807962555699
858,1686017112.39,-24.902,23.926,112.305,-19.531,118876.813,323.9395415458049
859,1686017112.4,-21.484,-416.504,-124.023,-19.043,118876.817,327.05937561284617
860,1686017112.4,-28.809,-611.328,-142.09,-33.203,118876.821,328.62818600793094
861,1686017112.4,-32.715,13.184,130.371,-41.504,118876.825,329.57862726591986
862,1686017112.41,-26.367,-8.301,74.707,-23.438,118876.828,330.1675132312761
863,1686017112.41,-30.273,-194.336,24.902,-19.531,118876.832,332.89566190896295
864,1686017112.41,-44.434,-10.742,90.82,-36.621,118876.834,329.38409060293037
865,1686017112.42,-43.945,272.949,145.02,-27.344,118876.838,325.125724528679
866,1686017112.42,-28.32,125.977,53.223,-2.441,118876.842,333.22497368500507
867,1686017112.42,-24.902,78.613,40.039,6.348,118876.846,326.0484113570349
868,1686017112.43,-22.949,243.652,88.379,-0.488,118876.85,326.4577727993793
869,1686017112.43,-28.809,-10.254,-86.426,-19.531,118876.854,336.2318817401971
870,1686017112.44,-34.668,-392.578,-211.914,-11.719,118876.858,327.93869610354835
871,1686017112.44,-20.996,-603.027,-146.484,17.578,118876.862,326.5687506286344
872,1686017112.44,-26.367,-91.309,113.77,3.906,118876.866,324.08507470879135
873,1686017112.45,-37.598,292.969,145.508,-34.668,118876.87,319.19710443113814
874,1686017112.45,-30.762,-22.461,30.273,-25.879,118876.874,323.6899828176002
875,1686017112.46,-21.973,-226.074,26.855,1.953,118876.877,323.3386058189496
876,1686017112.46,-26.367,-191.406,47.363,-14.648,118876.882,322.14829557101257
877,1686017112.46,-29.785,23.926,102.051,-41.992,118876.886,319.6540652849739
878,1686017112.47,-25.391,-373.047,-124.512,-28.32,118876.89,328.93257343777225
879,1686017112.47,-19.531,-721.68,-132.324,-9.277,118876.894,325.4878341826938
880,1686017112.48,-15.625,57.617,216.309,-9.277,118876.898,332.306031551894
881,1686017112.48,-24.414,136.23,124.512,-22.461,118876.901,321.04862475097457
882,1686017112.48,-30.273,-612.305,-184.082,-32.715,118876.905,324.2506984090355
883,1686017112.49,-32.227,-569.336,-97.168,-20.508,118876.909,325.4456440708221
884,1686017112.49,-28.32,338.379,258.789,-14.16,118876.913,319.1987186356185
885,1686017112.49,-25.879,270.508,79.59,-24.414,118876.917,321.9582604296078
886,1686017112.5,-36.133,-53.223,27.344,-40.039,118876.921,335.95879686380476
887,1686017112.5,-35.156,132.812,147.461,-27.344,118876.925,312.5700459474665
888,1686017112.5,-22.949,402.344,164.062,-11.23,118876.94,330.27113964099874
889,1686017112.51,-26.367,259.277,45.41,-27.344,118876.944,328.6284182115228
890,1686017112.51,-38.086,-186.035,-166.016,-48.34,118876.947,321.5326233117762
891,1686017112.52,-33.203,-112.305,-11.23,-42.48,118876.951,324.1084571390715
892,1686017112.52,-22.461,270.996,194.824,-26.367,118876.955,320.9697152469792
893,1686017112.52,-28.32,16.113,-20.996,-29.785,118876.959,334.45051489523814
894,1686017112.53,-41.016,-830.566,-377.93,-49.805,118876.963,323.02465400199884
895,1686017112.53,-44.922,-551.758,-41.016,-61.523,118876.967,328.4488849693961
896,1686017112.53,-36.621,315.43,275.879,-53.711,118876.971,325.242910200421
897,1686017112.54,-32.227,116.211,68.848,-44.434,118876.975,326.81217105352533
898,1686017112.54,-36.621,-41.504,22.461,-53.223,118876.979,328.4226725974922
899,1686017112.55,-37.109,-54.688,17.578,-64.453,118876.983,323.3279596493572
900,1686017112.56,-34.18,-89.355,40.039,-55.664,118876.985,330.6348401709415
901,1686017112.57,-32.227,-329.102,-80.566,-44.434,118876.989,328.0468783113866
902,1686017112.57,-41.992,-472.656,-116.211,-53.223,118876.993,325.6141126350411
903,1686017112.58,-48.34,139.648,151.367,-68.359,118876.997,317.8727113111062
904,1686017112.58,-39.062,223.145,100.586,-58.594,118877.001,321.30672641913526
905,1686017112.58,-29.297,-143.066,-38.574,-36.621,118877.005,328.86441660050946
906,1686017112.59,-25.879,-315.43,-59.082,-38.574,118877.009,323.9551902243771
907,1686017112.59,-36.133,-150.391,30.762,-55.176,118877.012,323.00094586902765
908,1686017112.59,-39.062,29.297,105.469,-46.387,118877.016,325.98940096803415
909,1686017112.6,-28.809,-520.02,-143.555,-19.043,118877.02,327.06723633124886
910,1686017112.6,-21.484,-700.684,-128.418,-17.578,118877.024,325.44895846443455
911,1686017112.61,-22.949,183.105,227.051,-37.598,118877.028,325.51536159374643
912,1686017112.61,-23.438,195.801,97.168,-39.551,118877.029,325.2440852795618
913,1686017112.61,-8.301,46.875,62.012,-23.438,118877.033,335.7596231823063
914,1686017112.62,-8.789,270.996,149.902,-16.602,118877.037,318.36530673945845
915,1686017112.62,-26.855,350.586,125.977,-28.32,118877.041,316.77437818826644
916,1686017112.62,-33.691,61.035,-77.148,-40.039,118877.045,323.83316525097325
917,1686017112.63,-18.066,-356.445,-224.121,-21.973,118877.049,318.786294064934
918,1686017112.63,-16.602,-89.844,33.691,-10.742,118877.053,323.8352208348621
919,1686017112.64,-27.344,244.141,173.34,-28.32,118877.057,329.51059115419656
920,1686017112.64,-27.832,-272.461,-164.062,-39.062,118877.061,322.51229864436203
921,1686017112.64,-20.02,-935.547,-344.727,-20.02,118877.065,318.57580176992866
922,1686017112.65,-7.812,-241.211,142.09,-2.441,118877.068,326.08782597981485
923,1686017112.65,0.0,279.297,228.027,-5.859,118877.072,321.3536571414968
924,1686017112.65,-12.207,-503.906,-176.27,-21.484,118877.074,326.8585443800078
925,1686017112.66,-24.902,-692.871,-150.391,-28.32,118877.078,328.06272072699994
926,1686017112.66,-18.555,149.414,231.934,-20.508,118877.082,325.81414098142244
927,1686017112.66,-19.043,384.277,186.035,-20.508,118877.086,315.93200744846956
928,1686017112.67,-39.551,-26.855,-37.598,-44.922,118877.09,326.2484931358807
929,1686017112.67,-37.109,-296.387,-92.285,-50.781,118877.094,325.88467322753536
930,1686017112.68,-26.367,-138.672,127.93,-26.367,118877.098,323.8648008807395
931,1686017112.68,-24.902,236.816,179.688,-20.02,118877.102,331.04748906000907
932,1686017112.68,-28.809,-360.352,-163.574,-34.18,118877.106,324.7763412699961
933,1686017112.69,-40.527,-609.375,-119.141,-40.527,118877.11,321.68142998197357
934,1686017112.69,-37.109,20.02,145.02,-25.879,118877.114,321.46583512439025
935,1686017112.7,-20.508,-31.738,84.473,-9.277,118877.117,324.32042849129084
936,1686017112.7,-27.344,-208.008,23.438,-14.648,118877.119,323.01889793842594
937,1686017112.7,-43.457,-30.762,89.355,-34.668,118877.123,326.1334122395677
938,1686017112.71,-38.086,256.836,143.066,-34.668,118877.127,318.014334184838
939,1686017112.71,-23.438,155.762,70.312,-6.836,118877.131,329.00271747055285
940,1686017112.71,-20.508,4.395,-0.977,-10.254,118877.135,325.8639170690198
941,1686017112.72,-38.086,-215.82,-141.602,-46.875,118877.139,321.3187625724675
942,1686017112.72,-43.945,-90.332,20.508,-48.828,118877.143,323.29714863465347
943,1686017112.72,-32.227,-43.945,31.738,-20.996,118877.147,325.7793762187249
944,1686017112.73,-29.785,-571.777,-188.965,-20.02,118877.151,322.97465311868046
945,1686017112.73,-34.668,-144.043,95.215,-43.457,118877.154,331.2431298371264
946,1686017112.74,-35.156,304.199,175.293,-46.875,118877.158,322.9069603169545
947,1686017112.74,-22.461,-91.309,35.645,-23.926,118877.162,321.6889939606959
948,1686017112.74,-15.625,-226.074,30.273,-12.695,118877.168,319.26274554662643
949,1686017112.75,-22.461,-52.246,74.219,-34.668,118877.172,331.1594572596811
950,1686017112.75,-33.691,132.812,110.352,-53.711,118877.176,328.62897815215126
951,1686017112.76,-25.879,-328.613,-113.281,-34.668,118877.18,326.5529614243517
952,1686017112.76,-14.648,-676.27,-166.504,-17.578,118877.184,320.7972679025801
953,1686017112.76,-25.391,-167.48,104.98,-36.133,118877.187,327.78906196117657
954,1686017112.77,-35.156,-79.59,104.98,-43.945,118877.191,327.0158367000986
955,1686017112.77,-35.645,-548.34,-101.562,-29.785,118877.195,323.81057819934716
956,1686017112.78,-21.484,-513.672,-13.184,-15.137,118877.199,326.18096029586934
957,1686017112.78,-13.672,359.375,252.441,-18.555,118877.203,324.957806310977
958,1686017112.78,-22.461,227.539,50.293,-31.25,118877.207,321.0030528538578
959,1686017112.79,-24.902,-67.383,-11.23,-30.273,118877.211,322.9894089072666
960,1686017112.79,-19.531,207.52,157.227,-20.02,118877.21,321.2988946395671
961,1686017112.79,-15.625,398.926,121.582,-23.926,118877.214,322.3938235005185
962,1686017112.8,-24.414,12.207,-124.023,-25.879,118877.218,324.2547528090324
963,1686017112.8,-28.809,-353.516,-206.543,-33.203,118877.222,327.39282182699685
964,1686017112.8,-20.508,-186.523,-36.133,-24.414,118877.226,323.05591569348985
965,1686017112.81,-12.695,-39.062,103.027,-12.207,118877.229,326.2407903904958
966,1686017112.81,-16.113,-208.496,-31.25,-25.391,118877.233,331.0486857333901
967,1686017112.82,-25.879,-824.219,-333.984,-35.645,118877.237,331.35515889743783
968,1686017112.82,-30.762,-467.773,15.137,-36.133,118877.241,321.7649965935409
969,1686017112.82,-26.367,398.926,286.621,-30.273,118877.245,327.17966948104953
970,1686017112.83,-29.785,165.527,75.195,-39.062,118877.249,325.1176137719944
971,1686017112.83,-39.551,-261.719,-38.086,-54.199,118877.253,328.86188596455804
972,1686017112.83,-41.992,-175.781,62.5,-45.41,118877.269,319.31942000915427
973,1686017112.84,-31.25,314.453,218.262,-29.297,118877.273,323.248873372154
974,1686017112.84,-25.879,-184.082,-66.895,-26.367,118877.277,322.6875424674286
975,1686017112.84,-39.551,-547.852,-137.695,-43.457,118877.28,320.3878767621812
976,1686017112.85,-41.504,98.145,115.723,-43.945,118877.284,327.3855596374396
977,1686017112.85,-34.18,63.477,103.516,-20.508,118877.288,324.1361441363337
978,1686017112.86,-23.926,-539.551,-153.32,-7.812,118877.292,323.36215976178903
979,1686017112.86,-30.273,-771.484,-187.5,-25.879,118877.296,324.8195640117587
980,1686017112.86,-45.41,47.852,208.984,-54.688,118877.3,326.681830094663
981,1686017112.87,-37.109,288.574,122.07,-37.109,118877.304,319.4722178263857
982,1686017112.87,-20.508,98.633,92.285,-8.301,118877.308,328.59804293764984
983,1686017112.88,-23.926,247.07,158.691,-26.367,118877.312,330.7362639381291
984,1686017112.88,-47.363,335.938,115.234,-59.082,118877.314,326.2595376748924
985,1686017112.88,-39.551,138.184,35.156,-50.781,118877.317,322.36405482794464
986,1686017112.89,-9.766,45.41,9.277,-27.344,118877.321,331.56397632503086
987,1686017112.89,-24.902,215.82,116.699,-41.504,118877.325,325.575971016244
988,1686017112.89,-41.992,286.621,124.512,-55.176,118877.329,327.0559835682854
989,1686017112.9,-33.203,-122.559,-169.434,-45.41,118877.333,314.86109441592356
990,1686017112.9,-33.691,-499.512,-155.273,-29.785,118877.337,322.9728446659918
991,1686017112.9,-36.133,19.531,171.387,-29.297,118877.341,325.35314971947344
992,1686017112.91,-33.203,196.289,72.266,-39.062,118877.345,328.3155894619528
993,1686017112.91,-31.738,-401.367,-243.164,-39.062,118877.349,320.650035712304
994,1686017112.92,-21.484,-635.254,-153.809,-24.902,118877.353,319.3362084439956
995,1686017112.92,-18.066,-243.652,155.762,-16.602,118877.356,323.5256983767191
996,1686017112.94,-23.926,49.805,119.629,-29.297,118877.36,327.57215348764566
997,1686017112.94,-32.715,-374.512,-128.906,-41.504,118877.364,328.0041539906776
998,1686017112.95,-35.156,-611.328,-125.977,-27.832,118877.367,321.7175743105058
999,1686017112.95,-26.855,217.285,230.957,-16.113,118877.371,331.1836890606884
1000,1686017112.96,-24.414,369.629,109.863,-29.785,118877.375,325.735887945126
1001,1686017112.96,-38.574,-386.23,-179.199,-44.922,118877.379,332.38971180672644
1002,1686017112.96,-40.527,-515.625,-25.879,-31.25,118877.383,324.55394286777016
1003,1686017112.97,-28.809,251.465,236.816,-11.23,118877.387,331.20963839952174
1004,1686017112.97,-22.949,311.035,86.914,-9.277,118877.391,323.411992482277
1005,1686017112.97,-25.879,-258.301,-111.816,-18.066,118877.395,327.09281959673507
1006,1686017112.98,-31.738,-216.797,32.227,-24.902,118877.399,329.9126893611744
1007,1686017112.98,-28.809,99.121,135.254,-11.719,118877.403,324.3654972743075
1008,1686017112.98,-30.762,-59.57,42.969,0.488,118877.405,332.3113136703485
1009,1686017112.99,-43.945,-249.023,-11.719,-15.625,118877.409,329.96975360736866
1010,1686017112.99,-50.781,-58.594,97.656,-24.902,118877.412,325.1156543954081
1011,1686017113.0,-38.086,289.062,186.035,-2.93,118877.416,332.06582293313744
1012,1686017113.0,-28.32,139.16,68.848,14.16,118877.42,334.821055175502
1013,1686017113.0,-23.438,-281.738,-160.156,4.395,118877.424,327.91237445590093
1014,1686017113.01,-17.09,-234.863,-62.012,-7.812,118877.428,331.47102967634345
1015,1686017113.01,-14.16,191.406,158.203,-3.418,118877.432,321.497181714137
1016,1686017113.01,-14.648,-115.234,-69.336,16.113,118877.436,325.4761841888951
1017,1686017113.02,-18.555,-609.863,-184.082,9.766,118877.44,322.8634481001133
1018,1686017113.02,-36.133,-128.906,98.145,-19.043,118877.444,327.18785282731886
1019,1686017113.03,-37.109,28.809,71.289,-10.254,118877.448,320.02567977634334
1020,1686017113.03,-23.438,-476.074,-122.07,12.207,118877.453,327.7287377752408
1021,1686017113.03,-23.438,-564.941,-120.605,2.441,118877.457,325.9535494006879
1022,1686017113.04,-35.645,-130.371,145.996,-16.602,118877.461,326.28083032015826
1023,1686017113.04,-37.109,181.641,192.871,-16.602,118877.465,336.30230741123137
1024,1686017113.04,-29.785,-110.84,13.184,2.441,118877.469,328.2202749383786
1025,1686017113.05,-30.762,-427.734,-12.207,5.859,118877.473,323.7804208243554
1026,1686017113.05,-32.227,-37.109,137.207,-15.625,118877.476,326.0489345334015
1027,1686017113.06,-36.133,291.504,141.602,-24.902,118877.48,327.76166233085684
1028,1686017113.06,-31.25,-370.117,-137.207,-14.16,118877.484,331.8695669737764
1029,1686017113.06,-19.531,-495.117,-27.344,-7.812,118877.488,327.6720130893097
1030,1686017113.07,-20.996,343.262,238.281,-23.438,118877.492,325.0692324170771
1031,1686017113.07,-34.668,161.133,12.207,-38.086,118877.496,326.10845760556623
1032,1686017113.07,-32.227,-29.785,-9.277,-35.156,118877.509,324.10880570397745
1033,1686017113.08,-14.648,261.23,162.598,-18.555,118877.513,322.0322576938789
1034,1686017113.08,-26.367,411.133,163.574,-25.879,118877.516,330.9527121512965
1035,1686017113.08,-45.898,62.012,-44.922,-49.316,118877.52,326.2299838865695
1036,1686017113.09,-34.18,-325.684,-209.961,-32.227,118877.524,325.9001160273091
1037,1686017113.09,-22.461,-238.77,-52.734,-8.789,118877.528,328.91697353875253
1038,1686017113.1,-33.691,-106.445,78.613,-11.719,118877.532,330.1830389039552
1039,1686017113.1,-33.203,-247.559,-83.008,-26.855,118877.536,332.9771238027818
1040,1686017113.1,-27.344,-864.746,-346.191,-32.715,118877.54,326.1765315188068
1041,1686017113.11,-28.809,-396.484,59.082,-21.484,118877.544,336.49540450678126
1042,1686017113.11,-18.066,496.582,297.363,-13.672,118877.548,326.0070190774682
1043,1686017113.12,-16.602,-146.484,-89.355,-17.09,118877.552,332.2740173144864
1044,1686017113.12,-28.809,-494.629,-105.957,-19.043,118877.539,327.1903452326276
1045,1686017113.12,-27.344,173.34,193.848,-8.301,118877.543,321.71466136133745
1046,1686017113.13,-17.578,356.934,157.227,2.93,118877.547,335.2432870846708
1047,1686017113.13,-19.531,61.523,6.348,-3.418,118877.551,333.1778561633178
1048,1686017113.13,-29.297,-80.566,-33.691,-20.02,118877.555,334.1568659749457
1049,1686017113.14,-27.832,-64.941,-37.598,-5.371,118877.559,328.36824420642665
1050,1686017113.14,-17.09,-92.773,12.207,17.09,118877.563,342.6230825613092
1051,1686017113.14,-20.02,-215.82,-12.207,2.93,118877.567,330.3405834621977
1052,1686017113.15,-35.645,-117.188,43.457,-20.02,118877.571,326.18045540046234
1053,1686017113.15,-33.691,234.375,149.902,-24.414,118877.575,323.072199318409
1054,1686017113.16,-15.625,321.289,112.305,-9.766,118877.578,331.1998791916329
1055,1686017113.16,-13.184,-455.566,-199.219,0.977,118877.582,321.5485466276978
1056,1686017113.16,-24.902,-670.898,-160.645,-26.855,118877.585,327.86849606784494
1057,1686017113.17,-24.414,182.617,200.684,-42.48,118877.588,325.6338024994657
1058,1686017113.17,-7.812,141.602,74.707,-17.09,118877.592,328.72669243028224
1059,1686017113.18,-13.184,15.137,21.973,-7.812,118877.596,332.61239458020304
1060,1686017113.18,-22.461,121.094,66.406,-32.715,118877.6,331.56759984399815
1061,1686017113.18,-24.414,-92.285,-79.59,-45.41,118877.604,327.32702359572266
1062,1686017113.19,-30.273,-337.402,-162.598,-32.715,118877.608,332.19094120648464
1063,1686017113.19,-27.832,-584.961,-106.934,-21.973,118877.612,333.8206470329562
1064,1686017113.2,-22.461,-155.273,106.445,-26.367,118877.616,331.03733323479054
1065,1686017113.2,-24.414,157.227,125.0,-41.016,118877.62,323.21584933771396
1066,1686017113.2,-25.879,-321.777,-83.984,-35.645,118877.624,322.76506889820075
1067,1686017113.21,-15.137,-554.688,-113.281,-20.508,118877.627,329.7828075865979
1068,1686017113.21,-9.766,-59.57,165.527,-25.391,118877.629,320.9098590861564
1069,1686017113.21,-22.461,253.418,127.93,-46.387,118877.633,328.040675935433
1070,1686017113.22,-36.133,-460.938,-223.145,-42.969,118877.637,328.1977675467372
1071,1686017113.22,-24.414,-540.039,-84.473,-24.414,118877.641,330.64441339190455
1072,1686017113.22,-16.113,312.5,235.84,-24.414,118877.645,333.2798391007642
1073,1686017113.23,-35.156,168.457,35.645,-49.805,118877.649,322.2652375855458
1074,1686017113.23,-32.715,-639.648,-319.336,-54.688,118877.653,318.74525512566936
1075,1686017113.24,-20.996,-578.125,-126.953,-37.109,118877.657,324.269067924326
1076,1686017113.24,-20.996,358.398,283.691,-34.668,118877.661,326.7531517735709
1077,1686017113.24,-19.531,302.246,57.617,-44.922,118877.665,328.36374358900014
1078,1686017113.25,-27.832,-71.777,-43.945,-64.453,118877.669,328.59178404360597
1079,1686017113.25,-27.344,119.141,114.746,-55.664,118877.672,322.01409545270764
1080,1686017113.25,-18.555,156.25,92.773,-36.133,118877.688,323.0217371808551
1081,1686017113.26,-22.461,-52.246,11.23,-47.363,118877.692,326.81762144859636
1082,1686017113.26,-31.25,-284.18,-80.566,-64.453,118877.696,325.487347220741
1083,1686017113.27,-30.762,-62.5,64.453,-49.805,118877.7,325.52607621302644
1084,1686017113.27,-21.484,312.5,174.805,-32.227,118877.704,331.13966306846794
1085,1686017113.27,-15.625,-36.621,-31.738,-34.18,118877.708,337.5116582991072
1086,1686017113.28,-24.902,-661.133,-228.027,-41.504,118877.712,325.83662967966006
1087,1686017113.28,-32.227,-252.441,59.082,-56.152,118877.716,335.6510424298815
1088,1686017113.28,-19.531,369.141,216.309,-46.875,118877.72,333.3361961390001
1089,1686017113.29,-14.16,90.82,38.086,-33.203,118877.723,325.0595668279318
1090,1686017113.29,-26.367,-17.578,17.578,-51.27,118877.727,329.7194591984027
1091,1686017113.3,-27.832,-37.109,21.484,-59.082,118877.731,340.55401234837046
1092,1686017113.3,-25.879,18.066,94.238,-37.109,118877.734,344.24180398350785
1093,1686017113.3,-29.297,-197.754,-45.898,-19.043,118877.738,333.31176645680887
1094,1686017113.31,-32.227,-580.078,-198.242,-34.668,118877.742,324.7594885470573
1095,1686017113.31,-34.18,-141.113,99.121,-61.035,118877.745,331.4190395169236
1096,1686017113.31,-20.996,239.746,179.688,-44.922,118877.749,327.6315783091688
1097,1686017113.32,-10.254,-334.961,-133.789,-16.113,118877.753,328.7500326108665
1098,1686017113.32,-30.273,-756.836,-175.293,-22.949,118877.757,336.94750325220417
1099,1686017113.32,-48.34,17.578,168.945,-49.316,118877.761,329.4251868745215
1100,1686017113.33,-40.039,201.172,116.211,-45.41,118877.765,330.6693337800749
1101,1686017113.33,-25.879,31.25,121.094,-26.855,118877.769,331.9916619070324
1102,1686017113.34,-29.785,174.805,170.41,-38.086,118877.773,327.52841367843325
1103,1686017113.34,-36.621,303.711,107.422,-60.547,118877.777,333.159444091455
1104,1686017113.36,-31.738,56.152,-10.254,-54.688,118877.783,337.1250863764896
1105,1686017113.37,-27.832,-68.359,0.488,-33.691,118877.787,331.92866653361455
1106,1686017113.37,-26.367,188.477,133.789,-33.203,118877.79,329.58380434617663
1107,1686017113.38,-30.273,303.711,113.77,-47.363,118877.794,338.737749389674
1108,1686017113.38,-35.645,-43.945,-98.633,-55.176,118877.798,327.86847122701266
1109,1686017113.38,-28.32,-414.551,-179.688,-41.504,118877.802,332.7217499364337
1110,1686017113.39,-24.902,-250.488,32.227,-35.156,118877.806,330.02966769448363
1111,1686017113.39,-35.645,76.66,151.855,-45.898,118877.81,326.3722336178845
1112,1686017113.39,-40.527,-75.195,-62.988,-52.246,118877.814,336.66235637195035
1113,1686017113.4,-30.273,-794.922,-321.777,-35.645,118877.818,327.17686796279503
1114,1686017113.4,-22.949,-240.723,117.676,-20.508,118877.822,335.1768708904202
1115,1686017113.4,-32.227,-494.141,-171.875,-50.781,118877.824,326.69094159803694
1116,1686017113.41,-26.367,258.789,215.332,-32.227,118877.826,335.52953487048455
1117,1686017113.41,-47.852,-651.367,-134.766,-56.152,118877.828,328.79210762013014
1118,1686017113.41,-32.715,138.672,237.793,-43.457,118877.832,330.32961471052874
1119,1686017113.42,-23.438,358.398,188.477,-32.715,118877.836,327.5177210719006
1120,1686017113.42,-43.457,20.508,-26.855,-46.387,118877.84,333.46066296865854
1121,1686017113.42,-43.945,-309.082,-141.113,-54.199,118877.844,331.9183497811648
1122,1686017113.43,-31.738,-76.172,69.824,-37.109,118877.848,330.70524032314773
1123,1686017113.43,-28.32,314.941,190.43,-28.32,118877.852,326.9352550836663
1124,1686017113.43,-34.18,-417.48,-203.613,-37.109,118877.856,327.29037547987406
1125,1686017113.44,-39.062,-708.496,-166.992,-49.316,118877.86,328.95409491153094
1126,1686017113.44,-46.387,187.012,239.746,-46.387,118877.863,324.9614411940705
1127,1686017113.45,-36.621,299.316,130.859,-28.809,118877.867,332.8129560375308
1128,1686017113.45,-37.598,-204.59,-49.805,-35.645,118877.869,343.4743057009544
1129,1686017113.45,-55.664,-147.949,31.738,-54.688,118877.873,331.4204149243859
1130,1686017113.46,-44.434,232.91,158.203,-41.992,118877.877,337.16148634949235
1131,1686017113.46,-29.297,139.16,74.707,-27.344,118877.881,327.5084357166076
1132,1686017113.46,-39.551,-60.547,-46.875,-30.273,118877.885,326.8929015465791
1133,1686017113.47,-50.781,-309.57,-151.367,-54.688,118877.889,337.6909777420438
1134,1686017113.47,-51.27,-187.988,12.207,-71.777,118877.893,328.5524795995684
1135,1686017113.48,-38.086,-33.203,62.988,-42.48,118877.897,333.0308431801859
1136,1686017113.48,-27.832,-529.785,-147.461,-19.043,118877.901,319.7952716586169
1137,1686017113.48,-36.621,-151.855,90.82,-42.48,118877.905,325.4006290487655
1138,1686017113.49,-42.48,201.66,147.949,-49.316,118877.908,332.65915049043514
1139,1686017113.49,-29.785,-411.133,-129.883,-25.879,118877.912,329.35152769007624
1140,1686017113.49,-16.602,-632.812,-123.047,-9.766,118877.929,328.8948638582792
1141,1686017113.5,-16.602,95.215,208.008,-18.555,118877.933,335.22214766172766
1142,1686017113.5,-21.973,252.93,124.512,-33.691,118877.937,325.49386883228294
1143,1686017113.5,-23.926,-141.113,-3.418,-25.879,118877.94,334.7179728718027
1144,1686017113.51,-17.578,-1.465,67.383,-11.719,118877.944,332.7441364721864
1145,1686017113.51,-22.461,43.457,62.5,-12.207,118877.948,340.1197117181072
1146,1686017113.52,-41.504,-117.676,7.324,-27.344,118877.952,333.50912111044096
1147,1686017113.52,-42.969,-564.941,-196.777,-20.02,118877.956,328.75837171162
1148,1686017113.52,-32.227,-540.527,-70.312,6.836,118877.96,332.73591490142405
1149,1686017113.53,-29.297,331.055,266.602,4.395,118877.964,332.3061962203579
1150,1686017113.53,-27.344,227.539,61.523,-10.254,118877.968,335.8556986221493
1151,1686017113.54,-20.508,-49.316,15.625,-9.766,118877.972,334.82051871192056
1152,1686017113.54,-5.371,137.207,139.16,8.301,118877.963,330.1348232524335
1153,1686017113.54,-0.977,163.086,124.512,14.16,118877.967,333.82967952532766
1154,1686017113.55,-11.23,-14.16,3.906,-6.348,118877.971,340.86066341218367
1155,1686017113.55,-21.484,-270.996,-32.715,-18.066,118877.975,327.9889923252597
1156,1686017113.56,-18.555,11.719,136.23,1.465,118877.979,329.8941541153463
1157,1686017113.56,-11.23,133.789,103.516,21.973,118877.982,331.38116876552925
1158,1686017113.56,-22.949,-274.414,-75.684,14.16,118877.986,333.0341980257848
1159,1686017113.57,-26.367,-310.059,-71.289,1.953,118877.99,326.46322723648774
1160,1686017113.57,-10.254,108.887,131.836,9.277,118877.994,326.5930362194208
1161,1686017113.57,1.465,429.199,197.754,24.414,118877.998,335.7657061721683
1162,1686017113.58,-5.859,-20.02,-75.684,18.555,118878.002,334.5608055370672
1163,1686017113.58,-30.762,-707.52,-341.797,-1.465,118878.006,327.53671001730476
1164,1686017113.58,-34.18,-239.746,7.812,0.488,118878.018,330.2051770096804
1165,1686017113.59,-21.973,376.953,255.859,22.949,118878.022,333.32205835705656
1166,1686017113.59,-15.625,-167.969,-78.613,30.762,118878.026,318.30186820064995
1167,1686017113.6,-16.113,-638.184,-218.75,9.766,118878.03,333.431615967444
1168,1686017113.6,-8.789,-189.453,56.641,-5.371,118878.034,328.8645377358813
1169,1686017113.6,-6.836,-32.227,116.699,13.672,118878.038,336.3748082785472
1170,1686017113.61,-15.625,-481.445,-108.398,24.414,118878.041,339.57024724131054
1171,1686017113.61,-24.414,-802.734,-152.344,12.695,118878.045,333.0018468250464
1172,1686017113.61,-33.691,2.441,220.703,-1.465,118878.049,338.23678565153887
1173,1686017113.62,-25.879,321.777,183.105,10.742,118878.053,334.36086615857624
1174,1686017113.62,-22.461,171.387,118.652,22.949,118878.057,328.0779609876945
1175,1686017113.63,-28.32,268.066,150.879,15.625,118878.061,330.0706484587201
1176,1686017113.63,-34.668,300.293,83.496,0.977,118878.064,335.70540722462374
1177,1686017113.63,-30.273,80.078,3.906,2.93,118878.068,329.74247920994975
1178,1686017113.64,-24.902,-21.484,13.672,26.367,118878.072,332.0478115546685
1179,1686017113.64,-28.809,247.559,124.512,26.855,118878.076,335.1582776841326
1180,1686017113.64,-34.668,285.156,85.938,3.906,118878.08,331.1404056854851
1181,1686017113.65,-35.645,-225.098,-180.176,14.16,118878.084,334.40744946969335
1182,1686017113.65,-20.508,-684.57,-252.93,35.156,118878.087,337.55026298565105
1183,1686017113.66,-8.789,-255.859,62.988,23.438,118878.091,328.45842897029866
1184,1686017113.66,-16.113,266.602,204.102,-3.418,118878.095,328.87038726542767
1185,1686017113.66,-31.25,-150.879,-81.055,-2.441,118878.099,335.45681027975183
1186,1686017113.67,-32.227,-528.32,-155.762,7.812,118878.103,338.3785675788229
1187,1686017113.67,-22.461,-136.719,132.812,6.836,118878.107,334.4046109073864
1188,1686017113.69,-17.578,127.93,165.039,0.488,118878.11,333.41863332761216
1189,1686017113.69,-20.02,-305.176,-103.027,-0.488,118878.114,338.917499269617
1190,1686017113.7,-21.973,-574.219,-135.742,13.672,118878.118,329.37850685344677
1191,1686017113.7,-18.555,217.285,232.91,13.672,118878.121,334.5084425964929
1192,1686017113.7,-18.066,398.438,131.348,-2.441,118878.125,331.41481988622417
1193,1686017113.71,-29.785,-336.914,-155.762,-15.625,118878.129,338.1884025706232
1194,1686017113.71,-32.227,-464.355,-18.066,-13.184,118878.133,332.69841471184253
1195,1686017113.72,-21.973,266.113,217.773,-7.324,118878.137,326.78264796033454
1196,1686017113.72,-28.809,386.23,127.93,-16.113,118878.141,327.2381244455192
1197,1686017113.72,-41.504,-438.477,-214.844,-36.133,118878.145,335.8746362845442
1198,1686017113.73,-48.34,-543.945,-91.797,-59.57,118878.149,337.803517046975
1199,1686017113.73,-46.875,345.215,253.906,-60.059,118878.153,338.9950127958503
1200,1686017113.73,-30.762,270.02,78.125,-37.109,118878.154,335.187116949776
1201,1686017113.74,-29.785,-59.57,-13.184,-40.039,118878.158,336.8334377586812
1202,1686017113.74,-36.621,94.238,93.262,-49.316,118878.162,338.68003980848886
1203,1686017113.74,-29.297,337.402,147.949,-47.852,118878.166,341.0136832777206
1204,1686017113.75,-23.926,244.141,72.266,-44.434,118878.17,326.70786019562456
1205,1686017113.75,-31.738,-244.629,-167.969,-45.41,118878.174,332.93082944397094
1206,1686017113.76,-36.621,-259.277,-70.801,-60.547,118878.178,334.5383238656158
1207,1686017113.76,-28.809,258.789,191.895,-58.105,118878.182,338.8396720553279
1208,1686017113.76,-16.113,76.66,8.789,-26.367,118878.186,334.46335093312075
1209,1686017113.77,-16.602,-547.363,-215.82,-19.043,118878.19,339.2286955515382
1210,1686017113.77,-28.32,-176.27,33.691,-41.992,118878.193,342.13941547914965
1211,1686017113.78,-36.621,95.703,130.371,-32.715,118878.197,339.1654007204342
1212,1686017113.78,-32.715,-412.598,-95.703,-8.789,118878.199,333.55444039553
1213,1686017113.78,-24.414,-734.863,-125.488,-2.441,118878.203,333.5856529354043
1214,1686017113.79,-21.973,-63.477,197.754,-17.09,118878.207,339.54969565313706
1215,1686017113.79,-33.203,234.375,149.902,-20.02,118878.211,328.04093808057917
1216,1686017113.79,-38.086,-23.438,63.965,-18.066,118878.215,333.0161842136332
1217,1686017113.8,-25.391,-168.945,51.27,-7.812,118878.219,328.84325219187383
1218,1686017113.8,-28.809,-12.695,98.145,-2.441,118878.223,343.23331272388367
1219,1686017113.8,-39.062,242.676,122.559,-10.742,118878.227,333.89324152742586
1220,1686017113.81,-26.367,-459.961,-167.48,9.766,118878.231,329.62846502906666
1221,1686017113.81,-16.602,-527.832,-47.363,30.273,118878.235,332.839573209658
1222,1686017113.82,-23.926,358.398,239.258,20.996,118878.238,340.51275989994997
1223,1686017113.82,-32.715,202.148,17.578,13.672,118878.242,338.3014110772481
1224,1686017113.82,-31.738,-9.766,7.812,27.832,118878.248,331.36199385508525
1225,1686017113.83,-16.113,183.594,146.484,47.363,118878.252,326.5537093755865
1226,1686017113.83,-14.648,101.074,84.473,40.039,118878.255,338.7351727426099
1227,1686017113.84,-33.691,-91.797,-42.48,22.461,118878.259,326.6974563133747
1228,1686017113.84,-35.156,-364.746,-96.191,28.809,118878.263,334.296312025998
1229,1686017113.84,-21.484,-314.941,41.504,41.504,118878.267,332.64187305330586
1230,1686017113.85,-20.02,86.426,165.039,43.457,118878.271,339.1673081212338
1231,1686017113.85,-25.391,-25.391,-9.277,34.668,118878.275,333.44255911776946
1232,1686017113.86,-27.832,-649.902,-253.418,30.273,118878.279,324.74619100895563
1233,1686017113.86,-24.414,-138.184,128.906,41.016,118878.283,329.5433104625818
1234,1686017113.86,-26.855,450.684,253.418,45.41,118878.287,335.1410089718847
1235,1686017113.87,-30.762,-82.031,-31.25,30.273,118878.291,331.5114433670029
1236,1686017113.88,-32.227,-360.352,-55.664,15.137,118878.305,325.7777863956778
1237,1686017113.89,-25.391,163.086,161.133,23.926,118878.309,334.46241989151395
1238,1686017113.89,-8.789,438.477,200.195,44.434,118878.313,333.81882944593804
1239,1686017113.9,-21.973,-137.207,-47.363,25.391,118878.317,341.38646218405916
1240,1686017113.9,-42.48,-487.305,-143.066,4.883,118878.321,340.41370782731906
1241,1686017113.9,-40.527,-207.52,41.504,9.766,118878.325,335.05714878667857
1242,1686017113.91,-33.691,-58.105,133.301,14.648,118878.329,335.0295868012497
1243,1686017113.91,-30.762,-456.055,-115.234,18.066,118878.333,339.2349178208169
1244,1686017113.91,-35.156,-801.758,-166.992,0.977,118878.336,327.701224208897
1245,1686017113.92,-38.086,-1.953,228.516,-9.766,118878.34,331.7058082100271
1246,1686017113.92,-29.785,302.246,149.902,4.395,118878.344,334.51690565321763
1247,1686017113.93,-27.344,136.23,74.219,3.418,118878.348,338.8168733455064
1248,1686017113.93,-36.133,212.891,129.883,-17.578,118878.35,329.212961103081
1249,1686017113.93,-40.527,268.555,99.609,-21.973,118878.354,331.8957219024154
1250,1686017113.94,-32.715,93.75,41.992,2.441,118878.357,340.1830113804439
1251,1686017113.94,-31.738,28.809,35.156,9.766,118878.361,332.0909923298201
1252,1686017113.94,-41.992,173.828,65.918,-12.207,118878.365,341.4841043597385
1253,1686017113.95,-47.363,-48.828,-91.309,-15.137,118878.369,329.0555045937946
1254,1686017113.95,-46.387,-346.68,-146.973,1.953,118878.373,328.96361327300053
1255,1686017113.96,-39.551,-414.062,-41.992,9.277,118878.377,324.10302103404047
1256,1686017113.96,-21.973,-656.738,-96.68,10.742,118878.379,325.05921995467247
1257,1686017113.96,-37.598,-0.977,103.027,3.906,118878.381,334.9257937356736
1258,1686017113.96,-27.344,254.395,254.395,-16.602,118878.383,328.40033463476306
1259,1686017113.96,-39.062,276.367,132.324,-15.137,118878.385,325.72478606723234
1260,1686017113.97,-20.02,-45.41,29.297,-16.113,118878.387,324.5182794189172
1261,1686017113.97,-32.715,-56.152,-39.551,-13.184,118878.389,331.5924034684422
1262,1686017113.97,-17.578,-15.625,97.168,-8.301,118878.391,337.40992385762286
1263,1686017113.97,-18.066,-926.758,-418.945,17.09,118878.393,336.35801366146165
1264,1686017113.97,-17.09,376.953,193.359,-3.418,118878.395,334.0361911447171
1265,1686017113.98,-24.902,28.809,-37.109,-9.766,118878.399,334.5521102219116
1266,1686017113.98,-35.156,-395.02,-163.086,-14.648,118878.403,338.90805032991085
1267,1686017113.98,-22.949,-87.402,79.102,-7.812,118878.407,335.7129111886501
1268,1686017113.99,-10.254,359.863,174.805,-7.812,118878.411,336.69057279227724
1269,1686017113.99,-20.996,316.406,64.453,-24.902,118878.415,337.87930284893184
1270,1686017114.0,-29.785,-498.535,-280.762,-29.297,118878.418,333.08515647249925
1271,1686017114.0,-29.785,-724.121,-173.828,-20.996,118878.422,335.1165921349766
1272,1686017114.0,-23.438,250.977,276.855,-13.184,118878.439,342.08429794876264
1273,1686017114.01,-32.227,261.719,72.754,-13.672,118878.443,340.79978308487335
1274,1686017114.01,-44.434,-91.309,-31.738,-34.18,118878.447,338.3662323820333
1275,1686017114.02,-32.227,105.469,106.445,-36.133,118878.451,331.3016483268618
1276,1686017114.02,-23.926,312.012,150.391,-24.902,118878.455,330.80310455354294
1277,1686017114.02,-27.832,-14.16,-69.824,-22.949,118878.458,329.36761478218716
1278,1686017114.03,-31.738,-690.43,-298.828,-33.203,118878.462,341.4890207085606
1279,1686017114.03,-28.32,-336.426,43.457,-43.945,118878.466,329.7920475430366
1280,1686017114.03,-19.043,328.613,220.703,-37.109,118878.47,331.1468154909304
1281,1686017114.04,-20.508,99.121,37.598,-30.762,118878.474,336.4560289657795
1282,1686017114.04,-34.668,-9.277,26.367,-47.852,118878.478,335.3625613827147
1283,1686017114.05,-38.574,-45.41,-20.02,-56.152,118878.482,332.49509246432945
1284,1686017114.06,-32.227,-127.441,-9.766,-42.969,118878.488,341.57447098392237
1285,1686017114.07,-31.738,-347.168,-56.152,-24.902,118878.492,333.019091678753
1286,1686017114.07,-29.785,-719.727,-150.391,-29.785,118878.496,334.2795155042419
1287,1686017114.08,-34.668,-30.273,177.734,-59.082,118878.499,330.8916401054205
1288,1686017114.08,-35.645,305.664,145.02,-60.059,118878.503,337.1742969075433
1289,1686017114.08,-26.367,-132.812,-51.758,-39.551,118878.507,339.6679892696192
1290,1686017114.09,-22.461,-196.289,38.574,-44.434,118878.511,335.57387556639884
1291,1686017114.09,-34.18,168.457,173.828,-61.035,118878.515,340.53789205236285
1292,1686017114.1,-37.598,311.035,83.984,-56.152,118878.519,333.20506797706173
1293,1686017114.1,-23.926,-276.855,-55.664,-35.645,118878.523,329.9943413124172
1294,1686017114.1,-22.949,-258.789,72.754,-27.344,118878.527,332.3643215946702
1295,1686017114.11,-42.969,365.723,174.805,-54.199,118878.531,331.51355941234095
