timestamps,TP9,AF7,AF8,TP10
1643931225.301,358.398,270.508,87.891,166.016
1643931225.305,419.922,189.453,-20.508,112.305
1643931225.309,-25.879,-293.457,-121.582,140.625
1643931225.313,-185.059,58.105,81.543,209.961
1643931225.317,254.395,434.082,140.625,179.199
1643931225.321,462.891,-81.543,-164.062,138.672
1643931225.325,89.844,-487.793,-247.070,135.254
1643931225.328,-186.035,134.277,111.816,205.566
1643931225.332,154.785,446.777,145.508,217.773
1643931225.336,470.215,-74.219,-113.770,156.250
1643931225.340,208.984,-560.547,-322.266,129.395
1643931225.344,-141.602,-129.883,-22.949,227.539
1643931225.360,32.227,364.258,152.344,229.004
1643931225.364,349.121,-298.828,-204.590,113.770
1643931225.368,233.887,-668.945,-245.117,43.457
1643931225.372,-23.926,149.414,120.605,171.387
1643931225.376,10.254,437.500,136.719,270.996
1643931225.380,249.512,-403.320,-283.203,116.211
1643931225.384,232.910,-761.719,-328.125,-14.160
1643931225.387,17.578,180.176,154.785,106.934
1643931225.391,-20.508,290.039,53.223,299.316
1643931225.395,180.664,-14.648,-23.438,125.977
1643931225.399,259.766,86.914,21.973,-61.523
1643931225.403,87.891,261.230,68.848,41.992
1643931225.405,0.977,199.219,62.012,318.359
1643931225.409,185.547,43.945,-27.344,254.883
1643931225.413,344.238,162.109,47.363,22.949
1643931225.417,224.609,266.113,94.727,61.523
1643931225.421,25.391,-5.371,-43.457,297.363
1643931225.425,99.121,-375.977,-208.008,298.828
1643931225.429,384.766,-242.188,-136.230,116.211
1643931225.432,398.438,187.988,59.082,77.637
1643931225.436,30.762,-229.980,-150.391,199.219
1643931225.440,-79.590,-806.641,-369.141,281.738
1643931225.444,357.422,-279.297,-47.363,219.238
1643931225.448,543.457,124.512,60.059,177.246
1643931225.450,111.816,-343.750,-181.641,181.641
1643931225.454,-189.453,-557.617,-225.586,244.141
1643931225.458,235.352,258.789,110.840,242.188
1643931225.462,609.375,387.695,62.988,244.141
1643931225.466,321.289,55.176,-27.832,252.441
1643931225.470,-31.738,-163.574,-21.973,339.844
1643931225.474,225.098,-64.941,4.883,363.770
1643931225.477,603.027,107.422,41.992,294.922
1643931225.481,433.105,-575.684,-289.062,269.531
1643931225.485,57.129,-695.801,-238.281,350.586
1643931225.489,116.211,284.668,167.480,354.492
1643931225.493,422.363,214.355,-12.207,224.609
1643931225.496,385.742,-58.105,-89.355,143.555
1643931225.500,100.098,238.770,112.793,271.973
1643931225.504,42.480,439.941,169.922,396.973
1643931225.508,235.840,123.047,-28.809,200.195
1643931225.512,255.371,-208.496,-201.660,36.133
1643931225.516,68.359,-213.867,-150.391,175.293
1643931225.520,4.883,91.797,61.035,401.367
1643931225.523,177.246,-139.160,-115.234,257.812
1643931225.527,247.559,-674.316,-389.160,18.555
1643931225.531,115.234,-220.215,-74.219,79.102
1643931225.535,33.203,50.781,45.898,362.305
1643931225.539,121.582,-466.797,-233.398,322.754
1643931225.540,232.422,-753.906,-352.051,69.336
1643931225.544,158.203,-17.090,11.230,34.180
1643931225.548,15.137,282.715,101.562,275.879
1643931225.552,45.898,166.992,66.895,321.289
1643931225.556,183.105,180.176,86.914,42.969
1643931225.560,141.113,-32.227,-75.684,-58.105
1643931225.564,-30.762,-145.996,-88.379,167.480
1643931225.567,-283.203,-489.746,-171.875,154.785
1643931225.571,-416.016,-454.590,-110.352,-364.746
1643931225.575,-436.035,181.152,108.887,-664.551
1643931225.579,-612.305,86.426,16.113,-521.973
1643931225.583,-701.660,1.465,23.926,-270.020
1643931225.586,-547.852,-48.340,0.977,-374.023
1643931225.590,-397.461,82.520,41.992,-567.383
1643931225.594,-477.539,-40.527,-49.316,-479.492
1643931225.598,-558.594,-284.180,-114.258,-156.250
1643931225.602,-425.781,150.879,86.426,-161.133
1643931225.606,-278.320,35.156,-66.895,-420.410
1643931225.610,-339.844,-505.859,-339.355,-443.359
1643931225.613,-443.359,-619.629,-232.910,-139.648
1643931225.617,-341.309,112.305,124.023,20.020
1643931225.621,-165.527,392.578,98.145,-236.328
1643931225.625,-181.152,-177.246,-113.281,-365.234
1643931225.629,-285.645,-232.422,-51.270,-114.746
1643931225.631,-216.797,381.836,157.227,163.086
1643931225.635,20.020,458.984,104.980,36.133
1643931225.639,106.445,-261.719,-145.020,-114.258
1643931225.643,-27.832,-361.328,-51.270,43.945
1643931225.647,-59.570,345.215,137.695,343.750
1643931225.651,102.539,294.922,54.688,263.672
1643931225.655,209.473,-528.809,-287.598,41.992
1643931225.658,91.797,-679.688,-273.926,62.012
1643931225.662,-17.578,385.742,201.660,305.176
1643931225.666,83.984,467.773,73.242,357.910
1643931225.670,250.977,141.113,-20.508,109.863
1643931225.674,179.199,205.566,51.758,5.859
1643931225.676,-30.273,390.137,114.258,220.215
1643931225.680,-60.547,266.602,26.855,361.328
1643931225.684,121.094,25.391,-75.684,143.066
1643931225.688,153.809,220.215,53.711,-24.414
1643931225.692,-61.523,287.109,81.055,96.191
1643931225.696,-181.152,-112.305,-96.680,295.410
1643931225.700,-3.906,-507.324,-281.738,145.996
1643931225.703,117.676,-166.504,-76.172,-76.172
1643931225.707,-79.590,253.418,110.352,-50.781
1643931225.711,-324.707,-34.180,-33.203,114.746
1643931225.715,-226.074,-333.008,-134.277,31.250
1643931225.719,-32.227,-62.012,-25.879,-193.848
1643931225.736,-133.789,272.461,101.074,-214.844
1643931225.740,-318.359,-250.488,-150.879,55.664
1643931225.744,-285.156,-795.898,-317.383,130.859
1643931225.748,-53.711,-6.836,48.340,-134.766
1643931225.752,-52.734,260.742,27.344,-221.191
1643931225.756,-273.926,-198.730,-151.855,0.488
1643931225.760,-295.898,-83.984,-21.484,173.340
1643931225.763,-58.105,229.492,66.406,-20.020
1643931225.767,15.625,16.602,-71.777,-173.340
1643931225.771,-196.777,-644.043,-308.105,-21.484
1643931225.775,-301.758,-523.438,-178.223,203.125
1643931225.779,-91.797,260.254,113.281,75.195
1643931225.781,44.434,87.891,-54.199,-136.230
1643931225.785,-132.812,-76.172,-59.570,-108.398
1643931225.789,-293.457,307.129,153.320,139.648
1643931225.793,-140.137,467.285,138.672,122.070
1643931225.797,29.297,116.211,-37.109,-97.656
1643931225.801,-81.543,-346.680,-248.535,-132.812
1643931225.805,-258.301,-156.738,-54.688,77.148
1643931225.808,-208.008,388.184,182.129,183.105
1643931225.812,30.762,-92.285,-148.926,-1.465
1643931225.816,31.738,-694.824,-349.609,-108.398
1643931225.820,-195.801,-231.934,-34.180,32.715
1643931225.824,-248.047,56.152,52.734,220.215
1643931225.826,-18.555,-428.711,-232.910,102.051
1643931225.830,50.781,-696.777,-293.945,-90.820
1643931225.834,-184.570,100.586,98.633,-72.266
1643931225.838,-332.031,361.816,101.074,145.508
1643931225.842,-135.254,138.672,47.363,78.613
1643931225.846,49.805,-125.000,-52.734,-110.840
1643931225.850,-108.887,-43.457,-21.973,-114.746
1643931225.853,-330.566,229.492,79.590,79.102
1643931225.857,-227.051,-408.691,-190.430,119.141
1643931225.861,35.156,-424.805,-110.352,-72.754
1643931225.865,8.301,295.410,117.676,-143.066
1643931225.869,-263.184,151.855,-0.977,24.414
1643931225.872,-280.273,-58.594,-76.172,137.695
1643931225.876,21.484,-41.504,-28.809,-17.578
1643931225.880,116.699,201.660,57.129,-121.094
1643931225.884,-147.461,13.672,-48.828,-1.953
1643931225.888,-314.453,-353.027,-168.457,154.297
1643931225.892,-44.922,-206.055,-67.871,38.086
1643931225.896,152.832,44.434,45.410,-112.793
1643931225.899,-71.289,-185.547,-124.512,-58.594
1643931225.903,-288.574,-559.570,-203.125,146.973
1643931225.907,-62.012,83.496,101.562,104.004
1643931225.911,208.496,173.828,-44.434,-66.406
1643931225.915,54.688,-541.992,-347.656,-78.125
1643931225.930,-250.977,-515.137,-206.055,69.824
1643931225.934,-174.805,263.184,127.441,99.121
1643931225.938,165.039,332.031,64.941,-20.508
1643931225.942,142.578,-102.539,-122.070,-71.289
1643931225.946,-194.824,-183.105,-83.984,39.551
1643931225.950,-266.602,-62.988,-20.508,145.020
1643931225.954,81.543,-8.789,-9.277,28.320
1643931225.957,208.496,-525.391,-291.016,-55.664
1643931225.961,-114.258,-719.238,-302.246,-8.789
1643931225.965,-305.176,230.469,175.293,99.121
1643931225.969,-3.906,294.434,47.363,55.664
1643931225.973,250.977,61.035,-42.969,-57.129
1643931225.960,18.555,158.691,45.898,-51.270
1643931225.964,-275.391,291.504,104.492,88.379
1643931225.968,-72.754,126.465,-2.441,100.098
1643931225.972,287.598,-24.902,-78.613,1.953
1643931225.976,200.195,180.176,53.223,-42.969
1643931225.980,-171.875,-61.035,-22.949,63.477
1643931225.984,-161.133,-343.262,-124.023,154.297
1643931225.987,228.027,-257.324,-154.785,52.246
1643931225.991,252.441,73.242,-1.465,-71.289
1643931225.995,-153.809,230.957,116.211,-55.176
1643931225.999,-323.730,-311.523,-146.484,53.223
1643931226.003,8.789,-1000.000,-533.691,12.207
1643931226.005,219.238,-627.930,-229.004,-96.191
1643931226.009,-39.062,119.629,88.867,-62.500
1643931226.013,-258.789,12.207,-51.270,120.117
1643931226.017,50.781,130.371,33.203,118.164
1643931226.021,351.074,323.730,69.824,13.672
1643931226.025,145.996,39.062,-56.152,12.695
1643931226.029,-199.707,-631.836,-263.672,169.922
1643931226.032,-35.156,-430.664,-129.883,192.871
1643931226.036,360.840,225.098,50.781,65.918
1643931226.040,282.715,-66.406,-160.645,24.902
1643931226.044,-78.613,-294.922,-140.137,132.812
1643931226.048,-80.566,75.684,75.684,233.398
1643931226.050,321.777,431.152,158.691,138.184
1643931226.054,395.508,117.676,-42.480,48.340
1643931226.058,41.504,-81.543,-93.750,125.488
1643931226.062,-110.840,226.562,94.238,268.066
1643931226.066,236.328,388.184,122.559,194.336
1643931226.070,415.039,-225.098,-224.121,78.613
1643931226.074,78.613,-632.812,-295.410,78.613
1643931226.077,-200.195,40.039,96.680,178.711
1643931226.081,44.434,348.633,103.516,138.672
1643931226.085,312.012,-9.277,-36.621,-19.043
1643931226.089,89.844,-381.348,-152.344,-81.055
1643931226.093,-283.203,-302.734,-110.352,45.898
1643931226.096,-205.566,-41.504,17.578,64.941
1643931226.100,142.578,-471.191,-237.305,-82.031
1643931226.104,109.375,-728.516,-273.438,-148.926
1643931226.108,-224.121,45.410,106.934,-47.363
1643931226.112,-249.512,256.348,66.895,101.074
1643931226.116,138.672,-88.867,-100.098,43.945
1643931226.120,270.508,-127.930,-57.129,-57.129
1643931226.123,-32.715,258.301,135.742,12.207
1643931226.127,-209.961,243.652,44.922,180.664
1643931226.131,89.355,-317.383,-140.625,134.277
1643931226.135,334.473,-133.789,0.977,10.742
1643931226.139,97.168,354.980,134.277,16.602
1643931226.157,-255.859,138.672,29.297,117.188
1643931226.161,-106.445,-15.137,-34.180,46.875
1643931226.165,218.750,-23.438,-53.711,-83.984
1643931226.169,106.934,168.945,46.875,-115.723
1643931226.173,-227.539,25.391,-53.223,41.504
1643931226.177,-168.457,-606.445,-315.430,153.809
1643931226.181,238.770,-263.184,-68.359,30.273
1643931226.184,283.203,334.473,135.254,-62.500
1643931226.188,-87.402,-179.688,-142.578,52.734
1643931226.192,-223.633,-522.949,-202.148,165.039
1643931226.196,142.578,-22.949,37.598,53.223
1643931226.200,300.293,-48.340,-108.887,-46.875
1643931226.200,-46.875,-562.012,-320.801,0.977
1643931226.204,-285.645,-541.016,-195.801,142.578
1643931226.208,31.738,295.410,152.832,87.891
1643931226.212,325.684,342.285,41.016,-10.742
1643931226.216,103.027,-97.168,-137.695,0.000
1643931226.220,-225.098,-262.695,-128.418,140.137
1643931226.224,-55.664,-120.605,-19.531,157.715
1643931226.227,324.707,175.781,45.898,32.227
1643931226.231,234.375,-475.586,-327.148,11.230
1643931226.235,-143.555,-714.355,-307.129,137.207
1643931226.239,-104.980,298.828,174.805,203.613
1643931226.243,291.504,276.855,26.855,100.098
1643931226.246,334.961,-25.391,-90.332,4.883
1643931226.250,-30.762,129.395,43.457,75.195
1643931226.254,-175.293,292.480,110.352,208.984
1643931226.258,189.941,130.859,-9.277,147.949
1643931226.262,426.270,-11.230,-83.008,66.895
1643931226.266,149.902,-94.727,-59.082,127.441
1643931226.270,-117.188,-62.012,16.602,272.949
1643931226.273,164.551,-217.773,-145.996,263.672
1643931226.277,460.938,-818.359,-403.809,168.457
1643931226.281,271.973,-240.234,-5.371,122.070
1643931226.285,-45.410,229.980,96.191,262.207
1643931226.289,76.172,-413.086,-210.449,330.566
1643931226.290,446.289,-437.988,-196.777,202.148
1643931226.294,412.598,325.195,134.277,117.676
1643931226.298,32.227,341.309,75.195,227.051
1643931226.302,-42.480,139.160,-20.020,311.523
1643931226.306,338.867,179.688,22.949,197.266
1643931226.310,458.496,-9.766,-102.539,104.980
1643931226.314,103.027,-96.191,-114.746,144.043
1643931226.317,-103.516,-510.742,-217.285,286.133
1643931226.321,241.211,-392.090,-123.535,217.773
1643931226.325,480.469,216.797,56.641,63.965
1643931226.329,177.734,-124.023,-153.320,75.195
1643931226.333,-124.512,-298.828,-109.863,226.562
1643931226.336,119.629,121.094,82.520,211.426
1643931226.340,463.379,450.195,111.816,90.332
1643931226.344,316.895,107.422,-46.875,83.008
1643931226.348,-61.035,-54.199,-49.805,211.914
1643931226.352,19.043,252.441,89.844,258.789
1643931226.356,419.922,195.312,42.480,156.250
1643931226.360,403.320,-374.512,-247.559,84.961
1643931226.363,-5.859,-686.035,-330.566,152.832
1643931226.367,-104.492,-10.254,28.809,239.258
1643931226.371,312.012,438.477,159.668,153.320
1643931226.375,466.797,-209.961,-160.156,72.754
1643931226.379,99.121,-467.285,-221.191,114.258
1643931226.396,-150.391,12.695,30.273,227.539
1643931226.400,195.312,268.066,92.285,185.547
1643931226.404,474.121,-179.688,-143.555,85.938
1643931226.408,186.523,-429.688,-188.477,67.383
1643931226.412,-155.273,165.039,83.496,167.480
1643931226.416,50.293,96.191,2.441,204.102
1643931226.420,430.664,-509.277,-240.234,134.277
1643931226.423,317.871,-494.141,-204.590,67.383
1643931226.427,-83.008,256.348,119.629,151.367
1643931226.431,-31.738,171.875,18.066,270.508
1643931226.435,466.797,58.594,-1.953,240.234
1643931226.439,524.902,263.672,75.684,173.828
1643931226.425,84.473,330.566,104.004,195.801
1643931226.429,-61.035,177.734,32.715,317.383
1643931226.433,343.262,-25.391,-76.172,290.039
1643931226.437,533.691,53.711,33.203,174.316
1643931226.441,168.945,205.078,85.938,162.598
1643931226.445,-143.066,-243.652,-173.828,295.898
1643931226.449,140.137,-352.539,-192.871,263.184
1643931226.452,453.125,204.590,49.316,119.629
1643931226.456,236.816,359.863,89.355,90.820
1643931226.460,-135.742,-156.250,-113.770,239.258
1643931226.464,-11.230,-908.203,-397.461,295.410
1643931226.468,383.789,-299.805,-101.074,157.715
1643931226.485,332.031,345.703,90.820,87.402
1643931226.489,-88.867,-205.566,-88.379,198.730
1643931226.493,-137.207,-232.910,-22.461,277.832
1643931226.497,291.016,391.602,124.512,156.250
1643931226.501,401.855,325.195,14.160,67.871
1643931226.505,18.555,-142.090,-129.883,138.672
1643931226.509,-175.293,-294.434,-108.398,261.719
1643931226.512,208.984,57.129,29.785,209.961
1643931226.516,462.402,322.754,45.898,93.262
1643931226.520,130.859,-506.348,-315.430,111.328
1643931226.524,-194.336,-592.773,-244.629,218.262
1643931226.528,94.238,389.648,153.320,185.059
1643931226.530,453.613,265.625,-23.438,99.609
1643931226.534,281.738,11.719,-62.012,66.406
1643931226.538,-69.824,196.289,83.984,199.219
1643931226.542,85.449,371.582,126.465,283.691
1643931226.546,520.508,215.820,20.996,208.984
1643931226.550,495.117,-266.602,-222.656,163.574
1643931226.554,95.703,-185.547,-105.469,234.863
1643931226.557,28.320,210.449,127.930,317.383
1643931226.561,434.570,-203.125,-154.785,251.465
1643931226.565,549.316,-843.262,-423.340,163.574
1643931226.569,180.664,-484.863,-99.609,200.195
1643931226.573,-33.203,103.027,85.449,316.895
1643931226.576,307.129,-273.438,-177.246,269.043
1643931226.580,573.242,-418.945,-210.938,154.297
1643931226.584,300.293,295.410,140.625,132.324
1643931226.588,-40.527,294.922,94.727,265.625
1643931226.592,190.918,85.938,-33.691,271.973
1643931226.596,558.105,-52.246,-69.336,172.852
1643931226.600,407.715,-28.320,20.996,137.695
1643931226.603,22.949,174.805,63.965,236.328
1643931226.607,54.688,-405.762,-186.523,309.082
1643931226.611,457.031,-355.957,-82.031,199.707
1643931226.615,493.652,238.281,48.828,104.980
1643931226.619,69.824,-141.602,-104.004,180.176
1643931226.620,-77.148,-205.078,-14.160,273.438
1643931226.624,337.891,226.074,82.520,196.289
1643931226.628,544.922,462.402,83.984,105.957
1643931226.632,173.828,41.016,-81.055,146.973
1643931226.636,-112.793,-325.195,-162.109,282.715
1643931226.640,225.586,-155.762,-43.457,252.441
1643931226.644,537.109,142.090,71.777,125.488
1643931226.647,277.832,-143.555,-127.441,104.492
1643931226.651,-117.188,-631.836,-299.805,223.633
1643931226.655,66.895,97.168,82.031,216.309
1643931226.659,468.750,309.082,61.523,116.211
1643931226.663,349.121,-450.684,-257.812,83.984
1643931226.667,-73.242,-558.105,-215.332,163.574
1643931226.671,-71.777,-0.977,60.547,220.215
1643931226.675,378.418,241.211,67.383,145.020
1643931226.679,457.520,-76.660,-60.059,78.613
1643931226.683,56.641,-206.055,-42.969,128.418
1643931226.687,-129.395,-4.395,15.137,234.375
1643931226.691,243.164,61.035,23.926,158.691
1643931226.694,452.637,-402.832,-214.355,42.480
1643931226.698,102.051,-488.770,-179.688,37.598
1643931226.702,-197.266,337.891,155.273,142.090
1643931226.706,105.469,279.785,36.133,139.160
1643931226.710,481.445,99.121,-14.648,69.824
1643931226.726,307.129,281.250,69.336,68.359
1643931226.730,-51.758,395.508,124.512,197.754
1643931226.734,102.539,224.609,35.156,250.000
1643931226.738,506.348,-55.664,-123.047,156.250
1643931226.742,462.402,-38.086,-56.152,97.656
1643931226.746,58.105,-54.199,4.883,188.477
1643931226.750,-13.184,-280.273,-145.508,294.434
1643931226.753,384.766,-766.113,-318.359,211.914
1643931226.757,507.812,-310.547,-48.828,81.543
1643931226.761,153.809,343.262,135.742,118.164
1643931226.765,-63.477,-95.703,-60.547,266.113
1643931226.769,296.387,-162.598,-52.734,210.938
1643931226.755,553.711,312.500,101.562,86.914
1643931226.759,247.559,354.004,58.594,99.609
1643931226.763,-95.215,-173.340,-62.500,242.676
1643931226.767,146.484,-144.043,4.883,224.121
1643931226.771,521.484,364.258,84.961,104.004
1643931226.775,343.750,-13.672,-117.188,66.406
1643931226.779,-84.473,-469.727,-220.703,174.805
1643931226.782,-17.090,-216.797,-20.996,210.449
1643931226.786,416.016,313.477,132.324,104.980
1643931226.790,425.781,363.770,70.801,34.668
1643931226.794,-4.883,-546.387,-311.035,117.188
1643931226.798,-134.277,-695.801,-278.809,218.262
1643931226.800,308.594,341.797,156.738,129.883
1643931226.804,483.887,237.793,-19.531,43.457
1643931226.808,84.961,-61.035,-100.586,56.641
1643931226.812,-174.805,195.801,72.754,175.293
1643931226.816,186.035,376.465,109.375,148.926
1643931226.820,490.234,-93.262,-183.105,64.453
1643931226.824,187.012,-668.457,-351.074,38.086
1643931226.827,-194.336,-129.395,28.809,111.816
1643931226.831,58.105,372.559,147.949,156.250
1643931226.835,470.215,-215.820,-177.734,100.586
1643931226.839,320.801,-753.906,-359.863,47.363
1643931226.843,-88.867,-126.953,17.578,118.164
1643931226.861,-49.805,397.461,166.992,178.223
1643931226.865,371.094,-232.422,-169.434,113.281
1643931226.869,399.414,-463.867,-199.219,23.438
1643931226.873,-6.348,234.375,106.445,62.012
1643931226.877,-154.785,299.316,82.520,184.082
1643931226.881,233.398,-106.934,-111.816,124.023
1643931226.885,437.012,-209.473,-129.883,26.855
1643931226.888,104.492,176.758,93.750,46.875
1643931226.892,-148.926,185.059,25.879,211.914
1643931226.896,222.656,-330.078,-142.578,269.043
1643931226.900,608.887,-162.109,-18.555,220.215
1643931226.904,422.363,131.348,7.812,225.098
1643931226.905,22.461,-220.703,-150.879,341.797
1643931226.909,142.578,-275.879,-90.332,331.543
1643931226.913,546.387,169.922,78.125,203.125
1643931226.917,452.637,353.027,80.566,141.113
1643931226.921,20.020,20.020,-42.480,224.121
1643931226.925,-32.715,-277.344,-198.730,293.945
1643931226.929,356.445,-78.125,-42.480,174.805
1643931226.932,457.520,351.074,157.227,63.965
1643931226.936,79.102,-162.598,-133.789,150.879
1643931226.940,-85.938,-653.320,-311.523,309.570
1643931226.944,340.820,-168.945,-24.902,257.812
1643931226.948,614.258,184.082,66.406,169.434
1643931226.951,276.367,-273.438,-188.477,197.266
1643931226.955,-72.266,-552.734,-243.652,322.266
1643931226.959,213.379,26.855,67.383,301.758
1643931226.963,594.727,260.254,53.223,229.004
1643931226.967,401.367,-145.508,-125.488,215.820
1643931226.971,-20.508,-437.500,-103.027,320.801
1643931226.975,89.844,57.617,89.844,338.379
1643931226.978,527.344,406.738,85.449,216.309
1643931226.982,498.047,-308.105,-196.777,174.805
1643931226.986,40.039,-465.332,-108.398,200.684
1643931226.990,-200.195,317.383,145.508,104.492
1643931226.994,73.242,214.355,2.441,-114.746
1643931226.995,167.969,7.812,-60.059,-266.113
1643931226.999,-241.699,185.059,60.059,-266.113
1643931227.003,-477.051,327.637,103.027,-143.555
1643931227.007,-187.012,143.555,0.000,-245.117
1643931227.011,-38.086,-159.668,-144.043,-469.238
1643931227.015,-364.746,-228.027,-102.539,-526.367
1643931227.019,-709.473,-166.016,9.766,-412.598
1643931227.022,-468.262,-297.852,-138.672,-397.949
1643931227.026,-81.055,-807.129,-381.836,-466.309
1643931227.030,-206.055,-309.082,-32.715,-502.441
1643931227.034,-570.312,162.598,99.609,-380.371
1643931227.038,-487.305,-479.492,-239.746,-266.113
1643931227.040,-24.902,-440.430,-197.266,-334.473
1643931227.044,41.016,277.832,91.309,-395.508
1643931227.048,-336.914,223.145,38.086,-275.391
1643931227.052,-401.367,32.715,-20.508,-102.051
1643931227.056,86.914,177.734,19.531,-101.074
1643931227.060,312.988,80.078,-40.039,-139.160
1643931227.064,-35.156,-109.863,-123.535,-100.586
1643931227.067,-299.316,-641.602,-336.426,60.059
1643931227.071,-3.906,-663.086,-234.863,0.488
1643931227.075,269.531,311.523,146.973,-194.824
1643931227.079,15.625,268.555,7.812,-197.754
1643931227.083,-327.637,-33.691,-51.758,-30.273
1643931227.085,-66.406,249.023,88.867,46.387
1643931227.089,413.574,496.582,134.277,14.160
1643931227.093,331.543,173.340,-29.785,3.906
1643931227.097,-87.891,-56.152,-86.426,100.586
1643931227.101,-66.895,205.566,74.707,173.340
1643931227.105,379.395,174.805,57.129,113.281
1643931227.109,458.984,-284.668,-235.840,75.195
1643931227.112,42.969,-634.766,-341.797,136.230
1643931227.116,-80.566,4.883,41.016,215.332
1643931227.120,363.281,408.691,83.984,151.367
1643931227.124,533.691,-288.086,-238.281,89.844
1643931227.128,181.152,-676.758,-319.824,117.676
1643931227.132,-99.609,99.609,61.035,228.027
1643931227.136,227.051,469.238,104.980,217.773
1643931227.140,548.340,-107.910,-114.746,109.375
1643931227.144,286.133,-179.688,-27.344,43.945
1643931227.148,-115.234,285.645,114.258,139.160
1643931227.152,30.762,190.918,47.852,178.711
1643931227.156,452.148,-491.211,-247.070,122.559
1643931227.159,427.246,-546.875,-221.191,107.910
1643931227.163,9.277,254.883,134.277,143.555
1643931227.167,-46.387,247.559,23.926,210.938
1643931227.171,410.645,114.258,-1.465,168.945
1643931227.175,436.523,257.324,63.477,-11.719
1643931227.177,-73.730,96.680,-12.207,-92.285
1643931227.181,-315.430,-205.566,-84.961,-8.301
1643931227.185,116.211,-40.039,-47.363,-14.160
1643931227.189,499.512,274.414,66.406,-8.301
1643931227.193,259.277,240.723,78.613,70.312
1643931227.197,-65.918,-193.359,-139.648,233.398
1643931227.201,192.871,-834.473,-381.348,258.301
1643931227.204,568.848,-298.340,-55.664,143.555
1643931227.208,329.590,347.656,132.812,9.766
1643931227.212,-163.086,-47.852,-13.672,36.621
1643931227.216,-83.496,-308.105,-83.008,86.426
1643931227.220,373.047,18.555,20.020,19.043
1643931227.236,403.809,373.535,105.957,-21.484
1643931227.240,4.883,-296.875,-182.129,86.426
1643931227.244,-82.031,-593.262,-215.820,204.102
1643931227.248,375.000,-11.230,57.617,156.738
1643931227.252,560.059,211.426,54.688,92.285
1643931227.256,214.355,-431.152,-269.043,197.266
1643931227.260,15.137,-832.031,-335.938,378.906
1643931227.263,429.199,121.094,106.934,356.934
1643931227.267,775.879,387.207,55.176,315.918
1643931227.271,503.418,35.645,-22.949,331.055
1643931227.275,149.902,185.059,100.586,435.547
1643931227.279,390.137,460.449,136.719,453.613
1643931227.281,790.527,266.602,9.766,383.301
1643931227.285,643.066,36.133,-54.688,333.008
1643931227.289,190.430,199.219,73.730,388.184
1643931227.293,199.219,399.902,129.883,428.711
1643931227.297,618.652,151.367,-14.648,341.797
1643931227.301,637.207,-242.676,-159.668,264.648
1643931227.305,195.312,-223.633,-59.082,303.223
1643931227.308,41.016,53.711,80.566,380.859
1643931227.312,468.750,-33.691,-95.215,338.867
1643931227.316,637.207,-782.227,-429.199,273.438
1643931227.320,245.605,-583.008,-173.340,253.418
1643931227.324,-20.996,104.980,103.516,340.332
1643931227.325,323.242,-205.566,-145.020,354.492
1643931227.329,636.719,-388.672,-231.934,263.672
1643931227.333,378.418,258.301,99.121,199.707
1643931227.337,-5.371,286.133,59.082,297.852
1643931227.341,158.691,99.609,-6.836,318.848
1643931227.345,551.758,-70.801,-61.523,232.422
1643931227.349,453.125,1.953,-13.672,153.320
1643931227.352,-4.395,256.836,76.172,182.617
1643931227.356,-69.336,-467.773,-270.996,256.348
1643931227.360,345.703,-737.305,-258.789,173.340
1643931227.364,473.145,238.770,145.996,74.707
1643931227.368,83.496,240.234,22.461,136.230
1643931227.385,-112.793,0.000,-30.762,244.629
1643931227.389,306.152,328.125,97.656,203.613
1643931227.393,569.336,512.695,128.418,124.023
1643931227.397,228.027,187.500,-5.859,130.371
1643931227.401,-100.586,-21.973,-86.914,243.164
1643931227.405,183.594,86.914,19.043,227.539
1643931227.409,532.227,41.504,-12.695,127.930
1643931227.412,310.547,-287.598,-216.309,91.309
1643931227.416,-92.285,-248.535,-177.246,183.105
1643931227.420,49.316,257.324,89.844,208.984
1643931227.424,369.141,149.902,17.578,26.855
1643931227.428,211.914,-411.621,-265.137,-138.184
1643931227.415,-264.160,-1000.000,-504.883,-94.238
1643931227.419,-348.145,-403.809,-118.164,-44.922
1643931227.423,139.648,343.750,93.750,-123.535
1643931227.427,282.715,91.797,-69.824,-188.965
1643931227.431,-103.516,118.652,-10.742,-150.391
1643931227.435,-313.477,69.824,9.277,-13.672
1643931227.439,75.195,-15.137,0.977,-27.832
1643931227.442,356.445,-83.496,-95.215,-115.723
1643931227.446,52.734,19.531,-28.320,-122.070
1643931227.450,-274.902,342.285,124.023,-3.906
1643931227.454,-2.441,305.176,10.254,10.254
1643931227.458,363.281,-406.738,-198.730,-64.453
1643931227.462,205.566,-345.703,-48.828,-97.168
1643931227.466,-172.363,120.605,67.871,-4.883
1643931227.470,-91.797,-195.801,-108.398,64.941
1643931227.474,354.492,-269.531,-88.379,-1.465
1643931227.478,382.812,82.031,46.875,-68.359
1643931227.482,-25.879,19.531,4.395,7.812
1643931227.486,-130.859,-321.777,-154.785,139.160
1643931227.489,302.734,-532.715,-254.883,90.820
1643931227.493,477.051,-17.090,9.277,-19.043
1643931227.497,125.000,415.527,126.465,9.766
1643931227.501,-142.578,-223.145,-138.672,156.250
1643931227.505,179.688,-409.668,-168.457,119.141
1643931227.505,501.465,312.012,108.887,9.277
1643931227.509,246.582,343.750,83.496,14.160
1643931227.513,-121.582,-8.789,-31.250,134.766
1643931227.517,98.145,14.160,-23.926,159.668
1643931227.521,498.047,104.004,15.137,54.688
1643931227.525,339.844,-9.277,-62.988,-23.926
1643931227.529,-120.117,-591.309,-317.871,64.941
1643931227.532,-105.957,-716.309,-230.957,134.766
1643931227.536,357.422,249.023,148.926,49.316
1643931227.540,423.340,362.793,27.832,-12.695
1643931227.544,8.789,62.988,-10.254,38.574
1643931227.548,-142.090,257.812,117.676,129.883
1643931227.551,272.949,463.379,110.840,75.684
1643931227.555,490.723,228.027,-25.879,6.836
1643931227.559,130.371,-10.254,-63.477,11.230
1643931227.563,-182.617,226.562,91.309,107.422
1643931227.567,159.668,416.504,116.699,111.328
1643931227.571,516.113,-98.633,-202.148,71.777
1643931227.575,273.438,-666.504,-365.723,74.219
1643931227.578,-97.656,-187.500,-1.953,160.156
1643931227.582,89.844,397.461,167.480,194.336
1643931227.586,525.391,30.273,-102.051,139.160
1643931227.590,428.223,-863.281,-445.801,103.027
1643931227.594,1.953,-373.047,-76.172,154.297
1643931227.610,14.648,405.273,165.039,240.723
1643931227.614,452.148,35.156,-37.109,196.289
1643931227.618,536.621,-34.668,-23.926,110.352
1643931227.622,149.902,302.734,96.191,134.277
1643931227.626,-31.250,384.277,110.840,248.047
1643931227.630,354.980,-262.207,-135.742,245.605
1643931227.634,625.488,-443.359,-153.809,188.477
1643931227.637,352.051,240.234,123.047,191.895
1643931227.641,47.852,266.602,52.734,307.617
1643931227.645,317.383,-432.617,-218.750,334.961
1643931227.649,671.875,-368.652,-99.609,246.094
1643931227.653,491.211,361.328,133.301,195.312
1643931227.645,78.613,144.531,-0.488,293.457
1643931227.649,167.969,-55.176,-55.664,332.031
1643931227.653,590.820,273.926,70.801,242.188
1643931227.657,560.547,406.250,85.938,161.621
1643931227.661,118.652,44.434,-36.621,223.145
1643931227.665,25.391,-290.527,-155.762,315.430
1643931227.669,478.516,-169.434,-59.570,253.906
1643931227.672,642.578,255.371,113.770,164.551
1643931227.676,236.816,-119.141,-129.883,188.965
1643931227.680,-20.996,-626.953,-313.477,304.688
1643931227.684,367.188,-102.051,6.836,267.578
1643931227.688,670.898,-42.969,-89.355,197.754
1643931227.716,351.562,-411.621,-223.633,187.500
1643931227.720,-1.465,-199.707,-13.184,283.203
1643931227.724,281.250,354.492,117.676,314.453
1643931227.728,685.547,454.590,90.332,238.770
1643931227.732,491.211,-325.684,-253.906,195.312
1643931227.736,8.301,-916.016,-408.691,261.230
1643931227.740,55.664,-108.887,25.879,276.855
1643931227.743,540.039,364.746,83.984,217.285
1643931227.747,563.965,-24.414,-105.957,169.922
1643931227.751,91.309,-1.953,3.418,178.711
1643931227.755,-27.344,370.605,143.066,260.742
1643931227.759,468.750,329.590,51.270,286.133
1643931227.746,689.941,-221.680,-146.484,271.973
1643931227.750,296.875,-154.297,-23.926,258.301
1643931227.754,7.812,88.379,51.270,348.633
1643931227.758,381.348,-191.895,-104.004,392.090
1643931227.762,740.234,-189.453,-134.766,341.797
1643931227.766,477.539,-101.562,-84.961,306.641
1643931227.770,89.844,10.742,23.926,404.297
1643931227.773,285.156,-32.227,-62.500,443.359
1643931227.777,700.684,-85.449,-135.742,367.676
1643931227.781,604.004,329.102,97.656,307.617
1643931227.785,166.016,215.332,71.289,375.488
1643931227.789,159.668,-269.043,-134.277,465.332
1643931227.790,577.148,-979.004,-467.285,419.434
1643931227.794,622.559,-623.535,-223.633,296.875
1643931227.798,206.543,244.629,129.883,289.551
1643931227.802,38.574,187.988,10.254,392.578
1643931227.806,449.219,141.113,-21.484,355.957
1643931227.810,659.668,67.383,-42.969,284.668
1643931227.814,313.477,20.020,-17.578,273.438
1643931227.817,-18.555,-532.715,-233.398,376.953
1643931227.821,256.836,-666.992,-233.887,360.840
1643931227.825,617.676,324.219,115.234,241.211
1643931227.829,399.414,358.887,41.992,202.148
1643931227.833,-15.137,105.957,27.344,277.832
1643931227.836,134.766,384.277,128.906,299.805
1643931227.840,574.707,554.688,131.348,228.516
1643931227.844,506.348,217.285,-26.367,187.988
1643931227.848,63.965,30.762,-38.086,245.117
1643931227.852,18.066,312.500,105.957,304.688
1643931227.856,454.590,254.883,73.730,252.441
1643931227.860,573.730,-226.074,-172.852,192.871
1643931227.863,158.203,-714.355,-337.891,204.590
1643931227.867,-50.293,-123.535,19.043,266.113
1643931227.871,352.051,556.152,203.613,219.238
1643931227.875,591.797,-100.098,-160.156,154.297
1643931227.879,234.375,-784.180,-381.348,122.559
1643931227.881,-108.398,-17.578,43.945,163.086
1643931227.885,152.344,397.949,132.324,153.809
1643931227.889,493.164,88.867,-51.758,71.289
1643931227.893,306.152,117.188,5.859,21.484
1643931227.897,-104.004,225.586,82.520,108.398
1643931227.901,-29.785,110.352,26.367,162.598
1643931227.905,391.113,-501.953,-246.582,107.422
1643931227.908,387.695,-543.457,-205.078,39.062
1643931227.912,-27.344,270.020,127.930,59.570
1643931227.916,-125.488,213.379,7.324,158.203
1643931227.920,314.941,-42.480,1.953,128.906
1643931227.924,498.535,184.082,84.473,57.129
1643931227.927,116.699,375.977,105.469,49.805
1643931227.931,-152.344,142.090,4.883,142.578
1643931227.935,213.867,-71.777,-74.219,140.625
1643931227.939,520.508,224.609,78.613,52.734
1643931227.943,222.168,318.848,81.055,32.715
1643931227.947,-157.227,-170.410,-130.859,154.297
1643931227.951,45.898,-623.047,-285.645,175.293
1643931227.954,458.984,-42.480,9.766,62.012
1643931227.958,343.262,377.930,105.957,10.254
1643931227.962,-93.750,6.348,-19.531,97.656
1643931227.966,-57.129,-286.621,-102.051,173.340
1643931227.970,402.832,-16.602,-22.461,115.234
1643931227.972,441.895,181.641,25.391,34.180
1643931227.976,-1.953,-533.203,-323.242,79.590
1643931227.980,-172.363,-693.848,-271.484,168.945
1643931227.984,274.414,183.105,128.418,119.141
1643931227.988,494.629,398.926,65.430,56.641
1643931227.992,99.609,-459.961,-322.266,92.773
1643931227.996,-216.309,-776.855,-320.312,186.523
1643931227.999,137.207,183.105,110.352,132.812
1643931228.003,497.070,360.352,35.156,65.430
1643931228.007,232.910,-58.105,-124.023,32.227
1643931228.011,-167.480,69.336,33.691,109.863
1643931228.015,30.762,418.457,144.043,161.621
1643931228.031,480.957,231.934,-25.391,111.328
1643931228.035,392.090,-25.391,-83.984,61.523
1643931228.039,-52.246,68.359,43.945,120.117
1643931228.043,-74.707,3.418,12.207,202.148
1643931228.047,375.977,-163.086,-112.305,155.762
1643931228.051,453.613,-547.363,-287.109,96.680
1643931228.055,24.902,-298.828,-60.547,98.145
1643931228.058,-170.898,295.410,171.875,160.645
1643931228.062,237.305,-78.125,-129.395,149.902
1643931228.066,492.676,-458.496,-221.191,97.656
1643931228.070,142.578,-171.875,-16.602,77.637
1643931228.074,-188.965,41.992,16.113,162.598
1643931228.075,143.066,-281.250,-150.879,208.008
1643931228.079,526.367,-401.367,-213.867,155.762
1643931228.083,317.383,298.340,110.840,85.938
1643931228.087,-103.027,322.266,72.754,151.855
1643931228.091,5.859,40.039,-28.809,203.125
1643931228.095,457.520,-51.758,4.883,167.969
1643931228.099,420.898,-72.754,-22.949,100.098
1643931228.102,-42.480,-62.500,-28.809,119.141
1643931228.106,-136.719,-568.359,-256.836,211.914
1643931228.110,314.453,-672.852,-270.508,167.969
1643931228.114,489.746,277.344,134.277,74.707
1643931228.118,69.336,257.324,53.711,63.477
1643931228.120,-215.820,12.207,-24.902,137.207
1643931228.124,200.684,338.867,117.188,142.090
1643931228.128,533.203,453.613,105.957,89.355
1643931228.132,185.059,67.383,-79.590,53.223
1643931228.136,-229.492,-135.742,-108.887,116.211
1643931228.140,56.641,-158.691,-76.172,145.996
1643931228.144,509.277,50.781,43.945,104.492
1643931228.147,325.195,-80.566,-101.074,43.457
1643931228.151,-224.121,-832.031,-380.859,50.293
1643931228.155,-163.574,-220.215,23.438,65.430
1643931228.159,439.453,343.262,127.930,94.727
1643931228.163,481.445,-359.863,-234.375,71.777
1643931228.166,-111.328,-704.102,-274.414,-20.508
1643931228.170,-296.387,74.707,90.332,0.488
1643931228.174,283.691,445.312,121.094,80.078
1643931228.178,535.645,206.055,5.859,46.387
1643931228.182,54.199,104.492,28.809,-29.297
1643931228.186,-305.664,-23.926,22.461,41.992
1643931228.190,112.793,-4.395,14.648,83.008
1643931228.193,480.469,-435.547,-219.238,52.246
1643931228.197,156.738,-522.461,-188.965,-2.930
1643931228.201,-269.043,274.414,145.020,24.414
1643931228.205,-34.180,241.211,27.344,74.219
1643931228.209,427.734,2.441,-12.207,41.504
1643931228.210,303.711,161.133,51.270,-33.203
1643931228.214,-179.688,324.219,105.957,-6.348
1643931228.218,-184.082,90.820,-1.953,58.594
1643931228.222,328.613,-82.520,-98.633,45.898
1643931228.226,395.020,166.992,29.785,-12.207
1643931228.230,-91.309,-14.648,-20.996,-22.949
1643931228.234,-271.484,-402.832,-281.250,59.570
1643931228.237,185.547,-645.996,-355.957,72.754
1643931228.241,450.684,-59.570,19.043,-9.277
1643931228.245,72.266,370.117,121.582,-42.969
1643931228.249,-292.480,-145.020,-75.195,64.453
1643931228.253,63.965,-226.562,-50.781,96.680
1643931228.256,475.586,291.016,91.797,48.340
1643931228.260,223.633,219.727,20.996,7.812
1643931228.264,-239.746,-560.547,-265.625,62.988
1643931228.268,-79.590,-641.113,-254.395,106.934
1643931228.272,447.754,204.102,89.355,82.520
1643931228.276,388.672,107.910,10.742,44.434
1643931228.280,-135.254,-634.277,-269.531,59.082
1643931228.283,-203.125,-534.668,-187.988,108.398
1643931228.287,333.008,375.488,147.461,90.332
1643931228.291,494.141,368.652,47.363,51.758
1643931228.295,8.789,-51.270,-24.902,24.902
1643931228.299,-247.559,-14.648,34.180,91.797
1643931228.300,225.586,416.992,153.320,113.770
1643931228.304,542.480,310.059,45.410,80.566
1643931228.308,158.203,-16.113,-66.895,34.668
1643931228.312,-246.094,123.535,56.152,69.824
1643931228.316,84.961,91.797,52.246,123.047
1643931228.320,545.898,-150.879,-107.422,130.859
1643931228.324,298.340,-773.926,-390.137,81.543
1643931228.327,-227.539,-449.707,-109.863,55.176
1643931228.331,-94.727,339.355,162.109,93.750
1643931228.335,437.500,169.434,3.906,105.469
1643931228.339,421.387,-186.523,-172.852,57.617
1643931228.343,-90.820,-46.875,-47.363,48.828
1643931228.361,-195.801,347.656,129.395,119.141
1643931228.365,311.035,-212.402,-175.781,166.016
1643931228.369,503.418,-451.172,-207.031,116.699
1643931228.373,81.543,245.117,140.137,62.500
1643931228.377,-215.332,280.762,59.082,132.812
1643931228.381,187.988,-92.773,-97.168,157.715
1643931228.385,550.781,-260.742,-101.074,129.395
1643931228.388,233.398,-18.066,22.461,79.590
1643931228.392,-224.121,241.699,80.078,98.145
1643931228.396,20.020,-465.332,-260.742,158.691
1643931228.400,483.887,-634.277,-251.953,145.508
1643931228.404,336.914,243.164,119.629,66.406
1643931228.405,-168.945,157.715,30.762,81.055
1643931228.409,-139.160,10.254,-27.344,141.113
1643931228.413,401.367,310.059,83.984,126.953
1643931228.417,464.844,387.207,90.820,62.012
1643931228.421,-41.992,42.480,-26.367,43.945
1643931228.425,-237.793,-345.215,-216.797,110.352
1643931228.429,255.371,-118.164,-64.941,117.188
1643931228.432,521.484,352.051,149.902,71.289
1643931228.436,104.492,-121.094,-151.367,67.383
1643931228.440,-272.461,-799.316,-384.277,145.996
1643931228.444,104.980,-372.559,-74.219,156.738
1643931228.448,518.555,212.402,98.145,118.164
1643931228.450,222.168,-216.309,-178.711,82.031
1643931228.454,-259.766,-645.996,-256.836,126.465
1643931228.458,-30.762,187.500,130.371,158.691
1643931228.462,492.188,407.227,68.359,147.949
1643931228.466,392.578,20.508,-111.816,91.797
1643931228.470,-137.207,-269.043,-208.008,96.680
1643931228.474,-171.387,-114.258,-44.922,152.832
1643931228.477,370.605,342.773,94.727,149.902
1643931228.481,465.332,-313.965,-224.609,109.375
1643931228.485,-38.574,-520.020,-168.945,75.195
1643931228.489,-253.418,335.938,141.602,116.211
1643931228.493,216.797,261.719,1.953,143.555
1643931228.495,508.301,-21.973,-37.598,105.469
1643931228.499,112.305,152.344,78.125,34.668
1643931228.503,-286.621,361.328,136.230,73.730
1643931228.507,64.453,150.391,1.465,137.695
1643931228.511,494.141,-115.234,-130.371,137.207
1643931228.515,238.281,-151.855,-95.215,76.660
1643931228.519,-279.297,-183.105,-57.129,76.660
1643931228.522,-123.047,-314.453,-130.371,141.113
1643931228.526,449.707,-577.637,-286.133,180.176
1643931228.530,439.941,-64.453,6.836,103.027
1643931228.534,-164.062,65.918,12.695,28.809
1643931228.538,-319.336,-551.758,-320.801,99.609
1643931228.541,342.285,-434.082,-189.941,231.445
1643931228.545,629.395,331.543,122.070,238.281
1643931228.549,9.766,90.332,-27.344,95.215
1643931228.553,-422.363,-495.605,-173.340,82.031
1643931228.557,235.352,-103.516,20.996,274.414
1643931228.561,792.480,252.441,65.430,400.879
1643931228.565,304.199,-28.809,-27.344,237.793
1643931228.568,-396.973,-614.258,-238.281,85.449
1643931228.572,-6.836,-444.336,-131.836,222.656
1643931228.576,762.695,539.062,188.965,393.066
1643931228.580,535.645,376.465,20.508,286.621
1643931228.584,-250.000,-115.723,-43.945,104.492
1643931228.585,-175.781,83.496,89.844,166.992
1643931228.589,615.234,499.023,160.645,353.027
1643931228.593,676.758,283.691,15.625,333.496
1643931228.597,-28.809,-90.332,-81.055,183.105
1643931228.601,-238.281,48.828,36.621,200.195
1643931228.605,409.180,94.238,69.336,322.266
1643931228.609,671.875,-197.266,-142.578,316.406
1643931228.612,131.836,-826.660,-403.809,221.191
1643931228.616,-241.699,-384.277,-57.129,224.121
1643931228.620,254.395,446.777,182.617,292.969
1643931228.624,687.012,64.453,-38.574,311.035
1643931228.628,329.590,-234.375,-107.422,224.121
1643931228.631,-189.941,184.082,103.516,200.195
1643931228.635,70.801,377.441,111.328,272.949
1643931228.639,614.746,-105.469,-86.914,327.637
1643931228.643,461.914,-211.426,-47.363,245.117
1643931228.647,-102.539,203.125,96.191,185.547
1643931228.651,-81.055,130.371,58.594,264.160
1643931228.655,499.023,-450.195,-212.402,334.473
1643931228.658,548.340,-702.637,-356.445,251.953
1643931228.662,-30.762,-33.203,-18.555,118.164
1643931228.666,-278.320,135.742,22.461,139.648
1643931228.670,261.230,-20.020,-6.836,203.125
1643931228.674,566.406,204.590,79.590,191.895
1643931228.676,114.258,373.047,97.168,106.934
1643931228.680,-296.875,100.586,-15.625,128.906
1643931228.684,104.980,-213.867,-77.148,211.914
1643931228.688,579.590,191.895,105.957,227.539
1643931228.692,287.109,344.727,68.359,141.113
1643931228.696,-280.762,-305.176,-253.418,127.930
1643931228.700,-125.488,-539.062,-229.492,182.129
1643931228.703,446.289,145.508,109.863,191.406
1643931228.707,401.367,440.918,125.977,141.113
1643931228.711,-170.410,-116.211,-77.637,115.234
1643931228.715,-236.328,-414.551,-174.316,187.500
1643931228.719,353.516,-91.797,-35.645,228.516
1643931228.735,521.973,183.594,73.242,177.734
1643931228.739,2.930,-318.848,-172.363,136.230
1643931228.743,-306.152,-755.859,-354.980,173.340
1643931228.747,191.895,145.020,76.660,188.477
1643931228.751,554.199,445.801,95.703,177.246
1643931228.755,136.230,-138.184,-139.648,120.605
1643931228.759,-295.898,-226.074,-75.195,140.625
1643931228.762,57.617,292.480,141.602,175.293
1643931228.766,498.047,421.387,77.148,161.133
1643931228.770,244.141,-270.020,-140.625,98.633
1643931228.774,-258.789,-306.152,-14.160,105.957
1643931228.778,-136.230,370.117,146.484,157.227
1643931228.780,365.723,168.945,-26.855,147.949
1643931228.784,339.355,-169.434,-101.562,69.336
1643931228.788,-102.051,57.129,57.129,86.914
1643931228.792,-305.176,333.496,146.484,46.875
1643931228.796,-106.934,91.797,-13.672,-244.141
1643931228.800,-99.121,-408.691,-288.086,-446.289
1643931228.804,-501.953,-312.012,-191.895,-439.941
1643931228.807,-694.336,191.406,92.773,-318.848
1643931228.811,-338.867,-55.664,-88.867,-330.078
1643931228.815,-102.539,-688.477,-392.578,-417.480
1643931228.819,-339.355,-466.309,-188.477,-410.156
1643931228.823,-556.152,22.461,77.637,-231.934
1643931228.825,-334.961,-262.695,-136.230,-209.961
1643931228.829,-50.293,-541.016,-281.738,-355.469
1643931228.833,-142.578,74.707,47.852,-379.883
1643931228.837,-386.230,62.500,38.574,-159.180
1643931228.841,-331.543,-327.148,-86.914,-74.707
1643931228.845,-49.316,-444.336,-157.227,-246.582
1643931228.849,-10.254,-47.363,-0.977,-323.242
1643931228.852,-229.980,266.113,119.629,-130.859
1643931228.856,-289.551,-370.117,-187.012,48.828
1643931228.860,-20.996,-482.422,-201.660,-116.211
1643931228.864,98.145,306.641,120.117,-261.719
1643931228.868,-128.418,180.176,18.066,-125.488
1643931228.870,-260.254,-15.137,-12.695,85.449
1643931228.874,-7.324,200.195,66.895,-2.441
1643931228.878,201.660,304.688,65.430,-166.504
1643931228.882,35.156,44.922,-36.621,-111.816
1643931228.886,-189.941,-69.824,-64.453,99.121
1643931228.890,-42.480,-7.812,20.996,102.539
1643931228.894,235.352,-76.660,-24.902,-53.223
1643931228.897,142.090,-357.422,-268.066,-77.148
1643931228.901,-194.824,-846.680,-384.277,85.449
1643931228.905,-175.293,-325.195,-31.250,126.953
1643931228.909,202.148,118.164,10.254,3.906
1643931228.913,247.559,-486.328,-298.828,-52.246
1643931228.915,-98.633,-583.496,-220.703,16.602
1643931228.919,-211.914,250.488,156.738,120.605
1643931228.923,167.480,400.879,78.613,59.082
1643931228.927,379.883,87.891,-42.969,-13.184
1643931228.931,81.543,118.164,17.578,21.484
1643931228.935,-209.961,14.160,-16.113,144.043
1643931228.939,63.477,-34.668,-2.441,116.211
1643931228.942,385.742,-437.500,-212.891,50.781
1643931228.946,148.926,-730.957,-333.496,43.945
1643931228.950,-242.676,31.250,63.477,116.211
1643931228.954,-88.867,289.062,86.914,165.039
1643931228.958,377.441,-73.242,-88.379,141.113
1643931228.961,368.164,41.504,3.906,113.770
1643931228.965,-92.773,321.289,105.469,126.465
1643931228.969,-199.707,143.066,16.113,185.547
1643931228.973,306.152,76.660,-19.043,201.660
1643931228.977,525.391,286.621,69.336,198.730
1643931228.981,45.410,4.395,-39.062,183.105
1643931228.985,-283.691,-396.973,-220.215,212.891
1643931228.988,207.031,-576.172,-253.418,253.418
1643931228.992,604.980,26.855,41.504,232.422
1643931228.996,206.055,415.527,143.555,136.719
1643931229.000,-316.406,-327.148,-164.551,128.418
1643931229.004,-22.461,-658.203,-302.246,192.383
1643931229.006,497.070,61.035,10.254,220.215
1643931229.010,298.340,441.895,139.648,148.438
1643931229.014,-283.691,-356.445,-213.867,129.883
1643931229.018,-214.355,-580.566,-240.723,165.527
1643931229.022,394.043,286.621,108.887,170.898
1643931229.026,411.621,182.617,25.879,125.000
1643931229.030,-175.781,-603.516,-273.926,125.977
1643931229.033,-362.793,-585.449,-224.609,187.500
1643931229.037,176.758,274.902,123.047,180.176
1643931229.041,405.273,256.348,17.578,140.625
1643931229.045,-56.641,-58.594,-32.715,114.258
1643931229.049,-377.930,112.305,77.148,185.547
1643931229.052,11.230,380.371,117.676,194.824
1643931229.056,351.562,115.234,-25.391,146.484
1643931229.060,61.035,-207.031,-95.215,117.676
1643931229.064,-321.289,84.473,62.012,174.316
1643931229.068,-81.055,312.012,114.746,178.223
1643931229.072,348.145,-124.512,-175.781,148.926
1643931229.076,195.801,-796.387,-402.832,131.348
1643931229.079,-271.973,-282.715,3.418,132.324
1643931229.083,-242.676,355.957,145.996,175.781
1643931229.087,215.332,143.066,-30.273,147.949
1643931229.091,259.277,-228.027,-180.176,83.496
1643931229.095,-183.105,-159.180,-43.457,92.773
1643931229.110,-339.355,314.453,144.043,160.156
1643931229.114,96.680,-160.645,-172.363,154.297
1643931229.118,322.754,-433.105,-232.910,92.773
1643931229.122,-59.570,146.484,74.707,62.988
1643931229.126,-374.512,65.430,24.902,151.855
1643931229.130,-53.223,-559.082,-258.789,190.430
1643931229.134,267.090,-755.859,-322.754,127.930
1643931229.137,39.551,103.027,81.055,57.617
1643931229.141,-334.473,227.539,53.711,161.133
1643931229.145,-174.316,58.105,8.301,194.824
1643931229.149,234.375,187.500,43.945,107.910
1643931229.153,140.625,211.914,39.062,60.059
1643931229.155,-259.766,105.469,21.484,152.832
1643931229.159,-286.621,-42.480,-11.230,226.074
1643931229.163,98.145,193.848,81.543,102.051
1643931229.167,195.312,289.551,58.594,19.043
1643931229.171,-107.422,14.160,-23.438,131.348
1643931229.175,-253.418,-294.922,-176.758,256.348
1643931229.179,36.621,-307.129,-166.992,121.582
1643931229.182,193.359,-5.371,15.625,-34.668
1643931229.186,-88.867,-149.902,-133.301,27.832
1643931229.190,-322.754,-798.828,-366.699,218.750
1643931229.194,-123.535,-539.062,-97.168,129.883
1643931229.198,121.582,30.762,49.805,-54.199
1643931229.200,-25.391,-348.145,-188.965,-28.809
1643931229.204,-276.855,-544.434,-220.703,168.945
1643931229.208,-165.039,298.340,150.879,148.438
1643931229.212,118.164,339.844,57.129,-38.086
1643931229.216,75.195,-74.219,-155.762,-76.660
1643931229.220,-208.496,-229.980,-116.211,116.699
1643931229.224,-248.047,20.508,66.895,202.148
1643931229.227,42.969,292.969,73.242,-5.371
1643931229.231,109.375,-422.852,-286.133,-91.309
1643931229.235,-142.578,-692.871,-237.305,51.270
1643931229.239,-232.910,193.848,163.574,206.543
1643931229.243,18.066,270.508,27.832,83.496
1643931229.246,161.621,-203.613,-164.062,-75.684
1643931229.250,-32.227,-41.016,11.230,-1.953
1643931229.254,-208.984,386.230,167.480,208.008
1643931229.258,-54.199,196.289,11.719,146.484
1643931229.262,156.250,-74.707,-130.859,-59.082
1643931229.266,61.035,-182.129,-140.625,-53.223
1643931229.270,-164.551,18.066,44.434,155.273
1643931229.273,-116.699,-2.441,-47.363,186.523
1643931229.277,112.305,-590.332,-309.082,-25.391
1643931229.281,98.145,-84.961,13.672,-138.184
1643931229.285,-111.328,199.707,78.125,56.152
1643931229.289,-164.551,-315.918,-135.254,198.242
1643931229.290,61.523,-291.016,-107.910,-15.625
1643931229.294,165.527,186.035,62.012,-161.621
1643931229.298,-21.484,404.785,143.555,-6.348
1643931229.302,-145.996,-219.727,-123.535,231.445
1643931229.306,32.227,-633.301,-267.578,89.355
1643931229.310,191.895,-139.160,-43.457,-125.000
1643931229.314,46.875,-14.648,-12.695,-41.504
1643931229.317,-126.465,-467.285,-172.852,211.914
1643931229.321,-1.953,-511.230,-171.875,154.785
1643931229.325,219.727,276.367,122.070,-92.285
1643931229.329,153.809,252.930,36.133,-77.637
1643931229.333,-60.547,88.379,16.602,164.062
1643931229.336,-35.645,297.852,129.395,218.750
1643931229.340,223.145,405.762,118.164,3.418
1643931229.344,250.488,4.395,-80.078,-69.336
1643931229.348,11.719,-310.059,-86.426,116.699
1643931229.352,-60.547,106.934,96.680,240.723
1643931229.356,182.129,113.281,-11.230,62.012
1643931229.360,292.480,-399.414,-295.898,-74.707
1643931229.363,78.125,-688.477,-328.125,56.641
1643931229.367,-59.570,-6.348,60.059,244.629
1643931229.371,165.039,500.977,155.273,130.859
1643931229.375,362.793,-187.500,-178.223,-10.254
1643931229.379,189.453,-488.770,-236.328,32.227
1643931229.396,-49.316,253.418,133.301,206.055
1643931229.400,88.867,458.496,119.141,206.055
1643931229.404,368.164,17.090,-73.242,41.504
1643931229.408,300.781,12.695,-6.836,-6.348
1643931229.412,11.719,277.344,94.238,155.762
1643931229.416,-20.996,151.855,54.199,241.211
1643931229.420,290.039,-514.160,-286.133,109.863
1643931229.423,367.676,-775.391,-387.695,25.879
1643931229.427,68.848,83.496,73.730,91.797
1643931229.431,-39.551,245.605,68.848,266.113
1643931229.435,320.801,85.449,-0.488,230.957
1643931229.439,524.902,256.836,70.801,119.141
1643931229.426,232.910,370.605,123.047,142.090
1643931229.430,-61.035,184.570,30.273,279.785
1643931229.434,172.852,-18.555,-38.086,247.070
1643931229.438,529.297,243.164,78.125,142.578
1643931229.442,458.008,309.570,93.262,218.750
1643931229.446,155.762,-149.902,-87.891,432.129
1643931229.450,267.578,-274.414,-149.902,495.605
1643931229.453,682.129,-44.434,-44.434,408.691
1643931229.457,652.344,59.570,-2.930,353.027
1643931229.461,249.023,-104.492,-96.680,408.691
1643931229.465,157.715,-984.863,-541.016,517.578
1643931229.469,564.453,-652.832,-262.695,435.059
1643931229.486,729.980,263.184,100.586,323.242
1643931229.490,342.285,79.102,-34.668,342.285
1643931229.494,87.891,115.723,25.879,435.059
1643931229.498,437.012,449.707,129.883,387.695
1643931229.502,702.148,363.281,58.594,283.691
1643931229.506,390.137,-125.977,-127.441,283.691
1643931229.510,45.898,-227.539,-69.824,390.625
1643931229.513,268.555,257.812,119.629,374.512
1643931229.517,614.746,376.953,47.852,267.578
1643931229.521,443.848,-342.285,-178.223,235.840
1643931229.525,33.203,-528.320,-84.473,314.453
1643931229.529,105.957,194.336,114.258,345.703
1643931229.531,518.555,244.629,1.953,249.512
1643931229.535,512.695,-192.871,-159.668,168.457
1643931229.539,112.793,-42.969,-0.488,222.168
1643931229.543,-5.859,324.219,142.578,324.219
1643931229.547,385.254,163.086,-11.719,264.160
1643931229.551,559.570,-262.207,-248.047,188.477
1643931229.555,208.008,-194.824,-97.656,208.496
1643931229.558,-49.805,241.211,162.109,310.059
1643931229.562,270.020,-34.180,-113.770,288.574
1643931229.566,556.152,-591.309,-362.305,196.289
1643931229.570,306.152,-303.711,-106.934,164.062
1643931229.574,-56.152,-70.312,-20.020,253.906
1643931229.576,104.004,-475.098,-244.141,280.762
1643931229.580,478.516,-717.285,-329.102,187.012
1643931229.584,373.047,12.207,26.367,79.102
1643931229.588,-50.293,321.289,118.164,145.508
1643931229.592,-66.406,85.938,-37.598,227.539
1643931229.596,357.422,-88.379,-81.543,153.320
1643931229.600,443.359,-10.742,24.902,70.312
1643931229.603,58.105,246.582,84.961,119.629
1643931229.607,-138.184,-372.070,-190.430,245.117
1643931229.611,235.840,-496.094,-188.965,184.570
1643931229.615,480.957,342.773,121.582,72.754
1643931229.619,149.414,242.188,38.574,90.332
1643931229.620,-164.551,58.105,10.254,198.730
1643931229.624,123.535,299.316,101.074,170.410
1643931229.628,464.844,457.520,100.098,81.055
1643931229.632,237.793,66.406,-58.594,53.223
1643931229.636,-166.992,-354.980,-119.141,145.020
1643931229.640,-33.203,-190.430,-31.738,165.039
1643931229.644,380.371,164.062,76.660,53.711
1643931229.647,329.102,-15.625,-69.824,3.418
1643931229.651,-89.355,-577.637,-267.578,102.539
1643931229.655,-135.254,-0.488,42.480,157.715
1643931229.659,291.016,304.199,83.008,83.984
1643931229.663,404.297,-371.094,-230.469,39.551
1643931229.666,21.484,-548.340,-222.168,81.055
1643931229.670,-171.875,220.215,126.953,170.410
1643931229.674,201.172,436.035,100.586,121.094
1643931229.678,452.637,134.766,-42.969,25.879
1643931229.682,161.621,75.195,-26.855,37.109
1643931229.686,-174.805,19.531,6.836,167.480
1643931229.690,56.641,1.465,11.230,149.414
1643931229.693,409.180,-508.301,-283.203,58.105
1643931229.697,222.656,-755.859,-312.988,17.578
1643931229.701,-160.645,143.555,125.977,91.309
1643931229.705,-66.895,305.176,48.828,151.855
1643931229.709,355.469,101.074,-26.367,69.336
1643931229.711,366.699,250.488,78.125,-10.254
1643931229.715,-30.762,376.953,123.047,57.617
1643931229.719,-136.230,152.344,-11.230,166.504
1643931229.723,262.695,8.789,-65.918,85.938
1643931229.727,393.066,209.473,49.316,-8.789
1643931229.731,29.785,6.836,-12.695,32.227
1643931229.735,-185.547,-320.312,-160.645,148.438
1643931229.738,142.090,-559.082,-261.719,110.840
1643931229.742,426.270,-278.809,-100.586,5.371
1643931229.746,177.246,143.066,50.293,-10.254
1643931229.750,-162.598,-189.453,-141.602,125.000
1643931229.754,16.113,-726.562,-338.867,144.043
1643931229.755,400.391,-4.395,26.855,1.953
1643931229.759,305.176,384.766,92.285,-25.391
1643931229.763,-101.562,45.898,-13.672,78.125
1643931229.767,-80.078,130.859,38.086,109.863
1643931229.771,335.449,320.312,65.430,7.324
1643931229.775,371.094,49.316,-81.055,-60.547
1643931229.779,-38.086,-621.582,-342.285,30.762
1643931229.782,-195.801,-585.938,-212.402,128.906
1643931229.786,214.355,270.996,135.742,38.574
1643931229.790,444.824,294.434,18.066,-15.625
1643931229.794,157.227,-80.566,-56.152,81.543
1643931229.798,-83.984,-152.832,-3.418,239.258
1643931229.800,228.027,223.145,93.750,202.637
1643931229.804,556.152,221.680,16.602,118.652
1643931229.808,314.941,-266.113,-159.668,121.094
1643931229.812,-60.547,-33.691,3.418,218.750
1643931229.816,116.699,357.422,118.652,229.980
1643931229.820,508.789,-93.750,-148.438,153.809
1643931229.824,411.621,-395.020,-199.707,109.863
1643931229.827,4.395,63.965,52.246,161.133
1643931229.831,-36.133,335.938,124.512,216.797
1643931229.835,360.840,-40.039,-100.098,135.254
1643931229.839,439.941,-668.457,-380.859,75.195
1643931229.843,48.828,-181.641,-33.691,99.609
1643931229.846,-114.258,392.090,140.625,195.312
1643931229.850,265.137,-257.812,-213.379,187.012
1643931229.854,459.473,-759.277,-375.000,103.027
1643931229.858,144.531,21.484,62.500,75.195
1643931229.862,-155.273,302.246,85.449,180.664
1643931229.866,82.031,-144.531,-129.883,162.598
1643931229.870,405.762,-157.715,-46.875,61.035
1643931229.873,220.703,270.996,109.375,32.715
1643931229.877,-162.109,332.031,74.707,142.090
1643931229.881,-77.637,-252.441,-97.656,183.594
1643931229.885,315.918,-250.977,-46.875,72.266
1643931229.889,310.547,309.082,92.773,13.184
1643931229.905,-87.402,125.488,-1.465,94.238
1643931229.909,-160.156,-45.898,-43.457,178.711
1643931229.913,256.348,231.445,89.844,97.656
1643931229.917,367.188,332.520,82.031,-11.719
1643931229.921,-41.504,-112.305,-98.633,27.832
1643931229.925,-296.387,-644.531,-279.785,156.738
1643931229.929,74.219,-257.324,-70.801,105.469
1643931229.932,370.605,384.277,146.973,7.812
1643931229.936,88.867,-99.121,-143.555,32.715
1643931229.940,-248.535,-541.504,-249.512,148.926
1643931229.944,-14.648,-154.785,0.488,132.812
1643931229.948,370.605,174.805,77.148,42.969
1643931229.950,225.098,-233.887,-180.176,32.227
1643931229.954,-196.289,-676.270,-288.086,130.371
1643931229.958,-138.184,107.910,126.465,147.949
1643931229.962,311.035,360.352,91.309,66.895
1643931229.966,332.520,-8.789,-104.980,7.324
1643931229.970,-95.215,-275.879,-201.172,66.895
1643931229.974,-224.121,-246.582,-115.234,162.109
1643931229.977,188.477,-11.230,-10.742,80.078
1643931229.981,353.516,-503.906,-334.961,1.465
1643931229.985,-17.578,-729.492,-289.551,24.414
1643931229.989,-254.395,124.512,103.027,120.117
1643931229.993,91.309,89.355,-26.367,110.840
1643931229.996,388.672,-30.762,-25.879,8.301
1643931230.000,126.953,226.562,75.684,-22.949
1643931230.004,-222.168,373.047,118.652,82.520
1643931230.008,-28.809,183.594,7.812,109.375
1643931230.012,352.051,-13.672,-68.848,22.461
1643931230.016,237.793,-118.164,-91.309,-24.902
1643931230.020,-183.594,0.000,28.809,48.340
1643931230.023,-171.387,-21.484,-31.738,113.770
1643931230.027,244.629,-507.812,-269.531,48.828
1643931230.031,302.246,-222.656,-48.340,-40.039
1643931230.035,-85.449,5.371,47.852,8.301
1643931230.039,-242.676,-362.793,-164.551,129.395
1643931230.041,144.531,-665.039,-295.410,88.379
1643931230.045,364.258,33.691,42.969,-23.926
1643931230.049,58.105,391.602,112.793,-10.254
1643931230.053,-241.211,123.535,7.324,114.258
1643931230.057,58.594,196.777,35.645,98.145
1643931230.061,402.832,139.160,18.066,21.973
1643931230.065,159.180,-19.043,-9.277,-14.648
1643931230.068,-258.789,-516.602,-223.145,79.590
1643931230.072,-121.582,-508.301,-183.105,99.121
1643931230.076,326.660,365.234,132.324,-13.184
1643931230.080,288.574,305.664,28.809,-45.898
1643931230.084,-125.488,-54.688,-46.875,48.340
1643931230.086,-165.527,-71.289,13.672,137.695
1643931230.090,277.344,313.477,130.371,75.195
1643931230.094,388.672,233.398,-18.066,16.602
1643931230.098,-24.902,-248.535,-102.051,58.594
1643931230.102,-230.957,-15.137,38.086,142.578
1643931230.106,167.969,104.980,10.742,112.305
1643931230.110,419.922,-236.816,-176.270,36.621
1643931230.113,82.031,-534.668,-269.043,34.668
1643931230.117,-243.652,-51.270,7.812,137.695
1643931230.121,39.062,486.816,170.898,143.555
1643931230.125,406.250,-58.105,-128.418,95.215
1643931230.129,220.703,-553.711,-271.973,62.988
1643931230.130,-175.293,119.629,105.957,113.281
1643931230.134,-62.500,436.035,109.863,165.039
1643931230.138,389.160,-97.168,-98.145,151.855
1643931230.142,391.602,-202.148,-45.410,120.117
1643931230.146,-10.254,207.031,84.473,163.574
1643931230.150,-101.562,123.047,42.969,258.301
1643931230.154,307.129,-515.625,-256.348,223.145
1643931230.157,452.148,-771.484,-373.047,143.555
1643931230.161,88.867,76.660,68.848,130.859
1643931230.165,-140.137,284.668,57.617,238.281
1643931230.169,210.449,91.309,-25.879,208.496
1643931230.173,486.816,201.660,43.457,111.328
1643931230.176,194.824,321.289,85.449,96.191
1643931230.180,-153.809,165.039,24.414,207.520
1643931230.184,67.383,7.812,-32.227,222.168
1643931230.188,451.660,274.414,78.125,130.859
1643931230.192,329.102,317.871,79.590,85.938
1643931230.196,-93.262,-133.789,-107.422,172.363
1643931230.200,-86.426,-606.445,-270.508,223.145
1643931230.203,345.215,-284.180,-35.645,119.141
1643931230.207,394.531,284.668,143.066,48.340
1643931230.211,-35.156,-98.145,-112.305,117.188
1643931230.215,-202.148,-670.898,-318.848,205.566
1643931230.219,217.285,-90.820,11.719,120.605
1643931230.235,427.734,385.742,117.188,35.156
1643931230.239,47.363,-121.582,-93.750,53.711
1643931230.243,-240.723,-242.188,-81.055,151.367
1643931230.247,119.629,286.621,100.586,130.371
1643931230.251,465.332,386.719,77.637,66.406
1643931230.255,194.336,-428.711,-308.105,72.754
1643931230.259,-195.801,-703.125,-301.758,157.227
1643931230.262,9.277,25.391,54.199,166.504
1643931230.266,439.941,130.859,7.812,116.699
1643931230.270,352.539,-482.422,-252.930,83.008
1643931230.274,-80.566,-489.258,-165.527,132.812
1643931230.278,-67.871,333.984,130.859,191.406
1643931230.280,384.766,280.273,10.254,144.531
1643931230.284,457.520,61.523,-37.109,71.777
1643931230.288,32.715,158.691,59.082,85.938
1643931230.292,-158.691,319.336,85.938,172.363
1643931230.296,239.746,151.367,-24.414,146.484
1643931230.300,477.539,-248.047,-231.445,85.449
1643931230.304,133.301,-209.473,-134.766,74.219
1643931230.307,-202.637,218.262,121.094,140.625
1643931230.311,95.215,-12.207,-94.238,146.484
1643931230.315,456.543,-594.238,-318.359,85.938
1643931230.319,244.141,-315.430,-94.727,41.016
1643931230.323,-157.715,-114.746,-60.059,123.047
1643931230.326,-27.832,-483.887,-267.090,181.641
1643931230.330,389.648,-709.473,-319.824,119.141
1643931230.334,349.121,-37.109,16.602,41.016
1643931230.338,-81.055,264.648,98.633,85.938
1643931230.342,-164.062,75.195,-8.789,160.645
1643931230.346,280.762,-91.797,-65.430,120.605
1643931230.350,423.340,0.488,13.672,48.340
1643931230.353,5.371,241.699,88.867,41.504
1643931230.357,-265.625,-408.691,-203.125,158.203
1643931230.361,112.793,-495.117,-183.594,142.090
1643931230.365,426.270,375.488,127.441,43.945
1643931230.369,115.723,260.742,34.668,47.363
