timestamps,TP9,AF7,AF8,TP10
1628438416.265,-42.480,25.879,-23.438,-44.434
1628438416.269,-35.156,-280.273,-19.531,-30.273
1628438416.273,40.039,-75.195,-22.949,7.812
1628438416.277,36.621,443.848,-42.969,-2.930
1628438416.281,-27.344,160.645,-46.387,-48.340
1628438416.285,-53.223,-339.355,-26.855,-44.434
1628438416.288,-1.465,-116.699,-22.461,6.836
1628438416.292,16.602,439.453,-16.602,8.789
1628438416.296,-43.457,123.535,-30.762,-45.410
1628438416.300,-74.219,-608.398,-43.945,-67.871
1628438416.304,-32.227,-234.375,-32.227,-26.367
1628438416.308,8.789,553.711,-27.344,6.836
1628438416.322,-22.949,148.926,-25.391,-23.438
1628438416.326,-66.895,-444.824,-30.762,-54.199
1628438416.330,-45.898,-363.281,-38.574,-35.645
1628438416.334,1.465,197.754,-28.320,9.277
1628438416.338,-6.836,167.480,-24.414,-9.766
1628438416.342,-39.551,-898.926,-30.762,-51.270
1628438416.345,-53.711,-735.352,-24.902,-49.316
1628438416.349,4.883,417.480,-17.090,3.418
1628438416.353,27.832,219.727,-7.812,24.414
1628438416.357,-28.320,-190.430,-16.113,-28.320
1628438416.361,-39.551,95.703,-26.855,-40.527
1628438416.365,5.859,371.582,-19.043,6.348
1628438416.366,37.109,338.379,-23.926,23.438
1628438416.370,-2.441,52.734,-33.691,-31.250
1628438416.374,-46.387,46.387,-28.320,-58.105
1628438416.378,-22.949,200.684,-31.738,-18.555
1628438416.382,20.020,142.090,-27.832,32.227
1628438416.386,12.695,-209.473,-29.785,17.578
1628438416.389,-35.156,-286.133,-37.109,-33.691
1628438416.393,-41.016,150.391,-16.113,-27.832
1628438416.397,9.277,-349.121,0.488,21.484
1628438416.401,-2.930,-597.656,-6.836,6.348
1628438416.405,-45.410,128.906,-11.230,-41.992
1628438416.409,-58.594,36.133,0.488,-36.133
1628438416.412,-33.203,115.234,11.719,0.488
1628438416.416,-9.766,417.480,-0.977,18.066
1628438416.420,-37.109,15.625,-5.859,-18.066
1628438416.424,-55.176,-501.465,12.207,-42.480
1628438416.428,-22.461,-447.266,21.973,7.812
1628438416.432,5.371,-96.191,20.020,32.715
1628438416.435,-27.832,-107.910,22.949,-4.883
1628438416.439,-72.754,-541.992,27.344,-29.785
1628438416.443,-57.617,-536.621,33.691,4.395
1628438416.447,-1.953,416.504,24.414,35.156
1628438416.451,-29.785,473.633,13.672,5.859
1628438416.455,-60.059,-373.047,11.230,-16.602
1628438416.472,-11.230,-231.934,9.277,9.766
1628438416.476,11.719,557.129,11.719,45.898
1628438416.480,4.883,621.094,14.160,35.156
1628438416.484,-29.297,-358.398,6.836,-6.836
1628438416.488,-64.453,-685.547,-11.230,-20.020
1628438416.492,-22.461,56.152,-12.207,19.531
1628438416.495,-7.324,187.012,-6.836,29.785
1628438416.499,-50.293,-479.980,-10.254,-14.648
1628438416.503,-66.895,-527.832,-12.695,-39.062
1628438416.507,-28.320,180.176,-10.254,0.000
1628438416.511,7.324,204.102,-13.184,48.828
1628438416.515,-20.996,-135.254,-19.043,14.160
1628438416.502,-41.016,-83.496,-25.879,-37.598
1628438416.506,-2.441,390.625,-32.227,-7.324
1628438416.510,35.156,294.434,-24.902,39.062
1628438416.514,6.836,-138.184,-18.555,8.789
1628438416.518,-49.316,-27.344,-17.578,-34.668
1628438416.522,-47.852,-8.789,-19.531,-13.672
1628438416.525,-2.441,-127.441,-16.113,41.992
1628438416.529,-14.160,-23.926,-4.883,37.598
1628438416.533,-60.547,131.836,-7.812,-13.672
1628438416.537,-58.594,225.586,-17.090,-15.625
1628438416.541,-1.465,-22.949,-20.996,43.457
1628438416.545,20.508,-622.070,-23.438,54.688
1628438416.550,-3.906,-272.461,-21.973,-11.230
1628438416.554,-15.625,132.324,-27.832,-34.180
1628438416.558,18.066,-130.859,-25.391,12.207
1628438416.562,35.645,91.797,-11.719,43.457
1628438416.566,-32.227,314.941,-21.973,2.441
1628438416.570,-93.750,-99.121,-29.297,-41.016
1628438416.573,-31.738,-645.508,-13.672,8.789
1628438416.577,27.832,-255.859,-9.277,52.734
1628438416.581,-27.832,483.887,-15.625,3.418
1628438416.585,-53.711,52.734,-28.320,-24.902
1628438416.589,-54.688,-120.117,-34.180,-27.344
1628438416.593,-54.199,368.652,-20.508,-34.180
1628438416.607,-56.641,557.129,-18.555,-59.082
1628438416.611,-105.469,20.996,-16.113,-108.398
1628438416.615,-133.789,-474.609,0.488,-124.512
1628438416.619,-87.891,-193.848,12.207,-95.215
1628438416.623,-66.895,226.562,12.695,-96.191
1628438416.627,-141.602,-142.090,11.719,-155.762
1628438416.630,-199.219,-1000.000,4.883,-198.242
1628438416.634,-168.945,-617.676,11.230,-183.105
1628438416.638,-129.883,531.738,17.578,-175.781
1628438416.642,-177.246,284.180,-0.488,-230.957
1628438416.646,-240.723,-56.641,-20.020,-268.555
1628438416.650,-225.098,275.391,-1.465,-241.699
1628438416.639,-171.387,555.176,18.066,-200.195
1628438416.643,-195.312,347.168,13.672,-216.797
1628438416.647,-232.910,83.984,-3.906,-251.953
1628438416.651,-219.727,269.043,-32.227,-244.141
1628438416.655,-161.621,516.113,-27.832,-185.547
1628438416.659,-124.512,243.164,-30.273,-161.621
1628438416.662,-150.879,-230.469,-45.410,-192.383
1628438416.666,-171.387,-206.055,-40.527,-183.105
1628438416.670,-121.582,355.469,-40.039,-137.695
1628438416.674,-67.383,-158.203,-55.176,-102.539
1628438416.678,-96.680,-499.512,-65.430,-132.812
1628438416.682,-111.328,310.059,-83.008,-160.156
1628438416.697,-68.848,377.930,-92.773,-105.469
1628438416.701,-25.391,440.430,-97.656,-65.918
1628438416.705,-24.902,320.312,-97.168,-67.871
1628438416.709,-18.066,197.754,-103.516,-66.406
1628438416.713,-11.719,284.668,-104.492,-58.105
1628438416.717,39.062,-283.203,-84.961,2.930
1628438416.720,62.012,24.414,-81.543,0.000
1628438416.724,-10.254,399.902,-84.961,-66.895
1628438416.728,-14.160,-168.457,-91.797,-46.387
1628438416.732,35.645,151.855,-98.145,12.207
1628438416.736,32.227,808.594,-99.121,10.742
1628438416.740,-5.859,633.789,-91.797,-25.391
1628438416.742,-22.461,-210.449,-89.355,-31.250
1628438416.746,8.789,-206.543,-88.867,13.184
1628438416.750,59.082,751.953,-102.539,42.969
1628438416.754,44.922,613.281,-109.863,9.766
1628438416.758,4.883,55.664,-92.285,-18.066
1628438416.762,26.367,-8.301,-78.125,21.484
1628438416.765,52.246,371.094,-75.684,61.523
1628438416.769,24.902,496.094,-81.543,37.598
1628438416.773,-8.301,-360.352,-70.312,10.742
1628438416.777,-14.648,-445.312,-65.918,13.672
1628438416.781,49.805,419.434,-62.500,61.035
1628438416.785,69.824,417.969,-51.758,55.176
1628438416.787,1.953,-94.238,-75.195,-21.973
1628438416.791,-18.555,57.129,-89.355,-33.691
1628438416.795,9.766,393.555,-78.613,19.043
1628438416.799,36.133,184.082,-75.684,43.945
1628438416.803,3.418,-292.480,-65.918,11.230
1628438416.807,-36.133,-366.699,-72.754,-20.996
1628438416.810,6.836,261.230,-83.008,16.113
1628438416.814,58.594,329.102,-68.359,65.430
1628438416.818,25.879,-346.191,-65.918,24.902
1628438416.822,-20.020,-19.531,-67.383,-35.156
1628438416.826,11.719,449.707,-52.246,5.371
1628438416.830,61.523,286.133,-47.363,52.734
1628438416.834,20.508,-23.438,-81.543,8.301
1628438416.838,-16.113,15.625,-83.984,-25.879
1628438416.842,-8.789,265.625,-57.129,-3.418
1628438416.846,12.695,158.203,-54.688,38.086
1628438416.850,28.809,147.461,-55.176,40.527
1628438416.854,-14.648,35.645,-58.594,-4.395
1628438416.857,-39.551,-109.863,-52.734,-29.297
1628438416.861,10.742,-342.773,-41.016,21.484
1628438416.865,50.781,-129.883,-52.246,43.945
1628438416.869,-0.488,440.918,-66.895,-18.555
1628438416.873,-35.645,90.820,-72.754,-40.039
1628438416.877,-28.320,106.934,-68.848,5.371
1628438416.877,-4.883,572.754,-62.500,34.180
1628438416.881,5.859,581.543,-73.730,5.859
1628438416.885,-39.551,-70.312,-77.637,-35.156
1628438416.889,-55.664,-542.480,-73.242,-45.410
1628438416.893,-17.578,53.223,-82.031,-12.207
1628438416.897,-7.324,224.121,-79.590,-13.672
1628438416.900,-46.387,-289.551,-64.453,-56.641
1628438416.904,-62.988,-955.566,-62.988,-41.992
1628438416.908,-13.184,-275.391,-55.664,4.395
1628438416.912,1.465,711.426,-57.617,-1.465
1628438416.916,-32.227,175.781,-62.500,-39.551
1628438416.920,-51.270,-5.371,-45.898,-42.969
1628438416.924,-18.066,478.027,-47.363,0.000
1628438416.928,23.926,663.574,-62.012,22.949
1628438416.932,-10.254,222.656,-70.801,-24.902
1628438416.936,-45.410,2.930,-57.129,-53.223
1628438416.940,-28.320,262.207,-55.664,-19.043
1628438416.944,15.137,361.816,-61.523,15.137
1628438416.947,-6.348,-377.930,-63.965,-13.672
1628438416.951,-54.688,-726.562,-75.684,-59.570
1628438416.955,-41.016,187.988,-57.129,-44.922
1628438416.959,6.348,479.004,-36.621,5.859
1628438416.963,8.301,176.758,-33.691,0.488
1628438416.967,-43.457,105.469,-43.945,-48.340
1628438416.967,-66.406,238.281,-55.176,-54.199
1628438416.971,-9.277,366.699,-45.410,-2.441
1628438416.975,10.742,106.445,-48.828,4.395
1628438416.979,-32.715,-81.055,-51.270,-50.293
1628438416.983,-42.480,134.766,-44.922,-64.453
1628438416.987,-15.137,43.457,-51.270,-23.926
1628438416.990,12.207,-740.723,-56.152,9.766
1628438416.994,-16.113,-602.051,-51.758,-29.297
1628438416.998,-62.500,-15.625,-44.434,-63.965
1628438417.002,-45.898,-343.750,-38.574,-16.113
1628438417.006,4.395,-51.270,-42.969,16.602
1628438417.010,8.789,467.285,-30.273,-17.090
1628438417.014,-37.598,193.359,-32.227,-48.828
1628438417.018,-47.363,-69.824,-44.434,-41.992
1628438417.022,8.789,282.715,-37.598,5.859
1628438417.026,30.273,538.574,-26.855,7.812
1628438417.030,-6.836,197.754,-29.785,-45.410
1628438417.034,-48.340,-350.586,-48.340,-59.570
1628438417.037,-25.879,-125.488,-49.316,-19.531
1628438417.041,1.465,490.723,-48.828,-4.883
1628438417.045,-35.645,251.465,-51.270,-45.410
1628438417.049,-80.078,-543.945,-47.852,-66.406
1628438417.053,-61.523,-313.965,-44.434,-30.762
1628438417.057,-10.742,317.871,-33.203,2.441
1628438417.072,-12.207,46.387,-28.809,-36.133
1628438417.076,-58.105,-379.883,-39.062,-72.754
1628438417.080,-64.453,-286.133,-48.340,-55.664
1628438417.084,-4.395,243.164,-53.223,-26.855
1628438417.088,7.324,232.910,-50.293,-31.250
1628438417.092,-38.574,-689.941,-42.480,-45.898
1628438417.095,-72.266,-587.402,-33.691,-59.570
1628438417.099,-38.574,384.766,-32.227,-33.203
1628438417.103,0.000,135.254,-37.109,-8.301
1628438417.107,-29.785,-566.895,-41.504,-43.457
1628438417.111,-51.758,-58.105,-42.969,-49.805
1628438417.115,0.977,408.691,-37.109,15.137
1628438417.117,40.039,310.547,-37.598,41.016
1628438417.121,2.441,-124.023,-51.758,-6.348
1628438417.125,-25.879,-203.613,-53.223,-29.297
1628438417.129,9.766,206.055,-48.828,10.254
1628438417.133,67.383,43.945,-58.105,60.547
1628438417.137,63.965,-451.660,-62.012,39.551
1628438417.140,27.832,-319.824,-43.457,7.812
1628438417.144,21.484,129.395,-36.133,38.574
1628438417.148,67.871,-278.809,-41.016,87.402
1628438417.152,97.656,-371.582,-35.156,61.523
1628438417.156,57.129,125.488,-34.180,7.324
1628438417.160,31.738,-63.477,-27.832,24.414
1628438417.162,57.129,53.223,-20.020,74.707
1628438417.166,71.777,405.762,-25.391,69.824
1628438417.170,32.227,29.297,-20.020,20.020
1628438417.174,4.395,-548.828,-13.672,10.254
1628438417.178,39.062,-682.129,-21.484,57.129
1628438417.182,60.059,-264.648,-26.855,70.312
1628438417.185,21.484,-137.695,-25.391,20.020
1628438417.189,-1.953,-584.961,-21.484,-6.348
1628438417.193,39.062,-816.895,-19.531,23.438
1628438417.197,75.195,28.320,-18.066,49.805
1628438417.201,44.922,402.344,-17.578,26.855
1628438417.205,6.348,-190.918,-20.996,-0.488
1628438417.207,0.488,-160.645,-19.043,9.277
1628438417.211,44.922,387.207,-20.996,38.086
1628438417.215,64.453,329.102,-31.738,22.949
1628438417.219,13.672,-195.312,-35.156,-14.160
1628438417.223,-22.949,-242.188,-32.715,-6.348
1628438417.227,1.953,-70.312,-32.227,44.434
1628438417.230,39.551,-45.410,-22.461,55.664
1628438417.234,29.297,-613.770,-15.625,9.277
1628438417.238,-9.277,-811.523,-29.297,-27.344
1628438417.242,16.113,135.742,-30.273,-1.465
1628438417.246,54.688,374.023,-30.273,43.945
1628438417.250,34.668,-57.617,-31.250,20.508
1628438417.252,-9.277,-98.145,-33.691,-19.531
1628438417.256,1.953,217.285,-28.320,-1.953
1628438417.260,50.293,122.070,-22.949,38.086
1628438417.264,38.574,-496.094,-33.203,15.137
1628438417.268,-7.812,-355.957,-35.645,-29.785
1628438417.272,-11.719,-104.492,-33.203,-20.508
1628438417.275,32.715,-246.582,-33.691,39.551
1628438417.279,34.668,-484.375,-26.367,41.016
1628438417.283,-20.020,-217.285,-20.996,-18.066
1628438417.287,-34.180,-45.410,-25.879,-28.809
1628438417.291,5.859,-340.332,-22.461,17.090
1628438417.295,26.367,-186.523,-14.160,35.645
1628438417.299,-22.949,180.664,-17.578,-13.672
1628438417.303,-42.480,-5.859,-21.973,-34.668
1628438417.307,2.930,-86.426,-25.391,4.395
1628438417.311,33.691,291.504,-19.531,30.273
1628438417.315,7.324,265.137,-28.809,-10.742
1628438417.319,-25.879,-213.867,-36.133,-36.133
1628438417.322,-20.508,-745.605,-23.438,0.488
1628438417.326,20.020,-382.812,-17.090,40.527
1628438417.330,34.180,399.902,-15.625,20.020
1628438417.334,-8.301,4.883,-10.742,-21.973
1628438417.338,-27.344,-180.664,-25.879,-17.578
1628438417.342,15.625,155.762,-37.598,18.555
1628438417.345,17.578,221.680,-33.203,12.695
1628438417.349,-37.109,-57.129,-29.785,-30.762
1628438417.353,-46.387,-647.461,-24.414,-36.133
1628438417.357,4.883,-230.469,-17.090,4.395
1628438417.361,35.645,462.891,-18.555,26.855
1628438417.365,6.836,-101.074,-25.879,-8.789
1628438417.368,-27.344,-1000.000,-36.133,-34.668
1628438417.372,-5.371,-503.418,-32.227,-11.230
1628438417.376,47.363,499.512,-23.926,27.832
1628438417.380,18.066,130.859,-24.414,7.324
1628438417.384,-44.434,-187.012,-26.855,-47.363
1628438417.388,-37.598,175.293,-29.297,-32.227
1628438417.388,12.695,481.445,-20.508,25.879
1628438417.392,16.113,212.891,-21.973,20.996
1628438417.396,-18.066,-268.066,-30.762,-24.902
1628438417.400,-25.879,-149.414,-25.391,-25.879
1628438417.404,11.230,436.523,-33.203,14.160
1628438417.408,26.855,-203.125,-33.203,32.715
1628438417.411,-38.086,-846.191,-38.086,-17.090
1628438417.415,-60.547,-89.844,-46.387,-51.270
1628438417.419,3.906,239.746,-45.898,2.930
1628438417.423,35.156,153.809,-57.129,36.621
1628438417.427,-1.465,105.469,-43.945,-8.301
1628438417.431,-39.062,57.129,-26.367,-33.203
1628438417.447,-18.066,31.250,-30.762,0.000
1628438417.451,22.461,130.859,-28.320,40.527
1628438417.455,3.906,-22.461,-24.414,11.230
1628438417.459,-35.156,-179.199,-24.414,-33.203
1628438417.463,-38.574,-129.395,-27.344,-13.184
1628438417.467,-5.371,-470.215,-23.926,36.133
1628438417.470,12.207,-320.312,-18.066,21.973
1628438417.474,-11.230,30.273,-34.668,-21.484
1628438417.478,-15.625,-228.516,-34.668,-15.625
1628438417.482,5.859,-629.395,-26.855,13.184
1628438417.486,-1.465,149.902,-23.438,6.836
1628438417.490,-28.809,423.340,-14.160,-32.715
1628438417.492,-36.133,-110.352,-8.301,-38.086
1628438417.496,-26.855,85.938,-4.395,2.441
1628438417.500,1.953,569.824,7.324,35.156
1628438417.504,-6.348,388.184,1.465,-2.441
1628438417.508,-37.598,-109.375,-0.488,-41.016
1628438417.512,-32.715,-216.309,19.531,4.395
1628438417.515,-1.953,78.125,19.531,54.688
1628438417.519,-13.672,128.418,5.859,15.625
1628438417.523,-71.777,-648.926,14.160,-17.090
1628438417.527,-64.453,-712.891,25.391,9.277
1628438417.531,-15.137,453.613,21.484,43.945
1628438417.535,6.348,481.445,16.113,39.551
1628438417.537,-14.648,-52.246,14.160,0.000
1628438417.541,-45.410,108.398,12.207,-5.371
1628438417.545,-20.020,278.320,8.301,31.738
1628438417.549,9.277,153.809,13.184,50.293
1628438417.553,-38.086,-359.863,12.695,11.230
1628438417.557,-78.125,-433.105,2.441,-17.090
1628438417.560,-40.039,55.176,-3.418,20.020
1628438417.564,-0.488,84.961,-12.207,45.410
1628438417.568,-14.160,-409.180,-16.602,1.465
1628438417.572,-41.016,-115.234,-5.371,-34.668
1628438417.576,-52.734,171.875,-0.977,0.000
1628438417.580,-13.184,-81.055,-20.508,47.852
1628438417.582,8.301,-50.293,-24.902,12.695
1628438417.586,-35.156,235.352,-14.160,-45.410
1628438417.590,-36.133,180.664,-5.859,-31.738
1628438417.594,-1.465,240.723,-2.930,15.137
1628438417.598,-8.789,353.516,-16.602,13.672
1628438417.602,-47.363,-60.059,-25.391,-24.414
1628438417.605,-67.383,-227.539,-18.066,-36.621
1628438417.609,-24.902,-480.957,-16.113,11.230
1628438417.613,-15.137,-269.531,-23.438,27.344
1628438417.617,-30.762,345.703,-32.227,-35.156
1628438417.621,-26.855,18.555,-34.668,-54.688
1628438417.625,-14.160,-6.836,-27.344,-15.625
1628438417.628,26.367,311.523,-26.855,12.695
1628438417.632,-9.766,187.500,-16.602,-8.789
1628438417.636,-60.059,-194.824,-20.508,-44.434
1628438417.640,-38.574,-738.281,-41.504,-26.855
1628438417.644,-11.719,-178.223,-36.621,14.160
1628438417.648,-21.973,305.664,-31.250,0.977
1628438417.651,-72.754,-340.332,-29.297,-38.574
1628438417.655,-93.750,-656.250,-17.578,-26.855
1628438417.659,-27.832,218.262,-5.859,4.395
1628438417.663,12.207,679.199,-19.531,-0.488
1628438417.667,-22.461,51.270,-22.461,-48.340
1628438417.671,-60.547,-97.168,-12.695,-69.824
1628438417.674,-42.969,421.387,-8.301,-33.203
1628438417.678,6.836,607.910,-13.672,11.719
1628438417.682,-20.996,125.000,-21.973,-37.598
1628438417.686,-81.055,-285.645,-16.602,-109.863
1628438417.690,-64.453,-23.438,6.348,-90.332
1628438417.694,-57.617,265.625,7.812,-77.148
1628438417.697,-122.070,-428.711,6.348,-120.117
1628438417.701,-182.617,-836.426,12.695,-182.617
1628438417.705,-186.035,-10.254,9.766,-204.590
1628438417.709,-168.945,428.223,15.137,-172.363
1628438417.713,-171.387,185.547,25.391,-190.918
1628438417.717,-206.055,-20.020,7.812,-253.906
1628438417.717,-239.746,131.348,13.672,-263.672
1628438417.721,-192.871,305.176,28.809,-220.215
1628438417.725,-173.340,76.660,-3.906,-218.750
1628438417.729,-225.586,-54.688,2.441,-260.254
1628438417.733,-250.488,90.332,18.066,-270.508
1628438417.737,-224.121,-8.789,-8.789,-227.539
1628438417.740,-173.828,-707.031,-32.227,-182.129
1628438417.744,-190.430,-767.578,-26.855,-227.539
1628438417.748,-211.426,138.672,-37.109,-263.184
1628438417.752,-154.297,-11.719,-41.992,-183.105
1628438417.756,-104.004,2.441,-32.715,-131.348
1628438417.760,-116.699,597.168,-59.082,-159.668
1628438417.763,-126.465,429.199,-57.129,-171.387
1628438417.767,-85.938,215.332,-85.938,-155.273
1628438417.771,-28.809,562.500,-110.840,-103.516
1628438417.775,-5.859,781.738,-81.543,-95.703
1628438417.779,-51.270,469.238,-80.078,-116.699
1628438417.783,-76.660,-24.414,-98.145,-79.102
1628438417.786,-31.250,185.547,-94.727,-40.527
1628438417.790,7.324,723.145,-86.914,-20.020
1628438417.794,-0.488,496.094,-105.469,-44.922
1628438417.798,-37.598,-536.133,-104.980,-69.824
1628438417.802,-7.324,-445.312,-113.770,-21.973
1628438417.806,54.199,757.324,-112.793,22.949
1628438417.822,21.973,488.770,-82.520,-12.695
1628438417.826,-35.156,-9.277,-87.891,-53.711
1628438417.830,-9.766,68.359,-88.867,-14.648
1628438417.834,49.805,496.582,-71.289,46.875
1628438417.838,44.434,476.562,-64.453,44.434
1628438417.842,6.836,-561.035,-69.824,8.789
1628438417.845,5.859,-354.980,-71.289,5.859
1628438417.849,33.691,701.660,-71.777,45.898
1628438417.853,46.875,369.141,-79.102,58.105
1628438417.857,26.855,-355.957,-92.285,8.301
1628438417.861,-5.859,86.426,-74.219,-14.648
1628438417.865,35.156,367.188,-64.941,33.203
1628438417.867,79.590,59.082,-75.195,64.453
1628438417.871,57.129,-52.246,-69.336,32.227
1628438417.875,22.461,278.809,-51.758,4.395
1628438417.879,30.762,387.207,-47.852,26.855
1628438417.883,63.965,403.809,-53.223,63.965
1628438417.887,31.250,77.637,-45.410,34.668
1628438417.890,-18.555,-28.809,-62.012,-10.742
1628438417.894,4.395,328.125,-70.801,9.277
1628438417.898,71.289,-112.305,-53.711,62.500
1628438417.902,56.641,-181.641,-52.734,49.316
1628438417.906,8.301,351.562,-53.711,-0.977
1628438417.910,20.508,121.094,-56.641,7.324
1628438417.913,73.242,187.500,-43.945,60.547
1628438417.917,79.590,405.273,-41.504,56.641
1628438417.921,39.551,27.344,-44.922,20.508
1628438417.925,7.324,-274.902,-41.504,8.789
1628438417.929,20.020,-562.500,-41.992,44.434
1628438417.933,52.246,-300.781,-41.992,68.359
1628438417.936,25.391,70.801,-39.062,23.926
1628438417.940,-12.207,-328.613,-50.781,0.488
1628438417.944,-2.930,-491.211,-55.664,17.090
1628438417.948,45.410,432.129,-44.434,41.016
1628438417.952,41.016,666.504,-50.293,13.672
1628438417.956,-12.695,30.762,-60.547,-31.250
1628438417.957,-16.602,73.730,-67.871,-9.766
1628438417.961,29.785,621.582,-59.082,39.551
1628438417.965,26.855,604.492,-49.805,28.809
1628438417.969,-10.742,14.648,-48.828,-13.184
1628438417.973,-3.418,-257.324,-32.227,-13.672
1628438417.977,20.020,-5.371,-30.273,19.531
1628438417.980,27.832,248.047,-48.340,19.531
1628438417.984,-6.348,-438.965,-56.152,-19.531
1628438417.988,-39.062,-791.504,-49.805,-26.367
1628438417.992,-3.418,261.719,-42.480,8.301
1628438417.996,12.695,583.008,-54.688,7.324
1628438418.000,-32.715,144.531,-62.500,-54.688
1628438418.002,-59.570,67.383,-50.781,-77.637
1628438418.006,-38.086,315.918,-44.434,-40.039
1628438418.010,-4.883,229.492,-62.012,-4.883
1628438418.014,0.488,-270.508,-60.547,-14.160
1628438418.018,-19.043,-144.531,-44.434,-46.875
1628438418.022,-47.852,-12.207,-57.617,-47.363
1628438418.025,-19.531,-124.023,-65.430,-2.930
1628438418.029,-1.465,-644.043,-52.734,-1.953
1628438418.033,-39.551,-414.551,-49.805,-63.477
1628438418.037,-53.223,239.746,-46.387,-74.707
1628438418.041,-25.879,176.758,-48.340,-24.902
1628438418.045,1.953,322.754,-33.691,3.906
1628438418.049,-19.043,373.047,-23.926,-25.391
1628438418.053,-52.734,145.020,-36.133,-49.805
1628438418.057,-25.391,96.680,-26.855,-10.254
1628438418.061,21.973,357.910,-15.137,27.832
1628438418.065,3.906,292.969,-23.438,-8.789
1628438418.069,-39.062,-125.000,-32.715,-46.875
1628438418.072,-39.551,-668.945,-31.250,-17.578
1628438418.076,6.836,-348.633,-22.461,36.133
1628438418.080,10.254,450.195,-20.020,7.812
1628438418.084,-30.273,-0.977,-36.621,-48.828
1628438418.088,-47.363,-461.426,-38.574,-42.969
1628438418.092,-20.020,72.266,-29.785,3.418
1628438418.107,-4.883,537.109,-27.344,11.230
1628438418.111,-41.016,62.988,-37.598,-31.738
1628438418.115,-57.129,-488.770,-40.527,-45.410
1628438418.119,-20.508,-65.430,-34.668,-9.277
1628438418.123,16.113,505.371,-27.344,11.230
1628438418.127,-11.719,-60.059,-30.273,-20.508
1628438418.130,-47.852,-1000.000,-27.832,-32.227
1628438418.134,-35.645,-486.328,-23.926,-13.672
1628438418.138,-4.395,581.055,-31.250,9.766
1628438418.142,-31.250,237.305,-42.969,-25.879
1628438418.146,-56.152,-146.973,-48.340,-60.547
1628438418.150,-41.504,-6.836,-39.551,-35.156
1628438418.140,-4.395,208.984,-39.551,4.395
1628438418.144,20.996,-144.043,-44.922,5.371
1628438418.148,-16.602,-374.512,-53.711,-46.387
1628438418.152,-68.359,113.281,-58.105,-79.590
1628438418.156,-35.156,368.652,-51.270,-29.297
1628438418.160,0.488,-1.953,-53.223,1.953
1628438418.163,-22.461,-295.410,-57.129,-26.855
1628438418.167,-26.855,55.664,-52.734,-40.039
1628438418.171,18.555,338.867,-53.711,9.766
1628438418.175,62.012,-238.281,-46.875,59.570
1628438418.179,33.691,-457.520,-45.410,23.926
1628438418.183,-10.254,71.777,-49.805,-8.301
1628438418.197,2.441,55.664,-50.293,27.344
1628438418.201,63.477,152.832,-49.805,78.613
1628438418.205,72.754,21.973,-42.480,62.500
1628438418.209,27.344,-357.910,-45.410,24.902
1628438418.213,28.809,-321.289,-47.363,42.480
1628438418.217,83.984,-772.461,-42.480,83.496
1628438418.220,78.613,-754.883,-48.340,73.242
1628438418.224,17.090,56.641,-43.945,29.297
1628438418.228,11.719,-128.418,-31.250,24.902
1628438418.232,57.129,-27.344,-29.785,67.383
1628438418.236,77.148,535.645,-35.156,76.660
1628438418.240,38.574,275.879,-41.504,24.414
1628438418.242,2.441,-220.703,-41.992,2.930
1628438418.246,27.344,-0.977,-33.203,32.227
1628438418.250,69.336,487.793,-39.551,58.594
1628438418.254,44.434,290.527,-43.457,30.762
1628438418.258,-14.160,-250.977,-31.250,-5.859
1628438418.262,-4.395,-355.469,-32.715,14.160
1628438418.265,61.523,-46.875,-39.062,63.477
1628438418.269,58.105,20.020,-40.039,40.527
1628438418.273,15.625,-636.719,-34.668,-2.930
1628438418.277,-1.465,-771.484,-28.320,6.348
1628438418.281,31.738,272.461,-32.227,29.785
1628438418.285,40.527,366.211,-40.039,26.855
1628438418.287,-5.371,-182.617,-42.480,-10.254
1628438418.291,-23.926,-83.984,-48.340,-22.461
1628438418.295,14.648,187.012,-47.852,22.949
1628438418.299,52.246,20.020,-42.480,47.363
1628438418.303,20.020,-505.371,-43.457,-1.465
1628438418.307,-26.855,-614.258,-37.109,-32.227
1628438418.310,-7.812,-82.031,-33.203,-5.371
1628438418.314,46.875,68.848,-29.297,35.156
1628438418.318,35.156,-809.570,-20.508,17.090
1628438418.322,-6.348,-609.375,-21.484,-23.438
1628438418.326,0.000,193.359,-31.738,1.465
1628438418.330,55.176,202.637,-19.043,53.223
1628438418.332,49.805,99.609,-17.090,33.691
1628438418.336,-5.371,93.262,-38.574,-24.902
1628438418.340,-12.207,33.203,-33.203,-21.973
1628438418.344,20.996,123.535,-23.926,33.691
1628438418.348,36.133,207.031,-20.996,45.410
1628438418.352,-5.859,-167.480,-20.996,-3.906
1628438418.355,-27.832,-328.125,-19.531,-31.250
1628438418.359,6.348,-593.262,-20.996,0.000
1628438418.363,20.020,-370.605,-19.531,22.949
1628438418.367,-8.301,232.910,-28.809,-17.578
1628438418.371,-39.551,-205.566,-36.621,-38.574
1628438418.375,-22.949,-399.414,-30.273,-7.812
1628438418.377,22.461,164.062,-23.438,22.949
1628438418.381,6.836,417.480,-12.695,-3.418
1628438418.385,-49.805,-204.590,-26.367,-42.480
1628438418.389,-48.828,-544.434,-46.875,-25.879
1628438418.393,8.301,130.371,-41.504,13.672
1628438418.397,16.602,182.129,-34.668,1.465
1628438418.400,-26.367,-450.684,-34.180,-31.250
1628438418.404,-41.016,-882.324,-21.484,-24.414
1628438418.408,-13.672,-79.590,-2.441,11.230
1628438418.412,20.996,602.051,-10.742,24.414
1628438418.416,-11.230,2.441,-26.855,-20.020
1628438418.420,-53.711,-197.266,-30.762,-44.922
1628438418.425,-8.789,218.750,-39.551,-5.371
1628438418.429,24.414,269.531,-44.434,25.879
1628438418.433,-13.672,-328.613,-40.039,-7.812
1628438418.437,-42.480,-454.102,-31.738,-46.875
1628438418.441,-15.137,114.258,-20.020,-18.066
1628438418.445,16.113,237.793,-24.902,28.809
1628438418.448,-4.395,-424.805,-43.945,1.465
1628438418.452,-48.340,-643.555,-45.898,-44.922
1628438418.456,-47.363,155.762,-30.273,-35.645
1628438418.460,12.207,365.723,-23.926,24.414
1628438418.464,10.254,163.574,-36.133,22.461
1628438418.468,-43.457,57.617,-39.062,-35.645
1628438418.467,-67.871,123.047,-38.086,-43.945
1628438418.471,-15.625,245.117,-48.828,-0.977
1628438418.475,25.391,5.859,-45.898,11.719
1628438418.479,-19.043,-312.012,-37.109,-31.738
1628438418.483,-44.434,-243.164,-47.852,-61.523
1628438418.487,-12.207,-102.539,-47.363,-15.137
1628438418.490,23.438,-714.355,-38.086,29.785
1628438418.494,-5.371,-799.316,-33.203,-11.719
1628438418.498,-45.898,20.996,-28.809,-52.246
1628438418.502,-35.645,4.883,-43.945,-32.715
1628438418.506,23.438,174.805,-56.641,28.320
1628438418.510,20.508,526.367,-43.945,20.996
1628438418.514,-53.223,196.777,-41.992,-56.641
1628438418.518,-54.199,-77.637,-41.992,-58.594
1628438418.522,-7.324,282.715,-24.902,7.324
1628438418.526,5.371,565.430,-19.043,4.395
1628438418.530,-34.180,196.289,-20.996,-48.340
1628438418.534,-60.547,-348.145,-0.488,-42.969
1628438418.537,-13.184,-276.367,18.555,10.742
1628438418.541,3.906,219.238,14.648,35.645
1628438418.545,-26.367,235.840,4.883,-6.836
1628438418.549,-50.781,-597.168,6.348,-27.832
1628438418.553,-56.641,-642.578,20.508,8.301
1628438418.557,-13.184,383.301,18.555,28.320
1628438418.572,-4.883,295.898,23.438,6.348
1628438418.576,-38.086,-126.953,30.273,-18.555
1628438418.580,-32.715,-109.863,19.043,-3.906
1628438418.584,5.371,163.574,12.207,26.855
1628438418.588,-7.812,220.703,19.531,12.207
1628438418.592,-74.219,-730.469,17.578,-18.555
1628438418.595,-79.590,-543.457,15.137,-6.348
1628438418.599,-20.996,531.250,14.160,31.738
1628438418.603,7.812,191.895,11.719,37.109
1628438418.607,-25.391,-610.352,17.578,5.859
1628438418.611,-43.945,-82.520,13.184,-10.254
1628438418.615,5.859,489.746,-8.301,33.203
1628438418.617,12.207,349.121,-9.766,55.664
1628438418.621,-30.273,119.629,-0.977,9.766
1628438418.625,-73.242,162.109,-4.883,-19.531
1628438418.629,-49.805,272.949,-7.812,16.602
1628438418.633,18.066,323.242,-8.789,46.875
1628438418.637,10.254,-65.918,-2.441,13.672
1628438418.640,-21.973,-387.207,0.000,-22.949
1628438418.644,-20.508,6.836,-13.184,-6.836
1628438418.648,10.254,-283.691,-33.691,39.551
1628438418.652,0.977,-387.695,-39.551,20.996
1628438418.656,-49.805,109.375,-28.320,-28.320
1628438418.660,-60.059,-204.102,-21.973,-23.926
1628438418.662,-13.672,-201.172,-24.414,15.625
1628438418.666,1.465,278.320,-17.578,22.949
1628438418.670,-28.809,90.332,-14.160,-13.672
1628438418.674,-34.180,-438.477,-29.785,-23.926
1628438418.678,-8.789,-463.867,-33.691,16.113
1628438418.682,18.066,-89.844,-21.973,41.016
1628438418.685,0.977,146.973,-20.020,4.883
1628438418.689,-41.504,-270.996,-21.973,-28.320
1628438418.693,-25.391,-503.906,-5.859,1.465
1628438418.697,41.016,343.750,3.418,38.574
1628438418.701,30.273,534.668,-27.832,1.953
1628438418.705,-41.016,-246.094,-44.434,-39.062
1628438418.709,-60.547,-309.082,-33.203,-14.648
1628438418.713,-6.836,267.578,-19.531,40.527
1628438418.717,21.973,188.965,-16.602,24.414
1628438418.721,-20.020,-523.926,-26.367,-33.203
1628438418.725,-53.223,-742.676,-30.762,-42.480
1628438418.729,-7.812,-4.883,-18.066,-4.883
1628438418.732,24.414,195.312,-7.324,9.766
1628438418.736,-14.648,-297.363,-29.785,-40.039
1628438418.740,-40.527,-340.820,-43.457,-61.523
1628438418.744,-37.598,361.816,-27.344,-20.020
1628438418.748,-25.879,499.512,-22.461,15.625
1628438418.752,-29.297,-99.121,-30.762,-9.277
1628438418.752,-68.359,-168.457,-21.973,-50.781
1628438418.756,-62.988,333.496,-14.648,-22.949
1628438418.760,32.227,279.297,-21.484,52.734
1628438418.764,2.441,-206.543,-27.344,-7.812
1628438418.768,-91.797,-291.016,-28.320,-125.977
1628438418.772,-101.562,-229.980,-30.273,-132.812
1628438418.775,-83.008,-104.492,-17.578,-85.938
1628438418.779,-95.215,-715.820,-0.488,-89.355
1628438418.783,-168.457,-687.012,-3.906,-176.758
1628438418.787,-206.055,99.609,-9.277,-217.773
1628438418.791,-188.477,171.387,-7.812,-194.336
1628438418.795,-185.547,336.426,-11.230,-204.102
1628438418.798,-214.844,405.762,-3.418,-239.746
1628438418.802,-258.789,160.645,-6.836,-266.602
1628438418.806,-235.352,93.262,-33.203,-259.277
1628438418.810,-159.668,439.453,-23.926,-218.750
1628438418.814,-181.152,461.914,-6.836,-250.000
1628438418.818,-246.582,22.949,-20.508,-302.246
1628438418.821,-230.469,-632.324,-25.879,-265.137
1628438418.825,-156.738,-423.340,-19.043,-201.660
1628438418.829,-138.184,481.934,-31.738,-214.844
1628438418.833,-182.129,267.090,-47.852,-242.676
1628438418.837,-195.312,-199.707,-56.152,-210.938
1628438418.841,-115.234,270.508,-47.363,-135.254
1628438418.842,-93.750,776.367,-53.711,-126.953
1628438418.846,-146.973,353.027,-76.660,-186.523
1628438418.850,-147.949,-200.684,-70.312,-172.363
1628438418.854,-108.398,99.609,-72.266,-111.816
1628438418.858,-54.688,654.297,-98.145,-86.914
1628438418.862,-48.828,238.770,-106.445,-97.656
1628438418.865,-86.426,-854.004,-88.867,-121.582
1628438418.869,-35.156,-444.824,-79.102,-78.125
1628438418.873,34.668,767.578,-68.359,-29.297
1628438418.877,-2.930,301.758,-75.195,-62.500
1628438418.881,-45.898,-38.574,-89.844,-87.891
1628438418.885,-32.227,450.195,-84.473,-61.523
1628438418.888,32.715,858.398,-83.008,3.906
1628438418.892,41.016,312.012,-92.773,3.906
1628438418.896,-5.371,-167.480,-80.566,-41.504
1628438418.900,-16.602,350.098,-83.008,-51.270
1628438418.904,16.602,663.086,-88.867,-12.695
1628438418.908,47.363,364.258,-91.309,21.484
1628438418.911,-2.441,-72.754,-107.910,-22.461
1628438418.915,-40.527,149.414,-95.215,-48.828
1628438418.919,10.254,439.453,-80.078,11.230
1628438418.923,52.246,74.707,-80.078,47.363
1628438418.927,19.531,-29.297,-78.125,-0.977
1628438418.931,-8.301,224.121,-83.008,-23.438
1628438418.947,6.836,33.203,-84.961,22.949
1628438418.951,51.270,107.910,-65.918,66.895
1628438418.955,35.645,113.770,-66.895,37.598
1628438418.959,-15.625,-16.113,-79.590,-10.254
1628438418.963,-9.766,12.207,-78.613,4.395
1628438418.967,45.898,-520.508,-79.590,57.617
1628438418.970,59.082,-261.719,-73.242,55.176
1628438418.974,6.836,379.395,-55.664,-0.488
1628438418.978,0.977,-129.395,-55.176,-2.930
1628438418.982,31.738,-153.320,-63.965,44.434
1628438418.986,49.805,549.316,-56.641,49.316
1628438418.990,22.461,352.051,-62.012,6.348
1628438418.992,-0.488,-30.762,-60.547,-9.277
1628438418.996,24.414,209.961,-47.852,26.367
1628438419.000,64.941,537.109,-49.805,60.547
1628438419.004,41.504,205.078,-58.594,26.855
1628438419.008,-19.043,-406.250,-58.105,-6.348
1628438419.012,-0.488,-459.473,-29.785,30.762
1628438419.015,50.781,198.730,-27.344,67.871
1628438419.019,35.156,468.262,-49.805,33.203
1628438419.023,-12.207,-390.137,-56.152,-2.441
1628438419.027,-15.625,-490.723,-62.012,-0.488
1628438419.031,45.898,609.863,-57.617,36.133
1628438419.035,58.105,556.641,-43.945,45.898
1628438419.037,-11.230,13.184,-52.246,-8.789
1628438419.041,-56.152,125.488,-62.500,-30.762
1628438419.045,0.977,323.242,-55.664,22.461
1628438419.049,52.734,206.055,-61.035,41.504
1628438419.053,15.625,-321.777,-61.035,-6.836
1628438419.057,-9.277,-455.078,-47.852,-32.227
1628438419.060,20.020,19.043,-39.062,14.160
1628438419.064,41.992,135.742,-38.086,48.340
1628438419.068,-3.906,-609.863,-59.570,-0.488
1628438419.072,-45.898,-416.504,-75.684,-55.664
1628438419.076,-20.020,354.492,-64.941,-31.738
1628438419.080,26.855,368.652,-47.363,24.414
1628438419.082,25.391,352.539,-39.062,13.184
1628438419.086,-20.508,352.539,-42.969,-31.250
1628438419.090,-30.762,221.191,-41.992,-26.367
1628438419.094,14.648,270.020,-45.898,23.438
1628438419.098,30.762,464.844,-47.363,22.949
1628438419.102,-2.930,103.516,-48.340,-22.949
1628438419.105,-41.992,-131.348,-58.594,-41.504
1628438419.109,-18.066,-503.418,-49.316,1.465
1628438419.113,15.625,-479.004,-46.387,22.461
1628438419.117,-20.020,353.516,-46.875,-26.367
1628438419.121,-33.691,174.805,-45.898,-40.039
1628438419.125,1.953,-20.020,-62.988,-19.043
1628438419.127,23.926,427.246,-70.801,7.812
1628438419.131,0.977,609.375,-62.012,-21.484
1628438419.135,-32.227,-15.137,-56.152,-51.758
1628438419.139,-30.762,-493.164,-40.039,-23.926
1628438419.143,5.371,130.859,-44.434,6.836
1628438419.147,-0.488,329.590,-51.758,-9.766
1628438419.150,-39.062,-283.691,-39.551,-43.945
1628438419.154,-54.199,-651.855,-44.434,-34.668
1628438419.158,-28.809,148.926,-50.781,0.000
1628438419.162,-3.906,713.379,-58.105,2.441
1628438419.166,-35.156,-8.789,-63.965,-40.527
1628438419.170,-62.988,-238.281,-52.734,-53.711
1628438419.174,-36.133,406.250,-40.527,-14.160
1628438419.178,0.000,664.551,-52.246,6.836
1628438419.182,-10.742,81.055,-56.641,-28.809
1628438419.186,-49.316,-184.082,-48.340,-57.129
1628438419.190,-40.039,224.121,-47.363,-27.344
1628438419.194,9.766,323.242,-47.852,13.672
1628438419.197,-3.418,-385.254,-55.664,-9.766
1628438419.201,-56.641,-703.125,-53.223,-55.664
1628438419.205,-55.664,66.406,-40.039,-43.945
1628438419.209,-5.371,374.023,-39.551,8.789
1628438419.213,-0.977,209.961,-46.387,4.395
1628438419.217,-47.363,96.191,-51.758,-46.387
1628438419.218,-76.172,53.711,-52.734,-61.035
1628438419.222,-41.016,-7.812,-50.781,-14.648
1628438419.226,-11.719,-189.941,-39.062,7.812
1628438419.230,-37.598,-167.969,-32.715,-43.457
1628438419.234,-72.754,-0.488,-44.922,-61.523
1628438419.238,-58.105,-113.281,-49.805,-6.348
1628438419.241,0.488,-739.746,-45.410,23.438
1628438419.245,-23.926,-758.789,-43.945,-25.879
1628438419.249,-67.871,-1.953,-37.598,-71.777
1628438419.253,-50.781,-20.508,-19.043,-46.387
1628438419.257,-16.602,185.059,-15.137,0.000
1628438419.261,-20.996,509.766,-35.156,-19.531
1628438419.264,-66.895,218.750,-39.062,-63.965
1628438419.268,-81.543,-131.348,-41.504,-56.641
1628438419.272,-23.438,192.871,-37.598,1.465
1628438419.276,4.883,299.316,-27.832,17.090
1628438419.280,-53.223,-167.480,-22.949,-48.340
1628438419.284,-82.520,-732.910,-31.738,-62.500
1628438419.287,-33.203,-596.680,-42.969,-1.953
1628438419.291,12.695,383.789,-40.039,19.531
1628438419.295,-0.977,225.586,-42.969,-11.719
1628438419.299,-23.926,-268.555,-49.805,-26.367
1628438419.303,0.488,34.668,-38.086,17.578
1628438419.307,41.504,537.109,-28.809,58.594
1628438419.322,41.016,195.312,-40.527,35.156
1628438419.326,10.254,-291.992,-48.340,7.812
1628438419.330,16.602,-274.902,-40.039,21.973
1628438419.334,81.543,86.914,-33.203,73.730
1628438419.338,75.684,73.730,-33.203,73.242
1628438419.342,13.184,-752.930,-33.691,31.250
1628438419.345,9.766,-671.387,-30.273,35.156
1628438419.349,60.059,110.352,-24.902,81.543
1628438419.353,83.008,37.109,-16.602,90.332
1628438419.357,40.039,-666.504,-21.973,41.504
1628438419.361,2.441,-263.672,-34.180,14.160
1628438419.365,34.180,305.664,-30.273,54.199
1628438419.367,76.660,216.309,-30.762,88.379
1628438419.371,51.758,-10.254,-29.785,39.062
1628438419.375,5.859,20.508,-23.438,1.953
1628438419.379,12.207,143.555,-17.090,26.367
1628438419.383,53.711,155.273,-14.648,57.129
1628438419.387,33.691,-221.191,-25.879,37.109
1628438419.390,-5.859,-374.512,-31.738,-5.371
1628438419.394,0.488,12.207,-36.621,-5.371
1628438419.398,43.457,-454.590,-35.645,48.340
1628438419.402,51.758,-689.941,-24.414,54.199
1628438419.406,8.301,-47.852,-28.320,-7.324
1628438419.410,-17.578,-264.648,-36.621,-14.160
1628438419.412,13.672,-185.547,-29.785,34.668
1628438419.416,40.039,288.086,-28.320,45.898
1628438419.420,1.953,5.371,-41.992,1.953
1628438419.424,-24.902,-503.418,-45.410,-19.531
1628438419.428,9.766,-531.250,-32.227,23.438
1628438419.432,48.340,-249.023,-20.996,51.758
1628438419.435,26.855,-18.555,-28.320,7.812
1628438419.439,-15.137,-334.961,-23.438,-17.090
1628438419.443,-4.883,-619.141,-8.301,7.324
1628438419.447,43.457,177.734,-20.508,28.320
1628438419.451,41.504,456.055,-45.410,1.953
1628438419.455,-3.906,-412.598,-42.969,-37.109
1628438419.457,-23.926,-839.355,-23.926,-13.672
1628438419.461,12.695,147.949,-18.066,27.344
1628438419.465,32.715,516.602,-16.602,15.625
1628438419.469,-13.184,-80.566,-24.902,-13.672
1628438419.473,-42.969,-190.430,-28.809,-15.137
1628438419.477,-10.254,32.227,-18.555,18.066
1628438419.480,23.926,111.328,-31.738,34.180
1628438419.484,-3.418,-495.605,-33.203,1.953
1628438419.488,-44.922,-708.984,-13.672,-20.996
1628438419.492,-22.949,170.898,-16.113,-0.977
1628438419.496,8.301,417.969,-20.508,19.531
1628438419.500,-11.719,34.180,-24.902,-19.531
1628438419.503,-46.875,-72.754,-26.367,-49.316
1628438419.507,-30.762,54.199,-28.320,-23.438
1628438419.511,34.180,66.406,-33.203,15.625
1628438419.515,26.855,-543.457,-34.668,7.324
1628438419.519,-22.461,-602.539,-31.738,-32.715
1628438419.523,-25.879,-192.871,-33.691,-32.227
1628438419.526,16.602,-199.219,-37.598,17.578
1628438419.530,25.391,-354.004,-34.668,23.926
1628438419.534,-24.902,-117.676,-33.691,-36.133
1628438419.538,-57.129,181.641,-41.992,-48.340
1628438419.542,-14.648,119.629,-46.387,7.324
1628438419.546,35.156,282.715,-42.969,37.109
1628438419.549,12.695,342.773,-50.781,-2.441
1628438419.553,-26.367,114.746,-47.363,-28.320
1628438419.557,-10.742,19.531,-32.715,-1.465
1628438419.561,43.457,314.941,-33.691,30.273
1628438419.565,9.766,172.852,-24.414,2.930
1628438419.569,-45.898,-285.156,-17.090,-36.621
1628438419.572,-21.973,-713.379,-15.137,-8.301
1628438419.576,21.484,-649.414,-14.160,40.039
1628438419.580,18.066,216.797,-18.066,21.484
1628438419.584,-33.691,113.281,-21.973,-26.855
1628438419.588,-43.457,-154.785,-20.508,-28.320
1628438419.592,14.648,304.688,-17.578,12.207
1628438419.592,35.645,577.637,-28.320,10.254
1628438419.596,1.465,98.633,-31.738,-28.320
1628438419.600,-31.738,-466.797,-34.668,-37.598
1628438419.604,12.207,-79.590,-45.898,19.043
1628438419.608,61.523,488.281,-33.203,54.199
1628438419.612,-0.977,-35.156,-12.207,-1.465
1628438419.615,-62.500,-965.332,-6.836,-31.738
1628438419.619,-52.734,-683.105,-12.695,-13.184
1628438419.623,13.672,483.887,-8.789,13.672
1628438419.627,16.113,156.738,-7.812,-0.488
1628438419.631,-55.664,-439.453,0.488,-36.133
1628438419.635,-51.758,160.156,24.414,-16.602
1628438419.654,9.277,607.422,11.230,36.621
1628438419.658,4.883,356.445,5.371,34.180
1628438419.662,-61.035,15.625,11.719,-20.996
1628438419.666,-89.355,155.273,12.207,-26.855
1628438419.670,-35.645,389.648,20.996,27.344
1628438419.674,2.441,133.301,19.531,49.316
1628438419.677,-43.945,-167.969,21.484,8.789
1628438419.681,-85.938,52.246,24.902,-21.484
1628438419.685,-48.340,302.734,29.297,16.602
1628438419.689,13.672,-67.871,24.414,64.941
1628438419.693,-4.883,-222.656,10.254,33.203
1628438419.697,-41.016,166.016,11.719,-9.277
1628438419.698,-20.508,154.297,10.742,15.137
1628438419.702,13.184,-20.020,2.930,64.453
1628438419.706,-7.324,-126.953,10.254,41.992
1628438419.710,-45.410,-100.098,13.184,-6.348
1628438419.714,-57.617,-125.000,-6.836,3.418
1628438419.718,-10.742,-209.473,-5.371,50.781
1628438419.721,18.066,80.566,1.465,49.805
1628438419.725,-35.645,232.422,-12.207,3.906
1628438419.729,-58.594,-83.008,-11.230,-2.930
1628438419.733,-19.043,-933.594,-1.953,54.688
1628438419.737,2.930,-549.805,-12.207,61.523
1628438419.741,-46.387,284.180,-31.738,-6.348
1628438419.742,-75.684,-218.750,-36.133,-20.020
1628438419.746,-21.973,-73.242,-21.973,19.043
1628438419.750,46.387,612.305,-16.113,46.387
1628438419.754,25.391,445.312,-20.996,16.113
1628438419.758,-32.715,-150.879,-26.855,-22.461
1628438419.762,-4.883,-291.504,-25.879,4.883
1628438419.765,51.270,208.008,-32.715,48.340
1628438419.769,41.992,484.375,-38.086,27.344
1628438419.773,-21.484,-438.477,-29.785,-8.301
1628438419.777,-50.781,-684.082,-24.414,-5.859
1628438419.781,8.789,416.992,-20.508,30.273
1628438419.785,39.551,553.223,-14.160,35.645
1628438419.787,-15.137,-321.289,-26.367,-7.324
1628438419.791,-48.340,-325.684,-40.527,-23.926
1628438419.795,0.000,187.500,-41.504,10.254
1628438419.799,20.996,103.027,-35.645,38.574
1628438419.803,-40.039,-589.355,-32.715,0.488
1628438419.807,-75.195,-742.188,-31.738,-36.621
1628438419.810,-29.785,-76.660,-20.020,-8.301
1628438419.814,19.043,39.062,-13.184,16.113
1628438419.818,2.930,-416.504,-23.926,-19.531
1628438419.822,-36.133,-100.098,-36.133,-54.688
1628438419.826,-37.109,288.086,-29.297,-39.551
1628438419.830,-1.465,160.645,-14.160,10.742
1628438419.847,-9.766,244.141,-9.766,1.953
1628438419.851,-56.641,271.484,-7.812,-48.340
1628438419.855,-68.359,140.625,-8.789,-41.016
1628438419.859,-40.039,208.984,-13.184,11.719
1628438419.863,-15.625,331.543,-14.160,13.184
1628438419.867,-72.754,-59.082,-11.230,-47.852
1628438419.870,-107.422,-274.414,-5.859,-67.383
1628438419.874,-8.789,-584.473,-16.113,-3.906
1628438419.878,1.465,-614.258,-19.043,-9.277
1628438419.882,-94.727,118.164,-10.742,-107.422
1628438419.886,-132.812,18.555,-10.254,-145.020
1628438419.890,-108.398,-43.457,-12.695,-131.836
1628438419.877,-78.613,437.988,-7.324,-128.418
1628438419.881,-126.953,519.043,6.348,-163.086
1628438419.885,-218.262,-117.188,19.043,-214.844
1628438419.889,-252.441,-575.195,12.207,-230.957
1628438419.893,-197.266,161.133,11.230,-202.148
1628438419.897,-196.777,382.812,15.137,-215.820
1628438419.900,-244.629,-332.031,12.695,-262.695
1628438419.904,-244.629,-459.473,14.160,-276.855
1628438419.908,-215.332,78.613,-5.371,-246.582
1628438419.912,-189.941,596.191,-24.902,-231.445
1628438419.916,-220.215,50.781,-6.348,-246.582
1628438419.920,-252.441,-939.453,-17.578,-260.254
1628438419.938,-211.426,-142.090,-35.645,-229.004
1628438419.942,-163.086,749.512,-35.156,-195.312
1628438419.946,-186.523,304.199,-42.969,-224.609
1628438419.950,-204.102,90.820,-54.688,-223.633
1628438419.954,-181.152,341.309,-58.594,-182.617
1628438419.958,-87.891,454.590,-67.871,-113.770
1628438419.961,-68.359,-215.820,-63.965,-109.375
1628438419.965,-125.000,-535.156,-65.918,-165.039
1628438419.969,-100.098,348.145,-91.309,-125.977
1628438419.973,-36.621,655.273,-84.961,-58.105
1628438419.977,-9.277,321.777,-78.125,-52.734
1628438419.981,-35.156,158.203,-78.613,-79.102
1628438419.966,-61.523,361.328,-96.680,-94.238
1628438419.970,-3.906,528.320,-112.793,-38.086
1628438419.974,33.203,35.645,-96.680,13.184
1628438419.978,-19.043,-97.656,-95.703,-37.598
1628438419.982,-42.480,362.793,-113.281,-70.312
1628438419.986,-4.395,144.043,-118.652,-4.883
1628438419.989,72.266,179.199,-104.980,52.246
1628438419.993,71.289,477.539,-91.309,18.066
1628438419.997,9.766,456.543,-94.238,-20.996
1628438420.001,12.695,167.480,-93.750,5.371
1628438420.005,49.805,-450.684,-91.309,62.012
1628438420.009,48.828,74.219,-90.332,48.340
1628438420.015,25.879,494.141,-78.125,2.930
1628438420.019,18.555,-226.562,-80.078,22.949
1628438420.023,52.246,18.066,-95.215,65.430
1628438420.027,71.777,769.531,-94.238,55.176
1628438420.031,36.133,409.668,-93.750,13.672
1628438420.035,5.371,-240.234,-87.402,8.789
1628438420.038,41.504,-142.090,-65.430,52.246
1628438420.042,77.637,478.516,-57.129,67.871
1628438420.046,55.176,479.004,-64.453,36.133
1628438420.050,7.812,-378.906,-66.895,17.578
1628438420.054,10.742,-253.418,-62.012,39.062
1628438420.058,61.523,665.039,-52.734,67.871
1628438420.072,48.340,411.621,-49.316,41.504
1628438420.076,-7.812,-51.758,-56.152,-5.371
1628438420.080,-1.953,-76.172,-53.223,11.230
1628438420.084,46.387,81.543,-49.316,61.523
1628438420.088,49.316,130.859,-66.406,44.434
1628438420.092,1.465,-734.863,-72.754,4.883
1628438420.095,-19.043,-742.188,-60.547,3.418
1628438420.099,31.250,462.891,-47.363,48.828
1628438420.103,57.129,442.383,-39.551,67.383
1628438420.107,24.902,10.742,-59.570,1.465
1628438420.111,-6.836,238.770,-75.684,-31.250
1628438420.115,23.926,491.211,-51.758,20.996
1628438420.117,45.410,364.258,-52.246,51.270
1628438420.121,14.160,182.617,-61.523,5.371
1628438420.125,-17.578,215.820,-56.641,-35.156
1628438420.129,-6.836,311.523,-57.617,-0.977
1628438420.133,39.062,308.594,-51.758,50.293
1628438420.137,19.043,-39.551,-58.594,22.949
1628438420.140,-25.391,-293.945,-47.363,-14.648
1628438420.144,-16.602,-81.543,-40.039,-8.301
1628438420.148,7.324,-335.449,-41.992,26.855
1628438420.152,11.230,-600.586,-50.293,20.020
1628438420.156,-15.625,64.941,-73.730,-37.598
1628438420.160,-25.879,93.262,-59.082,-38.574
1628438420.162,20.996,165.039,-46.387,16.602
1628438420.166,35.645,558.594,-52.734,24.902
1628438420.170,-7.812,202.637,-48.828,-13.184
1628438420.174,-37.109,-335.449,-55.176,-36.133
1628438420.178,-4.883,-356.445,-44.434,4.883
1628438420.182,29.785,17.090,-61.035,40.527
1628438420.185,7.812,226.074,-77.637,2.441
1628438420.189,-25.879,-128.906,-42.480,-28.809
1628438420.193,-28.320,-670.898,-28.809,-16.113
1628438420.197,10.742,-1.465,-41.016,0.488
1628438420.201,8.301,632.324,-40.039,-27.832
1628438420.205,-34.668,-125.977,-34.180,-48.340
1628438420.207,-48.340,-389.648,-45.410,-33.203
1628438420.211,-13.184,483.887,-55.664,-11.719
1628438420.215,-5.371,644.043,-53.223,-14.160
1628438420.219,-51.270,76.172,-45.410,-44.434
1628438420.223,-58.105,-56.152,-48.340,-51.270
1628438420.227,-14.160,93.750,-54.688,-1.953
1628438420.230,17.090,244.629,-52.246,23.438
1628438420.234,-9.766,-350.098,-34.180,-17.090
1628438420.238,-51.270,-623.047,-33.203,-46.875
1628438420.242,-28.809,332.031,-41.504,-23.438
1628438420.246,9.277,574.707,-52.734,13.672
1628438420.250,-8.301,2.930,-55.664,-11.719
1628438420.252,-46.387,-143.555,-41.992,-46.387
1628438420.256,-47.852,266.113,-35.645,-22.461
1628438420.260,-1.953,330.078,-32.227,14.160
1628438420.264,5.859,-474.609,-43.457,-8.789
1628438420.268,-34.668,-519.531,-49.805,-48.340
1628438420.272,-45.410,-8.789,-48.340,-44.434
1628438420.275,-5.859,-52.734,-54.688,1.953
1628438420.279,14.648,-257.324,-41.504,19.043
1628438420.283,-41.016,-62.988,-32.715,-32.227
1628438420.287,-65.430,263.672,-35.645,-54.199
1628438420.291,-18.555,176.270,-35.645,-8.789
1628438420.295,17.090,327.637,-33.691,18.066
1628438420.300,-35.645,407.227,-33.203,-21.973
1628438420.304,-93.750,168.457,-35.156,-59.570
1628438420.308,-62.500,-268.555,-40.039,-27.344
1628438420.312,-4.883,-11.230,-41.504,9.766
1628438420.316,-4.883,408.203,-40.527,-25.879
1628438420.320,-39.551,-62.988,-35.156,-57.129
1628438420.323,-53.711,-709.961,-32.715,-39.062
1628438420.327,-23.438,-433.594,-35.156,-4.395
1628438420.331,-31.250,436.523,-34.668,-16.602
1628438420.335,-89.844,180.176,-33.691,-61.523
1628438420.339,-79.102,-148.438,-26.855,-55.176
1628438420.343,-13.184,242.188,-22.461,-8.301
1628438420.342,8.789,591.797,-27.344,-2.930
1628438420.346,-38.086,164.062,-30.762,-51.270
1628438420.350,-82.520,-435.547,-35.156,-65.918
1628438420.354,-46.875,-104.980,-39.062,-17.578
1628438420.358,10.742,316.895,-34.180,12.695
1628438420.362,-24.902,-163.574,-31.738,-26.855
1628438420.365,-66.895,-952.148,-27.344,-49.805
1628438420.369,-48.340,-738.770,-20.020,-27.832
1628438420.373,-4.395,328.125,-32.715,-2.930
1628438420.377,-11.230,223.633,-54.199,-24.414
1628438420.381,-54.199,-130.859,-53.711,-68.359
1628438420.385,-53.223,167.480,-51.270,-49.316
1628438420.389,5.371,498.047,-37.109,1.953
1628438420.393,10.742,256.836,-24.414,-20.996
1628438420.397,-41.504,-87.402,-38.574,-74.219
1628438420.401,-47.363,83.984,-43.457,-64.941
1628438420.405,-1.465,338.379,-47.852,-9.277
1628438420.409,35.156,109.375,-58.594,34.668
1628438420.412,9.766,-252.930,-47.852,10.254
1628438420.416,-17.090,-264.160,-41.504,-18.066
1628438420.420,24.414,164.062,-44.922,28.320
1628438420.424,78.613,-252.441,-42.969,75.684
1628438420.428,54.199,-726.562,-41.016,44.434
1628438420.432,10.742,-53.223,-53.223,7.812
1628438420.447,40.039,76.660,-57.129,36.621
1628438420.451,94.238,212.402,-41.504,76.660
1628438420.455,85.938,71.289,-41.016,57.617
1628438420.459,32.715,-155.273,-45.898,10.254
1628438420.463,24.414,-87.891,-36.133,23.438
1628438420.467,71.289,-592.285,-26.855,85.449
1628438420.470,78.125,-447.266,-40.527,74.707
1628438420.474,31.738,173.828,-39.551,14.160
1628438420.478,2.930,-197.266,-25.879,14.648
1628438420.482,29.297,-423.340,-27.344,67.383
1628438420.486,60.547,192.871,-20.996,76.660
1628438420.490,37.109,365.234,-22.461,28.809
1628438420.492,5.859,-313.965,-32.715,2.930
1628438420.496,27.344,-391.602,-28.320,28.809
1628438420.500,62.012,422.852,-35.156,56.641
1628438420.504,44.922,375.977,-47.363,25.879
1628438420.508,6.836,-199.219,-43.945,-1.465
1628438420.512,-9.766,-418.457,-38.574,19.531
1628438420.515,36.133,36.133,-29.785,51.758
1628438420.519,56.152,322.266,-26.367,34.180
1628438420.523,8.789,-487.305,-33.691,-2.930
1628438420.527,-13.184,-663.574,-44.922,-10.254
1628438420.531,24.414,296.875,-39.551,19.531
1628438420.535,36.621,372.559,-40.039,31.738
1628438420.537,-12.207,-277.832,-50.293,-6.348
1628438420.541,-43.945,-253.906,-34.180,-19.043
1628438420.545,-17.090,34.668,-19.531,27.832
1628438420.549,41.016,-3.906,-23.438,55.664
1628438420.553,20.508,-571.289,-28.320,20.508
1628438420.557,-47.363,-814.453,-33.203,-13.184
1628438420.560,-12.207,-60.547,-29.785,6.348
1628438420.564,46.387,191.406,-14.648,45.410
1628438420.568,18.555,-472.656,-8.301,23.926
1628438420.572,-23.926,-296.875,-16.113,-26.367
1628438420.576,-24.414,215.332,-25.879,-21.484
1628438420.580,12.207,222.656,-33.203,25.391
1628438420.582,25.879,201.172,-38.086,16.602
1628438420.586,-7.812,178.223,-35.645,-27.344
1628438420.590,-28.320,-2.441,-34.668,-26.367
1628438420.594,4.883,-259.766,-41.992,18.066
1628438420.598,32.227,-63.965,-37.598,29.785
1628438420.602,-7.812,-98.145,-31.250,-21.484
1628438420.605,-36.621,-296.387,-34.180,-43.457
1628438420.609,0.000,-547.363,-35.156,2.441
1628438420.613,31.250,-349.121,-34.668,20.996
1628438420.617,-6.836,347.656,-31.738,-31.250
1628438420.621,-46.875,36.133,-34.668,-55.176
1628438420.625,-26.367,-114.258,-24.902,-18.066
1628438420.627,37.598,330.566,-15.137,22.949
1628438420.631,39.551,460.449,-28.809,-3.418
1628438420.635,-20.996,-145.020,-36.133,-40.527
1628438420.639,-46.875,-589.844,-31.250,-28.809
1628438420.643,0.977,13.672,-28.320,9.277
1628438420.647,20.020,207.520,-30.273,7.812
1628438420.650,-24.414,-359.863,-20.508,-26.855
1628438420.654,-50.293,-942.383,-20.996,-28.809
1628438420.658,-7.812,-282.715,-30.273,7.324
1628438420.662,31.250,590.332,-31.738,18.066
1628438420.666,-8.789,35.645,-35.645,-29.785
1628438420.670,-44.434,-293.945,-33.203,-59.570
1628438420.674,-2.441,238.281,-30.762,-11.719
1628438420.678,59.082,565.430,-26.367,46.387
1628438420.682,20.508,118.652,-8.301,8.789
1628438420.686,-54.688,-156.738,-5.859,-52.246
1628438420.690,-51.758,113.281,-3.906,-33.203
1628438420.694,8.301,206.543,7.324,24.414
1628438420.697,11.230,-390.625,-6.836,17.090
1628438420.701,-84.473,-766.602,-6.348,-33.691
1628438420.705,-85.449,-249.023,4.883,-38.086
1628438420.709,21.484,229.004,12.695,19.043
1628438420.713,38.574,74.707,22.949,29.297
1628438420.717,-16.602,-137.207,25.391,-23.926
1628438420.717,-63.477,49.805,36.621,-32.227
1628438420.721,-26.367,207.031,43.945,25.391
1628438420.725,14.648,71.289,31.738,46.875
1628438420.729,-30.273,-109.863,29.785,-5.371
1628438420.733,-56.641,-36.621,28.320,-28.809
1628438420.737,-15.625,-97.656,26.855,17.090
1628438420.740,22.949,-710.449,26.855,53.711
1628438420.744,0.000,-658.203,23.926,25.391
1628438420.748,-47.363,107.422,24.902,-18.066
1628438420.752,-56.152,34.668,26.855,3.906
1628438420.756,-9.766,55.664,20.020,53.711
1628438420.760,-4.883,256.836,4.883,34.668
1628438420.764,-41.504,275.391,5.859,-8.789
1628438420.768,-25.391,-253.906,14.160,7.324
1628438420.772,-7.324,-189.941,14.648,41.504
1628438420.776,-3.906,473.145,18.555,30.762
1628438420.780,-24.414,291.992,5.371,-14.160
1628438420.784,-46.387,-480.957,-13.184,-21.973
1628438420.787,-2.441,-368.652,-5.371,18.555
1628438420.791,20.508,453.613,-11.719,33.691
1628438420.795,-21.973,299.805,-13.184,-4.395
1628438420.799,-43.457,-330.078,-7.324,-23.926
1628438420.803,-18.555,-112.305,-12.695,1.953
1628438420.807,19.043,573.242,-22.461,37.598
1628438420.822,10.254,282.715,-18.066,19.043
1628438420.826,-39.551,-290.527,-19.043,-29.297
1628438420.830,-34.668,-242.676,-15.625,-16.602
1628438420.834,30.273,197.266,-6.348,38.086
1628438420.838,15.625,311.035,-27.344,27.344
1628438420.842,-22.461,-718.750,-34.668,-8.301
1628438420.845,-26.855,-789.551,-22.461,-10.742
1628438420.849,1.465,365.723,-20.996,18.555
1628438420.853,26.367,341.309,-17.090,36.621
1628438420.857,-20.996,-145.996,-23.438,-5.859
1628438420.861,-65.430,22.461,-19.531,-35.156
1628438420.865,-16.113,331.543,-19.531,1.465
1628438420.867,34.668,300.781,-35.645,31.738
1628438420.871,-24.414,49.316,-35.156,-11.230
1628438420.875,-75.195,42.969,-33.203,-45.410
1628438420.879,-40.039,93.750,-20.508,-15.137
1628438420.883,11.719,-145.996,-13.184,23.926
1628438420.887,-4.395,-407.227,-27.344,-3.906
1628438420.890,-46.875,-339.844,-39.062,-51.758
1628438420.894,-44.922,-29.785,-36.621,-37.109
1628438420.898,0.000,-360.352,-29.785,16.602
1628438420.902,13.672,-426.758,-20.996,8.789
1628438420.906,-25.879,165.527,-14.648,-43.457
1628438420.910,-57.617,-20.996,-33.203,-51.270
1628438420.912,-40.527,23.926,-39.551,-5.371
1628438420.916,-16.602,369.141,-21.484,16.602
1628438420.920,-52.734,77.148,-15.625,-33.203
1628438420.924,-60.547,-415.039,-21.973,-59.570
1628438420.928,6.348,-485.840,-24.414,0.000
1628438420.932,22.461,-123.047,-30.762,16.602
1628438420.935,-61.523,11.230,-18.066,-72.754
1628438420.939,-121.094,-434.570,-4.883,-114.746
1628438420.943,-96.191,-725.098,3.906,-89.355
1628438420.947,-78.613,67.871,-6.348,-89.355
1628438420.951,-142.090,552.734,-11.719,-141.602
1628438420.955,-202.148,-256.836,11.719,-186.035
1628438420.958,-226.562,-476.074,2.930,-215.332
1628438420.962,-227.539,387.695,-8.789,-214.355
1628438420.966,-193.359,507.812,-14.160,-217.285
1628438420.970,-207.031,-51.270,-5.371,-266.113
1628438420.974,-258.789,-208.008,9.277,-280.273
1628438420.978,-250.977,-11.230,8.301,-243.164
1628438420.981,-212.891,182.129,-18.066,-222.168
1628438420.985,-231.445,-383.789,-31.250,-254.883
1628438420.989,-258.789,-731.445,-7.812,-292.480
1628438420.993,-219.238,59.082,0.000,-253.906
1628438420.997,-189.941,516.113,-32.227,-208.008
1628438421.001,-206.543,63.477,-53.223,-223.633
1628438421.002,-214.355,-109.375,-35.156,-234.863
1628438421.006,-195.801,347.656,-30.762,-206.543
1628438421.010,-126.465,426.270,-46.875,-148.926
1628438421.014,-94.238,56.152,-67.383,-126.465
1628438421.018,-138.672,78.125,-75.195,-161.133
1628438421.022,-149.902,58.594,-80.566,-162.598
1628438421.025,-81.543,41.992,-79.102,-101.074
1628438421.029,-47.852,-296.387,-71.289,-68.848
1628438421.033,-64.453,-107.422,-74.219,-92.285
1628438421.037,-64.453,452.148,-89.844,-90.820
1628438421.041,-40.039,406.250,-111.816,-58.105
1628438421.045,8.789,373.047,-113.770,-19.531
1628438421.049,7.812,392.578,-124.023,-43.945
1628438421.053,-8.789,467.773,-122.559,-56.641
1628438421.057,-2.930,115.234,-93.750,-2.441
1628438421.061,42.969,224.121,-73.242,45.898
1628438421.065,36.621,644.531,-70.801,25.391
1628438421.069,-1.953,293.457,-74.219,-12.695
1628438421.072,16.113,-427.734,-90.332,5.371
1628438421.076,64.941,-161.133,-98.633,49.805
1628438421.080,85.449,724.609,-92.773,44.434
1628438421.084,45.898,490.723,-88.379,7.812
1628438421.088,36.133,176.270,-85.938,18.066
1628438421.092,70.801,468.262,-70.312,65.430
1628438421.093,103.027,893.066,-68.359,88.867
1628438421.097,62.012,493.652,-77.637,46.875
1628438421.101,11.230,-176.270,-69.336,6.836
1628438421.105,55.176,45.410,-67.383,39.062
1628438421.109,100.098,621.582,-80.078,71.777
1628438421.113,73.730,301.270,-70.801,36.621
1628438421.116,31.738,-810.059,-59.082,10.742
1628438421.120,22.461,-628.906,-67.871,26.367
1628438421.124,59.082,680.664,-60.547,63.477
1628438421.128,54.688,541.992,-72.754,45.898
1628438421.132,-5.371,79.590,-79.590,0.000
1628438421.136,-21.484,316.406,-62.988,9.766
1628438421.139,27.344,639.648,-60.547,46.875
1628438421.143,55.176,433.594,-55.176,52.246
1628438421.147,20.020,125.977,-54.199,11.719
1628438421.151,-6.836,203.125,-62.012,-2.930
1628438421.155,14.648,376.953,-68.848,41.016
1628438421.159,27.832,-208.008,-68.359,65.430
1628438421.162,-11.719,-793.457,-57.129,12.207
1628438421.166,-42.480,-108.887,-43.457,-25.391
1628438421.170,-12.695,298.828,-57.129,-0.977
1628438421.174,38.086,71.777,-62.012,38.086
1628438421.178,2.441,61.035,-42.969,14.648
1628438421.182,-42.480,235.352,-54.688,-26.367
1628438421.197,-14.160,159.180,-72.266,-0.977
1628438421.201,16.113,248.047,-68.359,27.832
1628438421.205,9.766,114.258,-58.594,8.301
1628438421.209,-28.320,-99.609,-56.641,-26.367
1628438421.213,-39.062,31.738,-50.781,-22.461
1628438421.217,5.371,-639.160,-50.781,38.086
1628438421.220,33.691,-514.648,-55.664,40.039
1628438421.224,3.906,83.008,-47.363,-11.230
1628438421.228,-38.574,-373.047,-43.457,-21.484
1628438421.232,-15.625,-325.684,-41.016,17.578
1628438421.236,17.090,457.031,-54.688,29.785
1628438421.240,-20.996,477.539,-62.988,-23.926
1628438421.242,-66.895,-72.266,-62.500,-61.035
1628438421.246,-38.086,83.008,-50.293,-27.832
1628438421.250,23.926,609.863,-38.574,17.578
1628438421.254,-0.488,470.215,-45.410,-16.602
1628438421.258,-41.992,-111.816,-55.664,-55.664
1628438421.262,-24.902,-315.430,-61.523,-26.855
1628438421.265,17.578,179.688,-70.801,9.277
1628438421.269,28.809,509.766,-70.801,-9.766
1628438421.273,-9.766,-368.164,-51.758,-35.156
1628438421.277,-40.527,-704.102,-53.223,-36.133
1628438421.281,-19.043,145.996,-53.711,-9.277
1628438421.285,5.859,385.742,-49.805,-2.930
1628438421.302,-29.785,-176.270,-58.594,-48.340
1628438421.306,-49.805,-174.316,-55.176,-59.570
1628438421.310,-8.301,208.984,-56.641,-16.113
1628438421.314,30.762,164.062,-55.176,11.230
1628438421.318,-20.020,-332.520,-42.969,-25.391
1628438421.322,-66.895,-508.789,-53.711,-65.918
1628438421.325,-36.621,-83.496,-61.035,-34.180
1628438421.329,12.695,52.734,-57.129,14.648
1628438421.333,10.742,-374.023,-55.664,-5.859
1628438421.337,-38.574,-136.719,-60.547,-58.105
1628438421.341,-42.969,343.750,-52.246,-47.363
1628438421.345,18.555,336.914,-26.855,8.301
