timestamps,TP9,AF7,AF8,TP10
1643308263.919,301.270,453.613,-112.793,8.789
1643308263.923,-671.875,-928.711,-115.723,-119.629
1643308263.927,-433.594,-727.051,-92.773,-69.824
1643308263.931,601.562,813.477,-80.566,71.289
1643308263.935,552.734,910.156,-104.004,36.621
1643308263.939,-471.680,-535.156,-118.652,-99.121
1643308263.943,-636.719,-1000.000,-97.168,-96.191
1643308263.946,348.145,-472.656,-100.586,29.297
1643308263.950,699.707,811.523,-108.887,54.688
1643308263.954,-216.797,-195.801,-108.887,-79.102
1643308263.958,-765.625,-1000.000,-116.699,-134.277
1643308263.962,79.102,234.375,-96.680,-2.930
1643308263.964,769.043,-961.426,-77.637,82.520
1643308263.968,86.426,149.902,-90.820,-30.273
1643308263.972,-734.375,-888.184,-116.699,-143.066
1643308263.976,-213.379,-163.574,-112.793,-48.828
1643308263.980,708.496,941.406,-90.820,79.590
1643308263.984,370.605,235.840,-103.027,13.672
1643308263.988,-641.113,-986.328,-119.629,-130.371
1643308263.991,-495.117,-573.730,-95.703,-99.121
1643308263.995,536.133,766.602,-85.449,42.480
1643308263.999,568.359,242.188,-114.258,41.016
1643308264.003,-448.730,-892.578,-107.422,-108.887
1643308264.007,-687.500,-827.148,-94.727,-131.836
1643308264.010,291.016,151.367,-102.539,15.625
1643308264.014,706.543,365.234,-107.910,79.590
1643308264.018,-160.156,-233.398,-115.234,-67.871
1643308264.022,-772.949,-838.867,-131.836,-156.738
1643308264.026,-11.719,-125.977,-106.445,-25.391
1643308264.030,738.770,938.965,-92.285,82.031
1643308264.034,145.996,359.375,-110.840,-16.602
1643308264.037,-727.539,-784.668,-105.957,-131.348
1643308264.041,-299.316,-822.754,-93.750,-46.875
1643308264.045,659.180,473.145,-97.168,77.148
1643308264.049,437.500,846.680,-117.188,27.832
1643308264.053,-567.871,-605.469,-110.840,-104.980
1643308264.055,-532.715,-917.480,-92.285,-88.867
1643308264.059,498.535,596.191,-92.285,57.129
1643308264.063,634.277,-917.480,-113.770,67.871
1643308264.067,-363.281,-223.633,-120.605,-65.918
1643308264.071,-563.477,-807.129,-109.375,-78.613
1643308264.075,318.359,240.234,-107.910,42.480
1643308264.079,741.211,-953.613,-117.676,87.402
1643308264.082,-63.477,156.250,-126.465,-39.062
1643308264.086,-798.828,-982.910,-122.559,-130.371
1643308264.090,-102.539,-117.188,-101.074,-15.625
1643308264.094,728.516,-941.406,-100.586,88.379
1643308264.098,219.727,448.730,-123.047,-11.719
1643308264.100,-698.242,-924.805,-115.234,-132.812
1643308264.104,-359.375,-468.262,-74.707,-67.871
1643308264.108,622.559,955.078,-75.195,70.312
1643308264.112,455.078,620.605,-103.027,36.621
1643308264.116,-583.984,-871.094,-107.910,-126.953
1643308264.120,-625.000,-980.957,-103.516,-125.000
1643308264.124,415.039,517.578,-96.680,38.574
1643308264.127,645.508,752.441,-111.816,54.199
1643308264.131,-318.359,-779.297,-113.281,-91.309
1643308264.135,-725.586,-939.941,-77.637,-130.371
1643308264.139,163.086,384.277,-65.918,4.395
1643308264.143,743.164,-928.223,-76.172,77.148
1643308264.145,-8.789,285.156,-84.473,-26.367
1643308264.149,-761.230,-782.227,-82.031,-117.676
1643308264.153,-139.648,-149.902,-72.266,-15.137
1643308264.157,721.191,-999.023,-72.754,87.891
1643308264.161,288.574,638.672,-84.473,-2.930
1643308264.165,-666.992,-779.297,-92.773,-109.375
1643308264.169,-421.875,-854.980,-85.938,-44.922
1643308264.172,568.848,-6.348,-68.848,105.957
1643308264.176,509.277,488.281,-71.289,70.312
1643308264.180,-498.535,-332.520,-96.191,-98.145
1643308264.184,-632.324,-926.270,-86.914,-92.773
1643308264.188,387.695,450.684,-78.125,53.711
1643308264.189,700.195,-935.547,-91.797,73.242
1643308264.193,-226.562,-23.438,-95.215,-54.199
1643308264.197,-745.605,-1000.000,-83.496,-108.887
1643308264.201,87.891,-249.512,-81.543,18.066
1643308264.205,758.301,997.559,-105.469,111.328
1643308264.209,83.496,215.332,-120.605,4.883
1643308264.213,-740.723,-1000.000,-99.121,-102.051
1643308264.216,-236.328,-534.668,-81.543,-24.902
1643308264.220,692.871,900.879,-100.098,99.121
1643308264.224,355.469,772.461,-107.422,43.457
1643308264.228,-650.879,-767.090,-105.469,-96.191
1643308264.232,-487.305,-635.742,-85.938,-57.129
1643308264.250,538.574,859.863,-59.570,72.266
1643308264.254,562.012,954.102,-81.055,60.059
1643308264.258,-456.055,-544.922,-95.703,-67.871
1643308264.262,-687.988,-939.453,-88.867,-94.238
1643308264.266,301.270,512.207,-86.914,50.293
1643308264.270,710.449,959.961,-94.238,98.145
1643308264.274,-191.406,-584.473,-120.117,-40.039
1643308264.277,-777.344,-1000.000,-96.191,-112.305
1643308264.281,2.930,202.637,-64.453,5.371
1643308264.285,736.816,-968.750,-88.867,87.402
1643308264.289,135.742,255.371,-125.977,-10.742
1643308264.293,-755.859,-960.938,-124.512,-125.000
1643308264.281,-336.426,-569.336,-99.121,-51.270
1643308264.285,607.422,790.039,-114.258,71.289
1643308264.289,364.746,760.742,-126.465,14.648
1643308264.293,-619.141,-582.031,-121.094,-115.234
1643308264.297,-544.922,-596.680,-118.652,-90.820
1643308264.301,457.520,468.750,-119.141,61.035
1643308264.305,578.613,371.094,-122.070,72.754
1643308264.308,-389.160,-400.391,-132.324,-84.961
1643308264.312,-702.637,-805.664,-113.770,-110.840
1643308264.316,222.656,-160.156,-84.473,37.598
1643308264.320,701.660,562.988,-86.914,78.125
1643308264.324,-99.609,229.004,-92.285,-56.152
1643308264.340,-774.902,-886.230,-94.238,-129.883
1643308264.344,-81.543,-433.594,-79.102,-10.742
1643308264.348,717.285,904.785,-79.102,85.938
1643308264.352,200.195,673.340,-95.215,-3.906
1643308264.356,-701.660,-721.680,-104.004,-122.559
1643308264.360,-372.070,-1000.000,-97.168,-62.012
1643308264.364,599.609,490.234,-73.730,72.266
1643308264.367,457.031,991.699,-85.449,43.457
1643308264.371,-544.922,-554.199,-100.098,-92.773
1643308264.375,-579.590,-826.660,-73.730,-93.262
1643308264.379,442.383,677.734,-62.012,43.457
1643308264.383,655.273,-970.703,-86.426,63.477
1643308264.385,-309.082,-388.184,-107.910,-90.332
1643308264.389,-721.680,-1000.000,-84.473,-128.418
1643308264.393,166.992,344.727,-52.734,13.184
1643308264.397,745.117,-906.738,-62.988,72.754
1643308264.401,-14.160,-26.367,-91.309,-50.293
1643308264.405,-773.438,-1000.000,-82.520,-136.719
1643308264.409,-157.715,-210.938,-66.406,-29.785
1643308264.412,706.543,-971.680,-89.844,83.008
1643308264.416,261.230,259.766,-104.492,21.973
1643308264.420,-678.223,-1000.000,-92.285,-100.586
1643308264.424,-399.902,-408.203,-92.773,-59.082
1643308264.428,592.285,864.746,-90.332,78.613
1643308264.431,528.809,751.953,-98.145,59.570
1643308264.435,-472.168,-441.406,-115.723,-80.566
1643308264.439,-613.770,-695.312,-91.309,-92.773
1643308264.443,370.605,628.418,-79.590,35.156
1643308264.447,675.781,-953.613,-101.074,66.895
1643308264.451,-243.652,-244.141,-111.816,-74.219
1643308264.455,-753.906,-1000.000,-95.703,-143.555
1643308264.458,74.707,-112.793,-93.750,-16.602
1643308264.462,718.750,368.652,-98.145,74.707
1643308264.466,43.945,-202.148,-98.633,-41.016
1643308264.470,-742.676,-866.699,-104.492,-154.785
1643308264.474,-180.176,-435.059,-87.402,-60.547
1643308264.475,681.641,804.688,-75.684,61.035
1643308264.479,312.012,783.203,-95.215,-6.836
1643308264.483,-634.277,-561.523,-97.656,-147.461
1643308264.487,-481.445,-903.809,-68.359,-106.445
1643308264.491,499.512,543.945,-58.105,28.809
1643308264.495,528.320,854.004,-69.824,7.812
1643308264.499,-461.914,-531.250,-89.844,-133.301
1643308264.502,-692.383,-1000.000,-83.496,-134.766
1643308264.506,282.227,-263.184,-53.223,12.695
1643308264.510,698.242,966.309,-59.082,41.016
1643308264.514,-170.898,165.039,-75.195,-87.891
1643308264.518,-755.859,-965.332,-73.242,-145.020
1643308264.520,30.762,39.551,-37.598,-29.297
1643308264.524,754.883,-874.512,-36.621,60.059
1643308264.528,137.207,486.816,-81.543,-31.250
1643308264.532,-720.215,-859.375,-86.914,-147.461
1643308264.536,-277.832,-351.074,-64.453,-82.031
1643308264.540,657.715,972.656,-65.430,50.293
1643308264.544,407.227,577.637,-62.988,16.113
1643308264.547,-596.191,-863.281,-66.406,-117.188
1643308264.551,-527.832,-664.551,-69.336,-104.492
1643308264.555,503.418,812.988,-74.219,33.203
1643308264.559,625.488,920.410,-84.961,39.062
1643308264.563,-360.840,-471.680,-81.055,-105.957
1643308264.565,-686.035,-1000.000,-73.730,-143.555
1643308264.569,241.211,268.066,-81.055,-19.043
1643308264.573,723.633,907.715,-102.539,32.227
1643308264.577,-107.910,-618.652,-86.426,-83.984
1643308264.581,-760.742,-1000.000,-62.988,-157.715
1643308264.585,-55.664,-74.219,-50.781,-41.992
1643308264.589,729.004,767.578,-50.293,68.848
1643308264.592,192.871,24.414,-69.824,-19.043
1643308264.596,-714.355,-832.031,-96.191,-158.203
1643308264.600,-346.191,-300.293,-95.703,-95.703
1643308264.604,627.441,868.164,-82.520,36.133
1643308264.608,463.867,882.324,-84.961,-2.930
1643308264.611,-531.738,-363.281,-90.820,-133.301
1643308264.615,-555.176,-798.828,-81.543,-125.000
1643308264.619,441.895,264.160,-76.172,18.555
1643308264.623,651.855,943.848,-80.078,36.621
1643308264.627,-307.129,5.371,-99.121,-104.980
1643308264.631,-720.215,-1000.000,-116.699,-145.020
1643308264.635,158.691,-723.633,-97.656,-15.137
1643308264.638,721.680,703.125,-95.703,51.270
1643308264.642,-38.086,438.965,-119.141,-67.383
1643308264.646,-766.113,-952.637,-105.957,-153.320
1643308264.650,-131.836,-287.598,-76.172,-42.480
1643308264.654,691.406,967.773,-68.359,62.988
1643308264.671,249.512,444.824,-78.613,-19.043
1643308264.675,-677.246,-930.664,-94.238,-150.879
1643308264.679,-403.809,-629.883,-87.402,-97.656
1643308264.683,602.539,869.141,-81.543,45.410
1643308264.687,511.230,784.180,-105.957,14.648
1643308264.691,-533.691,-722.656,-126.465,-124.023
1643308264.695,-649.414,-999.512,-110.840,-112.793
1643308264.698,375.488,516.113,-86.426,21.973
1643308264.702,689.941,-923.828,-98.633,34.180
1643308264.706,-259.277,-419.922,-123.535,-88.867
1643308264.710,-757.812,-1000.000,-93.750,-121.094
1643308264.714,122.070,323.730,-72.754,1.953
1643308264.715,764.160,-941.895,-74.219,82.520
1643308264.719,51.758,58.105,-81.055,-26.855
1643308264.723,-745.605,-984.863,-93.750,-138.184
1643308264.727,-195.801,-208.008,-62.988,-42.480
1643308264.731,700.684,955.078,-65.430,82.520
1643308264.735,332.520,356.934,-101.562,22.461
1643308264.739,-649.902,-948.730,-105.957,-116.211
1643308264.742,-471.191,-813.477,-101.074,-81.543
1643308264.746,552.734,603.027,-108.398,49.805
1643308264.750,555.176,173.340,-115.234,37.598
1643308264.754,-481.445,-1000.000,-110.352,-108.887
1643308264.758,-686.523,-875.488,-108.887,-134.277
1643308264.760,319.824,127.441,-103.027,16.602
1643308264.764,701.172,719.727,-95.215,69.336
1643308264.768,-210.938,-9.277,-118.652,-74.219
1643308264.772,-776.367,-907.715,-117.188,-141.113
1643308264.776,41.504,-165.039,-94.238,-4.395
1643308264.780,771.484,908.203,-97.656,93.262
1643308264.784,147.461,258.789,-116.699,-17.090
1643308264.787,-723.145,-869.141,-108.887,-141.113
1643308264.791,-273.438,-807.617,-75.684,-51.270
1643308264.795,665.527,392.578,-82.520,79.590
1643308264.799,400.879,732.910,-110.352,20.996
1643308264.803,-605.469,-586.426,-110.352,-124.023
1643308264.805,-532.227,-971.680,-105.957,-98.633
1643308264.809,510.254,527.832,-85.938,48.828
1643308264.813,631.836,-900.391,-86.914,73.730
1643308264.817,-375.000,-226.562,-110.352,-66.406
1643308264.821,-695.801,-929.688,-107.910,-106.934
1643308264.825,267.090,174.316,-83.984,29.785
1643308264.829,750.000,-971.191,-65.430,91.797
1643308264.832,-107.422,48.828,-85.938,-33.691
1643308264.836,-787.109,-1000.000,-98.633,-124.023
1643308264.840,-39.551,-32.227,-77.148,-15.137
1643308264.844,776.855,-927.246,-69.824,90.820
1643308264.848,209.961,409.180,-86.426,1.465
1643308264.850,-717.773,-956.055,-98.145,-125.000
1643308264.854,-342.285,-667.969,-83.008,-68.359
1643308264.858,650.391,863.770,-83.008,74.219
1643308264.862,455.078,642.578,-106.445,43.457
1643308264.866,-577.637,-884.277,-102.051,-86.914
1643308264.870,-571.289,-921.875,-83.984,-64.453
1643308264.874,469.238,568.848,-73.242,65.430
1643308264.877,655.762,756.836,-72.754,62.500
1643308264.881,-338.379,-824.707,-71.289,-72.266
1643308264.885,-729.492,-976.562,-74.219,-120.117
1643308264.889,203.125,327.637,-73.730,8.789
1643308264.893,767.090,-959.473,-69.824,84.473
1643308264.895,-23.926,294.922,-65.918,-24.414
1643308264.899,-751.465,-796.875,-55.664,-107.422
1643308264.903,-95.703,-183.105,-69.336,-13.672
1643308264.907,737.305,921.875,-70.801,93.750
1643308264.911,253.418,588.379,-76.172,6.348
1643308264.915,-696.777,-782.715,-93.750,-120.605
1643308264.919,-400.391,-808.594,-83.496,-60.059
1643308264.922,610.840,70.312,-58.105,91.309
1643308264.926,513.672,615.234,-55.176,56.641
1643308264.930,-513.184,-319.824,-55.664,-84.961
1643308264.934,-601.074,-948.242,-32.715,-78.125
1643308264.938,423.340,458.496,-32.227,62.988
1643308264.940,701.660,-966.797,-46.387,102.051
1643308264.944,-245.605,-66.895,-49.316,-41.992
1643308264.948,-735.840,-1000.000,-51.758,-106.445
1643308264.952,125.000,-255.371,-49.805,28.320
1643308264.956,768.066,974.609,-59.082,110.840
1643308264.960,41.504,227.051,-79.102,-10.742
1643308264.964,-768.555,-1000.000,-76.660,-117.676
1643308264.967,-196.777,-814.941,-49.805,-14.160
1643308264.971,712.891,785.645,-40.039,91.797
1643308264.975,328.613,805.176,-45.410,28.809
1643308264.979,-651.367,-795.410,-46.875,-82.520
1643308264.983,-448.242,-545.898,-31.250,-42.480
1643308264.985,580.566,908.203,-36.621,87.402
1643308264.989,581.055,938.965,-69.336,77.637
1643308264.993,-445.801,-611.328,-81.543,-56.152
1643308264.997,-643.066,-947.754,-63.965,-73.730
1643308265.001,349.609,632.812,-63.477,67.383
1643308265.005,712.891,969.727,-96.680,103.516
1643308265.009,-208.008,-588.379,-104.004,-35.645
1643308265.012,-781.738,-1000.000,-81.543,-108.398
1643308265.016,41.504,2.930,-70.801,7.812
1643308265.020,760.254,879.395,-76.172,95.703
1643308265.024,95.215,41.992,-94.238,-11.719
1643308265.028,-727.051,-975.098,-76.660,-120.117
1643308265.045,-243.652,-490.234,-40.527,-37.598
1643308265.049,658.691,718.750,-41.992,95.215
1643308265.053,353.516,375.977,-49.805,43.945
1643308265.057,-630.859,-691.406,-44.922,-97.168
1643308265.061,-502.930,-537.109,-48.828,-63.477
1643308265.065,532.715,593.750,-57.617,82.520
1643308265.069,610.352,803.223,-53.711,78.125
1643308265.072,-390.137,-248.047,-46.875,-74.219
1643308265.076,-679.688,-790.527,-46.387,-113.770
1643308265.080,263.184,149.414,-43.945,32.715
1643308265.084,726.074,871.582,-56.641,93.262
1643308265.088,-120.117,28.809,-75.195,-42.969
1643308265.090,-767.578,-971.191,-70.801,-118.164
1643308265.094,-35.645,-524.902,-61.035,8.789
1643308265.098,750.488,819.824,-45.898,106.445
1643308265.102,197.266,639.160,-56.152,1.953
1643308265.106,-721.191,-861.816,-70.312,-133.301
1643308265.110,-348.633,-752.441,-61.523,-71.777
1643308265.114,621.582,752.930,-54.199,79.590
1643308265.117,424.805,916.504,-64.453,27.832
1643308265.121,-583.984,-593.262,-67.383,-115.723
1643308265.125,-583.496,-1000.000,-62.012,-83.496
1643308265.129,435.547,558.105,-62.500,48.340
1643308265.133,625.977,-970.215,-68.359,57.617
1643308265.135,-357.422,-498.047,-63.965,-74.219
1643308265.139,-752.930,-1000.000,-49.805,-115.723
1643308265.143,185.059,268.555,-49.805,25.879
1643308265.147,730.957,-900.391,-75.195,90.820
1643308265.151,-68.359,57.129,-82.520,-28.320
1643308265.155,-667.969,-931.152,-49.316,-84.473
1643308265.159,-62.012,-262.207,-16.602,9.277
1643308265.162,720.703,965.820,-29.785,109.863
1643308265.166,267.578,294.434,-52.734,34.180
1643308265.170,-690.430,-1000.000,-47.852,-95.703
1643308265.174,-374.512,-435.059,-41.016,-40.527
1643308265.178,614.746,863.770,-37.109,89.355
1643308265.180,488.770,714.355,-52.734,60.059
1643308265.184,-516.602,-542.480,-64.941,-87.891
1643308265.188,-595.215,-716.309,-45.898,-95.215
1643308265.192,408.691,613.770,-27.832,60.547
1643308265.196,673.340,859.375,-19.043,91.797
1643308265.200,-270.996,-430.176,-47.363,-62.500
1643308265.204,-734.863,-955.566,-69.824,-119.141
1643308265.207,142.090,207.031,-42.969,16.113
1643308265.211,758.301,496.582,-22.949,107.910
1643308265.215,21.484,-121.582,-27.344,-5.859
1643308265.219,-742.188,-761.230,-29.785,-107.422
1643308265.223,-122.070,-340.820,-23.438,-16.113
1643308265.225,717.285,814.941,-32.227,81.543
1643308265.229,295.410,733.887,-37.598,17.578
1643308265.233,-649.902,-556.641,-38.574,-108.887
1643308265.237,-448.242,-791.992,-20.020,-65.430
1643308265.241,549.316,604.492,-15.625,78.125
1643308265.245,529.785,792.969,-40.527,71.777
1643308265.249,-489.258,-639.648,-55.664,-84.961
1643308265.252,-672.852,-1000.000,-57.129,-112.305
1643308265.256,322.266,-94.727,-31.738,38.574
1643308265.260,690.430,-969.727,-9.766,75.195
1643308265.264,-199.219,101.562,-45.410,-62.012
1643308265.268,-759.766,-973.633,-55.664,-124.512
1643308265.270,45.410,100.098,-18.555,0.977
1643308265.274,752.441,-864.258,-12.207,83.008
1643308265.278,104.980,411.621,-41.016,-18.066
1643308265.282,-736.816,-888.672,-59.570,-133.301
1643308265.286,-260.254,-318.359,-43.945,-63.477
1643308265.290,648.926,991.699,-35.645,59.570
1643308265.294,352.051,553.223,-48.828,3.418
1643308265.297,-642.578,-861.816,-51.758,-130.371
1643308265.301,-532.227,-731.934,-48.828,-98.145
1643308265.305,502.441,743.652,-51.270,55.664
1643308265.309,576.172,847.168,-61.035,52.246
1643308265.313,-426.270,-732.422,-69.336,-87.402
1643308265.316,-687.012,-1000.000,-41.016,-96.191
1643308265.320,278.320,482.910,-5.371,36.133
1643308265.324,722.656,946.289,-31.738,77.637
1643308265.328,-133.301,-405.762,-60.547,-59.570
1643308265.332,-763.672,-1000.000,-54.199,-147.461
1643308265.336,-38.574,-111.328,-55.664,-30.762
1643308265.340,706.543,769.043,-67.871,70.801
1643308265.343,136.230,-38.086,-79.102,-24.902
1643308265.347,-741.211,-858.887,-80.078,-145.996
1643308265.351,-334.961,-267.578,-63.477,-67.383
1643308265.355,635.742,943.848,-62.012,70.801
1643308265.359,429.199,732.910,-89.844,25.879
1643308265.361,-586.426,-711.914,-89.844,-113.770
1643308265.365,-563.965,-815.430,-57.129,-93.750
1643308265.369,448.242,363.770,-51.270,50.781
1643308265.373,616.211,928.223,-54.199,58.594
1643308265.377,-349.609,-70.801,-51.758,-82.031
1643308265.381,-714.844,-1000.000,-42.969,-118.652
1643308265.385,196.777,-592.285,-45.898,23.438
1643308265.388,742.676,734.375,-59.570,101.562
1643308265.392,-49.316,367.188,-79.590,-30.273
1643308265.396,-769.531,-985.840,-89.844,-138.184
1643308265.400,-94.727,-226.562,-56.152,-26.367
1643308265.404,738.770,-998.535,-62.988,95.215
1643308265.420,246.582,386.719,-84.961,2.441
1643308265.424,-687.500,-938.477,-56.641,-111.816
1643308265.428,-375.000,-732.910,-41.016,-44.922
1643308265.432,628.418,780.762,-43.945,83.496
1643308265.436,508.789,964.844,-70.801,46.875
1643308265.440,-523.926,-608.398,-92.773,-86.914
1643308265.444,-609.863,-1000.000,-58.105,-81.543
1643308265.447,415.039,518.555,-33.203,53.711
1643308265.451,685.059,-907.227,-56.152,70.312
1643308265.455,-278.320,-343.262,-78.125,-79.590
1643308265.459,-734.863,-1000.000,-70.801,-130.371
1643308265.463,160.645,293.945,-58.105,14.160
1643308265.465,779.297,-951.172,-83.984,89.844
1643308265.469,16.113,24.414,-100.586,-26.855
1643308265.473,-768.555,-982.422,-80.566,-120.605
1643308265.477,-152.832,-150.879,-69.336,-18.555
1643308265.481,731.934,948.242,-82.520,96.191
1643308265.485,321.289,212.891,-86.426,17.578
1643308265.489,-645.508,-1000.000,-77.148,-113.770
1643308265.492,-422.852,-600.098,-51.758,-71.289
1643308265.496,606.445,782.227,-54.688,79.590
1643308265.500,559.082,125.977,-91.309,62.988
1643308265.504,-462.402,-973.633,-82.031,-85.449
1643308265.508,-609.375,-792.480,-61.523,-89.844
1643308265.511,384.766,208.496,-69.336,55.176
1643308265.515,715.820,709.473,-72.266,89.355
1643308265.519,-208.496,-54.199,-70.312,-56.152
1643308265.523,-748.047,-831.543,-86.426,-116.211
1643308265.527,77.148,-31.738,-81.055,17.090
1643308265.531,764.160,947.266,-66.895,92.773
1643308265.535,97.656,233.887,-97.656,-19.531
1643308265.538,-728.027,-847.656,-102.051,-115.234
1643308265.542,-224.609,-796.875,-80.078,-21.484
1643308265.546,679.199,81.543,-86.914,98.145
1643308265.550,358.887,740.234,-112.793,25.391
1643308265.554,-628.418,-505.371,-104.492,-105.469
1643308265.555,-495.117,-870.605,-71.289,-73.730
1643308265.559,541.016,701.660,-68.359,51.270
1643308265.563,586.426,-939.941,-99.121,36.621
1643308265.567,-454.102,-281.250,-115.723,-117.188
1643308265.571,-723.633,-941.895,-103.516,-142.578
1643308265.575,253.418,246.582,-83.496,7.324
1643308265.579,712.402,-942.383,-85.938,61.035
1643308265.582,-151.855,41.992,-99.609,-75.195
1643308265.586,-802.246,-1000.000,-90.332,-162.109
1643308265.590,-44.922,-52.246,-90.332,-56.641
1643308265.594,717.285,-955.566,-101.074,53.223
1643308265.598,120.117,254.883,-109.375,-40.039
1643308265.600,-760.742,-966.309,-107.910,-153.809
1643308265.604,-317.871,-320.801,-92.285,-71.777
1643308265.608,651.855,970.215,-109.863,55.176
1643308265.612,413.086,642.578,-108.398,13.672
1643308265.616,-596.680,-747.559,-83.496,-117.188
1643308265.620,-561.035,-914.551,-70.312,-100.098
1643308265.624,469.238,587.402,-74.219,48.340
1643308265.627,625.000,762.207,-94.727,68.359
1643308265.631,-380.371,-847.168,-97.168,-84.473
1643308265.635,-729.492,-916.504,-85.938,-125.488
1643308265.639,229.980,475.586,-71.777,35.156
1643308265.643,753.906,-922.363,-70.312,109.375
1643308265.646,-76.172,84.961,-84.473,-29.785
1643308265.650,-766.602,-932.129,-77.637,-119.629
1643308265.654,-60.547,-116.699,-52.734,5.859
1643308265.658,746.094,861.816,-60.059,116.699
1643308265.662,234.375,492.188,-78.613,14.648
1643308265.666,-689.941,-798.340,-72.754,-107.910
1643308265.670,-346.680,-820.312,-60.059,-28.320
1643308265.673,646.973,207.520,-56.641,116.211
1643308265.677,488.770,717.285,-71.777,71.289
1643308265.681,-539.062,-389.160,-93.262,-73.730
1643308265.685,-587.891,-929.199,-73.730,-72.266
1643308265.689,436.523,509.277,-56.641,61.523
1643308265.690,676.758,-995.117,-77.637,86.426
1643308265.694,-279.785,-125.000,-93.750,-60.547
1643308265.698,-737.793,-1000.000,-77.637,-108.398
1643308265.702,145.020,-357.910,-39.062,30.273
1643308265.706,778.809,920.898,-47.363,102.539
1643308265.710,30.273,158.203,-73.730,-11.719
1643308265.714,-761.719,-1000.000,-82.031,-112.793
1643308265.717,-165.039,-741.211,-68.359,-24.414
1643308265.721,715.820,815.430,-66.406,84.961
1643308265.725,291.504,782.227,-79.102,2.441
1643308265.729,-681.152,-786.621,-78.125,-122.559
1643308265.733,-436.035,-518.066,-71.777,-62.988
1643308265.734,595.703,925.781,-74.219,73.242
1643308265.738,559.570,930.176,-89.844,51.270
1643308265.742,-494.629,-652.344,-83.984,-86.914
1643308265.746,-652.344,-933.594,-55.176,-93.262
1643308265.750,362.305,676.758,-57.617,42.480
1643308265.754,693.359,960.449,-84.473,66.895
1643308265.758,-248.535,-628.906,-100.098,-81.055
1643308265.761,-786.133,-1000.000,-85.938,-157.227
1643308265.765,67.871,289.062,-71.289,-20.020
1643308265.769,762.207,969.727,-70.312,80.078
1643308265.773,77.637,-70.801,-89.355,-35.645
1643308265.777,-745.605,-1000.000,-103.027,-143.066
1643308265.779,-205.566,-418.945,-79.590,-39.062
1643308265.783,708.984,763.184,-73.730,82.031
1643308265.787,361.328,263.672,-81.055,4.395
1643308265.791,-633.789,-811.523,-93.750,-131.348
1643308265.795,-496.582,-551.270,-86.914,-90.820
1643308265.799,511.719,646.484,-74.707,53.223
1643308265.803,549.805,796.387,-90.332,42.480
1643308265.806,-460.938,-360.352,-105.469,-98.145
1643308265.810,-691.406,-955.078,-93.262,-102.051
1643308265.814,291.016,-22.461,-76.172,41.016
1643308265.818,697.754,812.012,-72.754,74.707
1643308265.822,-172.363,210.449,-77.637,-65.918
1643308265.839,-779.297,-924.316,-82.031,-128.906
1643308265.843,-22.461,-262.695,-65.430,-3.418
1643308265.847,735.352,984.863,-65.430,93.262
1643308265.851,126.465,539.062,-90.332,-19.043
1643308265.855,-756.836,-868.164,-93.262,-140.137
1643308265.859,-314.941,-747.559,-67.871,-41.992
1643308265.863,646.484,754.395,-60.547,98.145
1643308265.866,392.578,895.508,-85.449,49.805
1643308265.870,-619.141,-611.816,-79.102,-100.098
1643308265.874,-550.781,-937.500,-55.664,-90.332
1643308265.878,494.141,641.602,-60.059,59.082
1643308265.882,617.188,944.824,-87.402,75.684
1643308265.885,-396.973,-567.383,-97.168,-64.941
1643308265.889,-748.535,-1000.000,-81.543,-102.051
1643308265.893,203.613,347.168,-83.496,37.109
1643308265.897,742.676,-880.371,-98.633,107.910
1643308265.901,-83.496,6.836,-109.375,-33.691
1643308265.905,-791.992,-1000.000,-108.398,-138.672
1643308265.909,-95.215,-155.762,-80.566,-26.367
1643308265.912,723.145,-949.707,-89.844,83.496
1643308265.916,189.941,240.723,-123.047,-3.906
1643308265.920,-739.746,-1000.000,-99.609,-129.883
1643308265.924,-374.512,-354.004,-74.219,-72.266
1643308265.928,620.605,913.574,-92.285,61.523
1643308265.931,456.055,662.109,-113.770,20.996
1643308265.935,-569.824,-711.914,-116.699,-128.906
1643308265.939,-596.191,-769.531,-96.191,-106.934
1643308265.943,423.340,682.129,-87.891,47.852
1643308265.947,630.859,636.719,-106.934,59.082
1643308265.951,-339.355,-649.902,-123.047,-83.496
1643308265.955,-746.094,-958.984,-114.258,-134.277
1643308265.958,146.973,259.277,-105.957,-8.301
1643308265.962,730.469,651.855,-120.117,74.219
1643308265.966,-15.625,-41.016,-121.094,-30.762
1643308265.970,-762.695,-819.336,-117.676,-126.953
1643308265.974,-107.910,-247.070,-103.027,-20.996
1643308265.975,716.309,904.785,-103.027,92.773
1643308265.979,268.555,656.738,-136.230,-0.977
1643308265.983,-668.457,-648.926,-150.391,-135.742
1643308265.987,-411.621,-863.281,-127.930,-70.801
1643308265.991,597.656,436.523,-107.910,75.195
1643308265.995,520.020,736.328,-120.117,38.574
1643308265.999,-495.117,-599.121,-116.699,-107.910
1643308266.002,-634.766,-1000.000,-95.703,-109.375
1643308266.006,361.816,-448.242,-82.520,52.734
1643308266.010,683.594,859.375,-92.285,80.566
1643308266.014,-239.746,128.418,-104.980,-75.195
1643308266.018,-747.559,-980.469,-83.984,-127.441
1643308266.020,75.684,167.969,-80.078,-4.395
1643308266.024,725.586,-865.234,-100.098,75.195
1643308266.028,54.199,368.652,-98.145,-29.785
1643308266.032,-739.746,-888.184,-78.613,-131.348
1643308266.036,-212.402,-260.742,-70.312,-38.574
1643308266.040,665.039,973.145,-66.895,84.473
1643308266.044,325.195,465.332,-80.078,24.414
1643308266.047,-652.832,-913.574,-90.820,-110.352
1643308266.051,-489.258,-663.086,-66.895,-75.684
1643308266.055,543.945,833.008,-61.035,76.660
1643308266.059,568.359,924.316,-79.590,62.012
1643308266.063,-434.570,-520.020,-83.496,-91.309
1643308266.065,-659.180,-1000.000,-67.383,-102.051
1643308266.069,318.359,523.438,-46.387,46.875
1643308266.073,730.469,963.867,-54.199,96.191
1643308266.077,-154.297,-525.879,-68.848,-40.039
1643308266.081,-750.977,-1000.000,-77.637,-123.535
1643308266.085,29.297,-46.387,-76.660,0.977
1643308266.089,758.789,772.461,-84.473,109.375
1643308266.092,150.391,-141.113,-92.773,14.648
1643308266.096,-700.684,-952.637,-87.891,-112.305
1643308266.100,-256.348,-485.840,-65.918,-46.387
1643308266.104,679.688,675.293,-60.059,83.008
1643308266.108,404.297,793.945,-88.867,27.344
1643308266.110,-595.215,-442.383,-96.191,-111.816
1643308266.114,-512.695,-698.730,-80.078,-72.754
1643308266.118,512.695,563.965,-77.148,76.172
1643308266.122,625.488,998.535,-93.262,59.082
1643308266.126,-373.047,-96.191,-101.562,-98.633
1643308266.130,-698.730,-1000.000,-100.586,-127.930
1643308266.134,229.004,-560.059,-83.008,19.043
1643308266.137,726.074,779.785,-78.125,77.148
1643308266.141,-92.285,345.215,-106.934,-57.129
1643308266.145,-766.602,-982.422,-109.375,-136.230
1643308266.149,-63.477,-289.062,-83.984,-24.902
1643308266.153,733.398,942.871,-77.148,70.312
1643308266.156,196.777,348.633,-84.961,-17.578
1643308266.160,-734.375,-964.355,-106.934,-142.578
1643308266.164,-382.324,-931.641,-98.633,-73.730
1643308266.168,615.723,669.922,-88.867,65.918
1643308266.172,452.148,961.914,-121.582,19.531
1643308266.176,-569.336,-701.172,-135.254,-120.117
1643308266.180,-586.426,-823.730,-116.211,-96.680
1643308266.183,450.684,728.516,-97.656,40.527
1643308266.187,666.504,-954.590,-99.609,62.988
1643308266.191,-315.430,-431.152,-107.422,-71.777
1643308266.195,-734.863,-1000.000,-86.426,-126.953
1643308266.199,181.152,368.652,-68.359,4.883
1643308266.216,746.094,-936.523,-95.215,73.242
1643308266.220,-61.035,-101.074,-116.211,-55.664
1643308266.224,-782.227,-1000.000,-114.258,-142.090
1643308266.228,-122.070,-125.000,-99.609,-33.203
1643308266.232,744.141,964.844,-95.703,82.520
1643308266.236,277.832,-133.301,-105.957,6.348
1643308266.240,-690.430,-1000.000,-110.840,-127.441
1643308266.243,-403.809,-386.719,-107.910,-75.195
1643308266.247,610.840,784.668,-85.938,71.777
1643308266.251,530.762,330.078,-96.680,56.641
1643308266.255,-484.375,-725.586,-98.145,-88.867
1643308266.259,-614.258,-830.078,-76.660,-93.750
1643308266.260,381.348,219.238,-68.359,54.688
1643308266.264,695.312,691.406,-66.406,86.914
1643308266.268,-233.398,-111.816,-74.707,-72.266
1643308266.272,-738.770,-872.559,-66.406,-125.000
1643308266.276,103.516,-25.391,-51.270,27.344
1643308266.280,752.930,956.055,-78.125,99.121
1643308266.284,55.664,93.750,-102.051,-22.461
1643308266.287,-749.023,-915.527,-91.797,-134.766
1643308266.291,-202.148,-653.320,-85.449,-41.504
1643308266.295,691.895,104.004,-87.402,91.309
1643308266.299,335.938,664.062,-93.750,16.113
1643308266.303,-641.602,-522.949,-104.980,-121.094
1643308266.304,-471.680,-861.816,-88.379,-72.266
1643308266.308,560.059,715.820,-80.078,70.801
1643308266.312,569.824,-942.871,-97.168,56.152
1643308266.316,-452.637,-283.203,-109.863,-95.215
1643308266.320,-615.723,-837.891,-83.496,-100.586
1643308266.324,338.867,313.965,-57.617,54.199
1643308266.328,713.379,-973.145,-81.055,88.867
1643308266.331,-168.945,-35.645,-118.652,-54.688
1643308266.335,-787.109,-1000.000,-122.559,-117.188
1643308266.339,-7.812,-133.789,-95.703,-0.977
1643308266.343,748.535,-929.688,-100.098,88.379
1643308266.347,130.859,353.027,-130.371,-28.320
1643308266.349,-753.418,-962.891,-115.723,-151.855
1643308266.353,-277.832,-333.496,-85.938,-60.547
1643308266.357,675.293,990.723,-109.863,69.824
1643308266.361,385.254,564.941,-129.883,12.695
1643308266.365,-571.777,-860.352,-115.234,-115.723
1643308266.369,-451.660,-847.656,-97.656,-72.266
1643308266.373,521.973,624.023,-87.402,68.848
1643308266.376,611.816,753.906,-108.398,65.918
1643308266.380,-395.020,-823.242,-109.863,-87.402
1643308266.384,-700.684,-995.117,-83.008,-122.559
1643308266.388,256.348,254.883,-96.191,18.555
1643308266.392,737.793,796.875,-118.652,67.871
1643308266.394,-74.707,-37.598,-137.695,-55.176
1643308266.398,-736.328,-815.918,-122.070,-118.652
1643308266.402,-25.391,-15.625,-104.980,6.348
1643308266.406,767.090,-962.402,-125.488,94.238
1643308266.410,208.008,544.922,-138.184,-8.789
1643308266.414,-716.309,-809.082,-146.973,-136.719
1643308266.418,-343.750,-714.355,-145.996,-71.289
1643308266.421,636.719,244.141,-145.996,76.172
1643308266.425,458.984,643.066,-135.742,33.691
1643308266.429,-548.828,-401.855,-121.582,-104.004
1643308266.433,-561.035,-863.770,-108.887,-84.473
1643308266.437,457.031,576.172,-104.004,60.547
1643308266.441,666.504,959.961,-117.676,83.496
1643308266.445,-305.176,-338.379,-120.117,-60.547
1643308266.449,-707.031,-1000.000,-108.398,-104.492
1643308266.453,205.566,-575.195,-92.285,48.828
1643308266.457,784.180,790.527,-102.051,112.793
1643308266.461,6.348,188.965,-125.488,-24.414
1643308266.465,-750.977,-1000.000,-124.023,-119.629
1643308266.468,-123.535,-417.969,-103.516,-18.555
1643308266.472,748.535,974.609,-104.980,93.262
1643308266.476,306.152,695.801,-114.258,15.137
1643308266.480,-663.086,-791.504,-103.027,-110.840
1643308266.484,-375.488,-491.699,-86.426,-49.805
1643308266.485,630.859,937.988,-88.379,98.145
1643308266.489,525.879,905.273,-109.863,68.848
1643308266.493,-499.023,-660.156,-107.910,-85.449
1643308266.497,-602.539,-1000.000,-93.262,-90.332
1643308266.501,408.691,597.656,-96.680,59.082
1643308266.505,697.754,971.680,-104.980,93.262
1643308266.509,-255.859,-651.367,-110.840,-44.922
1643308266.512,-750.977,-1000.000,-99.121,-111.816
1643308266.516,129.883,312.500,-89.355,22.461
1643308266.520,773.438,-956.543,-103.027,114.258
1643308266.524,57.617,243.652,-106.445,-3.418
1643308266.528,-708.984,-894.531,-107.910,-110.840
1643308266.530,-182.129,-457.520,-103.027,-25.391
1643308266.534,697.754,763.672,-85.449,98.145
1643308266.538,336.914,228.027,-100.586,31.738
1643308266.542,-648.438,-818.359,-103.027,-108.887
1643308266.546,-472.168,-510.742,-90.332,-73.730
1643308266.550,546.387,673.828,-106.934,76.660
1643308266.554,552.246,634.766,-116.211,56.641
1643308266.557,-458.496,-651.855,-113.281,-100.586
1643308266.561,-671.875,-841.797,-118.652,-116.211
1643308266.565,296.875,144.531,-107.910,29.297
1643308266.569,674.316,593.750,-95.215,64.453
1643308266.573,-186.035,51.270,-115.723,-68.848
1643308266.590,-752.441,-840.332,-123.535,-130.371
1643308266.594,19.531,-154.297,-101.074,-8.789
1643308266.598,745.117,982.910,-87.402,85.449
1643308266.602,107.422,508.789,-100.098,-16.113
1643308266.606,-752.441,-848.145,-105.469,-129.395
1643308266.610,-284.668,-716.309,-85.449,-62.500
1643308266.614,654.785,790.039,-93.750,79.102
1643308266.617,380.371,840.332,-116.699,38.574
1643308266.621,-622.070,-731.445,-111.816,-114.746
1643308266.625,-544.434,-777.344,-89.844,-92.773
1643308266.629,488.281,795.898,-85.938,56.641
1643308266.633,603.027,929.688,-104.492,68.359
1643308266.635,-412.109,-521.484,-119.141,-70.801
1643308266.639,-732.422,-1000.000,-104.980,-98.633
1643308266.643,228.027,-71.777,-94.238,31.738
1643308266.647,716.309,-958.496,-112.793,82.520
1643308266.651,-131.836,68.359,-116.211,-40.527
1643308266.655,-796.875,-1000.000,-117.188,-115.234
1643308266.659,-64.941,-129.395,-109.863,1.465
1643308266.662,725.586,-941.895,-101.074,95.703
1643308266.666,164.551,245.605,-122.559,-17.578
1643308266.670,-744.629,-1000.000,-121.582,-138.672
1643308266.674,-363.281,-404.785,-102.539,-60.547
1643308266.678,612.793,906.250,-102.539,96.680
1643308266.680,434.082,477.539,-117.676,61.035
1643308266.684,-572.266,-778.809,-120.605,-93.262
1643308266.688,-573.242,-628.418,-100.586,-81.055
1643308266.692,449.219,702.637,-76.660,83.496
1643308266.696,642.578,963.867,-97.168,110.352
1643308266.700,-329.590,-435.059,-121.094,-52.734
1643308266.704,-714.844,-963.867,-81.543,-96.191
1643308266.707,199.219,313.477,-46.875,62.500
1643308266.711,740.234,607.910,-75.684,125.977
1643308266.715,-20.020,-78.613,-79.590,0.488
1643308266.719,-740.234,-806.641,-83.008,-99.121
1643308266.723,-127.930,-304.688,-92.285,-3.418
1643308266.726,704.102,897.949,-79.102,108.398
1643308266.730,252.441,502.930,-84.473,21.973
1643308266.734,-672.852,-823.730,-81.543,-107.910
1643308266.738,-396.484,-809.570,-83.008,-55.664
1643308266.742,582.520,254.395,-86.914,96.191
1643308266.746,497.070,625.488,-103.027,76.172
1643308266.750,-513.672,-628.906,-108.398,-76.660
1643308266.753,-622.559,-1000.000,-83.008,-75.195
1643308266.757,381.348,46.387,-75.684,56.641
1643308266.761,671.875,-947.266,-95.215,73.242
1643308266.765,-274.902,-15.137,-105.469,-55.176
1643308266.769,-758.301,-978.027,-98.145,-95.703
1643308266.770,102.539,207.520,-98.633,37.109
1643308266.774,751.465,-871.094,-99.121,113.281
1643308266.778,50.781,329.590,-96.680,0.977
1643308266.782,-757.812,-917.969,-80.566,-105.469
1643308266.786,-186.035,-484.375,-70.801,-7.812
1643308266.790,720.703,878.906,-87.402,117.188
1643308266.794,322.266,512.207,-103.027,41.504
1643308266.797,-672.363,-932.617,-103.516,-106.934
1643308266.801,-460.938,-700.195,-79.102,-65.918
1643308266.805,561.035,814.941,-84.961,88.867
1643308266.809,541.992,922.363,-96.191,74.219
1643308266.813,-467.773,-526.367,-93.750,-91.309
1643308266.815,-669.434,-1000.000,-88.867,-104.980
1643308266.819,312.500,507.324,-78.125,52.734
1643308266.823,686.035,955.078,-91.309,104.004
1643308266.827,-197.754,-567.383,-103.027,-26.367
1643308266.831,-736.328,-1000.000,-88.867,-93.750
1643308266.835,50.781,32.227,-63.477,22.461
1643308266.839,738.770,793.945,-67.871,107.910
1643308266.842,90.820,-544.434,-86.914,18.555
1643308266.846,-739.746,-1000.000,-75.195,-99.609
1643308266.850,-229.492,-124.023,-58.594,-14.160
1643308266.854,706.055,938.965,-64.453,121.582
1643308266.858,419.922,825.684,-87.891,56.641
1643308266.860,-576.172,-427.734,-80.566,-86.914
1643308266.864,-488.281,-571.777,-71.777,-59.570
1643308266.868,512.695,647.461,-73.730,83.496
1643308266.872,591.309,977.539,-86.914,82.520
1643308266.876,-386.719,-168.457,-93.262,-60.059
1643308266.880,-687.500,-1000.000,-101.074,-92.773
1643308266.884,242.188,-462.402,-115.723,50.293
1643308266.887,716.309,782.227,-106.934,107.422
1643308266.891,-171.875,162.598,-125.000,-33.691
1643308266.895,-789.062,-1000.000,-130.859,-116.699
1643308266.899,-35.645,-398.926,-100.586,-2.441
1643308266.903,731.445,934.082,-94.727,101.562
1643308266.906,175.781,349.121,-115.723,12.695
1643308266.910,-719.238,-1000.000,-103.516,-93.750
1643308266.914,-321.777,-615.234,-69.824,-26.367
1643308266.918,648.438,877.930,-79.102,94.727
1643308266.922,448.730,867.188,-97.168,41.992
1643308266.926,-550.781,-733.398,-93.262,-105.469
1643308266.930,-534.668,-845.703,-75.195,-74.707
1643308266.933,479.492,723.633,-66.406,72.266
1643308266.937,668.945,-942.383,-69.336,76.660
1643308266.941,-323.242,-409.180,-83.008,-61.035
1643308266.945,-703.613,-996.094,-70.801,-98.633
1643308266.949,250.977,433.105,-53.223,25.879
1643308266.965,750.000,-930.664,-80.078,87.402
1643308266.969,-59.082,-289.551,-117.676,-34.668
1643308266.973,-757.812,-1000.000,-105.469,-136.719
1643308266.977,-98.145,-50.781,-71.289,-39.062
1643308266.981,740.723,970.703,-71.777,66.406
1643308266.985,253.418,156.250,-100.586,-4.395
1643308266.989,-701.660,-1000.000,-107.422,-137.207
1643308266.992,-397.949,-419.434,-85.938,-78.613
1643308266.996,599.609,823.242,-90.332,68.848
1643308267.000,475.586,593.262,-103.027,35.645
1643308267.004,-526.367,-661.133,-105.469,-109.375
1643308267.008,-602.051,-863.281,-99.121,-107.422
1643308267.010,390.137,326.660,-95.215,39.062
1643308267.014,652.344,295.410,-103.516,73.242
1643308267.018,-277.344,-646.973,-98.633,-60.547
1643308267.022,-725.098,-895.996,-75.195,-117.188
1643308267.026,143.555,70.801,-62.988,12.207
1643308267.030,752.930,896.973,-72.754,96.680
1643308267.034,25.391,178.711,-107.910,-19.043
1643308267.037,-750.488,-821.289,-114.746,-137.207
1643308267.041,-170.898,-562.012,-104.492,-47.852
1643308267.045,701.172,535.156,-101.074,80.078
1643308267.049,317.383,815.918,-102.539,4.395
1643308267.053,-648.926,-599.121,-115.234,-132.812
1643308267.055,-441.406,-835.938,-93.262,-75.195
1643308267.059,575.195,714.355,-72.266,64.453
1643308267.063,553.711,-943.359,-95.215,42.480
1643308267.067,-457.520,-299.805,-110.352,-96.191
1643308267.071,-642.090,-927.734,-82.520,-97.168
1643308267.075,353.027,365.234,-85.449,44.434
1643308267.079,703.125,994.141,-105.957,70.312
1643308267.082,-214.844,-238.281,-105.957,-60.547
1643308267.086,-777.832,-1000.000,-100.098,-122.559
1643308267.090,42.480,-146.484,-70.801,10.742
1643308267.094,759.277,-958.496,-76.660,103.027
1643308267.098,103.516,344.727,-119.141,-4.883
1643308267.100,-739.258,-947.266,-110.840,-116.211
1643308267.104,-242.676,-267.578,-81.543,-33.691
1643308267.108,695.801,-991.211,-96.680,84.473
1643308267.112,393.555,543.457,-113.281,25.391
1643308267.116,-608.887,-889.160,-90.332,-113.770
1643308267.120,-491.699,-894.043,-77.637,-83.496
1643308267.124,533.203,660.645,-80.078,63.477
1643308267.127,601.074,777.344,-97.656,50.781
1643308267.131,-396.973,-867.188,-101.562,-99.121
1643308267.135,-656.738,-856.445,-84.473,-105.469
1643308267.139,301.758,583.008,-91.797,54.199
1643308267.143,741.211,-934.082,-107.910,94.238
1643308267.145,-104.492,135.254,-110.840,-41.016
1643308267.149,-747.559,-765.625,-106.445,-121.094
1643308267.153,-17.578,34.668,-96.191,-9.277
1643308267.157,758.789,951.172,-94.727,100.586
1643308267.161,183.594,471.680,-121.582,-7.812
1643308267.165,-711.914,-832.520,-120.605,-142.090
1643308267.169,-303.223,-725.098,-97.168,-53.223
1643308267.172,644.531,311.523,-88.379,95.215
1643308267.176,430.176,672.852,-84.961,47.852
1643308267.180,-556.641,-402.344,-92.285,-101.074
1643308267.184,-543.945,-998.535,-92.773,-84.961
1643308267.188,473.633,260.742,-71.777,70.801
1643308267.190,651.367,920.898,-86.426,87.891
1643308267.194,-317.383,-161.621,-107.910,-44.434
1643308267.198,-684.082,-1000.000,-94.727,-84.473
1643308267.202,227.539,-248.047,-79.102,41.016
1643308267.206,751.953,967.285,-84.473,96.680
1643308267.210,-48.340,57.129,-95.703,-24.414
1643308267.214,-758.301,-1000.000,-70.801,-112.793
1643308267.217,-93.262,-443.848,-45.898,-10.254
1643308267.221,744.141,952.637,-68.359,98.145
1643308267.225,250.977,682.617,-91.309,9.766
1643308267.229,-686.035,-808.594,-88.379,-104.492
1643308267.233,-349.121,-472.168,-72.266,-33.203
1643308267.236,649.902,941.406,-67.383,108.887
1643308267.240,493.164,729.004,-82.520,64.941
1643308267.244,-538.574,-763.184,-86.426,-100.098
1643308267.248,-593.262,-855.957,-74.707,-96.680
1643308267.252,421.387,714.844,-81.055,51.270
1643308267.256,650.879,961.426,-109.375,77.637
1643308267.260,-301.270,-636.230,-127.930,-52.734
1643308267.263,-735.840,-1000.000,-111.816,-111.328
1643308267.267,151.367,409.180,-86.914,21.484
1643308267.271,761.719,976.562,-94.727,100.098
1643308267.275,11.719,-448.730,-108.887,-26.855
1643308267.279,-740.723,-1000.000,-95.703,-120.117
1643308267.280,-164.062,-282.227,-78.613,-28.320
1643308267.284,697.266,769.043,-81.543,88.867
1643308267.288,236.328,76.660,-91.797,5.371
1643308267.292,-709.473,-1000.000,-91.309,-138.184
1643308267.296,-440.918,-463.867,-74.707,-86.426
1643308267.300,556.152,685.059,-81.055,61.035
1643308267.304,507.812,104.004,-96.191,49.805
1643308267.307,-508.301,-756.348,-97.656,-95.215
1643308267.311,-666.016,-681.152,-90.332,-107.422
1643308267.315,345.703,307.617,-71.777,51.758
1643308267.319,706.055,956.055,-74.707,88.379
1643308267.323,-213.867,118.164,-93.262,-76.660
1643308267.340,-768.555,-929.199,-105.469,-155.762
1643308267.344,26.855,-150.391,-103.516,-21.973
1643308267.348,714.355,999.023,-101.562,73.730
1643308267.352,78.125,472.656,-110.840,-36.133
1643308267.356,-746.582,-902.832,-106.445,-146.973
1643308267.360,-249.023,-700.195,-74.707,-53.223
1643308267.364,681.152,780.762,-68.848,74.707
1643308267.367,369.141,712.891,-86.426,12.695
1643308267.371,-635.254,-663.086,-96.191,-118.164
1643308267.375,-522.461,-1000.000,-98.145,-82.031
1643308267.379,513.672,465.332,-73.242,70.312
1643308267.383,586.914,-976.562,-80.566,68.359
1643308267.385,-420.410,-555.176,-81.055,-85.449
1643308267.389,-688.477,-961.426,-72.266,-115.234
1643308267.393,259.277,509.277,-90.332,25.879
1643308267.397,690.430,-895.020,-120.117,68.848
1643308267.401,-173.340,-39.062,-122.070,-71.289
1643308267.405,-795.898,-1000.000,-83.008,-142.578
1643308267.409,-24.414,-124.512,-66.895,-29.785
1643308267.412,742.676,-958.008,-83.496,56.641
1643308267.416,157.227,176.270,-100.098,-40.039
1643308267.420,-735.840,-1000.000,-99.121,-149.414
1643308267.424,-323.730,-429.199,-76.172,-73.242
1643308267.428,637.207,877.441,-77.637,57.617
1643308267.430,413.574,545.898,-88.867,19.531
1643308267.434,-587.402,-741.211,-80.566,-121.582
1643308267.438,-544.922,-622.070,-68.359,-98.145
1643308267.442,486.816,740.234,-47.363,58.105
1643308267.446,640.137,912.598,-49.316,71.777
1643308267.450,-361.816,-523.438,-71.777,-75.684
1643308267.454,-710.449,-1000.000,-57.617,-119.141
1643308267.457,215.820,341.309,-38.574,18.555
1643308267.461,720.215,605.957,-62.988,75.684
1643308267.465,-77.148,-174.316,-70.801,-54.688
1643308267.469,-773.438,-848.145,-65.430,-145.996
1643308267.473,-108.887,-455.566,-66.406,-35.156
1643308267.475,701.172,460.449,-68.848,75.684
1643308267.479,218.750,453.125,-79.590,-8.789
1643308267.483,-687.500,-642.578,-87.402,-132.812
1643308267.487,-371.582,-739.258,-77.148,-81.055
1643308267.491,595.703,646.484,-63.965,60.547
1643308267.495,456.543,740.723,-84.961,31.738
1643308267.499,-546.387,-660.645,-102.539,-114.258
1643308267.502,-605.957,-1000.000,-96.680,-105.469
1643308267.506,406.738,-45.410,-53.711,55.176
1643308267.510,661.621,-973.633,-45.898,76.660
1643308267.514,-290.527,14.160,-74.219,-82.520
1643308267.518,-741.211,-980.469,-82.520,-133.301
1643308267.521,146.484,241.699,-72.266,8.301
1643308267.525,763.184,-897.949,-83.984,81.055
1643308267.529,8.301,23.438,-107.910,-50.781
1643308267.533,-766.602,-990.234,-96.680,-144.531
1643308267.537,-156.738,-134.277,-72.754,-35.156
1643308267.541,701.660,-989.258,-74.219,74.219
1643308267.545,272.949,400.879,-91.309,-9.277
1643308267.548,-691.406,-915.527,-99.609,-137.695
1643308267.552,-444.336,-529.785,-94.238,-98.633
1643308267.556,570.312,880.859,-99.609,36.621
1643308267.560,524.414,844.727,-116.211,28.809
1643308267.564,-484.863,-619.141,-125.977,-106.934
1643308267.565,-645.996,-995.605,-104.980,-116.211
1643308267.569,346.680,575.195,-81.543,27.344
1643308267.573,699.707,947.754,-91.309,71.777
1643308267.577,-213.867,-625.977,-95.215,-64.453
1643308267.581,-749.023,-1000.000,-87.891,-123.535
1643308267.585,76.172,1.465,-83.496,7.812
1643308267.589,734.375,809.082,-90.332,92.773
1643308267.592,55.176,-541.016,-103.027,-19.043
1643308267.596,-745.117,-1000.000,-100.586,-129.395
1643308267.600,-227.539,-135.742,-98.633,-30.762
1643308267.604,670.898,941.895,-96.680,93.262
1643308267.608,350.098,774.902,-98.145,13.672
1643308267.610,-612.793,-509.277,-97.168,-131.836
1643308267.614,-469.238,-629.395,-75.195,-81.543
1643308267.618,526.855,642.578,-65.430,66.895
1643308267.622,580.078,992.676,-94.238,53.223
1643308267.626,-417.480,-269.043,-121.582,-89.844
1643308267.630,-672.363,-1000.000,-100.586,-104.492
1643308267.634,278.320,-455.078,-81.055,50.781
1643308267.637,692.383,696.777,-93.262,98.145
1643308267.641,-163.086,287.598,-112.793,-45.898
1643308267.645,-774.414,-1000.000,-118.164,-124.512
1643308267.649,-27.344,-414.062,-104.980,-11.230
1643308267.653,727.051,942.383,-88.867,89.355
1643308267.655,145.020,307.129,-99.609,-13.672
1643308267.659,-730.957,-1000.000,-99.121,-128.418
1643308267.663,-296.875,-606.934,-84.961,-38.574
1643308267.667,674.316,877.441,-80.078,95.215
1643308267.671,439.941,875.977,-85.938,46.875
1643308267.675,-578.125,-722.656,-97.168,-89.355
1643308267.679,-544.922,-813.965,-90.332,-78.613
1643308267.682,488.770,751.465,-78.613,62.500
1643308267.686,646.973,-958.008,-98.145,57.617
1643308267.690,-341.309,-456.055,-99.609,-82.031
1643308267.694,-692.383,-970.215,-62.988,-104.004
1643308267.698,229.980,496.582,-55.176,25.391
1643308267.715,724.609,-918.457,-74.219,85.449
1643308267.719,-80.566,-229.492,-93.262,-35.156
1643308267.723,-753.906,-1000.000,-87.891,-121.094
1643308267.727,-65.918,-11.719,-70.312,-10.742
1643308267.731,736.816,985.352,-85.938,105.469
1643308267.735,220.215,66.895,-102.051,9.277
1643308267.739,-701.172,-1000.000,-103.516,-146.484
1643308267.742,-365.234,-363.281,-88.867,-96.680
1643308267.746,621.094,839.844,-82.031,52.246
1643308267.750,468.262,270.020,-98.633,13.672
1643308267.754,-552.734,-783.203,-126.465,-145.020
1643308267.758,-602.051,-762.695,-122.559,-128.906
1643308267.760,407.227,321.289,-95.215,38.574
1643308267.764,639.648,393.555,-83.984,76.660
1643308267.768,-294.922,-401.367,-83.984,-69.824
1643308267.772,-714.355,-788.086,-74.219,-130.371
1643308267.776,166.992,114.258,-65.430,3.906
1643308267.780,745.605,956.055,-84.473,73.242
1643308267.784,-11.719,146.484,-104.004,-36.621
1643308267.787,-757.324,-816.406,-96.191,-139.160
1643308267.791,-146.973,-528.320,-82.031,-54.199
1643308267.795,703.125,509.766,-80.078,62.012
1643308267.799,291.504,756.348,-88.867,-5.859
1643308267.803,-662.109,-626.465,-98.633,-140.137
1643308267.805,-437.500,-858.398,-94.238,-104.492
1643308267.809,564.453,750.977,-86.426,36.133
1643308267.813,512.207,868.652,-100.098,22.949
1643308267.817,-482.910,-676.758,-103.516,-112.305
1643308267.821,-570.801,-991.211,-90.820,-104.004
1643308267.825,393.066,254.395,-75.684,46.875
1643308267.829,691.895,-975.586,-75.684,77.637
1643308267.832,-220.215,-44.922,-103.027,-56.152
1643308267.836,-746.094,-1000.000,-95.215,-106.934
1643308267.840,101.074,120.605,-53.711,13.184
1643308267.844,773.438,-872.070,-73.730,97.656
1643308267.848,100.098,258.789,-102.051,1.465
1643308267.850,-708.008,-955.078,-77.148,-101.562
1643308267.854,-175.781,-246.582,-45.898,-10.742
1643308267.858,729.492,-985.352,-41.992,104.980
1643308267.862,383.301,552.246,-58.105,44.434
1643308267.866,-594.238,-886.719,-59.082,-76.172
1643308267.870,-439.941,-854.004,-62.500,-52.246
1643308267.874,579.102,682.617,-76.172,83.496
1643308267.877,603.027,713.867,-89.844,67.383
1643308267.881,-417.480,-885.742,-91.797,-82.520
1643308267.885,-634.766,-894.043,-75.195,-97.168
1643308267.889,350.586,563.965,-59.082,36.133
1643308267.893,756.348,-944.336,-71.289,73.730
1643308267.895,-122.070,89.844,-85.938,-59.082
1643308267.899,-732.910,-794.434,-95.215,-127.930
1643308267.903,21.484,52.246,-96.191,-10.254
1643308267.907,761.719,-953.125,-104.004,93.262
1643308267.911,165.527,479.980,-84.961,2.441
1643308267.915,-706.055,-854.004,-56.641,-109.375
1643308267.919,-267.090,-682.617,-46.875,-32.715
1643308267.922,677.246,215.820,-37.598,93.750
1643308267.926,430.664,346.191,-42.480,42.969
1643308267.930,-570.312,-530.273,-57.129,-107.910
1643308267.934,-502.930,-849.121,-64.941,-88.867
1643308267.938,510.254,319.824,-69.336,60.547
1643308267.940,619.141,874.512,-68.359,67.383
1643308267.944,-364.258,-217.285,-75.684,-83.984
1643308267.948,-697.266,-1000.000,-78.125,-113.770
1643308267.952,230.469,-223.145,-89.844,24.414
1643308267.956,743.164,959.473,-100.098,76.172
1643308267.960,-88.379,27.832,-110.352,-55.176
1643308267.964,-776.367,-1000.000,-99.121,-146.973
1643308267.967,-66.406,-432.617,-71.289,-27.344
1643308267.971,752.441,961.426,-82.520,95.703
1643308267.975,223.633,601.074,-107.910,-10.254
1643308267.979,-710.449,-856.934,-109.863,-133.789
1643308267.983,-346.191,-434.082,-82.031,-48.828
1643308267.985,652.344,958.984,-71.289,88.867
1643308267.989,490.723,858.398,-91.309,51.270
1643308267.993,-535.645,-696.777,-104.492,-83.496
1643308267.997,-562.988,-830.078,-83.984,-66.895
1643308268.001,468.262,758.301,-68.359,72.266
1643308268.005,692.871,936.523,-82.031,85.449
1643308268.009,-286.133,-657.715,-94.727,-64.941
1643308268.012,-732.910,-1000.000,-83.496,-121.582
1643308268.016,166.016,362.305,-75.684,8.789
1643308268.020,752.930,-970.215,-87.402,78.613
1643308268.024,-2.930,104.980,-74.707,-25.391
1643308268.028,-704.590,-953.613,-64.941,-106.934
1643308268.031,-113.281,-353.027,-72.266,-11.719
1643308268.035,702.148,833.496,-100.098,94.238
1643308268.039,257.812,-218.262,-104.980,-6.348
1643308268.043,-673.828,-1000.000,-95.703,-120.605
1643308268.047,-414.062,-470.215,-88.867,-49.805
1643308268.051,577.148,615.723,-69.336,97.656
1643308268.055,511.230,707.520,-71.289,81.055
1643308268.058,-493.164,-418.945,-70.801,-74.219
1643308268.062,-622.559,-724.121,-76.172,-81.055
1643308268.066,377.441,369.629,-67.871,70.312
1643308268.070,711.914,957.520,-56.641,103.027
1643308268.074,-214.844,90.332,-71.777,-28.320
1643308268.091,-723.633,-867.188,-73.730,-69.824
1643308268.095,109.863,-83.008,-61.523,63.965
1643308268.099,770.996,983.887,-47.363,137.207
1643308268.103,90.820,282.227,-66.406,6.348
1643308268.107,-723.633,-957.520,-77.637,-93.750
1643308268.111,-205.078,-1000.000,-47.852,3.906
1643308268.115,698.242,434.570,-41.992,115.234
1643308268.118,371.582,881.836,-67.383,44.434
1643308268.122,-618.164,-644.043,-84.961,-87.402
1643308268.126,-458.984,-704.102,-66.406,-50.781
1643308268.130,566.895,824.219,-68.848,85.449
1643308268.134,578.125,935.059,-87.402,77.637
1643308268.135,-449.219,-630.371,-88.379,-61.523
1643308268.139,-675.781,-966.797,-78.125,-74.219
1643308268.143,312.988,530.762,-72.754,51.758
1643308268.147,717.773,-905.273,-95.215,76.660
1643308268.151,-172.852,-74.219,-116.699,-49.316
1643308268.155,-759.277,-1000.000,-112.305,-116.699
1643308268.159,8.789,-186.035,-98.633,4.395
1643308268.162,728.027,-991.699,-81.543,100.586
1643308268.166,107.910,240.234,-97.656,-6.836
1643308268.170,-761.719,-1000.000,-99.609,-121.094
1643308268.174,-288.574,-289.551,-74.219,-44.922
1643308268.178,658.691,948.730,-91.797,71.777
1643308268.180,383.301,571.289,-115.723,26.367
1643308268.184,-611.328,-694.336,-117.188,-110.840
1643308268.188,-532.227,-663.086,-109.863,-93.750
1643308268.192,490.723,709.961,-104.004,53.223
1643308268.196,601.562,908.691,-111.816,62.988
1643308268.200,-410.156,-507.324,-96.680,-70.312
1643308268.204,-740.234,-962.891,-77.637,-100.586
1643308268.207,213.867,375.488,-64.453,38.086
1643308268.211,705.566,875.977,-82.520,96.191
1643308268.215,-102.539,-110.352,-98.633,-26.367
1643308268.219,-763.184,-911.621,-89.355,-118.652
1643308268.223,-70.801,-69.824,-64.941,-12.207
1643308268.225,709.473,286.133,-67.871,100.586
1643308268.229,181.641,-364.258,-86.426,7.812
1643308268.233,-713.379,-835.938,-106.934,-123.047
1643308268.237,-351.074,-471.191,-104.492,-57.129
1643308268.241,617.676,829.590,-92.773,80.566
1643308268.245,388.184,593.262,-107.422,32.715
1643308268.249,-585.938,-750.000,-114.746,-122.070
1643308268.252,-586.914,-1000.000,-106.934,-109.863
1643308268.256,398.438,22.461,-95.703,47.852
1643308268.260,639.160,-962.402,-88.379,63.965
1643308268.264,-312.012,-150.879,-100.098,-77.148
1643308268.268,-744.141,-1000.000,-106.445,-123.535
1643308268.270,146.973,270.508,-78.125,9.277
1643308268.274,731.445,-856.934,-86.914,70.801
1643308268.278,-41.992,265.625,-123.047,-62.500
1643308268.282,-776.367,-911.621,-103.027,-145.508
1643308268.286,-152.832,-147.949,-81.055,-39.062
1643308268.290,663.574,-990.723,-84.961,59.082
1643308268.294,226.074,380.371,-96.191,-20.020
1643308268.297,-719.238,-915.039,-99.609,-143.066
1643308268.301,-443.359,-530.762,-74.219,-90.332
1643308268.305,587.402,885.742,-77.637,61.035
1643308268.309,503.906,863.770,-105.957,41.016
1643308268.313,-524.902,-601.074,-123.047,-107.422
1643308268.316,-636.230,-1000.000,-111.816,-104.492
1643308268.320,388.672,549.316,-85.938,51.758
1643308268.324,688.965,942.871,-78.125,82.031
1643308268.328,-269.531,-669.434,-77.148,-60.547
1643308268.332,-750.488,-1000.000,-59.570,-111.328
1643308268.336,104.004,143.555,-56.152,6.836
1643308268.340,730.957,816.406,-84.473,78.125
1643308268.343,24.414,-319.336,-107.422,-29.785
1643308268.347,-768.555,-1000.000,-89.355,-132.812
1643308268.351,-217.285,-103.516,-71.289,-41.016
1643308268.355,678.223,973.633,-83.008,75.195
1643308268.359,304.688,743.164,-88.379,8.301
1643308268.360,-674.805,-547.852,-85.449,-123.047
1643308268.364,-473.145,-597.656,-80.566,-78.613
1643308268.368,539.551,672.852,-66.895,71.289
1643308268.372,450.684,760.742,-64.941,43.457
1643308268.376,-500.000,-523.926,-65.430,-102.539
1643308268.380,-651.855,-1000.000,-67.871,-110.840
1643308268.384,284.668,-396.484,-74.707,23.926
1643308268.387,675.781,523.438,-77.148,60.547
1643308268.391,-194.336,150.391,-88.379,-66.895
1643308268.395,-770.996,-985.840,-79.590,-124.512
1643308268.399,3.418,-93.262,-58.105,-5.371
1643308268.403,733.887,-968.750,-55.664,87.402
1643308268.405,131.836,254.395,-72.754,-14.648
1643308268.409,-720.703,-1000.000,-85.938,-132.812
1643308268.413,-277.344,-613.770,-58.594,-49.805
1643308268.417,664.551,884.277,-47.363,80.566
1643308268.421,404.297,812.012,-77.148,30.762
1643308268.425,-590.820,-764.160,-89.844,-107.422
1643308268.429,-512.695,-846.191,-78.125,-83.984
1643308268.432,490.234,652.832,-69.824,56.641
1643308268.436,591.797,-964.355,-86.914,52.734
1643308268.440,-388.184,-422.852,-106.934,-101.074
1643308268.444,-707.520,-959.473,-89.844,-135.254
1643308268.448,223.145,478.027,-87.891,1.953
1643308268.465,710.449,-916.992,-105.957,62.988
1643308268.469,-110.352,-123.535,-104.492,-66.406
1643308268.473,-770.020,-1000.000,-87.402,-157.715
1643308268.477,-64.453,73.242,-75.195,-41.504
1643308268.481,715.332,-985.840,-99.609,69.824
1643308268.485,184.082,50.293,-113.770,-15.625
1643308268.489,-704.590,-1000.000,-108.887,-132.812
1643308268.492,-343.750,-351.562,-87.402,-81.055
1643308268.496,602.539,872.070,-72.754,58.105
1643308268.500,415.039,169.434,-87.891,26.367
1643308268.504,-575.684,-990.723,-91.797,-127.441
1643308268.508,-581.543,-750.488,-93.750,-124.512
1643308268.510,438.965,422.363,-99.121,17.090
1643308268.514,638.184,303.223,-101.562,43.457
1643308268.518,-318.848,-618.164,-88.379,-95.215
1643308268.522,-706.055,-865.723,-74.219,-134.766
1643308268.526,180.176,141.602,-77.637,12.207
1643308268.530,736.816,969.238,-86.426,80.078
1643308268.534,-32.715,16.602,-90.820,-47.852
1643308268.537,-763.184,-906.738,-89.844,-134.766
1643308268.541,-114.258,-496.582,-77.148,-23.926
1643308268.545,732.422,547.363,-74.219,89.355
1643308268.549,278.809,714.355,-103.027,10.742
1643308268.553,-666.504,-702.637,-113.281,-107.422
1643308268.555,-393.066,-946.289,-84.473,-52.734
1643308268.559,602.539,667.969,-63.965,69.824
1643308268.563,522.949,-991.211,-82.520,49.316
1643308268.567,-498.535,-446.289,-103.516,-87.402
1643308268.571,-614.746,-937.988,-86.914,-104.492
1643308268.575,382.324,359.863,-62.012,38.086
1643308268.579,673.828,-940.430,-69.336,68.359
1643308268.582,-246.582,-52.734,-96.680,-65.430
1643308268.586,-745.117,-1000.000,-95.215,-113.281
1643308268.590,111.816,94.238,-75.195,10.742
1643308268.594,762.695,-882.812,-78.125,97.656
1643308268.598,52.246,243.164,-91.797,-12.695
1643308268.600,-742.188,-966.797,-103.516,-127.930
1643308268.604,-188.477,-248.047,-82.031,-37.598
1643308268.608,713.379,988.770,-71.289,80.078
1643308268.612,330.078,462.891,-85.938,15.137
1643308268.616,-669.434,-914.062,-94.727,-119.141
1643308268.620,-462.402,-875.977,-89.844,-92.285
1643308268.624,573.730,670.410,-86.426,62.988
1643308268.627,556.641,752.930,-121.094,53.223
1643308268.631,-474.121,-876.465,-126.953,-102.539
1643308268.635,-666.504,-848.633,-99.609,-124.023
1643308268.639,316.406,612.305,-86.426,20.508
1643308268.643,694.336,-990.723,-83.984,77.637
1643308268.645,-179.199,-14.160,-93.262,-59.082
1643308268.649,-740.723,-829.102,-101.562,-144.043
1643308268.653,45.898,128.418,-86.914,-10.254
1643308268.657,745.605,-925.781,-97.168,87.891
1643308268.661,106.445,403.320,-109.375,-15.625
1643308268.665,-733.887,-897.949,-83.984,-110.840
1643308268.669,-246.094,-610.840,-64.453,-19.043
1643308268.672,679.688,242.188,-80.078,103.516
1643308268.676,383.789,190.430,-104.492,28.320
1643308268.680,-605.957,-634.277,-113.770,-116.211
1643308268.684,-509.277,-784.180,-94.238,-93.262
1643308268.688,524.902,601.074,-75.195,48.340
1643308268.690,633.789,927.246,-78.125,61.035
1643308268.694,-369.629,-270.508,-83.984,-93.262
1643308268.698,-676.758,-1000.000,-70.312,-109.375
1643308268.702,270.996,-231.445,-48.340,48.340
1643308268.706,740.723,960.938,-61.035,92.773
1643308268.710,-93.262,26.855,-77.148,-29.297
1643308268.714,-733.398,-1000.000,-45.898,-88.867
1643308268.717,-6.836,-481.934,-21.484,34.668
1643308268.721,782.715,925.781,-38.574,118.652
1643308268.725,222.168,639.160,-75.684,9.277
1643308268.729,-701.172,-831.055,-85.938,-108.398
1643308268.733,-314.941,-389.648,-67.871,-35.156
1643308268.735,662.109,981.445,-70.312,86.426
1643308268.739,451.172,849.121,-83.984,29.785
1643308268.743,-568.359,-689.941,-88.379,-107.422
1643308268.747,-554.199,-798.828,-74.707,-89.355
1643308268.751,484.375,786.133,-65.430,61.523
1643308268.755,664.551,916.504,-84.473,76.172
1643308268.759,-335.938,-681.641,-112.793,-83.984
1643308268.762,-727.051,-1000.000,-96.191,-129.883
1643308268.766,207.520,448.730,-79.102,26.367
1643308268.770,754.395,-965.332,-106.445,89.844
1643308268.774,-25.879,-116.699,-123.535,-49.316
1643308268.778,-705.566,-1000.000,-120.605,-137.695
1643308268.780,-72.266,-262.695,-102.051,-21.973
1643308268.784,742.188,835.938,-92.773,88.379
1643308268.788,266.113,-280.273,-106.934,8.301
1643308268.792,-671.875,-1000.000,-108.398,-111.328
1643308268.796,-354.004,-349.609,-80.566,-56.152
1643308268.800,644.531,746.582,-58.105,83.496
1643308268.804,529.297,625.977,-72.754,82.031
1643308268.807,-485.840,-537.598,-83.496,-58.105
1643308268.811,-581.543,-743.652,-77.637,-78.613
1643308268.815,420.898,450.684,-87.402,63.965
1643308268.819,702.637,980.957,-92.285,85.449
1643308268.823,-250.488,16.602,-109.863,-71.289
1643308268.839,-759.766,-904.297,-90.332,-116.211
1643308268.843,93.750,-363.281,-66.895,30.762
1643308268.847,739.258,744.629,-79.590,102.051
1643308268.851,47.363,482.910,-92.285,-11.719
1643308268.855,-729.980,-895.508,-94.727,-108.887
1643308268.859,-172.363,-693.848,-79.590,-25.879
1643308268.863,708.496,799.805,-57.617,102.051
1643308268.866,331.543,788.086,-79.102,38.086
1643308268.870,-644.043,-714.355,-92.285,-98.633
1643308268.874,-457.031,-960.449,-82.031,-43.945
1643308268.878,562.012,669.434,-78.125,89.844
1643308268.882,560.059,936.035,-89.355,64.941
1643308268.885,-467.285,-701.172,-99.609,-82.031
1643308268.889,-663.574,-963.867,-76.660,-91.797
1643308268.893,330.078,569.824,-63.965,63.477
1643308268.897,702.637,-950.684,-87.891,102.539
1643308268.901,-192.871,-229.004,-95.215,-27.344
1643308268.905,-760.254,-1000.000,-83.984,-90.820
1643308268.909,48.828,-27.832,-64.941,14.160
1643308268.912,759.277,-923.828,-65.430,95.703
1643308268.916,104.004,179.199,-90.332,5.859
1643308268.920,-747.070,-1000.000,-80.078,-108.398
1643308268.924,-239.746,-216.309,-57.129,-39.551
1643308268.928,682.129,982.422,-80.078,91.797
1643308268.930,367.188,510.742,-108.887,38.574
1643308268.934,-629.883,-744.629,-121.582,-111.328
1643308268.938,-532.227,-569.336,-122.070,-88.379
1643308268.942,495.117,795.410,-102.051,58.105
1643308268.946,582.031,824.219,-92.773,68.359
1643308268.950,-441.406,-599.609,-110.352,-80.078
1643308268.954,-728.027,-1000.000,-109.375,-123.535
1643308268.957,242.188,169.922,-85.938,26.367
1643308268.961,687.500,445.312,-91.797,77.148
1643308268.965,-158.691,-623.535,-111.816,-74.707
1643308268.969,-769.043,-966.797,-93.750,-154.297
1643308268.973,-44.434,-65.430,-83.008,-32.227
