timestamps,TP9,AF7,AF8,TP10
1645055519.088,-74.219,-155.273,-33.203,-88.379
1645055519.092,76.172,-355.957,-24.902,118.164
1645055519.096,70.801,-103.516,3.418,74.707
1645055519.100,-93.750,-73.730,-24.414,-137.207
1645055519.104,-120.117,-308.594,-48.340,-136.719
1645055519.108,30.762,-812.500,-94.238,86.914
1645055519.112,80.566,-568.848,-50.293,122.559
1645055519.115,-49.805,-79.102,-10.742,-85.449
1645055519.119,-105.957,-439.453,-65.430,-134.277
1645055519.123,7.812,-785.156,-74.707,39.551
1645055519.127,88.867,7.812,25.879,105.957
1645055519.131,-13.184,208.008,4.883,-62.500
1645055519.134,89.844,290.039,25.879,112.305
1645055519.138,34.668,175.781,-22.949,23.438
1645055519.142,-103.027,-464.844,-86.426,-155.273
1645055519.146,-92.285,-658.691,-81.543,-100.098
1645055519.150,52.734,-166.992,-17.578,95.215
1645055519.153,64.453,153.809,4.395,67.871
1645055519.157,-92.285,-656.250,-105.957,-124.512
1645055519.161,-105.469,-705.566,-76.172,-117.188
1645055519.165,88.379,211.426,42.969,128.906
1645055519.169,157.227,99.609,11.230,207.031
1645055519.173,14.648,-767.090,-77.637,14.648
1645055519.177,-92.285,-813.965,-62.500,-91.797
1645055519.181,10.254,22.949,38.086,43.457
1645055519.185,129.395,199.219,29.297,176.758
1645055519.189,30.762,-693.359,-87.891,36.133
1645055519.193,-109.375,-859.863,-83.496,-124.023
1645055519.197,-59.570,-213.867,-10.742,-45.898
1645055519.200,92.285,41.016,-9.766,136.230
1645055519.204,56.152,-704.590,-95.215,81.055
1645055519.208,-104.004,-453.613,-31.250,-123.535
1645055519.212,-91.309,56.641,19.531,-107.910
1645055519.216,75.684,10.742,-1.465,105.469
1645055519.217,95.703,110.352,-4.395,101.074
1645055519.221,-60.059,-65.430,-40.527,-106.445
1645055519.225,-105.957,-406.738,-62.500,-138.184
1645055519.229,32.227,-422.852,-43.945,47.852
1645055519.233,104.004,-148.438,-3.906,114.258
1645055519.237,-20.020,-309.082,-34.668,-69.336
1645055519.241,-129.883,-695.801,-57.129,-181.641
1645055519.244,-63.965,-809.570,-55.176,-79.590
1645055519.248,43.945,-461.426,-14.160,55.664
1645055519.252,-27.344,58.594,20.996,-53.223
1645055519.256,-142.090,-268.555,-25.391,-188.965
1645055519.260,-84.473,-503.418,-23.438,-91.309
1645055519.261,69.336,25.879,25.879,110.352
1645055519.265,48.340,-108.398,-21.484,68.359
1645055519.269,-95.703,-668.945,-89.844,-115.723
1645055519.273,-102.051,-872.559,-97.168,-95.215
1645055519.277,51.758,-308.594,-11.230,99.609
1645055519.281,89.355,-58.594,3.906,119.141
1645055519.285,-46.387,-500.000,-56.152,-70.801
1645055519.288,-101.562,-933.105,-104.980,-113.281
1645055519.292,19.043,-333.008,2.930,39.551
1645055519.296,107.910,411.133,56.152,117.676
1645055519.300,0.000,-71.777,-38.574,-41.016
1645055519.304,-113.281,-439.941,-46.875,-167.969
1645055519.306,-17.578,33.203,12.207,-30.273
1645055519.310,113.770,337.402,2.930,132.324
1645055519.314,28.809,-67.383,-74.707,14.160
1645055519.318,-106.934,-291.992,-79.102,-149.414
1645055519.322,-67.383,-21.973,-21.484,-80.566
1645055519.326,80.566,38.574,-20.508,106.445
1645055519.330,75.684,-554.688,-106.934,77.148
1645055519.333,-74.707,-927.734,-131.836,-110.840
1645055519.337,-97.168,-257.324,-47.852,-125.000
1645055519.341,52.734,200.195,-32.715,69.824
1645055519.345,87.891,-324.219,-83.496,107.422
1645055519.349,-61.523,-427.246,-74.707,-94.238
1645055519.351,-136.230,-164.551,-56.152,-168.945
1645055519.355,-11.230,-333.984,-71.289,16.113
1645055519.359,92.773,-668.457,-99.609,143.555
1645055519.363,-22.949,-390.137,-68.848,-30.762
1645055519.367,-131.836,-142.090,-56.641,-166.016
1645055519.371,-41.504,-468.750,-93.262,-36.133
1645055519.375,91.309,-819.336,-109.375,139.648
1645055519.378,36.133,-302.734,-43.457,35.156
1645055519.382,-97.168,-55.664,-45.410,-145.996
1645055519.386,-85.449,-413.086,-85.449,-103.027
1645055519.390,52.734,-139.160,-33.691,83.008
1645055519.394,59.082,213.867,-21.973,62.988
1645055519.397,-83.496,-43.457,-62.012,-125.977
1645055519.401,-102.051,-483.398,-97.168,-137.695
1645055519.405,42.969,-253.906,-41.992,58.105
1645055519.409,85.449,243.652,11.230,105.957
1645055519.413,-57.617,30.273,-49.805,-91.797
1645055519.417,-134.766,-680.176,-124.512,-166.504
1645055519.421,-25.391,-658.691,-84.961,-7.324
1645055519.424,79.590,132.812,4.395,118.164
1645055519.428,-7.324,47.852,-26.855,-20.508
1645055519.432,-128.418,-788.574,-127.930,-149.414
1645055519.436,-74.707,-506.836,-53.223,-71.289
1645055519.440,79.102,216.309,28.809,120.117
1645055519.457,96.680,-92.773,-45.410,123.047
1645055519.461,-47.363,-869.629,-134.277,-46.875
1645055519.465,-89.355,-602.539,-62.988,-71.777
1645055519.469,50.781,274.414,32.227,103.027
1645055519.473,82.031,134.277,-41.992,109.375
1645055519.477,-69.336,-823.242,-154.785,-90.332
1645055519.481,-138.672,-706.055,-95.215,-152.344
1645055519.484,-3.906,202.148,-5.859,11.719
1645055519.488,79.590,125.000,-53.223,92.285
1645055519.492,-44.922,-655.273,-141.602,-79.590
1645055519.496,-151.367,-380.859,-94.727,-200.195
1645055519.500,-55.176,101.074,-50.781,-66.895
1645055519.501,79.102,36.133,-80.078,86.914
1645055519.505,15.137,-116.699,-102.051,-36.133
1645055519.509,-116.699,-353.516,-127.441,-197.266
1645055519.513,-73.730,-508.789,-126.465,-124.023
1645055519.517,66.406,-429.199,-102.539,64.941
1645055519.521,58.594,-608.887,-104.492,20.508
1645055519.525,-83.008,-642.090,-105.957,-172.852
1645055519.528,-115.234,-291.016,-80.566,-178.711
1645055519.532,17.090,-474.121,-88.867,17.090
1645055519.536,36.133,-499.512,-65.918,28.320
1645055519.540,-111.328,-111.328,-33.691,-174.805
1645055519.544,-151.367,-280.762,-52.734,-212.402
1645055519.548,1.953,-369.141,-39.551,-14.160
1645055519.552,86.914,-198.730,-32.227,92.773
1645055519.556,-29.785,-65.430,-38.086,-78.613
1645055519.560,-122.559,-308.594,-62.988,-186.523
1645055519.564,-39.551,-804.688,-102.539,-43.945
1645055519.568,92.285,-386.719,-41.504,100.098
1645055519.572,26.367,-233.398,-30.273,-14.160
1645055519.575,-120.117,-642.578,-85.938,-176.270
1645055519.579,-84.473,-920.898,-118.164,-101.074
1645055519.583,69.336,-240.723,-12.207,80.078
1645055519.587,64.941,326.660,23.438,32.227
1645055519.591,-79.102,-208.496,-61.035,-144.043
1645055519.592,-97.656,-315.430,-41.504,-141.113
1645055519.596,58.105,235.352,25.391,52.246
1645055519.600,102.539,304.199,8.301,88.379
1645055519.604,-45.410,-276.855,-67.383,-101.074
1645055519.608,-124.512,-382.812,-59.082,-170.410
1645055519.612,-3.906,-199.219,-12.207,4.395
1645055519.616,101.074,-86.426,3.418,96.680
1645055519.619,2.441,-603.516,-83.984,-41.504
1645055519.623,-116.699,-873.047,-95.703,-151.367
1645055519.627,-40.039,-56.152,32.227,-51.270
1645055519.631,95.703,258.789,44.434,129.395
1645055519.635,28.809,-242.676,-35.645,27.832
1645055519.637,-118.652,-393.066,-56.152,-156.250
1645055519.641,-100.098,-313.965,-36.621,-100.098
1645055519.645,58.594,-214.355,-26.367,104.492
1645055519.649,74.219,-628.418,-68.359,90.820
1645055519.653,-80.078,-521.973,-47.852,-121.094
1645055519.657,-123.047,-299.316,-26.367,-146.484
1645055519.661,19.043,-374.023,-26.367,54.199
1645055519.664,86.914,-725.098,-64.453,121.094
1645055519.668,-46.387,-399.414,-37.598,-83.008
1645055519.672,-124.023,-23.438,-13.672,-165.527
1645055519.676,-10.254,-217.773,-34.668,5.859
1645055519.680,83.008,-56.641,-8.789,119.629
1645055519.681,-12.207,113.281,-20.996,-36.133
1645055519.685,-128.906,-71.289,-62.012,-177.734
1645055519.689,-62.988,-320.312,-65.430,-69.824
1645055519.693,90.332,0.488,-20.020,114.746
1645055519.697,53.223,192.871,-26.367,38.086
1645055519.701,-88.867,-397.949,-86.914,-132.324
1645055519.705,-86.914,-866.699,-109.863,-103.516
1645055519.708,54.688,-523.438,-42.480,82.520
1645055519.712,70.312,190.918,14.160,56.641
1645055519.716,-70.801,-36.621,-46.387,-139.648
1645055519.720,-112.305,-550.781,-86.426,-154.785
1645055519.724,9.277,-111.816,-27.832,27.344
1645055519.728,80.566,174.805,-20.996,103.516
1645055519.732,-30.273,-396.484,-89.844,-58.594
1645055519.736,-120.117,-958.984,-150.879,-142.090
1645055519.740,-30.273,-433.594,-40.039,-19.043
1645055519.744,84.473,343.262,58.594,109.863
1645055519.748,6.348,-266.602,-61.035,-12.207
1645055519.752,-117.188,-879.883,-134.277,-161.133
1645055519.755,-71.289,-258.301,-13.184,-93.262
1645055519.759,71.777,341.309,42.969,99.121
1645055519.763,51.758,24.902,-35.645,48.828
1645055519.767,-95.215,-455.078,-71.289,-146.973
1645055519.771,-104.004,-179.199,-15.137,-128.418
1645055519.786,40.039,220.215,10.742,72.266
1645055519.790,85.449,-15.625,-25.879,101.562
1645055519.794,-49.805,-288.574,-44.922,-96.191
1645055519.798,-115.723,-386.230,-49.316,-147.949
1645055519.802,4.395,-318.848,-24.902,28.320
1645055519.806,91.797,-492.188,-59.570,132.812
1645055519.810,-24.414,-926.758,-104.980,-35.156
1645055519.813,-118.652,-403.809,-4.883,-168.457
1645055519.817,-29.297,-14.648,27.344,-29.785
1645055519.821,85.938,-62.988,-2.441,130.371
1645055519.825,14.160,-40.039,-23.438,-0.977
1645055519.829,-122.559,-74.707,-30.273,-167.969
1645055519.831,-86.914,-314.453,-30.762,-85.449
1645055519.835,62.012,-669.922,-39.551,115.723
1645055519.839,38.574,-216.797,0.977,55.176
1645055519.843,-104.004,-48.340,-8.789,-135.742
1645055519.847,-108.887,-334.961,-39.551,-117.676
1645055519.851,37.109,-443.359,-30.762,73.242
1645055519.855,83.496,-360.840,-26.367,105.469
1645055519.858,-50.781,-384.766,-48.340,-102.051
1645055519.862,-121.094,-508.301,-75.684,-170.898
1645055519.866,-6.348,-884.277,-122.070,25.879
1645055519.870,81.055,-341.797,-36.133,116.211
1645055519.874,-24.902,77.637,-13.672,-56.152
1645055519.876,-134.766,-417.480,-81.543,-166.992
1645055519.880,-69.824,-287.598,-30.762,-57.617
1645055519.884,71.289,250.488,16.113,106.445
1645055519.888,28.320,98.145,-47.363,27.832
1645055519.892,-106.445,-505.859,-112.305,-160.645
1645055519.896,-80.566,-703.613,-93.750,-121.582
1645055519.900,67.871,-164.062,-28.320,106.934
1645055519.903,73.730,178.711,-18.555,79.102
1645055519.907,-74.707,-690.430,-137.207,-119.629
1645055519.911,-123.535,-874.023,-116.699,-145.020
1645055519.915,16.602,132.812,21.973,31.738
1645055519.919,80.078,307.129,-10.742,96.191
1645055519.923,-46.875,-695.312,-145.508,-74.219
1645055519.927,-130.371,-892.090,-119.141,-156.250
1645055519.931,-31.250,25.391,10.742,-20.020
1645055519.935,86.914,203.125,8.301,116.699
1645055519.939,2.930,-678.711,-102.051,-8.301
1645055519.943,-120.117,-838.379,-115.234,-155.762
1645055519.947,-62.500,-403.809,-61.035,-65.918
1645055519.950,84.473,-188.477,-37.109,118.652
1645055519.954,26.367,-727.539,-106.445,31.250
1645055519.958,-133.789,-501.953,-72.754,-179.688
1645055519.962,-118.652,-24.414,-21.973,-136.230
1645055519.966,40.039,-89.355,-29.297,81.543
1645055519.969,60.547,-62.012,-28.809,72.754
1645055519.973,-80.566,-49.805,-51.270,-140.625
1645055519.977,-115.723,-125.488,-54.199,-172.852
1645055519.981,19.043,-212.891,-40.527,38.086
1645055519.985,82.520,-33.203,-22.949,107.910
1645055519.989,-41.992,-277.832,-62.012,-83.008
1645055519.993,-129.395,-602.051,-90.332,-179.688
1645055519.996,-24.902,-709.473,-83.496,-19.531
1645055520.000,91.309,-482.422,-30.273,125.000
1645055520.004,4.395,78.125,-7.812,-21.484
1645055520.008,-128.906,-183.105,-76.660,-179.199
1645055520.012,-81.543,-393.555,-69.336,-97.656
1645055520.012,65.430,-1.465,-19.531,92.285
1645055520.016,37.598,-171.387,-56.152,46.387
1645055520.020,-87.402,-569.824,-101.074,-106.445
1645055520.024,-61.523,-892.578,-137.695,-46.387
1645055520.028,79.102,-293.457,-31.250,131.348
1645055520.032,109.375,104.004,-3.418,123.047
1645055520.036,-40.527,-529.785,-122.070,-74.707
1645055520.039,-114.258,-902.344,-152.832,-122.559
1645055520.043,2.930,-92.773,-29.297,38.086
1645055520.047,86.914,523.926,-10.254,116.211
1645055520.051,-22.461,-63.477,-125.488,-45.410
1645055520.055,-119.141,-418.457,-135.742,-162.598
1645055520.056,-36.621,36.621,-70.312,-38.574
1645055520.060,82.520,372.559,-68.359,113.770
1645055520.064,26.367,-36.133,-134.766,8.301
1645055520.068,-104.980,-308.594,-144.043,-155.273
1645055520.072,-79.102,-208.008,-119.141,-95.703
1645055520.076,72.266,-111.816,-101.562,97.168
1645055520.080,73.730,-519.531,-162.598,69.824
1645055520.083,-71.777,-961.426,-208.496,-122.070
1645055520.087,-106.934,-317.383,-88.379,-154.785
1645055520.091,31.738,197.266,-27.832,35.156
1645055520.095,73.242,-54.688,-65.918,87.891
1645055520.099,-65.430,-160.645,-77.148,-106.934
1645055520.103,-125.488,-205.078,-82.031,-172.363
1645055520.107,-20.996,-396.484,-99.121,7.812
1645055520.111,66.895,-697.266,-106.445,122.559
1645055520.115,-36.621,-399.902,-73.242,-65.430
1645055520.119,-150.879,-104.492,-59.082,-206.543
1645055520.123,-78.125,-382.812,-79.102,-76.660
1645055520.127,41.016,-827.148,-117.188,83.008
1645055520.130,-19.531,-643.066,-76.660,-35.156
1645055520.134,-145.020,-230.957,-34.668,-208.008
1645055520.138,-104.492,-337.891,-53.711,-128.418
1645055520.142,50.781,-337.402,-52.734,80.566
1645055520.146,63.965,-9.277,-31.250,57.617
1645055520.149,-71.289,-74.707,-48.340,-139.160
1645055520.153,-108.398,-407.227,-71.289,-145.996
1645055520.157,25.879,-100.098,-23.438,59.570
1645055520.161,86.914,265.137,-9.277,103.516
1645055520.165,-46.875,-94.727,-73.730,-91.309
1645055520.169,-131.836,-737.305,-138.184,-161.621
1645055520.173,-20.996,-568.848,-74.707,-3.906
1645055520.176,97.656,222.656,25.391,112.793
1645055520.180,12.207,108.398,-27.832,-29.297
1645055520.184,-98.633,-774.414,-123.535,-153.809
1645055520.188,-38.574,-636.230,-65.918,-58.594
1645055520.192,104.492,260.254,29.785,117.676
1645055520.206,64.941,64.941,-32.227,56.152
1645055520.210,-84.961,-825.195,-141.113,-121.094
1645055520.214,-86.914,-532.227,-47.852,-102.051
1645055520.218,46.875,273.438,57.617,83.008
1645055520.222,66.406,135.254,-6.348,82.031
1645055520.226,-68.359,-821.777,-142.578,-106.934
1645055520.230,-116.211,-775.879,-82.031,-154.297
1645055520.233,18.066,113.281,44.922,23.438
1645055520.237,90.820,104.004,-3.418,111.816
1645055520.241,-43.457,-419.922,-60.547,-79.102
1645055520.245,-131.348,-285.156,-26.367,-181.152
1645055520.249,-17.578,78.613,-1.465,-17.578
1645055520.251,96.191,-126.953,-41.504,133.301
1645055520.255,15.137,-616.211,-67.383,0.000
1645055520.259,-113.770,-332.031,-33.203,-172.852
1645055520.263,-68.359,-35.645,-27.344,-95.703
1645055520.267,77.637,-98.633,-35.156,105.469
1645055520.271,49.316,-389.648,-65.430,58.105
1645055520.275,-102.051,-531.738,-67.871,-142.578
1645055520.278,-111.328,-202.637,-20.508,-135.742
1645055520.282,42.969,-492.676,-59.082,76.660
1645055520.286,96.680,-570.312,-44.434,108.887
1645055520.290,-9.766,-59.570,0.000,-51.270
1645055520.294,-65.430,-101.562,-32.715,-69.824
1645055520.296,44.922,-274.902,-37.598,100.098
1645055520.300,114.746,-151.367,-29.785,156.250
1645055520.304,-12.695,-137.695,-54.199,-32.715
1645055520.308,-112.305,-531.738,-93.262,-139.648
1645055520.312,-26.367,-897.461,-122.559,-5.859
1645055520.316,86.914,-518.555,-54.199,136.719
1645055520.320,17.090,-40.527,-25.879,10.254
1645055520.323,-111.816,-338.867,-83.496,-148.926
1645055520.327,-77.148,-828.613,-101.074,-67.383
1645055520.331,72.754,-25.391,18.066,107.910
1645055520.335,55.176,443.359,30.273,51.270
1645055520.339,-95.215,-238.281,-73.730,-139.160
1645055520.341,-113.281,-409.180,-69.824,-135.742
1645055520.345,27.832,211.914,4.395,53.223
1645055520.349,77.148,358.887,-0.977,84.473
1645055520.353,-50.781,-237.793,-82.031,-105.469
1645055520.357,-123.535,-395.508,-76.172,-185.547
1645055520.361,-21.484,-211.426,-45.898,-30.273
1645055520.365,68.848,-196.777,-48.340,78.125
1645055520.368,-51.758,-706.055,-142.090,-85.938
1645055520.372,-185.547,-975.098,-181.641,-235.352
1645055520.376,-96.191,-235.840,-49.316,-128.906
1645055520.380,53.711,169.434,-25.879,70.801
1645055520.384,2.441,-163.574,-77.637,-13.672
1645055520.388,-125.000,-389.160,-91.797,-193.359
1645055520.392,-98.633,-387.695,-73.730,-130.371
1645055520.396,51.758,-126.953,-40.527,79.102
1645055520.400,65.430,-606.445,-94.238,78.125
1645055520.404,-75.195,-572.754,-82.520,-128.906
1645055520.408,-115.723,-383.789,-68.359,-145.996
1645055520.412,21.973,-391.113,-72.754,58.594
1645055520.415,79.102,-729.004,-111.816,110.352
1645055520.419,-58.105,-698.242,-96.680,-96.191
1645055520.423,-141.602,-185.059,-52.246,-186.523
1645055520.427,-38.086,-165.039,-62.988,-17.578
1645055520.431,78.125,-203.613,-58.105,115.723
1645055520.431,-2.441,-17.578,-56.152,-31.738
1645055520.435,-125.000,-87.402,-76.172,-170.898
1645055520.439,-66.895,-265.625,-93.262,-66.895
1645055520.443,81.055,110.840,-39.551,116.699
1645055520.447,47.852,236.816,-34.180,39.062
1645055520.451,-96.680,-386.230,-105.469,-142.090
1645055520.455,-97.168,-839.355,-120.605,-106.445
1645055520.458,39.551,-500.000,-58.105,68.848
1645055520.462,58.105,199.219,-12.695,50.293
1645055520.466,-73.730,-32.227,-70.312,-125.977
1645055520.470,-113.770,-655.273,-119.629,-145.020
1645055520.474,21.973,-233.398,-52.246,40.527
1645055520.477,91.797,245.117,-22.949,108.887
1645055520.481,-31.738,-344.727,-100.098,-67.871
1645055520.485,-117.676,-956.055,-162.109,-154.297
1645055520.489,-21.973,-455.078,-70.312,-14.648
1645055520.493,97.656,338.867,5.859,120.605
1645055520.497,23.438,-179.199,-83.496,1.465
1645055520.501,-103.516,-787.598,-128.906,-147.949
1645055520.504,-63.477,-244.141,-50.781,-77.148
1645055520.508,73.242,408.203,8.789,104.980
1645055520.512,55.664,49.316,-60.059,60.547
1645055520.516,-98.145,-689.453,-138.672,-145.996
1645055520.520,-111.328,-300.293,-61.035,-151.855
1645055520.524,77.637,270.508,-6.836,91.797
1645055520.528,153.809,-0.977,-59.082,175.293
1645055520.532,4.395,-371.094,-87.891,-13.672
1645055520.536,-69.336,-87.891,-43.457,-94.727
1645055520.540,40.039,211.426,-23.438,61.035
1645055520.544,104.980,-183.594,-79.102,147.461
1645055520.548,-6.836,-485.840,-92.285,-23.926
1645055520.551,-118.652,-178.223,-46.875,-156.250
1645055520.555,-39.062,51.758,-31.738,-30.273
1645055520.559,86.914,-314.941,-84.473,134.766
1645055520.563,15.137,-493.164,-91.797,12.695
1645055520.567,-109.375,-280.273,-52.246,-155.273
1645055520.582,-67.383,-249.512,-49.316,-80.078
1645055520.586,80.566,-383.301,-48.828,119.629
1645055520.590,64.941,-104.492,-19.043,64.453
1645055520.594,-89.844,-179.199,-46.387,-148.438
1645055520.598,-108.398,-553.711,-68.848,-140.625
1645055520.602,32.227,-923.828,-105.957,75.195
1645055520.606,67.871,-666.016,-51.270,100.098
1645055520.609,-64.941,-73.730,12.695,-105.957
1645055520.613,-123.047,-348.633,-26.367,-160.156
1645055520.617,-19.531,-247.070,10.742,1.465
1645055520.621,65.430,278.809,36.621,97.656
1645055520.625,-34.180,100.586,-13.672,-64.453
1645055520.628,-161.621,-469.727,-60.059,-200.195
1645055520.632,-106.934,-401.367,-32.227,-115.723
1645055520.636,40.039,170.898,24.414,62.012
1645055520.640,0.000,114.258,-3.418,-8.789
1645055520.644,-135.742,-530.762,-81.543,-174.316
1645055520.648,-87.402,-704.102,-73.242,-88.867
1645055520.652,59.082,-326.172,-23.438,104.492
1645055520.655,57.617,-237.305,-32.227,78.613
1645055520.659,-87.402,-795.410,-120.605,-100.586
1645055520.663,-118.164,-916.504,-111.816,-115.234
1645055520.667,22.949,-16.602,37.109,52.734
1645055520.671,83.008,242.676,25.879,103.027
1645055520.672,-43.945,-438.477,-60.059,-80.078
1645055520.676,-119.629,-697.754,-59.082,-164.551
1645055520.680,-9.277,-66.406,12.207,-10.742
1645055520.684,92.285,158.691,7.324,112.793
1645055520.688,-2.441,-707.031,-105.957,-28.320
1645055520.692,-120.117,-920.898,-87.402,-169.434
1645055520.696,-69.336,-294.434,5.859,-83.008
1645055520.699,80.566,70.801,17.578,104.492
1645055520.703,46.875,-734.375,-90.332,52.246
1645055520.707,-111.816,-780.762,-65.918,-161.133
1645055520.711,-96.680,-33.691,9.277,-133.301
1645055520.715,61.523,43.457,-4.395,95.215
1645055520.716,71.289,-186.523,-16.602,89.844
1645055520.720,-86.426,-107.910,-23.926,-129.883
1645055520.724,-130.859,-100.586,-30.273,-166.504
1645055520.728,18.555,-129.395,-19.531,39.062
1645055520.732,99.609,93.750,-0.977,115.723
1645055520.736,-23.926,-260.742,-56.641,-74.707
1645055520.740,-122.070,-613.770,-84.961,-173.828
1645055520.743,-18.066,-687.012,-68.359,-15.137
1645055520.747,103.027,-466.797,-15.625,125.977
1645055520.751,10.254,84.473,5.371,-21.484
1645055520.755,-120.605,-154.297,-61.523,-169.922
1645055520.759,-67.871,-493.652,-63.477,-72.266
1645055520.761,80.566,-102.051,7.324,121.582
1645055520.765,63.965,-64.941,-27.832,64.941
1645055520.769,-87.402,-385.254,-76.172,-134.766
1645055520.773,-47.852,-835.938,-113.770,-45.898
1645055520.777,136.230,-306.641,-39.551,199.219
1645055520.781,138.672,110.352,-8.301,173.340
1645055520.785,-7.812,-468.750,-91.309,-44.922
1645055520.788,-66.406,-880.859,-124.023,-94.727
1645055520.792,46.387,-171.875,-10.742,65.430
1645055520.796,121.582,448.242,26.367,141.602
1645055520.800,8.789,-28.809,-59.082,-19.531
1645055520.804,-100.098,-307.617,-77.637,-137.695
1645055520.807,-34.180,67.383,-46.875,-26.855
1645055520.811,91.797,366.211,-44.434,123.047
1645055520.815,29.297,-198.242,-105.469,22.461
1645055520.819,-112.793,-577.148,-105.469,-159.668
1645055520.823,-90.820,-60.547,-53.711,-120.117
1645055520.827,54.688,28.320,-69.824,86.914
1645055520.831,48.828,-473.145,-119.629,61.035
1645055520.834,-104.492,-481.934,-114.258,-148.438
1645055520.838,-126.953,-54.688,-77.148,-156.250
1645055520.842,21.973,208.496,-56.641,52.734
1645055520.846,75.195,-399.902,-130.859,106.445
1645055520.850,-66.406,-639.648,-144.043,-103.027
1645055520.851,-141.113,-254.395,-104.980,-189.453
1645055520.855,-29.785,-375.000,-113.770,-11.230
1645055520.859,62.012,-726.074,-117.676,108.887
1645055520.863,-62.988,-493.652,-91.309,-85.938
1645055520.867,-189.453,-322.754,-90.820,-240.234
1645055520.871,-91.309,-592.773,-110.352,-94.238
1645055520.875,63.965,-851.074,-127.441,100.098
1645055520.878,22.949,-405.273,-63.965,4.883
1645055520.882,-111.328,-84.473,-49.316,-175.781
1645055520.886,-94.238,-309.082,-93.262,-125.488
1645055520.890,55.664,-70.312,-29.297,79.102
1645055520.894,65.430,194.336,0.000,67.871
1645055520.899,-81.543,-65.430,-65.430,-134.277
1645055520.903,-116.699,-447.754,-102.539,-141.602
1645055520.907,30.273,-156.738,-47.852,62.012
1645055520.911,94.238,266.602,-11.230,111.328
1645055520.915,-36.133,-2.930,-50.293,-69.824
1645055520.919,-116.211,-648.926,-113.281,-130.859
1645055520.923,-22.461,-648.438,-94.238,10.254
1645055520.926,64.941,-144.531,-34.668,109.375
1645055520.930,-33.691,-117.676,-41.016,-37.598
1645055520.934,-140.137,-783.691,-143.066,-174.316
1645055520.938,-83.008,-732.422,-103.027,-80.078
1645055520.942,62.988,199.707,31.250,97.656
1645055520.956,42.480,112.793,-20.996,38.086
1645055520.960,-102.539,-724.609,-103.516,-139.160
1645055520.964,-104.492,-472.656,-56.152,-115.723
1645055520.968,50.781,292.480,18.066,79.102
1645055520.972,78.125,104.004,-25.391,82.520
1645055520.976,-70.801,-839.355,-160.645,-99.609
1645055520.980,-119.629,-682.129,-97.168,-147.461
1645055520.983,19.531,204.590,26.855,22.949
1645055520.987,91.797,143.066,-16.602,104.004
1645055520.991,-28.809,-603.516,-99.609,-75.684
1645055520.995,-125.488,-624.512,-68.848,-176.758
1645055520.999,-22.461,-99.121,-7.324,-25.879
1645055521.005,104.492,-27.832,-23.926,124.512
1645055521.009,14.160,-384.277,-58.594,-11.230
1645055521.013,-120.605,-299.805,-45.410,-171.875
1645055521.017,-71.777,-32.715,-27.832,-89.844
1645055521.021,68.848,-50.781,-44.434,96.680
1645055521.025,30.762,-414.062,-82.520,33.203
1645055521.029,-111.816,-549.316,-83.008,-160.645
1645055521.032,-61.035,-157.715,-32.227,-78.613
1645055521.036,123.047,-345.703,-49.316,168.457
1645055521.040,124.023,-460.938,-37.598,145.996
1645055521.044,-33.691,-57.129,-27.832,-79.102
1645055521.048,-94.727,-214.844,-74.707,-126.465
1645055521.046,7.812,-375.000,-62.500,41.016
1645055521.050,88.867,-258.789,-45.898,117.188
1645055521.054,-34.180,-190.430,-45.898,-70.312
1645055521.058,-141.602,-338.379,-62.988,-186.523
1645055521.062,-35.645,-729.004,-83.496,-39.551
1645055521.066,89.355,-353.516,-23.438,102.539
1645055521.070,11.719,-209.961,-27.832,-16.113
1645055521.073,-123.535,-403.320,-67.871,-184.082
1645055521.077,-88.379,-925.293,-145.508,-100.098
1645055521.081,46.875,-858.398,-96.680,85.449
1645055521.085,32.227,51.270,9.277,16.602
1645055521.089,-98.633,-141.113,-44.922,-160.645
1645055521.093,-113.281,-344.238,-56.641,-152.344
1645055521.097,31.738,209.961,9.277,40.527
1645055521.101,76.660,343.750,4.883,77.148
1645055521.105,-67.871,-320.312,-80.078,-115.234
1645055521.109,-134.277,-528.809,-64.453,-184.082
1645055521.113,-6.348,-183.594,-13.672,-17.090
1645055521.117,89.844,-64.941,-12.207,103.027
1645055521.120,-23.438,-595.703,-84.473,-63.965
1645055521.124,-145.020,-803.223,-77.637,-223.145
1645055521.128,-93.262,-92.285,20.508,-144.531
1645055521.132,37.598,196.289,18.555,32.715
1645055521.136,2.930,-202.637,-41.016,-27.832
1645055521.136,-132.324,-487.793,-74.219,-198.730
1645055521.140,-103.516,-414.062,-56.152,-153.320
1645055521.144,59.570,-56.641,-17.578,60.547
1645055521.148,62.012,-568.848,-79.590,65.918
1645055521.152,-96.680,-607.422,-68.359,-137.695
1645055521.156,-135.254,-318.359,-31.738,-161.621
1645055521.160,11.230,-346.191,-39.062,40.527
1645055521.163,81.055,-798.340,-101.562,107.910
1645055521.167,-58.594,-624.512,-64.941,-97.656
1645055521.171,-134.277,-98.633,-0.488,-174.316
1645055521.175,-8.789,-59.082,4.395,6.836
1645055521.179,83.496,154.297,25.391,119.141
1645055521.185,-29.297,140.137,2.441,-41.992
1645055521.189,-150.879,-100.586,-38.574,-186.035
1645055521.193,-84.473,-290.527,-56.152,-75.195
1645055521.197,58.105,64.941,-2.441,109.375
1645055521.201,17.090,218.262,5.859,26.855
1645055521.205,-120.605,-379.395,-65.918,-154.785
1645055521.209,-112.305,-811.035,-92.773,-114.746
1645055521.212,39.062,-565.430,-28.809,92.773
1645055521.216,65.918,-86.426,7.812,83.496
1645055521.220,-77.637,-155.273,-24.902,-117.676
1645055521.224,-117.676,-693.848,-65.918,-127.930
1645055521.228,14.648,-218.750,1.953,60.547
1645055521.226,86.914,237.305,21.973,119.141
1645055521.230,-42.969,-396.484,-73.730,-65.918
1645055521.234,-138.672,-906.250,-119.141,-159.668
1645055521.238,-34.668,-272.949,-16.602,-11.719
1645055521.242,79.590,413.574,47.363,127.441
1645055521.246,-5.859,-265.625,-61.523,-5.859
1645055521.250,-129.395,-895.020,-113.281,-158.691
1645055521.253,-83.496,-286.133,0.977,-93.750
1645055521.257,62.012,336.914,64.941,90.332
1645055521.261,69.336,96.680,9.766,81.055
1645055521.265,-12.695,-430.664,-32.227,-22.949
1645055521.269,-25.879,-319.824,2.441,-15.625
1645055521.280,81.055,318.359,48.340,129.395
1645055521.284,107.910,139.160,-5.859,135.742
1645055521.288,-46.875,-441.406,-41.504,-75.195
1645055521.292,-115.723,-223.633,-3.418,-144.043
1645055521.296,6.836,215.332,20.996,35.156
1645055521.300,97.168,-187.988,-35.156,143.555
1645055521.304,-12.207,-623.047,-56.641,-30.273
1645055521.307,-124.023,-229.980,-6.348,-157.715
1645055521.311,-40.039,41.992,18.555,-26.367
1645055521.315,96.680,-259.277,-16.113,129.395
1645055521.319,25.879,-288.086,-23.438,2.441
1645055521.323,-119.629,-110.352,-7.324,-181.641
1645055521.331,-85.449,-300.781,-36.133,-104.492
1645055521.335,76.660,-478.516,-46.387,116.699
1645055521.339,48.828,-400.391,-41.016,55.664
1645055521.343,-111.328,-221.680,-38.086,-170.410
1645055521.347,-125.488,-253.906,-41.992,-160.156
1645055521.351,18.066,-881.836,-112.793,66.406
1645055521.355,56.641,-799.805,-80.566,80.078
1645055521.358,-99.609,-202.148,-14.648,-157.715
1645055521.362,-178.711,-388.184,-41.992,-229.980
1645055521.366,-51.758,-343.750,-25.879,-44.434
1645055521.370,59.570,126.953,-1.953,77.148
1645055521.374,-32.227,62.988,-23.438,-66.406
1645055521.376,-135.742,-430.176,-72.266,-170.410
1645055521.380,-58.594,-326.660,-50.781,-51.270
1645055521.384,83.984,231.445,0.488,108.398
1645055521.388,34.668,78.613,-49.805,9.277
1645055521.392,-107.422,-621.094,-122.559,-161.621
1645055521.396,-86.914,-851.562,-103.027,-109.375
1645055521.400,62.988,-182.617,-17.578,92.773
1645055521.403,61.523,115.234,-12.207,76.660
1645055521.407,-83.008,-676.270,-101.074,-120.605
1645055521.411,-112.305,-591.309,-63.477,-139.160
1645055521.415,32.227,116.699,10.742,60.059
1645055521.419,89.844,-44.922,-29.785,110.352
1645055521.421,-36.621,-787.598,-124.512,-71.777
1645055521.425,-114.258,-877.930,-105.469,-164.551
1645055521.429,-5.371,-66.406,5.371,-16.113
1645055521.433,110.352,189.453,3.906,131.836
1645055521.437,6.348,-711.426,-108.887,-10.254
1645055521.441,-130.371,-915.527,-105.957,-166.992
1645055521.445,-62.012,-454.102,-34.180,-60.547
1645055521.448,91.309,-271.484,-24.414,123.535
1645055521.452,56.641,-801.758,-111.328,45.410
1645055521.456,-97.656,-645.020,-71.289,-156.250
1645055521.460,-99.609,-66.406,-4.395,-132.812
1645055521.464,61.035,37.598,-9.766,88.379
1645055521.468,80.078,105.469,-4.883,78.125
1645055521.472,-70.312,16.602,-44.434,-138.184
1645055521.476,-106.934,-101.074,-63.965,-154.785
1645055521.480,20.508,-125.000,-33.691,36.133
1645055521.484,81.543,44.922,-10.742,92.773
1645055521.488,-41.504,-288.086,-58.594,-88.379
1645055521.492,-129.883,-583.008,-78.613,-176.758
1645055521.495,-25.879,-644.531,-68.359,-17.090
1645055521.499,127.930,-509.277,-35.156,170.898
1645055521.503,91.309,-95.215,-17.090,88.379
1645055521.507,-48.340,-185.059,-56.641,-89.844
1645055521.511,-18.066,-542.480,-81.055,-31.250
1645055521.513,119.141,-161.621,-31.250,135.254
1645055521.517,84.473,-20.508,-29.297,73.242
1645055521.521,-66.406,-340.820,-69.336,-110.840
1645055521.525,-84.473,-765.137,-105.469,-99.121
1645055521.529,55.664,-191.406,-14.648,88.867
1645055521.533,83.984,139.160,1.465,103.516
1645055521.537,-57.129,-508.301,-90.820,-83.984
1645055521.540,-105.469,-896.484,-127.930,-128.418
1645055521.544,14.160,-165.039,-6.836,37.109
1645055521.548,102.051,457.031,45.410,120.117
1645055521.552,-0.488,-10.254,-36.621,-47.363
1645055521.556,-117.188,-492.676,-70.801,-169.434
1645055521.556,-39.551,-176.270,-11.719,-47.363
1645055521.560,89.355,376.953,24.902,108.398
1645055521.564,5.859,-154.297,-68.359,-5.859
1645055521.568,-144.531,-645.996,-88.379,-175.781
1645055521.572,-106.445,-206.055,-23.926,-110.840
1645055521.576,27.344,-50.781,-17.090,65.918
1645055521.580,10.742,-556.641,-94.727,17.090
1645055521.583,-123.535,-784.180,-102.539,-171.387
1645055521.587,-126.953,-225.586,-17.578,-164.551
1645055521.591,39.551,177.246,6.348,48.828
1645055521.595,95.703,-24.902,-28.809,105.957
1645055521.599,-55.664,-169.434,-45.898,-76.660
1645055521.616,-133.789,-208.008,-46.875,-141.602
1645055521.620,9.766,-316.895,-42.969,55.664
1645055521.624,118.652,-737.305,-86.914,162.598
1645055521.628,-6.348,-657.715,-74.219,-34.180
1645055521.632,-127.930,-127.930,-17.090,-180.664
1645055521.636,-40.039,-317.383,-41.016,-48.828
1645055521.640,94.238,-794.922,-87.402,143.555
1645055521.643,19.043,-317.383,-40.527,25.391
1645055521.647,-124.023,-21.484,-31.738,-162.109
1645055521.651,-85.938,-188.965,-47.363,-97.168
1645055521.655,74.219,83.008,-7.812,114.258
1645055521.659,65.430,249.023,-10.254,88.867
1645055521.646,-84.961,-8.789,-52.734,-128.906
1645055521.650,-115.723,-378.418,-92.285,-155.762
1645055521.654,28.809,-94.727,-37.109,50.781
1645055521.658,92.285,293.457,-4.883,109.863
1645055521.662,-44.922,-75.684,-84.961,-83.008
1645055521.666,-126.465,-730.469,-137.207,-138.184
1645055521.670,-11.230,-734.863,-87.891,17.578
1645055521.673,101.562,45.410,-3.906,114.258
1645055521.677,3.418,91.309,-29.297,-23.438
1645055521.681,-120.117,-786.621,-122.070,-136.719
1645055521.685,-63.477,-626.465,-64.453,-50.781
1645055521.689,89.355,327.637,35.645,119.629
1645055521.707,58.105,143.066,-30.762,62.012
1645055521.711,-110.840,-795.410,-134.277,-134.766
1645055521.715,-109.375,-507.812,-66.406,-131.348
1645055521.719,52.246,342.773,24.902,64.941
1645055521.723,73.730,168.945,-33.203,82.520
1645055521.727,-75.684,-748.047,-123.535,-97.168
1645055521.731,-123.047,-694.824,-77.637,-129.883
1645055521.734,1.953,-138.672,-12.207,51.270
1645055521.738,75.195,-172.363,-36.133,125.977
1645055521.742,-40.527,-810.059,-133.301,-49.316
1645055521.746,-151.367,-586.426,-81.543,-178.711
1645055521.750,-51.758,29.785,-1.953,-45.410
1645055521.767,62.500,30.273,-30.762,101.074
1645055521.771,16.113,-87.891,-43.457,16.113
1645055521.775,-54.199,-90.820,-36.133,-65.918
1645055521.779,-20.996,9.277,-35.645,4.395
1645055521.783,100.098,1.953,-38.086,165.527
1645055521.787,69.824,-324.219,-71.289,87.891
1645055521.791,-81.543,-466.309,-69.336,-118.164
1645055521.794,-88.867,-201.172,-24.414,-95.703
1645055521.798,51.758,-241.211,-36.133,102.051
1645055521.802,69.824,-246.582,-46.387,87.891
1645055521.806,-59.570,-327.148,-62.012,-92.285
1645055521.810,-112.305,-251.953,-47.363,-134.277
1645055521.796,20.020,-654.785,-75.684,56.152
1645055521.800,101.074,-813.965,-81.055,143.066
1645055521.804,-33.203,-166.992,-27.832,-74.707
1645055521.808,-129.395,-269.531,-51.758,-183.105
1645055521.812,-37.598,-645.020,-62.988,-29.297
1645055521.816,83.008,-274.902,-22.461,128.418
1645055521.820,10.254,-99.609,-26.367,2.441
1645055521.823,-127.441,-431.152,-66.895,-167.969
1645055521.827,-96.191,-560.547,-58.594,-113.770
1645055521.831,41.016,124.023,23.926,70.801
1645055521.835,28.809,258.789,3.418,28.809
1645055521.839,-134.277,-491.699,-104.004,-181.152
1645055521.841,-164.062,-962.402,-137.207,-186.523
1645055521.845,-4.395,-278.320,-11.719,9.766
1645055521.849,64.941,287.109,30.273,65.430
1645055521.853,-57.617,-334.473,-60.547,-102.051
1645055521.857,-137.695,-593.262,-66.406,-166.016
1645055521.861,-18.555,-195.801,-19.531,13.672
1645055521.865,93.750,-52.734,-15.137,132.812
1645055521.868,-14.160,-542.480,-75.684,-19.531
1645055521.872,-131.348,-756.836,-70.801,-154.785
1645055521.876,-46.875,-19.043,22.461,-53.711
1645055521.880,103.516,310.059,26.367,128.906
1645055521.884,44.922,-77.148,-10.742,41.992
1645055521.887,-105.957,-316.406,-23.438,-146.484
1645055521.891,-80.566,-324.219,-24.902,-96.680
1645055521.895,65.918,-32.715,-3.906,98.145
1645055521.899,73.730,-626.465,-75.684,102.051
1645055521.903,-84.473,-739.258,-59.082,-111.816
1645055521.907,-122.559,-328.125,-17.090,-142.090
1645055521.911,37.109,-300.293,-15.625,82.520
1645055521.914,98.145,-707.031,-46.387,144.043
1645055521.918,-48.340,-434.570,-29.297,-85.449
1645055521.922,-128.418,-19.531,3.906,-177.734
1645055521.926,-14.160,-75.684,3.418,-6.836
1645055521.930,95.703,135.742,21.973,110.352
1645055521.931,-7.324,116.699,-2.441,-39.551
1645055521.935,-125.000,-114.746,-37.109,-174.805
1645055521.939,-58.594,-257.324,-42.969,-70.801
1645055521.943,80.078,72.266,9.277,97.168
1645055521.947,37.598,141.113,-0.488,10.742
1645055521.951,-115.234,-390.625,-55.176,-164.062
1645055521.955,-99.609,-837.891,-95.215,-106.445
1645055521.958,56.152,-866.699,-76.660,100.586
1645055521.962,62.012,-22.461,29.297,71.289
1645055521.966,-84.473,-26.367,-20.020,-124.023
1645055521.970,-125.000,-560.059,-64.941,-145.020
1645055521.974,20.020,-23.926,27.832,34.668
1645055521.980,96.680,285.645,42.480,102.539
1645055521.984,-39.062,-381.348,-47.852,-78.613
1645055521.988,-131.348,-916.504,-99.121,-166.992
1645055521.992,-41.992,-306.152,-6.348,-41.504
1645055521.996,66.406,319.336,45.898,74.219
1645055522.000,8.789,-251.953,-56.641,-13.672
1645055522.004,-62.012,-908.691,-136.230,-77.637
1645055522.007,-5.371,-348.145,-31.250,7.812
1645055522.011,110.840,189.941,28.320,154.297
1645055522.015,67.871,-188.965,-52.734,79.590
1645055522.019,-83.984,-591.309,-79.590,-115.234
1645055522.023,-93.262,-157.715,-11.719,-112.305
1645055522.021,47.363,330.566,7.812,73.242
1645055522.025,78.125,134.766,-28.809,89.844
1645055522.029,-62.988,-222.656,-55.176,-108.398
1645055522.033,-124.023,-159.668,-44.922,-162.598
1645055522.037,4.395,140.625,-10.742,14.160
1645055522.041,95.215,-130.859,-41.504,118.652
1645055522.045,-23.438,-575.684,-76.172,-41.992
1645055522.048,-133.301,-407.227,-44.434,-172.363
1645055522.052,-47.852,1.465,-13.672,-58.594
1645055522.056,80.078,-278.320,-61.523,101.074
1645055522.060,7.324,-563.477,-95.703,-29.785
1645055522.064,-128.418,-479.980,-78.125,-208.496
1645055522.083,-98.633,-287.598,-37.598,-138.672
1645055522.087,56.641,-652.344,-57.617,80.078
1645055522.091,36.621,-647.461,-47.852,29.785
1645055522.095,-132.324,-173.828,-32.715,-208.496
1645055522.099,-166.016,-304.688,-52.246,-228.516
1645055522.103,-37.598,-535.156,-51.758,-39.551
1645055522.107,32.227,-255.859,-36.621,22.949
1645055522.110,-75.684,-34.180,-24.414,-144.531
1645055522.114,-136.719,-448.730,-62.988,-192.871
1645055522.118,-6.348,-684.570,-67.383,-2.441
1645055522.122,96.680,27.832,7.812,102.539
1645055522.126,-11.719,160.156,-22.949,-57.617
1645055522.126,-123.047,-379.883,-77.148,-177.734
1645055522.130,-41.016,-452.148,-47.852,-46.875
1645055522.134,102.539,99.121,24.414,128.906
1645055522.138,52.734,202.148,5.859,34.180
1645055522.142,-92.285,-465.820,-97.168,-140.625
1645055522.146,-66.406,-790.039,-91.309,-78.125
1645055522.150,81.543,-208.984,2.930,110.840
1645055522.153,81.543,222.168,12.207,81.055
1645055522.157,-73.730,-564.941,-97.168,-110.840
1645055522.161,-117.676,-760.254,-84.473,-133.301
1645055522.165,26.367,80.566,16.113,59.570
1645055522.169,94.238,249.512,2.441,119.141
1645055522.171,-33.203,-406.250,-59.082,-68.359
1645055522.175,-117.188,-752.930,-67.871,-158.203
1645055522.179,-6.348,-121.094,5.371,-14.648
1645055522.183,105.469,171.875,9.766,115.234
1645055522.187,12.207,-730.469,-108.398,-2.930
1645055522.191,-118.652,-1000.000,-98.633,-153.809
1645055522.195,-61.523,-292.480,16.602,-78.613
1645055522.198,96.191,109.375,19.531,114.258
1645055522.202,62.988,-691.895,-82.520,58.105
1645055522.206,-95.215,-528.320,-31.738,-145.508
1645055522.210,-90.820,33.691,13.672,-119.629
1645055522.214,68.848,91.309,5.371,95.703
1645055522.217,90.332,78.613,3.418,96.680
1645055522.221,-67.383,-100.098,-32.227,-111.816
1645055522.225,-130.371,-183.594,-54.688,-153.809
1645055522.229,15.137,-138.184,-39.551,42.480
1645055522.233,96.191,58.594,-16.602,117.676
1645055522.237,-45.898,-359.863,-75.684,-76.172
1645055522.241,-128.418,-666.504,-83.008,-166.504
1645055522.244,32.715,-673.828,-65.918,60.059
1645055522.248,169.922,-802.246,-63.965,230.957
1645055522.252,58.594,-74.219,1.953,43.457
1645055522.256,-73.242,-55.176,-27.832,-121.094
1645055522.260,-37.598,-376.465,-57.617,-35.156
1645055522.262,98.145,95.215,-14.648,142.090
1645055522.266,73.242,9.766,-27.832,84.473
1645055522.270,-72.266,-368.164,-55.664,-108.887
1645055522.274,-74.219,-773.926,-83.008,-79.102
1645055522.278,72.754,-181.641,13.672,102.051
1645055522.282,108.398,117.188,11.719,108.398
1645055522.286,-39.551,-531.250,-81.055,-79.102
1645055522.289,-97.168,-885.254,-103.027,-121.094
1645055522.293,23.926,-268.555,-2.930,38.574
1645055522.297,101.074,136.230,25.879,110.840
1645055522.301,-21.973,-353.027,-52.246,-56.152
1645055522.305,-128.418,-641.602,-61.523,-174.316
1645055522.308,-36.133,-45.410,7.812,-51.758
1645055522.312,94.238,381.348,24.414,112.305
1645055522.316,27.344,-62.012,-43.457,9.766
1645055522.320,-113.281,-350.098,-60.059,-152.344
1645055522.324,-85.938,-102.051,-19.043,-91.309
1645055522.328,56.152,-42.969,-21.484,93.750
1645055522.332,39.551,-538.574,-89.844,46.387
1645055522.335,-119.629,-793.457,-113.281,-174.805
1645055522.339,-157.715,-297.363,-46.387,-207.520
1645055522.343,-6.348,21.973,-12.207,-8.301
1645055522.347,56.152,-192.871,-57.129,50.293
1645055522.351,-82.520,-414.551,-90.820,-131.348
1645055522.353,-146.973,-591.309,-87.402,-182.617
1645055522.357,-18.066,-496.582,-58.105,1.953
1645055522.361,78.613,-737.305,-88.867,125.977
1645055522.365,-29.297,-687.988,-86.426,-38.574
1645055522.369,-138.672,-215.820,-29.297,-175.293
1645055522.373,-54.688,-382.812,-39.551,-44.434
1645055522.377,94.727,-810.059,-60.547,141.602
1645055522.380,32.227,-291.016,-9.277,23.926
1645055522.384,-113.281,22.949,0.000,-157.715
1645055522.388,-83.008,-218.262,-17.090,-87.402
1645055522.392,70.312,61.523,20.508,100.586
1645055522.396,67.383,275.391,16.113,70.312
1645055522.411,-72.754,-1.953,-33.203,-114.258
1645055522.415,-112.305,-389.160,-64.453,-131.836
1645055522.419,17.578,-339.844,-31.738,54.688
1645055522.423,86.426,124.512,7.812,110.352
1645055522.427,-44.434,109.375,-15.137,-75.684
1645055522.431,-132.324,-627.441,-101.074,-147.949
1645055522.435,-25.879,-959.473,-106.934,21.973
1645055522.438,84.961,12.695,43.457,132.812
1645055522.442,-6.348,181.152,21.484,-9.277
1645055522.446,-123.535,-525.391,-63.477,-146.484
1645055522.450,-56.641,-207.031,-11.230,-56.152
1645055522.454,100.586,385.254,34.668,131.836
1645055522.475,57.617,85.938,-40.039,53.223
1645055522.479,-98.633,-768.066,-129.883,-129.395
1645055522.483,-91.797,-447.266,-58.594,-104.980
1645055522.487,67.383,313.477,8.789,86.914
1645055522.491,100.098,95.703,-42.969,94.727
1645055522.495,-56.152,-786.621,-136.719,-90.332
1645055522.499,-119.141,-875.977,-94.727,-131.348
1645055522.502,27.832,-135.742,19.043,44.434
1645055522.506,114.746,58.105,3.906,116.699
1645055522.510,-17.090,-767.578,-111.816,-57.129
1645055522.514,-132.324,-509.766,-49.316,-176.758
1645055522.518,-36.621,183.594,21.484,-33.203
1645055522.506,90.820,173.340,0.488,125.000
1645055522.510,8.789,-92.773,-41.016,-9.766
1645055522.514,-127.930,-228.027,-50.293,-166.504
1645055522.518,-86.914,-67.383,-20.508,-79.590
1645055522.522,68.848,-41.016,-32.227,112.305
1645055522.526,47.852,-375.488,-75.195,58.105
1645055522.530,-108.398,-473.145,-78.613,-144.043
1645055522.533,-103.027,-398.438,-55.176,-121.582
1645055522.537,58.594,-475.586,-47.363,96.680
1645055522.541,79.102,-144.531,-18.555,99.609
1645055522.545,-67.871,-39.062,-22.461,-108.398
1645055522.549,-124.023,-206.543,-31.250,-149.414
1645055522.546,4.395,-713.379,-78.125,53.223
1645055522.550,85.449,-1000.000,-115.723,144.043
1645055522.554,-37.598,-374.023,-27.344,-53.223
1645055522.558,-139.160,-224.121,-16.113,-166.016
1645055522.562,-48.828,-367.676,-27.832,-24.902
1645055522.566,110.840,-85.449,-7.324,166.016
1645055522.570,55.664,-66.895,-36.621,71.289
1645055522.573,-91.309,-328.125,-73.242,-123.047
1645055522.577,-57.617,-795.898,-102.539,-52.246
1645055522.581,81.543,-144.043,-9.277,120.117
1645055522.585,59.570,127.441,-22.949,63.965
1645055522.589,-99.121,-480.957,-93.750,-125.977
1645055522.591,-118.164,-582.031,-65.918,-128.418
1645055522.595,41.504,104.980,16.602,66.406
1645055522.599,99.121,313.965,0.977,115.723
1645055522.603,-39.062,-249.512,-87.402,-81.055
1645055522.607,-135.254,-385.742,-77.637,-169.922
1645055522.611,-36.621,-203.125,-45.410,-12.207
1645055522.615,67.383,-108.887,-46.875,97.168
1645055522.618,-33.691,-584.473,-110.840,-59.082
1645055522.622,-151.367,-802.734,-116.699,-196.289
1645055522.626,-83.984,-53.223,-22.949,-99.609
1645055522.630,49.805,301.758,-13.184,74.219
1645055522.634,3.418,-127.930,-80.566,-20.508
1645055522.637,-138.184,-422.852,-104.492,-207.520
1645055522.641,-114.746,-431.641,-79.102,-145.508
1645055522.645,38.574,-260.254,-59.570,53.711
1645055522.649,57.129,-708.008,-124.023,44.922
1645055522.653,-98.633,-758.301,-111.328,-161.621
1645055522.657,-163.086,-415.039,-66.406,-202.148
1645055522.661,-16.602,-388.672,-60.059,-9.277
1645055522.664,63.477,-286.133,-41.992,50.781
1645055522.668,-68.359,-124.512,-50.781,-134.277
1645055522.672,-134.766,-29.785,-58.105,-214.355
1645055522.676,-4.883,-170.898,-62.500,-45.410
1645055522.680,99.121,-475.586,-62.012,89.355
1645055522.684,8.789,-94.238,-29.297,-60.059
1645055522.688,-95.215,1.953,-53.223,-194.824
1645055522.692,-36.133,-316.895,-66.406,-90.820
1645055522.696,116.211,-197.754,-14.648,90.332
1645055522.700,81.543,23.438,-4.395,16.602
1645055522.704,-80.566,-366.699,-63.965,-159.668
1645055522.708,-83.008,-845.215,-98.145,-123.047
1645055522.711,66.406,-886.230,-79.590,85.449
1645055522.715,74.707,-53.223,15.625,62.012
1645055522.719,-74.707,60.547,-6.836,-154.297
1645055522.723,-109.375,-630.859,-83.008,-168.945
1645055522.727,20.020,-113.281,-16.113,18.555
1645055522.726,90.332,318.359,5.859,102.051
1645055522.730,-19.043,-326.660,-77.637,-56.152
1645055522.734,-106.934,-888.184,-126.465,-151.367
1645055522.738,-18.066,-290.039,-22.949,-32.715
1645055522.742,104.980,387.207,59.570,119.629
1645055522.746,30.273,-165.527,-37.109,10.742
1645055522.750,-101.074,-932.617,-128.418,-150.391
1645055522.753,-44.434,-556.641,-44.434,-67.871
1645055522.757,91.309,343.750,49.805,100.586
1645055522.761,53.711,64.941,-16.113,41.504
1645055522.765,-95.215,-727.539,-92.773,-132.324
1645055522.769,-104.492,-274.902,0.977,-130.371
1645055522.773,46.387,334.961,57.617,69.336
1645055522.777,79.590,94.727,-7.812,87.891
1645055522.781,-60.547,-292.480,-44.434,-111.328
1645055522.785,-123.535,-242.188,-27.832,-164.551
1645055522.789,-5.371,122.559,14.160,4.395
1645055522.793,81.543,-180.176,-31.738,113.281
1645055522.797,-27.344,-596.191,-79.590,-58.594
1645055522.800,-129.883,-260.742,-40.527,-197.754
1645055522.804,-41.016,-105.469,-22.461,-55.664
1645055522.808,91.797,-465.820,-57.129,123.535
1645055522.812,22.461,-590.332,-57.617,3.418
1645055522.816,-118.652,-125.000,-36.133,-177.734
1645055522.832,-76.172,-178.223,-47.852,-97.656
1645055522.836,76.172,-406.738,-33.203,111.816
1645055522.840,60.547,-81.543,7.324,67.383
1645055522.844,-86.914,23.438,-7.324,-130.371
1645055522.848,-112.793,-230.469,-51.758,-138.672
1645055522.852,30.762,-790.039,-106.934,78.125
1645055522.856,81.055,-444.824,-37.598,113.281
1645055522.859,-52.246,51.758,0.000,-96.680
1645055522.863,-115.234,-356.445,-66.895,-152.832
1645055522.867,0.977,-481.934,-44.434,15.625
1645055522.871,91.797,98.633,11.230,125.000
1645055522.875,-4.883,-109.863,-40.527,-29.297
1645055522.877,-118.652,-653.809,-85.938,-151.367
1645055522.881,-50.293,-469.727,-46.387,-34.668
1645055522.885,95.215,209.961,28.809,135.742
1645055522.889,41.992,187.012,14.160,41.504
1645055522.893,-107.422,-397.949,-66.406,-155.762
1645055522.897,-79.590,-645.020,-70.801,-110.840
1645055522.901,65.918,-219.727,-8.301,88.379
1645055522.904,64.941,127.930,-4.883,64.941
1645055522.908,-75.684,-598.145,-110.352,-116.699
1645055522.912,-118.652,-775.391,-86.914,-135.254
1645055522.916,20.996,129.395,35.156,51.758
1645055522.920,84.473,298.340,14.160,110.352
1645055522.922,-43.945,-425.781,-76.172,-79.102
1645055522.926,-121.094,-755.859,-83.984,-156.738
1645055522.930,-22.949,-324.707,-21.484,-2.930
1645055522.934,93.750,57.617,9.766,121.582
1645055522.938,11.230,-677.734,-100.586,-15.625
1645055522.942,-118.164,-1000.000,-108.887,-166.504
1645055522.946,-62.012,-305.664,11.230,-70.801
1645055522.949,83.984,95.703,26.367,124.512
1645055522.953,54.199,-697.266,-80.566,69.824
1645055522.957,-92.285,-559.570,-41.504,-131.836
1645055522.961,-84.961,-33.691,22.461,-104.492
1645055522.965,57.617,40.527,23.438,101.074
1645055522.966,67.871,132.324,27.344,111.816
1645055522.970,-73.730,28.809,-7.324,-83.008
1645055522.974,-124.023,-50.781,-25.391,-134.766
1645055522.978,4.883,-98.145,-19.043,44.434
1645055522.982,85.938,-165.527,-15.625,121.094
1645055522.986,-33.203,-430.664,-54.688,-53.223
1645055522.990,-127.930,-541.016,-62.500,-159.180
1645055522.993,-37.598,-655.762,-51.758,-13.672
1645055522.997,78.125,-845.703,-47.852,134.277
1645055523.001,4.395,-125.000,31.738,-12.695
1645055523.005,-120.117,-53.223,-9.766,-176.270
1645055523.009,-66.406,-326.172,-37.598,-83.984
1645055523.015,82.520,42.480,18.555,108.887
1645055523.019,38.086,-65.918,-4.883,40.039
1645055523.023,-117.188,-346.680,-42.480,-157.715
1645055523.027,-107.910,-775.879,-80.566,-115.234
1645055523.031,36.621,-225.098,10.742,82.520
1645055523.035,70.801,35.645,21.973,94.727
1645055523.039,-60.547,-573.730,-67.383,-98.145
1645055523.042,-112.305,-957.520,-112.793,-137.695
1645055523.046,-0.977,-372.559,5.371,18.066
1645055523.050,85.938,413.086,78.613,98.633
1645055523.054,-12.207,1.953,-7.812,-71.777
1645055523.058,-125.488,-359.375,-25.391,-190.918
1645055523.057,-43.945,58.105,19.043,-40.527
1645055523.061,83.984,400.391,27.344,123.535
1645055523.065,16.113,-22.949,-41.016,15.625
1645055523.069,-124.023,-388.672,-66.406,-151.367
1645055523.073,-96.191,-149.414,-26.367,-97.168
1645055523.077,59.570,-3.906,-9.277,105.957
1645055523.081,55.664,-451.660,-64.941,77.148
1645055523.084,-99.121,-755.859,-86.426,-136.230
1645055523.088,-111.328,-265.625,-19.043,-140.625
1645055523.092,36.621,-8.301,-3.906,59.082
1645055523.096,77.637,-448.730,-50.781,97.656
1645055523.100,-61.523,-537.109,-46.875,-104.004
1645055523.102,-138.184,-220.215,-19.043,-178.711
1645055523.106,-18.066,-337.891,-25.879,-3.418
1645055523.110,87.891,-640.137,-52.734,118.164
1645055523.114,-23.926,-386.230,-32.227,-55.664
1645055523.118,-143.066,-73.730,-12.695,-193.848
1645055523.122,-40.039,-312.988,-37.598,-34.180
1645055523.126,124.023,-739.258,-60.547,178.711
1645055523.129,61.523,-267.090,-0.488,66.895
1645055523.133,-86.914,75.195,-9.277,-138.672
1645055523.137,-69.336,-196.289,-50.781,-94.238
1645055523.141,74.219,66.895,5.859,96.191
1645055523.145,71.777,163.086,-9.277,58.105
1645055523.148,-70.801,-269.531,-60.547,-130.371
1645055523.152,-95.703,-469.238,-60.059,-138.672
1645055523.156,49.316,-265.625,-11.719,50.293
1645055523.160,113.281,220.703,24.902,102.051
1645055523.164,-20.020,62.012,-20.020,-83.496
1645055523.168,-99.609,-601.074,-73.730,-154.785
1645055523.172,0.488,-554.199,-37.598,0.488
1645055523.175,92.773,248.535,24.902,100.586
1645055523.179,1.465,149.902,-24.414,-44.922
1645055523.183,-111.328,-684.570,-93.750,-166.504
1645055523.187,-55.176,-445.312,-26.367,-63.477
1645055523.191,86.426,341.797,49.805,111.816
1645055523.208,49.316,147.461,-4.395,42.969
1645055523.212,-82.031,-743.652,-104.980,-126.465
1645055523.216,-69.336,-764.648,-71.289,-120.605
1645055523.220,64.941,37.109,39.551,68.359
1645055523.224,84.473,143.066,24.902,94.727
1645055523.228,-48.340,-823.730,-112.793,-84.961
1645055523.232,-116.699,-854.980,-59.570,-146.484
1645055523.235,0.000,69.336,70.801,16.602
1645055523.239,65.430,139.648,31.738,80.566
1645055523.243,-55.664,-383.301,-33.203,-102.051
1645055523.247,-131.836,-346.680,-25.879,-183.105
1645055523.251,-27.832,-62.012,9.277,-29.785
1645055523.253,105.957,4.395,26.367,123.047
1645055523.257,41.016,-170.898,-2.441,3.418
1645055523.261,-93.262,-229.004,-9.277,-153.320
1645055523.265,-52.246,-86.914,17.578,-70.312
1645055523.269,91.309,-145.508,10.742,121.582
1645055523.273,63.965,-403.809,-24.414,72.266
1645055523.277,-77.637,-668.457,-58.105,-112.793
1645055523.280,-82.520,-547.363,-26.367,-111.816
1645055523.284,74.707,-533.691,-18.066,96.680
1645055523.288,106.934,-848.145,-44.922,132.812
1645055523.292,-34.668,-292.480,21.484,-87.891
1645055523.296,-75.195,-106.445,19.043,-138.184
1645055523.304,39.062,-506.836,-10.742,59.082
1645055523.308,94.238,-368.164,18.555,138.184
1645055523.312,-30.273,-69.824,34.668,-43.945
1645055523.316,-127.930,-223.145,-1.465,-151.367
1645055523.320,-30.762,-751.953,-45.410,-5.859
1645055523.324,95.703,-471.191,3.418,134.277
1645055523.328,37.598,-257.812,18.066,4.883
1645055523.331,-102.539,-630.371,-29.785,-170.410
1645055523.335,-81.543,-943.848,-70.801,-88.867
1645055523.339,64.941,-295.898,41.992,107.910
1645055523.343,52.246,309.570,89.844,57.617
1645055523.347,-95.703,-220.703,-7.812,-134.277
1645055523.342,-108.398,-350.586,0.977,-129.883
1645055523.346,33.691,249.023,57.617,61.523
1645055523.350,80.078,386.719,26.855,102.539
1645055523.354,-57.129,-184.082,-48.340,-87.891
1645055523.358,-136.719,-384.277,-49.316,-167.969
1645055523.362,-12.207,-205.566,-13.184,1.953
1645055523.366,98.633,-62.500,4.395,117.188
1645055523.369,-8.789,-495.605,-68.359,-41.504
1645055523.373,-135.254,-754.883,-73.242,-176.270
1645055523.377,-55.664,-65.430,29.785,-64.453
1645055523.381,89.844,28.320,18.066,123.047
1645055523.385,40.039,-530.762,-52.246,28.320
1645055523.386,-107.422,-562.988,-54.688,-162.109
1645055523.390,-65.430,-332.520,-39.551,-79.102
1645055523.394,119.141,-6.348,-3.906,166.992
1645055523.398,139.160,-488.281,-51.270,171.387
1645055523.402,-18.555,-607.422,-55.664,-62.500
1645055523.406,-78.125,-294.434,-28.320,-121.582
1645055523.410,52.246,-271.484,-21.484,78.613
1645055523.413,108.398,-675.781,-61.035,150.879
1645055523.417,-35.156,-395.020,-41.992,-64.941
1645055523.421,-119.141,100.098,-0.977,-155.762
1645055523.425,-16.602,27.832,-2.930,10.254
1645055523.429,91.797,226.074,17.090,127.441
1645055523.432,8.301,61.523,-21.973,-13.184
1645055523.436,-123.047,-282.227,-58.105,-159.668
1645055523.440,-69.336,-322.266,-47.363,-67.383
1645055523.444,79.590,-121.582,-5.859,115.723
1645055523.448,41.504,145.020,-4.395,36.133
1645055523.452,-105.957,-282.715,-72.754,-149.902
1645055523.456,-104.004,-762.207,-91.797,-110.840
1645055523.459,35.156,-537.598,-26.855,86.426
1645055523.463,50.293,215.332,49.316,67.871
1645055523.467,-93.262,-13.672,-1.953,-134.277
1645055523.471,-162.109,-575.684,-41.992,-177.246
1645055523.475,-47.363,-60.547,21.973,-11.719
1645055523.476,33.203,250.977,32.227,49.805
1645055523.480,-78.613,-448.242,-45.410,-118.652
1645055523.484,-161.621,-953.613,-102.051,-200.195
1645055523.488,-55.664,-543.457,-16.113,-46.387
1645055523.492,75.684,148.926,65.918,101.562
1645055523.496,4.883,-188.477,-14.160,-28.809
1645055523.500,-127.930,-975.098,-125.000,-173.340
1645055523.503,-88.379,-618.652,-34.668,-104.980
1645055523.507,62.012,283.203,77.637,83.008
1645055523.511,39.551,162.109,7.324,36.621
1645055523.515,-102.051,-343.750,-55.664,-150.391
1645055523.519,-113.281,-294.922,-44.922,-133.789
1645055523.522,29.297,148.438,1.465,65.918
1645055523.526,69.336,102.539,-18.555,94.238
1645055523.530,-70.801,-242.188,-58.105,-119.141
1645055523.534,-137.695,-141.113,-46.875,-192.871
1645055523.538,-15.137,126.953,-15.625,-14.648
1645055523.542,78.613,-230.957,-50.781,94.238
1645055523.546,-26.855,-773.438,-87.891,-57.129
1645055523.549,-122.559,-599.609,-49.316,-163.086
1645055523.553,-36.621,-31.250,11.719,-45.410
1645055523.557,88.379,-313.477,-29.297,107.422
1645055523.561,15.137,-674.316,-53.711,-2.441
1645055523.565,-118.164,-196.289,-18.066,-180.664
1645055523.584,-82.520,-142.578,-21.484,-104.004
1645055523.588,50.781,-361.816,-24.902,102.051
1645055523.592,48.340,-111.816,-6.348,59.570
1645055523.596,-96.680,-32.227,-3.418,-139.648
1645055523.600,-122.559,-259.766,-27.344,-143.066
1645055523.604,30.273,-790.039,-73.730,81.055
1645055523.608,85.449,-466.309,-22.949,125.977
1645055523.611,-57.129,21.484,-5.859,-99.609
1645055523.615,-138.184,-404.785,-80.566,-163.086
1645055523.619,-16.602,-840.332,-100.586,33.203
1645055523.623,83.496,-119.629,-2.441,126.465
1645055523.627,-18.555,183.105,-3.418,-35.156
1645055523.626,-130.859,-424.316,-74.707,-160.156
1645055523.630,-36.621,-328.125,-34.668,-30.762
1645055523.634,159.180,329.102,28.809,202.148
1645055523.638,129.883,344.727,-9.277,143.555
1645055523.642,-39.062,-300.293,-86.426,-66.406
1645055523.646,-45.410,-644.531,-86.914,-40.039
1645055523.650,82.520,-113.281,-7.812,146.973
1645055523.653,85.449,333.496,9.277,111.328
1645055523.657,-54.199,-463.379,-95.703,-79.590
1645055523.661,-98.145,-767.090,-81.543,-108.398
1645055523.665,34.668,52.734,14.160,65.918
1645055523.669,105.957,41.504,-21.973,125.488
1645055523.673,-29.297,-681.152,-96.680,-65.918
1645055523.677,-133.789,-819.824,-82.520,-159.668
1645055523.681,-27.344,-85.449,9.766,-4.883
1645055523.685,94.238,248.047,26.855,135.742
1645055523.689,3.906,-646.973,-86.426,0.488
1645055523.693,-125.488,-944.336,-82.031,-166.016
1645055523.697,-70.312,-283.691,17.090,-83.984
1645055523.700,80.078,79.102,27.344,103.516
1645055523.704,46.875,-272.949,-28.320,31.738
1645055523.708,-104.980,-258.789,-34.180,-179.199
1645055523.712,-103.027,51.758,-7.324,-151.855
1645055523.716,46.387,-24.414,-19.043,60.547
1645055523.717,65.918,-468.262,-46.875,62.500
1645055523.721,-89.355,-448.730,-42.480,-140.625
1645055523.725,-147.949,-347.168,-35.156,-185.547
1645055523.729,-25.391,-270.996,-21.484,-10.254
1645055523.733,34.668,-211.426,-17.090,48.828
1645055523.737,-72.754,-424.805,-36.133,-120.117
1645055523.741,-140.625,-671.875,-44.922,-198.242
1645055523.744,-34.180,-725.586,-46.875,-49.805
1645055523.748,89.355,-535.645,-13.672,105.469
1645055523.752,18.066,41.504,34.180,-20.996
1645055523.756,-113.281,-169.434,-25.879,-169.434
1645055523.760,-69.336,-426.758,-48.340,-91.797
1645055523.763,74.219,-42.480,-1.953,99.121
1645055523.767,45.898,-97.656,-16.113,58.594
1645055523.771,-97.656,-317.383,-37.109,-142.090
1645055523.775,-107.910,-785.156,-90.332,-118.652
1645055523.779,33.203,-502.441,-24.902,75.195
1645055523.783,74.707,-93.750,8.789,86.426
1645055523.787,-62.988,-509.277,-78.613,-100.586
1645055523.790,-125.488,-909.180,-114.258,-146.484
1645055523.794,-3.418,-269.043,-3.418,15.137
1645055523.798,91.309,455.566,58.594,107.422
1645055523.802,-22.949,-66.895,-37.109,-53.711
1645055523.806,-131.836,-636.719,-75.195,-172.852
1645055523.806,-42.969,-83.496,9.277,-51.270
1645055523.810,79.102,350.098,20.996,92.285
1645055523.814,16.113,-62.012,-61.523,-27.832
1645055523.818,-119.629,-314.941,-67.871,-193.848
1645055523.822,-76.660,-76.660,-21.973,-115.723
1645055523.826,89.355,12.695,-7.812,97.656
1645055523.830,58.105,-440.918,-78.125,60.547
1645055523.833,-104.004,-953.613,-142.578,-143.066
1645055523.837,-117.188,-339.844,-18.066,-163.086
1645055523.841,32.227,264.648,42.480,47.363
1645055523.845,83.496,-9.277,-16.113,106.445
1645055523.849,-55.664,-143.066,-36.621,-95.703
1645055523.853,-137.695,-141.602,-27.832,-169.922
1645055523.857,-12.207,-290.039,-22.949,6.348
1645055523.861,96.680,-587.402,-47.363,126.465
1645055523.865,-11.719,-438.477,-29.297,-42.480
1645055523.869,-138.672,-132.324,-5.371,-188.965
1645055523.873,-52.246,-376.465,-38.574,-48.340
1645055523.877,128.906,-774.414,-61.523,188.477
1645055523.880,101.074,-276.367,-0.977,110.840
1645055523.884,-49.316,35.156,-10.742,-98.633
1645055523.888,-42.969,-360.840,-41.992,-66.406
1645055523.892,87.402,-317.871,8.789,120.117
1645055523.896,84.961,157.715,43.457,95.215
1645055523.896,-57.129,52.734,0.977,-104.492
1645055523.900,-94.727,-369.141,-36.621,-139.160
1645055523.904,30.762,-125.000,-2.441,40.039
1645055523.908,87.402,275.879,15.137,100.586
1645055523.912,-33.691,48.340,-19.531,-79.590
1645055523.916,-112.305,-629.883,-83.496,-153.809
1645055523.920,-14.160,-628.418,-32.715,-5.371
1645055523.923,91.309,158.691,52.246,100.586
1645055523.927,5.859,106.934,-7.812,-39.551
1645055523.931,-112.305,-633.789,-82.031,-167.969
1645055523.935,-58.594,-442.383,-29.297,-72.754
1645055523.939,87.891,82.031,26.367,104.980
1645055523.956,54.199,-205.078,-16.113,33.691
1645055523.960,-93.262,-882.812,-106.934,-141.113
1645055523.964,-104.980,-716.309,-50.781,-121.582
1645055523.968,32.715,208.496,73.242,58.105
1645055523.972,58.594,192.383,17.090,70.312
1645055523.976,-85.449,-705.078,-86.914,-119.141
1645055523.980,-144.531,-705.078,-59.570,-188.965
1645055523.983,-18.555,117.188,21.973,-21.973
1645055523.987,64.941,82.031,-19.043,75.195
1645055523.991,-73.242,-748.535,-108.887,-119.629
1645055523.995,-184.082,-484.863,-33.203,-237.305
1645055523.999,-69.336,58.594,15.137,-75.684
1645055524.001,63.965,26.855,-16.113,90.820
1645055524.005,-9.766,-136.719,-39.062,-23.926
1645055524.009,-125.977,-405.273,-51.758,-173.828
1645055524.013,-77.148,-304.688,-11.719,-88.867
1645055524.017,61.035,-119.141,-5.859,105.469
1645055524.021,45.898,-558.105,-49.316,63.477
1645055524.025,-104.004,-562.012,-43.457,-140.137
1645055524.028,-124.512,-140.137,-28.320,-144.531
1645055524.032,29.785,-352.539,-54.199,68.848
1645055524.036,74.707,-556.152,-46.875,93.262
1645055524.040,-54.688,-129.395,-8.789,-113.281
1645055524.044,-116.699,-186.035,-40.527,-169.922
1645055524.046,-3.418,-393.066,-64.941,10.254
1645055524.050,83.496,-239.746,-41.016,112.793
1645055524.054,-35.156,-62.012,-34.668,-72.754
1645055524.058,-128.418,-264.648,-62.988,-180.176
1645055524.062,-18.555,-796.387,-104.492,-24.414
1645055524.066,97.656,-447.266,-41.016,130.371
1645055524.070,13.672,-237.305,-31.738,5.859
1645055524.073,-127.441,-609.863,-82.031,-169.922
1645055524.077,-82.520,-942.383,-113.770,-92.285
1645055524.081,69.336,-390.625,-11.230,96.191
1645055524.085,56.152,279.297,35.156,47.852
1645055524.089,-96.191,-167.480,-51.270,-144.531
1645055524.093,-130.859,-290.527,-41.504,-147.461
1645055524.097,15.625,251.953,5.371,61.523
1645055524.101,76.172,342.285,-27.344,114.258
1645055524.105,-48.340,-197.266,-89.355,-73.730
1645055524.109,-126.465,-388.672,-68.359,-150.879
1645055524.113,-8.789,-241.699,-43.457,14.648
1645055524.117,96.191,-94.727,-25.391,128.418
1645055524.120,-9.766,-511.719,-88.379,-24.902
1645055524.124,-121.094,-978.516,-141.113,-150.879
1645055524.128,-45.898,-188.965,-13.184,-68.848
1645055524.132,87.402,319.824,25.391,87.402
1645055524.136,59.082,-101.562,-40.527,35.645
