timestamps,TP9,AF7,AF8,TP10
1644357454.921,-1000.000,-1000.000,-383.301,-528.320
1644357454.925,281.738,-82.031,190.918,206.543
1644357454.929,-852.051,930.176,452.637,590.332
1644357454.933,-90.820,-162.598,-75.195,-82.031
1644357454.937,-1000.000,-1000.000,-366.699,-582.520
1644357454.941,-46.875,-590.332,59.570,-0.488
1644357454.945,-810.059,385.254,331.055,606.445
1644357454.948,235.352,-156.738,-39.551,164.062
1644357454.952,-1000.000,-1000.000,-670.410,-562.012
1644357454.956,-416.504,-702.148,-245.605,-304.199
1644357454.960,-900.879,692.871,465.332,453.125
1644357454.964,547.852,342.773,59.082,346.191
1644357454.966,-979.980,-1000.000,-428.223,-480.957
1644357454.970,-796.875,-908.203,-70.801,-529.297
1644357454.974,705.078,419.922,378.418,300.781
1644357454.978,940.918,470.703,176.270,494.141
1644357454.982,-477.051,-815.918,-314.453,-294.922
1644357454.986,-1000.000,-1000.000,-383.301,-632.324
1644357454.990,132.812,-274.414,133.301,66.895
1644357454.993,-829.102,101.562,147.461,559.570
1644357454.997,21.484,-878.418,-351.562,-61.523
1644357455.001,-1000.000,-1000.000,-315.430,-691.406
1644357455.005,-199.707,-438.965,104.492,-166.016
1644357455.009,-806.641,640.625,368.652,562.500
1644357455.012,310.059,185.547,91.309,190.430
1644357455.016,-1000.000,-956.543,-332.520,-598.633
1644357455.020,-497.559,-919.922,-226.562,-371.094
1644357455.024,-962.891,121.582,246.582,459.473
1644357455.028,645.508,354.492,160.156,345.215
1644357455.032,-889.648,-787.109,-428.223,-511.230
1644357455.036,-879.883,-1000.000,-376.953,-581.543
1644357455.039,578.613,-841.309,-167.969,267.090
1644357455.043,-955.078,-470.215,-24.902,530.762
1644357455.047,-282.227,-485.352,-75.684,-288.574
1644357455.051,-1000.000,-1000.000,-486.816,-686.035
1644357455.055,27.832,-472.656,-120.605,25.391
1644357455.056,-801.758,862.305,372.070,578.125
1644357455.060,122.559,89.844,-37.109,5.371
1644357455.064,-1000.000,-1000.000,-451.172,-670.898
1644357455.068,-267.090,-508.789,-63.477,-222.168
1644357455.072,-824.219,705.078,303.223,555.176
1644357455.076,395.508,31.738,-47.852,243.652
1644357455.080,-1000.000,-1000.000,-683.594,-562.012
1644357455.083,-597.656,-922.852,-532.227,-407.715
1644357455.087,929.199,340.820,233.398,403.320
1644357455.091,785.156,696.777,164.551,436.523
1644357455.095,-708.008,-663.574,-418.945,-395.508
1644357455.099,-991.211,-1000.000,-356.934,-599.121
1644357455.100,422.852,195.312,227.051,217.285
1644357455.104,-896.973,810.059,198.730,587.891
1644357455.108,-164.062,-480.957,-370.117,-168.457
1644357455.112,-1000.000,-1000.000,-454.590,-697.266
1644357455.116,-67.383,-254.395,7.812,-42.969
1644357455.120,-796.875,520.508,195.312,617.188
1644357455.124,183.594,-408.203,-395.996,105.469
1644357455.127,-1000.000,-1000.000,-717.773,-648.926
1644357455.131,-339.355,-599.121,-111.816,-287.109
1644357455.135,-858.398,502.441,226.562,548.340
1644357455.139,488.281,-254.395,-207.031,340.820
1644357455.143,-1000.000,-1000.000,-464.355,-543.457
1644357455.145,-679.688,-758.789,-245.605,-489.746
1644357455.149,832.520,181.152,111.816,386.719
1644357455.153,892.090,479.004,83.496,500.488
1644357455.157,-548.828,-529.297,-318.848,-334.961
1644357455.161,-1000.000,-1000.000,-407.715,-614.746
1644357455.165,276.855,-600.098,-144.043,163.574
1644357455.169,-846.680,120.605,83.984,578.613
1644357455.172,-36.133,-237.793,-137.207,-143.555
1644357455.176,-1000.000,-1000.000,-478.027,-686.523
1644357455.180,-141.113,-865.234,-237.305,-91.797
1644357455.184,-798.340,223.633,118.652,562.500
1644357455.188,266.113,42.480,-53.711,110.840
1644357455.205,-1000.000,-1000.000,-500.000,-629.883
1644357455.209,-432.129,-995.117,-398.926,-315.430
1644357455.213,-917.969,244.141,171.875,479.492
1644357455.217,598.145,552.246,133.789,322.266
1644357455.221,-928.711,-747.559,-471.680,-498.047
1644357455.225,-804.688,-1000.000,-474.609,-498.047
1644357455.229,686.523,-134.766,55.176,313.477
1644357455.232,980.469,298.340,130.371,482.910
1644357455.236,-400.879,-564.453,-379.883,-287.598
1644357455.240,-1000.000,-1000.000,-732.422,-583.984
1644357455.244,118.652,-296.387,-117.676,109.375
1644357455.248,-818.848,846.680,329.102,564.453
1644357455.250,50.293,-127.441,-316.895,-24.902
1644357455.254,-1000.000,-1000.000,-646.973,-618.652
1644357455.258,-212.402,-455.078,-38.574,-142.090
1644357455.262,-809.082,838.379,326.172,564.941
1644357455.266,340.820,112.793,-132.324,206.543
1644357455.270,-1000.000,-1000.000,-643.066,-578.125
1644357455.274,-508.789,-792.969,-297.363,-361.816
1644357455.277,-981.445,561.523,292.480,450.684
1644357455.281,683.594,207.031,-99.609,421.875
1644357455.285,-824.707,-1000.000,-651.855,-413.574
1644357455.289,-918.457,-918.457,-273.438,-558.105
1644357455.293,528.320,172.852,193.359,254.883
1644357455.310,-944.336,626.953,227.051,531.738
1644357455.314,-259.277,-442.871,-158.691,-228.516
1644357455.318,-1000.000,-1000.000,-368.164,-652.832
1644357455.322,10.742,-458.496,8.301,47.363
1644357455.326,-801.758,224.609,237.305,586.914
1644357455.330,127.930,-480.469,-170.898,-22.461
1644357455.334,-1000.000,-1000.000,-497.070,-662.598
1644357455.337,-287.598,-662.598,-52.246,-211.914
1644357455.341,-833.008,-366.699,122.559,589.355
1644357455.345,409.668,-785.156,-93.262,282.227
1644357455.349,-1000.000,-925.293,-187.012,-596.680
1644357455.353,-613.281,-1000.000,-179.688,-450.684
1644357455.340,907.715,-19.043,227.051,414.551
1644357455.344,807.617,746.094,313.477,451.660
1644357455.348,-671.387,-514.160,-154.785,-389.160
1644357455.352,-1000.000,-1000.000,-269.043,-608.887
1644357455.356,388.672,22.949,209.473,187.500
1644357455.360,-884.277,593.262,289.062,568.359
1644357455.364,-133.301,-511.230,-261.230,-168.457
1644357455.367,-1000.000,-1000.000,-494.141,-688.477
1644357455.371,-82.031,-289.062,105.957,-66.895
1644357455.375,-795.898,891.113,372.070,565.918
1644357455.379,208.496,96.191,-46.875,59.082
1644357455.383,-1000.000,-1000.000,-662.598,-647.949
1644357455.385,-366.211,-736.328,-313.477,-292.480
1644357455.389,-869.141,665.039,419.922,475.098
1644357455.393,506.348,425.781,62.988,280.273
1644357455.397,-1000.000,-975.586,-434.082,-548.340
1644357455.401,-725.586,-911.621,-134.766,-504.883
1644357455.405,791.992,131.836,289.062,345.215
1644357455.409,882.812,216.309,171.387,468.750
1644357455.412,-568.848,-826.660,-567.383,-318.359
1644357455.416,-1000.000,-1000.000,-604.980,-611.816
1644357455.420,242.188,17.090,249.023,98.145
1644357455.424,-846.191,714.355,272.949,561.523
1644357455.428,-26.367,-589.355,-265.137,-106.445
1644357455.431,-1000.000,-1000.000,-325.684,-712.402
1644357455.435,-170.410,-305.176,135.254,-145.996
1644357455.439,-788.574,639.160,300.781,601.562
1644357455.443,229.004,-77.637,-18.555,115.723
1644357455.447,-1000.000,-1000.000,-338.379,-623.535
1644357455.451,-267.090,-722.168,-124.023,-253.906
1644357455.455,-940.918,-149.902,72.266,522.461
1644357455.458,608.398,-419.434,-98.145,408.691
1644357455.462,-910.156,-902.832,-294.434,-529.297
1644357455.466,-832.520,-914.551,-277.832,-600.586
1644357455.470,657.715,-103.027,124.023,314.453
1644357455.474,989.258,418.945,190.430,561.035
1644357455.476,-396.484,-428.711,-210.449,-322.266
1644357455.480,-1000.000,-1000.000,-418.945,-760.254
1644357455.484,103.027,-600.586,-111.816,34.668
1644357455.488,-806.641,504.395,238.770,619.629
1644357455.492,85.938,-59.570,-105.469,-72.754
1644357455.496,-1000.000,-1000.000,-607.910,-771.973
1644357455.500,-217.285,-909.668,-340.820,-185.059
1644357455.503,-807.617,122.559,167.480,635.254
1644357455.507,349.609,131.348,39.551,211.426
1644357455.511,-1000.000,-986.328,-560.059,-705.566
1644357455.515,-512.207,-859.375,-449.219,-482.910
1644357455.519,-992.676,517.578,263.184,479.004
1644357455.522,738.281,674.805,178.711,462.891
1644357455.526,-766.602,-699.707,-516.602,-487.793
1644357455.530,-928.223,-1000.000,-482.422,-675.781
1644357455.534,551.758,193.359,203.613,266.113
1644357455.538,-973.145,801.270,262.207,606.445
1644357455.542,-304.199,-484.375,-536.621,-215.820
1644357455.546,-1000.000,-1000.000,-679.688,-673.340
1644357455.549,-4.883,-166.992,142.578,10.254
1644357455.553,-798.340,895.020,293.945,656.250
1644357455.557,150.879,-121.582,-226.074,79.102
1644357455.561,-1000.000,-1000.000,-509.766,-666.992
1644357455.565,-295.898,-579.102,-78.613,-229.980
1644357455.580,-833.984,672.852,279.785,581.543
1644357455.584,420.410,150.879,-74.707,301.758
1644357455.588,-1000.000,-1000.000,-481.934,-545.898
1644357455.592,-629.883,-880.859,-356.445,-432.617
1644357455.596,894.531,71.777,84.961,441.895
1644357455.600,810.547,-203.613,-78.613,522.461
1644357455.604,-668.457,-1000.000,-573.730,-344.238
1644357455.607,-1000.000,-995.117,-455.566,-590.820
1644357455.611,368.164,-102.539,89.844,222.168
1644357455.615,-880.859,-113.281,36.621,630.371
1644357455.619,-121.582,-944.336,-379.883,-114.258
1644357455.623,-1000.000,-998.535,-405.273,-652.832
1644357455.625,-92.285,-578.613,-19.531,-7.812
1644357455.629,-795.410,465.820,277.832,644.531
1644357455.633,223.145,82.520,7.324,130.371
1644357455.637,-1000.000,-1000.000,-368.652,-624.023
1644357455.641,-368.652,-898.926,-102.539,-257.812
1644357455.645,-873.047,121.094,259.277,580.566
1644357455.649,530.762,1.465,83.984,389.648
1644357455.652,-998.535,-924.316,-347.656,-486.328
1644357455.656,-734.375,-1000.000,-391.602,-463.867
1644357455.660,761.230,-489.258,63.477,393.555
1644357455.664,961.426,475.586,357.910,536.133
1644357455.668,-451.660,-433.105,-125.000,-278.809
1644357455.670,-1000.000,-1000.000,-287.598,-607.910
1644357455.674,237.305,-0.977,250.000,164.062
1644357455.678,-824.219,962.402,430.664,658.691
1644357455.682,18.066,-117.676,-64.941,-21.973
1644357455.686,-1000.000,-1000.000,-379.883,-663.086
1644357455.690,-167.969,-636.230,92.285,-94.238
1644357455.694,-798.340,374.023,382.812,671.875
1644357455.697,296.387,-156.250,58.594,218.750
1644357455.701,-1000.000,-1000.000,-575.684,-619.141
1644357455.705,-438.477,-805.664,-224.609,-347.656
1644357455.709,-925.781,623.047,543.457,533.691
1644357455.713,647.949,461.914,161.621,460.938
1644357455.716,-876.953,-1000.000,-393.555,-468.262
1644357455.720,-832.031,-944.824,-29.297,-569.824
1644357455.724,658.203,365.723,437.988,343.750
1644357455.728,-986.328,561.035,254.883,622.559
1644357455.732,-344.727,-699.219,-186.523,-229.492
1644357455.736,-1000.000,-1000.000,-320.801,-672.363
1644357455.740,78.613,-300.293,189.453,79.590
1644357455.743,-809.570,181.641,231.934,651.367
1644357455.747,80.566,-824.707,-174.805,3.906
1644357455.751,-1000.000,-1000.000,-172.363,-705.566
1644357455.755,-237.305,-455.078,131.348,-202.637
1644357455.759,-816.406,449.707,366.699,575.684
1644357455.761,372.559,26.855,164.551,229.004
1644357455.765,-1000.000,-933.594,-175.293,-593.262
1644357455.769,-540.527,-844.727,-51.758,-412.598
1644357455.773,982.910,-51.270,300.293,418.945
1644357455.777,742.676,120.117,234.863,389.160
1644357455.781,-753.906,-750.000,-246.094,-416.992
1644357455.785,-948.242,-1000.000,-292.969,-538.574
1644357455.788,484.375,-853.027,37.598,266.113
1644357455.792,-917.969,-307.617,205.566,554.688
1644357455.796,-205.566,-364.258,76.172,-208.008
1644357455.800,-1000.000,-1000.000,-297.363,-637.695
1644357455.804,-30.762,-431.152,15.625,5.859
1644357455.807,-797.363,907.227,462.891,569.336
1644357455.811,167.480,109.863,111.328,39.062
1644357455.815,-1000.000,-1000.000,-452.637,-612.305
1644357455.819,-308.594,-617.188,-136.719,-225.098
1644357455.823,-843.262,761.719,446.777,496.582
1644357455.827,460.938,222.168,172.363,256.836
1644357455.831,-1000.000,-1000.000,-496.094,-499.023
1644357455.834,-626.953,-830.078,-271.484,-400.879
1644357455.838,890.137,459.961,442.383,352.539
1644357455.842,860.840,725.586,280.273,408.691
1644357455.846,-601.074,-622.070,-220.703,-371.094
1644357455.850,-1000.000,-1000.000,-153.320,-579.590
1644357455.881,361.816,93.750,348.633,162.598
1644357455.885,-859.375,865.234,360.352,532.715
1644357455.889,-107.422,-357.910,-97.656,-159.668
1644357455.893,-1000.000,-1000.000,-251.465,-630.859
1644357455.897,-16.602,-447.266,116.211,-44.434
1644357455.901,-806.152,361.816,324.707,519.531
1644357455.905,233.887,-383.301,-231.934,99.609
1644357455.908,-1000.000,-1000.000,-649.414,-599.609
1644357455.912,-376.953,-629.395,-36.621,-327.637
1644357455.916,-880.371,433.105,355.957,441.406
1644357455.920,550.781,-120.605,73.730,295.898
1644357455.924,-976.562,-1000.000,-257.812,-503.906
1644357455.896,-745.117,-797.363,-62.988,-492.188
1644357455.900,757.324,85.938,211.426,296.875
1644357455.904,946.289,415.527,147.949,437.988
1644357455.908,-463.379,-467.285,-152.832,-310.547
1644357455.912,-1000.000,-1000.000,-376.953,-581.055
1644357455.916,196.777,-504.883,-44.922,126.953
1644357455.920,-829.590,343.750,196.289,563.477
1644357455.923,15.137,-285.645,-206.543,-63.477
1644357455.927,-1000.000,-1000.000,-517.090,-619.141
1644357455.931,-181.152,-767.090,-202.637,-114.258
1644357455.935,-802.734,478.516,202.148,534.180
1644357455.939,313.965,116.699,-62.012,149.902
1644357455.956,-1000.000,-990.723,-491.699,-587.891
1644357455.960,-473.633,-1000.000,-541.992,-317.383
1644357455.964,-951.172,-466.797,-92.285,473.145
1644357455.968,649.414,209.961,131.836,338.867
1644357455.972,-864.746,-701.660,-496.582,-447.754
1644357455.976,-875.977,-1000.000,-541.504,-485.840
1644357455.980,591.309,-173.828,30.762,287.598
1644357455.983,-971.191,352.051,166.992,500.977
1644357455.987,-317.383,-509.766,-330.078,-249.023
1644357455.991,-1000.000,-1000.000,-748.535,-588.379
1644357455.995,52.246,-421.875,-164.062,76.660
1644357455.999,-804.688,859.375,393.066,568.848
1644357456.016,104.492,12.695,-236.328,2.441
1644357456.020,-1000.000,-1000.000,-656.250,-654.785
1644357456.024,-251.953,-514.160,-3.418,-200.195
1644357456.028,-819.336,871.582,395.020,565.430
1644357456.032,384.277,194.336,-49.805,250.977
1644357456.036,-1000.000,-1000.000,-555.664,-588.379
1644357456.040,-545.410,-845.215,-220.215,-446.777
1644357456.043,983.398,502.930,378.906,440.430
1644357456.047,751.953,229.004,-9.277,484.863
1644357456.051,-747.070,-1000.000,-568.848,-443.359
1644357456.055,-958.496,-976.562,-216.797,-683.594
1644357456.059,471.680,-109.375,183.105,224.609
1644357456.061,-898.438,404.297,228.027,625.000
1644357456.065,-168.945,-514.160,-137.207,-184.570
1644357456.069,-1000.000,-1000.000,-305.176,-744.141
1644357456.073,26.367,-235.840,129.395,-4.395
1644357456.077,-939.453,341.309,258.789,571.777
1644357456.081,-95.703,-553.711,-183.594,-58.594
1644357456.085,-1000.000,-1000.000,-465.820,-681.152
1644357456.088,-308.594,-846.191,-135.742,-271.973
1644357456.092,-853.027,167.969,323.730,539.062
1644357456.096,461.426,285.156,151.855,278.809
1644357456.100,-1000.000,-834.961,-251.953,-583.496
1644357456.104,-669.434,-1000.000,-239.746,-497.559
1644357456.090,849.121,-843.750,-76.660,371.582
1644357456.094,862.793,-363.281,131.836,435.547
1644357456.098,-597.168,-547.363,-93.262,-406.250
1644357456.102,-1000.000,-1000.000,-444.336,-609.375
1644357456.106,300.293,-257.812,16.602,150.879
1644357456.110,-860.840,620.605,360.840,538.086
1644357456.114,-72.266,-421.875,-164.062,-130.859
1644357456.117,-1000.000,-1000.000,-424.316,-668.945
1644357456.121,-125.977,-344.727,141.602,-104.004
1644357456.125,-796.875,910.645,449.219,541.504
1644357456.129,247.070,243.164,131.836,103.027
1644357456.133,-1000.000,-1000.000,-508.301,-581.055
1644357456.136,-398.926,-704.590,-214.355,-285.156
1644357456.140,-893.555,724.609,473.145,461.426
1644357456.144,571.777,522.461,176.758,334.473
1644357456.148,-964.355,-870.605,-305.664,-468.262
1644357456.152,-751.953,-996.582,-133.789,-469.238
1644357456.156,751.465,42.480,276.367,358.398
1644357456.160,963.867,341.309,238.281,528.809
1644357456.163,-441.406,-754.395,-451.172,-228.516
1644357456.167,-1000.000,-1000.000,-526.855,-590.820
1644357456.171,186.523,-29.297,264.160,83.008
1644357456.175,-818.359,722.656,319.336,595.703
1644357456.179,39.551,-420.410,-72.266,-47.852
1644357456.181,-1000.000,-1000.000,-202.148,-675.781
1644357456.185,-186.035,-322.754,177.734,-134.766
1644357456.189,-794.434,667.969,347.656,617.188
1644357456.193,305.664,-4.395,70.312,192.871
1644357456.197,-1000.000,-993.652,-255.371,-623.047
1644357456.201,-394.531,-794.922,-62.012,-354.004
1644357456.205,-955.566,-145.996,202.148,521.973
1644357456.208,662.598,-397.949,44.922,457.031
1644357456.212,-855.957,-924.316,-201.172,-465.820
1644357456.216,-872.559,-931.152,-106.934,-578.125
1644357456.220,602.539,-138.672,315.918,322.266
1644357456.224,-961.426,553.223,334.473,605.469
1644357456.225,-300.293,-308.105,-39.062,-232.422
1644357456.229,-1000.000,-1000.000,-268.555,-679.688
1644357456.233,39.062,-506.348,136.719,54.199
1644357456.237,-801.758,701.660,445.801,643.555
1644357456.241,113.770,-8.789,50.781,20.508
1644357456.245,-1000.000,-1000.000,-392.090,-685.547
1644357456.249,-262.207,-1000.000,-281.738,-166.016
1644357456.252,-822.266,-315.918,148.926,625.000
1644357456.256,395.508,69.824,234.375,251.465
1644357456.260,-1000.000,-885.254,-296.387,-596.191
1644357456.264,-576.660,-1000.000,-308.594,-428.711
1644357456.268,949.707,228.516,295.410,424.805
1644357456.271,784.668,736.328,363.770,427.734
1644357456.275,-711.914,-569.336,-290.527,-411.133
1644357456.279,-973.633,-1000.000,-358.887,-599.609
1644357456.283,455.078,132.812,322.754,193.359
1644357456.287,-895.020,881.836,413.574,537.598
1644357456.291,-164.062,-345.215,-231.445,-176.270
1644357456.295,-1000.000,-1000.000,-455.078,-657.227
1644357456.298,-57.129,-252.441,214.844,-45.898
1644357456.302,-793.945,867.188,417.480,567.871
1644357456.306,190.430,-41.016,-41.504,61.035
1644357456.310,-1000.000,-1000.000,-339.844,-671.387
1644357456.314,-320.312,-576.660,113.281,-313.477
1644357456.331,-847.168,666.504,392.090,486.328
1644357456.335,477.539,41.504,70.312,279.297
1644357456.339,-1000.000,-1000.000,-291.016,-543.945
1644357456.343,-672.363,-836.914,-55.664,-499.023
1644357456.347,848.145,341.309,347.168,340.820
1644357456.351,874.023,4.395,88.379,457.031
1644357456.355,-580.566,-1000.000,-345.215,-363.281
1644357456.358,-1000.000,-991.211,-285.156,-640.625
1644357456.362,294.922,-66.406,207.520,111.816
1644357456.366,-850.098,-49.316,160.645,556.641
1644357456.370,-51.270,-903.320,-184.570,-150.879
1644357456.374,-1000.000,-1000.000,-235.840,-741.699
1644357456.391,-131.836,-599.609,66.895,-136.719
1644357456.395,-794.922,550.293,341.309,583.984
1644357456.399,261.719,166.504,96.191,105.957
1644357456.403,-1000.000,-1000.000,-345.703,-702.148
1644357456.407,-405.273,-1000.000,-245.605,-342.773
1644357456.411,-894.043,-198.242,171.387,536.621
1644357456.415,575.195,160.645,193.848,381.348
1644357456.418,-952.148,-740.234,-209.961,-542.969
1644357456.422,-801.758,-1000.000,-433.105,-566.406
1644357456.426,698.242,-276.855,10.254,359.863
1644357456.430,974.609,738.281,348.145,557.617
1644357456.434,-433.594,-384.277,-191.895,-313.477
1644357456.420,-1000.000,-1000.000,-424.316,-715.332
1644357456.424,148.438,-109.375,139.160,95.215
1644357456.428,-813.477,954.590,366.699,673.340
1644357456.432,55.176,-65.430,-134.766,-36.621
1644357456.436,-1000.000,-1000.000,-513.672,-764.160
1644357456.440,-203.125,-692.871,-93.262,-178.711
1644357456.444,-803.711,379.883,307.129,666.504
1644357456.447,328.125,-97.168,-133.789,251.953
1644357456.451,-1000.000,-1000.000,-610.352,-654.297
1644357456.455,-475.586,-734.863,-126.953,-452.148
1644357456.459,-954.102,564.453,341.309,476.562
1644357456.463,687.012,248.535,1.465,449.707
1644357456.465,-832.031,-1000.000,-772.949,-444.336
1644357456.469,-888.672,-998.047,-573.242,-590.820
1644357456.473,581.543,226.074,246.582,260.742
1644357456.477,-940.918,633.789,189.453,582.520
1644357456.481,-261.230,-580.566,-336.426,-225.098
1644357456.485,-1000.000,-1000.000,-491.211,-682.129
1644357456.489,22.461,-325.195,48.340,41.504
1644357456.492,-801.270,218.262,113.770,648.926
1644357456.496,116.211,-787.109,-402.832,43.945
1644357456.500,-1000.000,-1000.000,-414.551,-688.965
1644357456.504,-272.461,-471.191,-4.395,-229.980
1644357456.508,-826.172,395.508,299.805,574.707
1644357456.511,405.762,49.316,61.035,269.043
1644357456.515,-1000.000,-876.953,-342.285,-582.520
1644357456.519,-598.633,-943.359,-195.801,-450.684
1644357456.523,944.824,233.398,260.742,402.344
1644357456.527,756.348,529.785,157.715,407.227
1644357456.531,-751.465,-736.328,-422.363,-420.898
1644357456.535,-998.047,-1000.000,-423.828,-577.637
1644357456.538,401.367,-864.746,-161.621,223.633
1644357456.542,-894.043,-139.160,87.891,556.152
1644357456.546,-149.902,-233.887,-32.227,-191.895
1644357456.550,-1000.000,-1000.000,-487.305,-671.387
1644357456.554,-93.262,-649.902,-172.363,-38.086
1644357456.556,-798.828,553.223,332.520,576.660
1644357456.560,190.918,102.539,40.039,61.523
1644357456.564,-1000.000,-1000.000,-525.391,-639.648
1644357456.568,-359.375,-692.871,-237.305,-275.879
1644357456.572,-863.281,703.613,381.348,500.488
1644357456.576,479.004,269.531,82.031,314.453
1644357456.580,-1000.000,-1000.000,-622.070,-489.746
1644357456.583,-725.098,-917.480,-464.355,-466.797
1644357456.587,791.504,333.008,284.180,322.266
1644357456.591,886.230,754.395,240.234,453.125
1644357456.595,-571.289,-569.336,-271.484,-342.285
1644357456.599,-1000.000,-1000.000,-270.020,-630.371
1644357456.616,248.047,34.668,229.980,116.699
1644357456.620,-849.121,811.035,295.898,552.734
1644357456.624,-41.992,-386.719,-205.078,-125.977
1644357456.628,-1000.000,-1000.000,-336.914,-717.285
1644357456.632,-156.738,-346.680,116.699,-164.551
1644357456.636,-799.805,536.621,351.562,537.109
1644357456.640,253.418,-322.754,-269.531,135.742
1644357456.643,-1000.000,-1000.000,-647.949,-658.691
1644357456.647,-429.688,-632.324,17.578,-421.875
1644357456.651,-912.109,461.426,339.844,433.594
1644357456.655,578.125,70.801,93.750,338.867
1644357456.659,-953.613,-929.688,-264.160,-558.105
1644357456.645,-809.570,-866.699,-116.699,-620.117
1644357456.649,684.082,108.398,262.207,292.969
1644357456.653,984.375,566.406,238.770,535.156
1644357456.657,-405.273,-416.504,-134.277,-343.262
1644357456.661,-1000.000,-1000.000,-378.906,-756.836
1644357456.665,104.492,-637.695,-46.875,71.777
1644357456.669,-816.406,73.242,201.660,656.250
1644357456.672,54.688,-432.617,-85.449,-69.336
1644357456.676,-1000.000,-1000.000,-355.469,-824.219
1644357456.680,-225.098,-1000.000,-224.121,-221.680
1644357456.684,-810.547,-399.414,145.996,652.832
1644357456.688,339.355,-41.504,190.918,216.309
1644357456.705,-1000.000,-963.867,-322.754,-699.707
1644357456.709,-493.164,-875.488,-187.988,-463.379
1644357456.713,-971.191,503.418,342.773,497.070
1644357456.717,708.984,705.566,260.254,458.496
1644357456.721,-802.246,-623.535,-281.738,-492.188
1644357456.725,-919.922,-1000.000,-395.996,-644.531
1644357456.729,541.016,-182.129,152.344,238.281
1644357456.732,-933.594,353.516,225.098,557.617
1644357456.736,-248.047,-571.289,-292.480,-283.691
1644357456.740,-1000.000,-1000.000,-659.180,-764.648
1644357456.744,-9.766,-492.676,-124.023,-55.664
1644357456.748,-796.875,843.262,447.754,540.039
1644357456.751,147.949,77.148,-97.656,-27.832
1644357456.755,-1000.000,-1000.000,-484.375,-769.043
1644357456.759,-283.203,-548.340,31.250,-330.078
1644357456.763,-829.102,857.910,416.504,521.973
1644357456.767,421.875,229.004,56.152,243.164
1644357456.771,-1000.000,-1000.000,-480.469,-644.531
1644357456.775,-613.281,-894.531,-258.301,-539.062
1644357456.778,920.410,478.027,382.812,353.516
1644357456.782,798.828,279.785,34.180,446.777
1644357456.786,-691.895,-1000.000,-602.539,-431.152
1644357456.790,-1000.000,-1000.000,-291.992,-687.988
1644357456.794,387.695,65.430,215.820,146.484
1644357456.811,-881.348,465.820,278.320,561.035
1644357456.815,-125.488,-611.328,-142.578,-187.012
1644357456.819,-1000.000,-1000.000,-347.656,-743.164
1644357456.823,-83.008,-357.422,83.008,-76.660
1644357456.827,-854.004,529.297,283.691,582.520
1644357456.831,112.793,-242.188,-105.469,76.660
1644357456.835,-1000.000,-1000.000,-481.934,-636.719
1644357456.838,-373.047,-717.773,-102.051,-281.738
1644357456.842,-873.047,-411.621,134.766,571.289
1644357456.846,496.094,-711.914,-31.738,366.699
1644357456.850,-1000.000,-890.625,-186.035,-528.809
1644357456.854,-735.352,-1000.000,-255.371,-486.816
1644357456.871,770.996,-170.898,153.809,374.023
1644357456.875,912.598,563.477,279.297,507.812
1644357456.879,-524.902,-440.430,-109.375,-307.129
1644357456.883,-1000.000,-1000.000,-395.996,-584.961
1644357456.887,212.891,-375.977,-45.898,169.922
1644357456.891,-833.008,503.906,313.965,607.422
1644357456.895,-1.953,-389.160,-137.207,-67.871
1644357456.898,-1000.000,-1000.000,-416.504,-656.738
1644357456.902,-162.598,-377.441,125.977,-112.793
1644357456.906,-798.828,907.715,452.148,572.754
1644357456.910,297.363,255.371,122.559,145.508
1644357456.914,-1000.000,-1000.000,-528.809,-613.770
1644357456.885,-434.570,-750.977,-232.910,-359.863
1644357456.889,-921.387,657.715,489.746,422.363
1644357456.893,640.625,549.805,204.102,332.031
1644357456.897,-885.742,-862.305,-312.012,-497.559
1644357456.901,-819.336,-964.844,-85.449,-570.801
1644357456.905,668.945,64.941,351.074,266.602
1644357456.909,-980.469,323.730,214.355,515.137
1644357456.912,-338.867,-725.586,-226.562,-258.301
1644357456.916,-1000.000,-1000.000,-162.598,-668.945
1644357456.920,104.492,-41.504,326.172,24.414
1644357456.924,-806.152,730.469,344.238,571.289
1644357456.928,83.008,-457.031,-139.160,-39.062
1644357456.931,-1000.000,-1000.000,-291.992,-699.219
1644357456.935,-233.398,-340.332,191.406,-213.867
1644357456.939,-799.805,527.832,340.332,554.199
1644357456.943,329.590,-500.000,-233.398,223.145
1644357456.947,-1000.000,-1000.000,-438.965,-554.199
1644357456.951,-371.582,-733.887,16.113,-359.863
1644357456.955,988.770,-156.738,214.355,432.617
1644357456.958,718.750,-528.320,6.836,424.316
1644357456.962,-770.020,-1000.000,-150.879,-440.430
1644357456.966,-951.660,-944.336,-58.594,-584.473
1644357456.970,485.840,-94.238,318.848,213.867
1644357456.974,-935.059,752.930,371.582,508.301
1644357456.976,-240.723,-207.031,36.621,-211.426
1644357456.980,-1000.000,-1000.000,-208.008,-634.277
1644357456.984,-30.762,-474.609,111.328,12.695
1644357456.988,-793.945,772.949,442.871,580.078
1644357456.992,127.930,52.734,75.195,44.922
1644357456.996,-1000.000,-1000.000,-366.211,-569.336
1644357457.000,-241.699,-1000.000,-270.508,-130.371
1644357457.003,-860.840,-99.121,209.961,547.363
1644357457.007,433.105,67.871,206.055,265.137
1644357457.011,-1000.000,-1000.000,-390.137,-507.324
1644357457.015,-648.926,-993.652,-310.547,-396.973
1644357457.019,866.699,280.762,329.102,384.766
1644357457.021,844.238,749.023,370.117,447.266
1644357457.025,-626.465,-565.430,-208.984,-307.129
1644357457.029,-1000.000,-1000.000,-219.238,-500.000
1644357457.033,348.633,98.633,336.914,230.469
1644357457.037,-864.746,937.012,425.781,584.961
1644357457.041,-92.285,-272.461,-183.105,-41.992
1644357457.045,-1000.000,-1000.000,-457.520,-518.066
1644357457.048,-90.332,-227.539,206.055,2.930
1644357457.052,-793.945,945.312,438.965,589.844
1644357457.056,239.746,5.859,-13.672,153.320
1644357457.060,-1000.000,-1000.000,-417.480,-526.855
1644357457.064,-371.094,-680.664,-26.855,-225.586
1644357457.081,-875.000,613.770,404.785,497.559
1644357457.085,543.457,73.730,71.289,333.008
1644357457.089,-984.863,-1000.000,-341.797,-426.758
1644357457.093,-729.980,-829.590,-68.359,-417.480
1644357457.097,771.973,308.594,353.516,347.168
1644357457.101,951.172,270.996,178.711,480.957
1644357457.105,-457.031,-823.242,-241.211,-266.602
1644357457.108,-1000.000,-1000.000,-317.871,-529.785
1644357457.112,218.262,-274.902,175.781,136.719
1644357457.116,-832.520,-190.430,142.578,553.711
1644357457.120,1.953,-1000.000,-251.953,-62.012
1644357457.124,-1000.000,-1000.000,-207.031,-619.629
1644357457.126,-172.363,-583.984,89.355,-96.191
1644357457.130,-801.758,315.430,293.945,539.062
1644357457.134,309.082,-2.930,72.754,134.277
1644357457.138,-1000.000,-929.688,-228.516,-589.355
1644357457.142,-461.426,-1000.000,-168.457,-320.312
1644357457.146,-940.918,-259.277,151.367,464.355
1644357457.150,639.648,202.148,236.328,351.562
1644357457.153,-872.070,-687.500,-108.887,-446.777
1644357457.157,-869.629,-1000.000,-381.348,-477.539
1644357457.161,594.727,-331.055,12.695,291.504
1644357457.165,-973.145,698.730,368.164,464.844
1644357457.169,-322.754,-351.074,-113.770,-262.695
1644357457.170,-1000.000,-1000.000,-357.422,-611.816
1644357457.174,71.289,-135.742,183.594,39.551
1644357457.178,-807.129,937.988,426.270,534.180
1644357457.182,93.262,-35.156,-60.059,-30.273
1644357457.186,-1000.000,-1000.000,-420.898,-638.672
1644357457.190,-248.047,-714.355,-9.766,-181.641
1644357457.194,-819.824,309.570,313.477,532.715
1644357457.197,386.230,-100.586,50.293,212.891
1644357457.201,-1000.000,-1000.000,-599.121,-531.738
1644357457.205,-550.293,-836.914,-294.922,-382.324
1644357457.209,971.680,531.250,473.633,392.090
1644357457.213,772.461,566.406,192.871,402.344
1644357457.215,-725.098,-865.234,-316.406,-418.945
1644357457.219,-948.730,-1000.000,-99.121,-592.285
1644357457.223,490.723,250.000,368.164,200.195
1644357457.227,-909.180,672.852,285.645,539.551
1644357457.231,-187.500,-514.648,-144.043,-199.707
1644357457.235,-1000.000,-1000.000,-357.422,-672.852
1644357457.239,-36.621,-490.723,125.977,-14.160
1644357457.242,-796.875,74.707,204.590,611.816
1644357457.246,164.062,-768.066,-291.992,75.684
1644357457.250,-1000.000,-1000.000,-270.996,-678.711
1644357457.254,-330.566,-620.117,103.516,-291.504
1644357457.258,-850.586,380.371,397.949,496.582
1644357457.260,446.777,252.441,240.723,255.859
1644357457.264,-1000.000,-835.449,-163.086,-563.477
1644357457.268,-684.570,-947.266,-85.449,-479.980
1644357457.272,834.473,139.648,312.500,353.516
1644357457.276,835.938,495.605,261.230,431.641
1644357457.280,-627.441,-675.781,-245.117,-347.656
1644357457.284,-1000.000,-1000.000,-334.473,-568.848
1644357457.287,279.297,-926.758,-36.621,186.523
1644357457.291,-878.906,-480.469,171.387,555.664
1644357457.295,-104.004,-470.703,7.812,-134.766
1644357457.299,-1000.000,-1000.000,-356.934,-630.371
1644357457.303,-141.602,-504.883,-13.672,-65.430
1644357457.306,-803.223,877.441,437.012,547.852
1644357457.310,231.445,253.418,166.992,105.957
1644357457.314,-1000.000,-1000.000,-312.500,-610.352
1644357457.318,-410.156,-685.547,-56.641,-296.387
1644357457.322,-897.949,671.387,397.949,463.379
1644357457.326,538.086,244.141,152.832,301.270
1644357457.330,-988.281,-1000.000,-475.586,-464.355
1644357457.333,-782.715,-909.180,-321.777,-484.375
1644357457.337,710.938,342.285,406.738,300.293
1644357457.341,953.125,755.859,301.758,475.586
1644357457.345,-456.543,-532.227,-203.613,-306.152
1644357457.349,-1000.000,-1000.000,-321.777,-627.441
1644357457.351,166.016,-225.098,194.336,89.355
1644357457.355,-823.730,785.156,383.301,567.383
1644357457.359,30.273,-245.605,-118.164,-65.918
1644357457.363,-1000.000,-1000.000,-324.707,-688.965
1644357457.367,-184.570,-417.480,122.070,-166.504
1644357457.371,-802.246,583.496,401.367,571.289
1644357457.375,312.500,-251.953,-179.688,205.078
1644357457.378,-1000.000,-1000.000,-534.180,-619.141
1644357457.382,-469.727,-678.711,33.203,-423.340
1644357457.386,-952.148,435.059,356.934,440.918
1644357457.390,672.363,148.926,181.641,385.742
1644357457.394,-843.750,-892.578,-182.129,-493.164
1644357457.411,-877.441,-899.902,-86.426,-598.145
1644357457.415,599.609,26.855,281.250,262.207
1644357457.419,-971.191,299.805,192.871,535.156
1644357457.423,-316.895,-620.117,-138.184,-312.500
1644357457.427,-1000.000,-1000.000,-272.949,-778.320
1644357457.431,35.156,-713.379,-39.551,19.043
1644357457.435,-806.152,-450.195,152.832,665.039
1644357457.438,101.074,-581.055,42.969,-23.438
1644357457.442,-1000.000,-1000.000,-279.297,-772.461
1644357457.446,-262.695,-771.484,37.109,-243.164
1644357457.450,-823.730,647.461,443.359,586.426
1644357457.454,386.719,413.574,186.035,253.906
1644357457.456,-1000.000,-968.750,-323.730,-604.492
1644357457.460,-569.336,-882.324,-151.367,-438.965
1644357457.464,950.684,450.195,377.930,430.664
1644357457.468,786.621,682.617,257.324,437.500
1644357457.472,-704.102,-649.414,-286.621,-385.254
1644357457.476,-972.656,-1000.000,-396.484,-527.344
1644357457.480,449.219,-229.004,134.277,237.305
1644357457.483,-913.574,299.316,259.277,537.109
1644357457.487,-180.176,-560.547,-215.820,-171.387
1644357457.491,-1000.000,-1000.000,-654.297,-591.309
1644357457.495,-69.336,-545.410,-131.836,26.855
1644357457.499,-798.340,802.246,478.516,563.477
1644357457.501,183.105,114.258,-40.039,67.871
1644357457.505,-1000.000,-1000.000,-468.262,-609.375
1644357457.509,-332.031,-617.188,21.484,-240.723
1644357457.513,-853.516,801.758,435.059,519.043
1644357457.517,476.074,248.047,65.430,292.969
1644357457.521,-1000.000,-1000.000,-468.750,-501.465
1644357457.525,-676.758,-993.652,-313.477,-422.852
1644357457.528,839.355,119.141,278.809,391.602
1644357457.532,876.465,97.168,40.039,495.117
1644357457.536,-579.590,-1000.000,-542.969,-296.387
1644357457.540,-1000.000,-1000.000,-197.754,-591.309
1644357457.544,295.898,-32.227,218.262,145.020
1644357457.546,-849.121,665.527,324.219,577.148
1644357457.550,-44.434,-289.551,-35.156,-99.121
1644357457.554,-1000.000,-1000.000,-302.246,-652.832
1644357457.558,-127.441,-406.250,82.031,-71.777
1644357457.562,-794.434,534.180,316.895,605.469
1644357457.566,263.672,-187.012,-64.453,162.598
1644357457.570,-1000.000,-1000.000,-507.812,-593.262
1644357457.573,-398.926,-718.262,-97.168,-291.504
1644357457.577,-893.555,-395.020,160.156,545.410
1644357457.581,581.055,-767.090,-77.148,376.465
1644357457.585,-944.824,-914.551,-254.883,-510.254
1644357457.589,-788.086,-1000.000,-236.328,-529.785
1644357457.591,706.055,-262.207,172.852,329.102
1644357457.595,982.910,741.211,352.051,526.367
1644357457.599,-404.297,-367.676,-88.867,-296.387
1644357457.603,-1000.000,-1000.000,-314.941,-667.969
1644357457.607,145.996,-145.996,149.902,75.195
1644357457.611,-815.918,656.738,330.566,615.234
1644357457.615,53.711,-333.984,-117.676,-31.738
1644357457.618,-1000.000,-1000.000,-576.660,-656.250
1644357457.622,-210.449,-573.242,-149.902,-134.277
1644357457.626,-807.129,794.434,447.754,551.758
1644357457.630,338.379,343.750,116.211,187.500
1644357457.634,-1000.000,-1000.000,-369.141,-570.312
1644357457.637,-499.023,-906.738,-138.672,-349.121
1644357457.641,-976.562,332.520,353.516,445.312
1644357457.645,692.871,501.465,183.594,377.930
1644357457.649,-814.941,-797.363,-389.160,-406.250
1644357457.653,-906.250,-1000.000,-208.496,-506.836
1644357457.657,554.199,-34.668,244.141,230.957
1644357457.661,-957.520,359.375,227.051,467.773
1644357457.664,-288.574,-684.570,-438.477,-169.434
1644357457.668,-1000.000,-1000.000,-522.461,-540.527
1644357457.672,22.461,-138.672,240.234,0.488
1644357457.676,-804.688,762.695,333.984,498.047
1644357457.680,119.141,-244.629,-34.180,-8.301
1644357457.681,-1000.000,-1000.000,-242.188,-585.449
1644357457.685,-279.785,-434.082,123.535,-196.777
1644357457.689,-833.008,541.504,323.730,451.172
1644357457.693,421.387,-144.043,4.395,188.965
1644357457.697,-1000.000,-1000.000,-320.801,-501.953
1644357457.701,-577.148,-841.309,-137.207,-354.492
1644357457.705,941.895,-209.473,137.207,363.281
1644357457.708,796.387,-552.246,-49.805,368.164
1644357457.712,-674.805,-1000.000,-209.961,-334.473
1644357457.716,-986.816,-924.316,-90.332,-456.055
1644357457.720,415.039,-129.883,279.785,193.848
1644357457.724,-890.625,603.516,321.289,451.660
1644357457.725,-142.090,-247.559,-29.297,-148.438
1644357457.729,-1000.000,-1000.000,-316.895,-505.859
1644357457.733,-62.500,-520.508,35.156,14.160
1644357457.737,-797.852,750.000,406.738,490.723
1644357457.741,187.988,78.613,21.484,51.758
1644357457.745,-1000.000,-1000.000,-422.363,-512.695
1644357457.749,-372.559,-1000.000,-311.035,-170.410
1644357457.752,-876.953,-244.141,128.906,448.730
1644357457.756,504.395,98.633,210.449,209.473
1644357457.760,-1000.000,-847.168,-316.406,-447.754
1644357457.764,-694.336,-1000.000,-382.812,-347.168
1644357457.768,812.012,233.887,256.348,291.504
1644357457.771,905.273,830.566,342.773,329.590
1644357457.775,-527.344,-450.195,-218.750,-308.594
1644357457.779,-1000.000,-1000.000,-352.051,-486.816
1644357457.783,269.531,-13.672,211.914,134.277
1644357457.787,-843.750,914.062,396.973,458.984
1644357457.791,-27.832,-233.887,-228.516,-73.730
1644357457.795,-1000.000,-1000.000,-507.324,-504.883
1644357457.798,-129.883,-364.258,142.090,-75.684
1644357457.802,-795.410,616.211,349.121,480.957
1644357457.806,280.762,-168.457,-54.199,120.117
1644357457.810,-1000.000,-1000.000,-324.219,-501.953
1644357457.814,-419.434,-690.918,-1.465,-248.047
1644357457.831,-909.668,534.668,380.859,419.434
1644357457.835,606.445,27.832,-91.309,321.289
1644357457.839,-921.387,-1000.000,-554.688,-387.695
1644357457.843,-784.180,-852.539,-67.871,-431.152
1644357457.847,705.078,262.207,306.152,294.434
1644357457.851,994.141,281.738,147.461,487.793
1644357457.855,-365.723,-813.477,-262.695,-190.918
1644357457.858,-1000.000,-1000.000,-319.824,-523.926
1644357457.862,182.129,-220.703,162.598,134.277
1644357457.866,-958.984,337.891,279.297,493.652
1644357457.870,-214.355,-464.355,-172.363,-136.230
1644357457.874,-1000.000,-1000.000,-358.398,-576.660
1644357457.876,-204.102,-566.406,70.312,-122.070
1644357457.880,-817.383,-426.270,106.445,561.035
1644357457.884,343.262,-822.266,-85.938,200.195
1644357457.888,-1000.000,-977.539,-232.422,-582.520
1644357457.892,-512.695,-972.168,-112.793,-366.699
1644357457.896,-990.723,-18.555,233.398,442.383
1644357457.900,713.867,315.918,220.703,389.160
1644357457.903,-790.039,-636.719,-133.301,-427.734
1644357457.907,-927.734,-1000.000,-425.781,-522.461
1644357457.911,522.949,-360.840,-5.859,269.043
1644357457.915,-939.453,741.699,398.438,530.273
1644357457.919,-256.348,-276.855,-113.770,-236.328
1644357457.921,-1000.000,-1000.000,-395.508,-696.289
1644357457.925,0.488,-374.512,109.375,-0.977
1644357457.929,-797.852,694.336,407.715,604.492
1644357457.933,140.137,39.062,17.578,26.855
1644357457.937,-1000.000,-1000.000,-485.840,-691.406
1644357457.941,-290.039,-769.531,-100.098,-230.957
1644357457.945,-831.543,388.672,351.562,604.980
1644357457.948,416.992,32.227,75.684,301.270
1644357457.952,-1000.000,-1000.000,-636.230,-564.453
1644357457.956,-589.844,-817.871,-326.660,-452.148
1644357457.960,932.129,532.227,458.008,423.828
1644357457.964,820.312,607.422,173.340,492.676
1644357457.966,-663.086,-795.410,-319.824,-401.855
1644357457.970,-999.512,-1000.000,-170.898,-626.953
1644357457.974,408.691,174.316,301.758,200.195
1644357457.978,-874.023,646.973,236.328,595.703
1644357457.982,-115.723,-573.242,-258.789,-104.980
1644357457.986,-1000.000,-1000.000,-422.363,-612.793
1644357457.990,-74.707,-431.641,70.801,-13.184
1644357457.993,-793.457,201.172,179.688,619.141
1644357457.997,207.031,-712.402,-314.453,140.137
1644357458.001,-1000.000,-1000.000,-303.711,-613.770
1644357458.005,-352.051,-573.730,83.496,-272.949
1644357458.009,-864.746,526.855,389.160,509.766
1644357458.010,515.137,396.973,176.270,306.152
1644357458.014,-1000.000,-791.504,-258.789,-503.418
1644357458.018,-710.449,-970.215,-135.254,-462.891
1644357458.022,817.383,186.523,299.805,373.047
1644357458.026,884.277,598.145,230.469,470.703
1644357458.030,-566.895,-637.207,-324.707,-321.777
1644357458.034,-1000.000,-1000.000,-404.297,-572.754
1644357458.037,247.070,-844.727,-92.773,184.082
1644357458.041,-832.031,-13.672,187.012,617.676
1644357458.045,0.488,-175.293,13.672,-106.445
1644357458.049,-1000.000,-1000.000,-419.434,-706.543
1644357458.053,-158.691,-937.012,-248.535,-100.098
1644357458.070,-796.875,390.625,302.246,628.418
1644357458.074,284.180,351.562,153.809,162.109
1644357458.078,-1000.000,-1000.000,-449.707,-679.199
1644357458.082,-410.645,-762.695,-148.926,-368.652
1644357458.086,-942.871,642.090,354.980,515.137
1644357458.090,564.941,371.094,101.074,395.996
1644357458.094,-908.203,-970.703,-551.270,-482.910
1644357458.097,-806.152,-946.289,-454.102,-569.824
1644357458.101,687.012,303.711,316.895,317.871
1644357458.105,-987.793,667.480,231.445,581.055
1644357458.109,-356.934,-583.496,-323.242,-281.250
1644357458.113,-1000.000,-1000.000,-323.730,-721.680
1644357458.101,119.141,-73.242,207.520,43.457
1644357458.105,-803.223,942.383,364.258,626.953
1644357458.109,87.402,-180.664,-110.352,-29.297
1644357458.113,-1000.000,-1000.000,-362.793,-750.488
1644357458.117,-214.844,-447.266,46.387,-237.305
1644357458.121,-806.641,571.289,304.688,571.777
1644357458.125,359.375,-174.316,-73.730,213.379
1644357458.128,-1000.000,-1000.000,-479.980,-646.973
1644357458.132,-506.836,-734.863,-117.188,-459.961
1644357458.136,-983.398,438.477,376.953,416.504
1644357458.140,723.145,-96.191,-126.953,434.082
1644357458.144,-785.645,-1000.000,-651.855,-434.570
1644357458.147,-915.039,-863.770,-234.863,-631.348
1644357458.151,539.062,-117.188,170.898,211.426
1644357458.155,-919.434,262.695,212.402,535.645
1644357458.159,-210.449,-440.918,-97.168,-241.211
1644357458.163,-1000.000,-1000.000,-331.543,-688.477
1644357458.167,-23.926,-819.824,-109.863,16.113
1644357458.171,-796.875,-10.742,209.473,613.281
1644357458.174,149.414,-69.336,87.891,25.879
1644357458.178,-1000.000,-1000.000,-347.656,-652.832
1644357458.182,-306.152,-908.691,-164.551,-225.586
1644357458.186,-837.891,438.477,312.012,537.598
1644357458.190,420.410,433.105,198.242,268.555
1644357458.222,-1000.000,-907.715,-338.379,-554.688
1644357458.226,-657.715,-945.801,-282.227,-448.730
1644357458.230,867.676,153.320,215.820,410.645
1644357458.234,814.941,543.945,262.207,477.539
1644357458.238,-661.621,-515.137,-183.594,-369.629
1644357458.242,-1000.000,-1000.000,-554.688,-577.637
1644357458.246,318.848,-510.742,-102.539,207.520
1644357458.249,-879.883,448.730,372.559,555.176
1644357458.253,-121.094,-282.715,-133.301,-165.527
1644357458.257,-1000.000,-1000.000,-522.461,-673.828
1644357458.261,-111.816,-334.961,115.234,-62.012
1644357458.265,-796.875,936.035,475.098,600.586
1644357458.251,222.656,132.812,-59.082,127.441
1644357458.255,-1000.000,-1000.000,-472.656,-656.738
1644357458.259,-367.188,-656.738,12.207,-328.613
1644357458.263,-869.141,768.066,422.363,530.762
1644357458.267,518.555,267.578,66.895,363.770
1644357458.271,-1000.000,-1000.000,-475.098,-544.434
1644357458.275,-731.934,-1000.000,-277.832,-543.457
1644357458.278,778.809,185.547,290.527,384.766
1644357458.282,933.594,443.359,185.547,567.383
1644357458.286,-498.047,-858.887,-318.359,-349.609
1644357458.290,-1000.000,-1000.000,-269.043,-744.141
1644357458.294,226.562,80.078,267.578,100.586
1644357458.296,-829.102,299.805,144.043,673.828
1644357458.300,0.000,-942.383,-444.824,-92.773
1644357458.304,-1000.000,-1000.000,-340.332,-845.215
1644357458.308,-169.922,-426.758,82.520,-208.496
1644357458.312,-798.828,649.902,343.750,634.277
1644357458.316,296.875,-46.387,-19.043,163.086
1644357458.320,-1000.000,-1000.000,-500.000,-746.094
1644357458.323,-433.105,-749.512,-117.188,-458.984
1644357458.327,-917.969,-346.191,142.578,504.395
1644357458.331,627.930,-755.859,-115.234,383.301
1644357458.335,-894.043,-982.422,-234.863,-594.727
1644357458.339,-842.773,-1000.000,-236.328,-673.340
1644357458.340,641.113,-62.012,185.547,244.629
1644357458.344,-976.562,899.414,342.773,508.301
1644357458.348,-333.984,-311.523,-116.211,-329.102
1644357458.352,-1000.000,-1000.000,-335.938,-749.023
1644357458.356,77.637,-226.074,104.004,13.184
1644357458.360,-805.664,684.570,347.168,600.098
1644357458.364,89.844,-244.629,-83.984,-35.156
1644357458.367,-1000.000,-1000.000,-578.613,-706.055
1644357458.371,-249.512,-560.547,-194.336,-220.703
1644357458.375,-817.871,809.570,430.176,520.020
1644357458.379,366.699,178.711,26.367,197.754
1644357458.383,-1000.000,-1000.000,-477.051,-605.957
1644357458.385,-534.668,-768.555,-64.941,-430.176
1644357458.389,985.840,576.172,417.969,419.922
1644357458.393,758.301,617.188,178.223,433.105
1644357458.397,-743.652,-749.512,-318.359,-391.113
1644357458.401,-939.941,-1000.000,-191.895,-540.039
1644357458.405,501.953,-85.938,240.234,272.461
1644357458.409,-906.250,363.281,252.930,601.562
1644357458.412,-187.988,-632.812,-417.969,-92.773
1644357458.416,-1000.000,-1000.000,-533.203,-569.336
1644357458.420,-24.414,-150.879,226.074,31.250
1644357458.424,-794.922,849.121,371.582,653.809
1644357458.428,162.598,-163.574,10.254,122.559
1644357458.431,-1000.000,-1000.000,-347.656,-591.309
1644357458.435,-305.176,-546.875,4.395,-180.176
1644357458.439,-842.285,500.488,317.871,627.441
1644357458.443,465.332,-164.062,57.617,388.184
1644357458.447,-1000.000,-1000.000,-279.785,-481.445
1644357458.451,-642.090,-842.285,-138.672,-396.973
1644357458.455,884.766,-230.469,159.668,475.586
1644357458.458,850.586,-183.105,100.586,559.570
1644357458.462,-616.699,-684.570,-76.172,-306.152
1644357458.466,-1000.000,-1000.000,-241.699,-560.059
1644357458.470,332.520,-258.789,194.824,239.746
1644357458.474,-853.516,713.867,378.418,650.391
1644357458.475,-62.988,-158.691,-34.668,-63.965
1644357458.479,-1000.000,-1000.000,-317.383,-609.863
1644357458.483,-114.746,-582.520,39.062,3.418
1644357458.487,-794.434,545.898,373.535,682.129
1644357458.491,232.910,-24.414,36.133,194.824
1644357458.495,-1000.000,-1000.000,-416.016,-585.449
1644357458.499,-383.301,-1000.000,-375.000,-220.703
1644357458.502,-884.277,-683.105,-18.066,637.695
1644357458.506,568.359,-73.242,235.352,419.922
1644357458.510,-971.680,-752.441,-278.809,-493.164
1644357458.514,-738.281,-949.707,-265.137,-500.977
1644357458.518,772.949,391.602,369.629,418.457
1644357458.520,959.961,819.336,338.379,613.770
1644357458.524,-452.148,-452.637,-250.977,-279.297
1644357458.528,-1000.000,-1000.000,-411.133,-662.598
1644357458.532,229.980,6.348,236.816,181.641
1644357458.536,-871.582,863.770,366.211,708.984
1644357458.540,-46.875,-334.961,-296.387,-12.207
1644357458.544,-1000.000,-1000.000,-624.512,-657.227
1644357458.547,-177.734,-517.090,-5.371,-83.496
1644357458.551,-799.805,846.680,457.031,723.145
1644357458.555,318.848,104.980,-141.602,317.871
1644357458.559,-1000.000,-1000.000,-688.477,-564.453
1644357458.563,-432.617,-700.195,-77.637,-335.938
1644357458.581,-929.199,629.395,379.883,595.703
1644357458.585,696.777,499.023,202.637,520.508
1644357458.589,-822.266,-833.496,-270.020,-410.156
1644357458.593,-841.309,-952.637,-192.383,-526.855
1644357458.597,649.902,227.539,286.621,352.051
1644357458.601,-957.520,404.785,165.527,637.207
1644357458.605,-290.527,-728.516,-288.086,-181.152
1644357458.608,-1000.000,-1000.000,-387.207,-614.746
1644357458.612,72.266,-271.484,159.180,100.586
1644357458.616,-799.316,-178.223,98.145,703.125
1644357458.620,109.863,-1000.000,-357.422,88.867
1644357458.624,-1000.000,-1000.000,-254.395,-658.203
1644357458.626,-248.047,-702.148,38.574,-176.758
1644357458.630,-818.359,489.258,333.008,621.094
1644357458.634,391.113,447.266,180.176,287.109
1644357458.638,-1000.000,-858.887,-257.812,-566.895
1644357458.642,-548.828,-1000.000,-172.852,-394.531
1644357458.646,972.656,-19.531,219.727,500.488
1644357458.650,783.691,371.582,196.289,505.371
1644357458.653,-704.590,-595.703,-148.438,-373.535
1644357458.657,-972.168,-1000.000,-422.852,-545.898
1644357458.661,456.055,-333.008,-28.320,283.691
1644357458.665,-897.461,715.820,361.328,619.141
1644357458.669,-166.016,-365.723,-211.426,-134.277
1644357458.671,-1000.000,-1000.000,-453.125,-666.016
1644357458.675,-61.035,-278.320,132.324,-19.531
1644357458.679,-788.574,875.488,419.922,648.926
1644357458.683,163.086,44.922,-46.387,107.422
1644357458.687,-1000.000,-1000.000,-508.301,-598.633
1644357458.691,-239.746,-771.973,-109.375,-191.895
1644357458.695,-861.816,368.164,322.266,572.754
1644357458.698,473.633,98.145,66.895,348.633
1644357458.702,-1000.000,-1000.000,-647.461,-490.723
1644357458.706,-677.734,-842.285,-357.910,-452.637
1644357458.710,845.703,516.602,453.125,397.949
1644357458.714,897.949,692.871,202.148,516.113
1644357458.719,-656.250,-834.961,-380.859,-338.867
1644357458.723,-594.238,-830.566,-128.418,-292.480
1644357458.727,985.840,642.090,357.910,567.871
1644357458.731,760.254,76.172,-72.754,405.762
1644357458.735,-859.375,-1000.000,-436.035,-478.516
1644357458.739,-932.617,-958.984,-227.539,-466.797
1644357458.743,749.512,-1.465,171.875,411.621
1644357458.746,-995.605,-165.039,-78.125,580.078
1644357458.750,-659.668,-1000.000,-391.113,-292.480
1644357458.754,-1000.000,-992.188,-249.023,-634.766
1644357458.758,495.117,-110.840,156.738,145.996
1644357458.762,-877.441,725.586,330.566,599.609
1644357458.760,-259.766,-141.113,-92.773,-79.590
1644357458.764,-1000.000,-1000.000,-412.109,-664.551
1644357458.768,-27.344,-556.641,-90.332,-114.258
1644357458.772,-896.973,416.504,269.531,574.707
1644357458.776,391.602,-60.547,-38.086,168.457
1644357458.780,-1000.000,-986.328,-466.797,-591.309
1644357458.784,-661.621,-968.750,-312.012,-325.684
1644357458.787,898.926,-824.219,-154.785,527.832
1644357458.791,849.121,-546.387,-48.340,384.277
1644357458.795,-809.082,-833.496,-291.504,-485.352
1644357458.799,-986.816,-1000.000,-398.926,-526.367
1644357458.803,692.871,211.426,204.590,285.156
1644357458.807,-950.684,899.902,291.504,506.836
1644357458.811,-578.125,-429.688,-299.805,-260.742
1644357458.815,-1000.000,-1000.000,-498.047,-620.117
1644357458.819,394.043,-34.180,130.371,78.613
1644357458.823,-868.652,882.812,359.375,585.938
1644357458.827,-104.980,-261.719,-292.480,6.836
1644357458.831,-1000.000,-1000.000,-780.762,-586.914
1644357458.834,-222.168,-555.176,-168.945,-142.090
1644357458.838,-942.871,766.602,405.762,550.781
1644357458.842,534.668,406.250,-2.930,236.328
1644357458.846,-956.055,-979.980,-479.004,-539.551
1644357458.850,-778.809,-838.379,-152.344,-392.090
1644357458.851,841.309,578.613,311.035,409.668
1644357458.855,919.922,601.562,97.656,405.762
1644357458.859,-758.789,-850.098,-405.273,-397.949
1644357458.863,-1000.000,-1000.000,-363.770,-542.480
1644357458.867,634.277,100.586,171.875,236.816
1644357458.871,-923.828,302.246,81.055,547.363
1644357458.875,-497.070,-842.285,-538.086,-156.738
1644357458.878,-1000.000,-1000.000,-480.469,-610.840
1644357458.882,267.578,-249.023,9.766,-5.859
1644357458.886,-865.723,330.078,142.578,552.734
1644357458.890,87.402,-297.363,-149.414,33.691
1644357458.894,-1000.000,-1000.000,-418.945,-590.332
1644357458.912,-390.137,-565.430,-104.004,-210.938
1644357458.916,-988.281,-28.809,43.945,516.113
1644357458.920,649.414,-571.289,-202.148,266.602
1644357458.924,-902.832,-964.844,-388.672,-507.812
1644357458.928,-766.113,-879.883,-307.129,-341.797
1644357458.932,823.730,-187.012,-16.113,428.223
1644357458.936,958.008,172.363,19.043,438.477
1644357458.939,-691.895,-633.789,-339.844,-340.332
1644357458.943,-1000.000,-1000.000,-514.160,-523.438
1644357458.947,560.547,-729.004,-259.766,222.168
1644357458.951,-894.531,393.066,104.980,535.645
1644357458.955,-359.375,-294.922,-343.750,-118.164
1644357458.955,-1000.000,-1000.000,-666.504,-569.336
1644357458.959,86.914,-479.004,-116.211,-25.879
1644357458.963,-881.836,733.398,265.137,548.828
1644357458.967,250.977,183.594,-129.395,107.910
1644357458.971,-1000.000,-1000.000,-613.770,-544.434
1644357458.975,-546.875,-886.230,-383.301,-231.934
1644357458.979,943.848,156.250,107.910,483.398
1644357458.982,773.926,189.453,3.418,307.617
1644357458.986,-848.633,-888.184,-625.488,-444.824
1644357458.990,-950.684,-1000.000,-674.316,-413.574
1644357458.994,731.445,214.844,133.301,329.102
1644357458.998,-987.305,495.605,114.258,465.332
1644357459.046,-645.020,-745.605,-513.184,-285.156
1644357459.050,-1000.000,-1000.000,-489.258,-584.961
1644357459.054,471.191,-240.723,22.949,120.117
1644357459.058,-878.418,681.152,213.867,558.594
1644357459.062,-237.793,-443.848,-437.500,-51.758
1644357459.066,-1000.000,-1000.000,-661.621,-603.516
1644357459.070,-78.613,-552.734,-83.496,-102.051
1644357459.073,-910.156,554.199,254.395,552.246
1644357459.077,403.809,-372.070,-354.980,179.688
1644357459.081,-1000.000,-1000.000,-548.828,-588.867
1644357459.085,-673.828,-666.016,-108.887,-359.863
1644357459.089,890.137,427.734,229.492,451.172
1644357459.051,867.676,412.109,126.953,368.652
1644357459.055,-801.270,-824.707,-370.605,-464.844
1644357459.059,-989.746,-1000.000,-328.125,-549.316
1644357459.063,683.105,100.098,166.016,282.227
1644357459.067,952.148,304.688,96.191,479.492
1644357459.071,-603.516,-753.418,-420.410,-292.480
1644357459.075,-1000.000,-1000.000,-529.297,-678.223
1644357459.078,356.445,-560.059,-114.258,34.668
1644357459.082,-863.281,382.324,216.309,582.031
1644357459.086,-59.082,-39.551,-95.215,-45.410
1644357459.090,-1000.000,-1000.000,-456.055,-712.402
1644357459.094,-268.555,-955.566,-270.020,-230.957
1644357459.093,-956.543,367.188,200.684,538.574
1644357459.097,554.199,397.949,35.156,214.355
1644357459.101,-950.684,-959.473,-467.773,-622.070
1644357459.105,-816.406,-998.047,-438.477,-447.266
1644357459.109,821.777,401.855,183.594,428.223
1644357459.113,923.340,378.906,97.168,442.871
1644357459.117,-756.348,-908.691,-514.648,-430.176
1644357459.120,-1000.000,-1000.000,-617.188,-594.727
1644357459.124,605.469,-904.297,-289.062,244.629
1644357459.128,-920.410,-687.988,-67.383,548.340
1644357459.132,-483.887,-721.680,-220.703,-235.840
1644357459.136,-1000.000,-1000.000,-358.398,-714.844
1644357459.136,216.797,-176.758,179.199,-50.781
1644357459.140,-874.023,938.477,408.203,572.754
1644357459.144,79.102,63.477,-80.078,36.621
1644357459.148,-1000.000,-1000.000,-403.809,-705.078
1644357459.152,-433.594,-724.609,-87.402,-310.059
1644357459.156,986.816,350.098,313.965,515.137
1644357459.160,675.781,20.020,-10.742,288.086
1644357459.163,-900.391,-1000.000,-695.801,-562.012
1644357459.167,-900.879,-868.652,-216.309,-527.832
1644357459.171,769.531,399.414,392.090,357.910
1644357459.175,975.098,360.352,137.207,483.887
1644357459.179,-707.520,-913.574,-222.656,-421.875
1644357459.199,-1000.000,-1000.000,-145.508,-704.102
1644357459.203,551.270,126.953,264.648,147.949
1644357459.207,-889.160,379.883,213.379,609.863
1644357459.211,-339.844,-533.203,-108.398,-145.508
1644357459.215,-1000.000,-1000.000,-292.969,-732.910
1644357459.219,62.988,-559.082,-39.062,-83.984
1644357459.223,-882.324,-85.938,56.641,645.996
1644357459.226,273.438,-364.746,-39.551,132.812
1644357459.230,-1000.000,-926.758,-283.691,-685.059
1644357459.234,-559.082,-810.059,-94.238,-346.680
1644357459.238,941.406,466.309,367.676,528.320
1644357459.242,815.430,537.109,158.691,387.695
1644357459.226,-824.219,-790.039,-414.551,-493.652
1644357459.230,-961.914,-1000.000,-384.766,-517.578
1644357459.234,728.027,-32.227,164.062,367.188
1644357459.238,-979.492,758.301,295.898,555.664
1644357459.242,-629.883,-485.840,-254.395,-284.668
1644357459.246,-1000.000,-1000.000,-470.703,-622.070
1644357459.250,441.895,-393.066,7.812,154.785
1644357459.253,-870.605,514.160,299.805,653.320
1644357459.257,-183.105,-118.652,-14.160,-28.809
1644357459.261,-1000.000,-1000.000,-514.160,-641.602
1644357459.265,-112.793,-1000.000,-356.445,-73.730
1644357459.269,-914.062,102.051,319.336,608.398
1644357459.287,447.266,315.918,179.199,196.289
1644357459.291,-990.723,-926.270,-413.086,-548.340
1644357459.295,-703.125,-887.207,-133.789,-260.254
1644357459.299,877.930,384.277,390.625,547.363
1644357459.303,893.555,585.938,243.164,456.055
1644357459.307,-779.785,-793.457,-543.945,-354.980
1644357459.311,-1000.000,-1000.000,-302.246,-470.215
1644357459.314,680.176,318.848,430.176,333.496
1644357459.318,-937.988,812.500,324.219,611.816
1644357459.322,-545.898,-663.574,-165.039,-173.340
1644357459.326,-1000.000,-1000.000,-215.332,-590.820
1644357459.330,364.258,-64.453,271.484,119.141
1644357459.330,-856.934,841.309,406.738,676.758
1644357459.334,-20.020,-130.371,46.387,44.434
1644357459.338,-1000.000,-1000.000,-212.891,-679.688
1644357459.342,-242.188,-460.938,137.695,-178.711
1644357459.346,-968.262,463.867,292.480,594.727
1644357459.350,474.121,-197.754,-10.254,250.488
1644357459.354,-963.867,-1000.000,-392.090,-620.605
1644357459.357,-817.871,-856.445,-119.629,-468.750
1644357459.361,809.082,-41.992,319.824,529.785
1644357459.365,944.336,-589.355,-67.383,592.285
1644357459.369,-748.047,-1000.000,-283.203,-429.688
1644357459.373,-1000.000,-964.355,-70.312,-665.527
1644357459.424,616.699,-173.828,276.855,294.922
1644357459.428,-906.738,780.762,388.184,683.105
1644357459.432,-438.477,-248.047,-65.918,-155.273
1644357459.436,-1000.000,-1000.000,-286.621,-686.523
1644357459.440,219.727,-514.648,123.535,34.668
1644357459.444,-858.887,490.234,327.637,712.402
1644357459.448,164.062,-136.230,56.641,156.738
1644357459.451,-1000.000,-1000.000,-304.199,-613.770
1644357459.455,-451.172,-1000.000,-296.875,-200.195
1644357459.459,986.816,186.523,293.945,614.746
1644357459.463,729.980,525.879,260.742,374.512
1644357459.467,-869.629,-870.117,-376.465,-493.652
1644357459.428,-908.203,-952.637,-166.992,-453.125
1644357459.432,768.066,485.840,401.367,425.293
1644357459.436,994.629,828.125,321.289,546.875
1644357459.440,-677.246,-604.980,-232.910,-319.336
1644357459.444,-1000.000,-1000.000,-319.336,-608.887
1644357459.448,538.574,-200.684,221.191,237.305
1644357459.452,-882.812,498.535,329.590,717.285
1644357459.455,-314.941,-512.207,-181.641,-26.855
1644357459.459,-1000.000,-1000.000,-316.406,-657.227
1644357459.463,50.781,-270.996,220.703,-45.410
1644357459.467,-876.465,761.230,407.227,714.355
1644357459.471,337.402,-170.898,-81.055,259.277
1644357459.467,-1000.000,-1000.000,-357.910,-603.516
1644357459.471,-587.402,-641.602,72.266,-312.012
1644357459.475,935.547,641.602,391.602,600.586
1644357459.479,830.078,110.352,-5.371,488.770
1644357459.483,-818.359,-1000.000,-369.629,-446.777
1644357459.487,-955.078,-990.723,-215.332,-496.582
1644357459.491,729.980,-65.430,228.516,417.480
1644357459.494,-963.867,-162.109,6.348,658.691
1644357459.498,-603.516,-1000.000,-620.117,-187.988
1644357459.502,-1000.000,-1000.000,-571.777,-596.191
1644357459.506,448.730,-106.934,226.562,153.320
1644357459.510,-859.375,813.477,465.820,683.105
1644357459.512,-135.254,-9.766,26.367,16.602
1644357459.516,-1000.000,-1000.000,-278.809,-642.578
1644357459.520,-110.840,-693.359,65.430,-104.980
1644357459.524,-902.344,400.879,431.641,648.926
1644357459.528,484.375,240.723,175.781,220.703
1644357459.532,-965.332,-884.277,-290.039,-558.105
1644357459.536,-645.508,-1000.000,-136.230,-264.648
1644357459.539,894.043,-665.039,178.711,557.617
1644357459.543,888.672,59.570,295.410,453.125
1644357459.547,-763.672,-604.004,-44.922,-386.230
1644357459.551,-1000.000,-1000.000,-226.074,-490.234
1644357459.555,658.203,218.262,306.641,288.086
1644357459.570,-929.199,963.867,457.520,553.223
1644357459.574,-518.066,-282.227,-47.852,-170.898
1644357459.578,-1000.000,-1000.000,-336.914,-554.688
1644357459.582,313.477,-257.812,168.457,74.219
1644357459.586,-902.832,597.168,372.070,548.340
1644357459.590,19.531,-212.891,-46.875,47.852
1644357459.594,-1000.000,-1000.000,-554.688,-505.371
1644357459.597,-319.336,-618.164,-95.703,-134.766
1644357459.601,-965.820,734.863,480.957,512.207
1644357459.605,632.324,495.117,194.336,263.184
1644357459.609,-911.621,-943.359,-227.051,-449.707
1644357459.613,-832.031,-860.840,-15.625,-326.660
1644357459.600,813.477,573.730,423.340,445.801
1644357459.604,958.984,634.766,248.535,485.352
1644357459.608,-718.262,-827.637,-218.750,-296.875
1644357459.612,-1000.000,-1000.000,-109.863,-496.094
1644357459.616,599.609,142.578,338.379,231.445
1644357459.620,-906.250,403.809,232.422,566.406
1644357459.624,-416.992,-776.855,-234.863,-92.773
1644357459.627,-1000.000,-1000.000,-310.059,-549.805
1644357459.631,156.250,-431.152,183.594,-3.418
1644357459.635,-874.512,251.953,319.824,559.082
1644357459.639,182.129,-711.426,-258.789,110.840
1644357459.643,-1000.000,-1000.000,-238.281,-546.875
1644357459.667,-453.125,-517.578,208.008,-229.004
1644357459.671,988.281,222.168,321.289,481.445
1644357459.675,745.117,173.340,225.098,281.738
1644357459.679,-852.539,-776.855,-100.098,-449.219
1644357459.683,-810.059,-932.617,-59.570,-343.750
1644357459.687,798.828,-108.887,217.285,382.812
1644357459.691,990.234,351.562,242.676,453.125
1644357459.694,-644.531,-486.816,-27.344,-273.926
1644357459.698,-1000.000,-1000.000,-241.699,-503.418
1644357459.702,516.602,-884.277,-29.297,201.660
1644357459.706,-876.953,159.180,322.754,535.156
1644357459.710,-257.324,-121.094,79.590,-104.492
1644357459.706,-1000.000,-1000.000,-308.105,-571.289
1644357459.710,-3.418,-504.395,42.480,-77.148
1644357459.714,-892.578,760.742,415.039,498.047
1644357459.718,364.258,286.621,157.715,114.746
1644357459.722,-1000.000,-970.703,-333.008,-532.227
1644357459.726,-634.766,-916.992,-152.832,-254.883
1644357459.730,909.668,185.547,319.824,466.797
1644357459.733,836.426,176.758,180.176,328.613
1644357459.737,-815.918,-917.969,-393.555,-417.480
1644357459.741,-978.516,-1000.000,-473.633,-427.246
1644357459.745,703.613,236.328,242.188,304.199
1644357459.749,-958.008,637.207,308.594,481.934
1644357459.767,-592.285,-714.355,-326.172,-236.816
1644357459.771,-1000.000,-1000.000,-273.926,-576.660
1644357459.775,416.504,-7.812,326.172,80.078
1644357459.779,-867.188,854.004,359.863,553.711
1644357459.783,-130.859,-393.066,-186.035,-17.090
1644357459.787,-1000.000,-1000.000,-472.168,-597.656
1644357459.791,-172.852,-504.395,27.344,-151.367
1644357459.794,-929.199,616.211,361.816,531.250
1644357459.798,496.094,-354.492,-255.859,222.656
1644357459.802,-972.656,-1000.000,-402.344,-562.988
1644357459.806,-761.230,-707.520,8.301,-394.043
1644357459.810,849.609,429.199,341.309,442.383
1644357459.796,912.109,468.262,252.930,415.039
1644357459.800,-767.578,-784.668,-272.461,-451.172
1644357459.804,-1000.000,-1000.000,-325.195,-595.703
1644357459.808,649.414,-107.910,218.262,259.277
1644357459.812,-926.270,303.711,337.891,583.984
1644357459.816,-509.766,-677.734,-261.230,-234.375
1644357459.820,-1000.000,-1000.000,-449.707,-730.957
1644357459.823,289.551,-513.184,102.539,5.371
1644357459.827,-861.816,574.219,362.793,637.207
1644357459.831,34.668,73.242,6.348,21.484
1644357459.835,-1000.000,-975.586,-323.242,-732.910
1644357459.839,-343.262,-1000.000,-231.445,-257.812
1644357459.856,-976.074,-607.422,43.945,594.727
1644357459.860,647.461,-48.828,167.969,284.668
1644357459.864,-907.715,-827.637,-267.578,-595.703
1644357459.868,-865.234,-995.605,-287.598,-455.078
1644357459.872,795.898,316.406,261.230,446.289
1644357459.876,964.355,346.191,187.012,500.488
1644357459.880,-715.332,-802.246,-370.117,-354.980
1644357459.883,-1000.000,-1000.000,-582.520,-564.941
1644357459.887,570.801,-329.590,18.555,222.656
1644357459.891,-896.484,785.645,410.645,594.238
1644357459.895,-393.555,-176.270,-133.301,-140.137
1644357459.899,-1000.000,-1000.000,-339.844,-672.363
1644357459.885,147.461,-238.770,187.500,-51.270
1644357459.889,-868.652,890.137,380.859,596.680
1644357459.893,208.984,80.078,-58.594,100.098
1644357459.897,-1000.000,-1000.000,-373.535,-668.457
1644357459.901,-507.812,-741.699,-61.035,-320.801
1644357459.905,964.844,296.875,263.184,520.508
1644357459.909,753.906,23.438,33.691,340.820
1644357459.912,-860.352,-1000.000,-454.102,-549.316
1644357459.916,-934.082,-928.223,-222.656,-551.758
1644357459.920,748.047,418.945,375.977,348.145
1644357459.924,-993.652,472.656,149.902,544.434
1644357459.928,-664.062,-921.387,-634.766,-305.176
1644357459.932,-1000.000,-1000.000,-333.008,-692.383
1644357459.936,512.695,28.809,303.711,109.863
1644357459.940,-871.094,654.297,265.625,640.137
1644357459.944,-248.535,-244.141,-53.711,-86.914
1644357459.948,-1000.000,-1000.000,-300.293,-733.398
1644357459.952,-11.719,-687.500,-68.848,-112.793
1644357459.956,-887.207,-170.898,103.027,665.527
1644357459.959,377.930,-342.773,58.105,178.223
1644357459.963,-1000.000,-906.250,-271.973,-723.633
1644357459.967,-649.902,-936.523,-135.254,-412.598
1644357459.971,905.762,229.980,344.238,555.664
1644357459.975,868.652,587.891,243.652,452.148
