timestamps,TP9,AF7,AF8,TP10,Secondary Timestamp
1685506894.219,6.348,68.359,-14.160,-27.344,1621.159
1685506894.223,-36.133,55.176,-24.902,-36.621,1621.163
1685506894.227,-85.938,-115.723,-40.527,-56.152,1621.167
1685506894.231,-68.848,-700.195,-60.059,-48.340,1621.171
1685506894.235,-4.395,-333.984,-1.465,-31.250,1621.175
1685506894.239,2.930,85.938,-27.832,-34.668,1621.179
1685506894.243,-50.293,-331.055,-56.152,-48.828,1621.182
1685506894.246,-61.523,-925.293,-43.945,-34.668,1621.186
1685506894.250,-17.090,-656.250,45.898,-21.484,1621.190
1685506894.254,-4.883,300.781,-10.742,-40.039,1621.194
1685506894.258,-51.758,101.562,-65.430,-61.035,1621.198
1685506894.262,-68.359,-324.219,-4.883,-52.734,1621.202
1685506894.268,3.418,186.523,-8.301,-15.137,1621.167
1685506894.272,34.180,479.492,-43.457,-28.809,1621.171
1685506894.276,-43.945,37.598,-55.176,-67.383,1621.175
1685506894.280,-74.219,-100.098,-27.344,-62.988,1621.179
1685506894.284,-27.344,132.324,-19.531,-52.246,1621.183
1685506894.288,13.184,60.547,-48.828,-39.062,1621.187
1685506894.292,-5.859,-422.363,-83.984,-36.133,1621.191
1685506894.295,-62.500,-798.340,-36.621,-49.805,1621.195
1685506894.299,-44.922,-232.422,7.812,-40.039,1621.198
1685506894.303,14.160,262.695,-31.250,-21.484,1621.202
1685506894.307,19.531,-303.711,-91.797,-16.113,1621.206
1685506894.311,-37.109,-297.852,-52.246,-35.645,1621.210
1685506894.310,-41.016,64.453,-43.457,-39.062,1621.221
1685506894.314,17.090,-196.289,-45.410,-17.090,1621.225
1685506894.318,22.461,-333.008,35.645,-9.766,1621.229
1685506894.322,-22.949,-1.953,-11.230,-19.043,1621.233
1685506894.326,-41.016,122.070,-61.035,-25.879,1621.237
1685506894.330,-0.977,-155.273,-41.016,-20.508,1621.241
1685506894.334,18.555,-824.707,-49.316,-20.996,1621.245
1685506894.337,-22.949,-1000.000,-1.953,-35.156,1621.248
1685506894.341,-48.828,-272.461,1.465,-40.527,1621.252
1685506894.345,-14.648,-24.414,-40.039,-20.996,1621.256
1685506894.349,29.785,-152.344,-31.250,-16.113,1621.260
1685506894.353,7.324,167.480,-23.926,-35.156,1621.264
1685506894.358,-42.969,221.191,-51.270,-55.176,1621.265
1685506894.362,-37.109,-198.242,-37.109,-48.828,1621.269
1685506894.366,8.789,-295.410,18.066,-25.879,1621.273
1685506894.370,18.555,197.266,-22.949,-26.367,1621.277
1685506894.374,-30.273,220.215,-69.336,-39.551,1621.281
1685506894.378,-53.223,-436.523,-77.148,-42.480,1621.285
1685506894.382,-3.418,-483.887,4.883,-31.250,1621.289
1685506894.385,21.973,178.711,4.883,-33.203,1621.292
1685506894.389,-22.949,214.355,-64.453,-41.992,1621.296
1685506894.393,-48.828,-470.215,-96.680,-34.668,1621.300
1685506894.397,-9.766,-312.012,-24.414,-27.832,1621.304
1685506894.401,27.344,308.105,-16.113,-25.879,1621.308
1685506894.415,-4.395,72.266,-62.500,-25.879,1621.313
1685506894.419,-45.410,-594.238,-3.418,-27.344,1621.317
1685506894.423,-0.977,-561.035,0.977,-19.531,1621.321
1685506894.427,32.715,78.125,-22.461,-10.254,1621.325
1685506894.431,-1.953,91.797,-65.918,-14.160,1621.328
1685506894.435,-45.410,-845.703,-97.656,-16.602,1621.332
1685506894.439,-34.180,-901.367,38.086,-12.695,1621.336
1685506894.442,26.367,26.367,31.250,1.465,1621.340
1685506894.446,24.902,138.184,-64.941,1.465,1621.344
1685506894.450,-20.508,-199.707,-42.480,-20.996,1621.348
1685506894.454,-31.738,-56.641,-27.832,-28.320,1621.352
1685506894.458,0.488,159.668,-33.203,-20.020,1621.356
1685506894.460,8.789,19.531,-32.715,-24.414,1621.357
1685506894.464,-34.180,-118.164,-21.484,-37.109,1621.361
1685506894.468,-66.895,-74.219,-40.527,-41.504,1621.365
1685506894.472,-33.691,-130.859,-45.410,-32.227,1621.369
1685506894.476,16.113,-362.793,-55.176,-17.090,1621.373
1685506894.480,-7.812,-596.680,-29.785,-22.949,1621.376
1685506894.484,-37.598,-366.211,-0.488,-34.180,1621.380
1685506894.487,-10.742,-36.133,-31.738,-28.320,1621.384
1685506894.491,19.531,-474.609,-92.773,-19.043,1621.388
1685506894.495,6.348,-709.473,3.418,-28.320,1621.392
1685506894.499,-52.246,-104.980,-2.441,-41.016,1621.396
1685506894.503,-61.035,-73.730,-49.316,-32.227,1621.400
1685506894.505,0.000,-303.223,-0.488,-13.672,1621.402
1685506894.509,4.883,-290.039,-34.668,-15.137,1621.406
1685506894.513,-30.273,-105.469,-32.715,-36.133,1621.410
1685506894.517,-40.527,-154.785,-45.410,-48.828,1621.414
1685506894.521,-3.906,-759.766,-28.809,-38.574,1621.418
1685506894.525,22.461,-562.500,-13.672,-34.668,1621.421
1685506894.529,-28.809,-267.090,-51.758,-46.387,1621.425
1685506894.532,-54.688,-531.738,-54.199,-46.387,1621.429
1685506894.536,-22.949,-894.043,-27.832,-25.391,1621.433
1685506894.540,-13.672,-409.668,46.875,-31.250,1621.437
1685506894.544,-41.992,108.887,-7.812,-48.828,1621.441
1685506894.548,-74.707,-147.949,-51.758,-53.223,1621.445
1685506894.565,-56.152,-259.766,-0.977,-55.664,1621.476
1685506894.569,-7.324,15.625,2.441,-41.504,1621.480
1685506894.573,-16.602,162.109,-44.434,-41.504,1621.483
1685506894.577,-64.453,-238.281,-60.547,-52.734,1621.487
1685506894.581,-58.594,-299.805,-20.020,-49.316,1621.491
1685506894.585,-14.648,-234.375,-15.625,-34.180,1621.495
1685506894.589,-6.348,-237.305,-34.180,-27.344,1621.499
1685506894.592,-56.641,-555.664,-64.453,-44.434,1621.503
1685506894.596,-85.449,-880.859,4.883,-64.941,1621.507
1685506894.600,-27.344,-281.738,27.344,-62.988,1621.511
1685506894.604,9.766,72.754,-37.109,-47.363,1621.515
1685506894.608,-34.180,-508.789,-41.504,-43.945,1621.519
1685506894.595,-73.242,-552.246,-14.160,-47.363,1621.491
1685506894.599,-50.781,-312.012,-8.789,-38.574,1621.495
1685506894.603,-9.277,-323.730,-22.461,-22.949,1621.499
1685506894.607,-40.527,-714.844,-33.691,-30.762,1621.503
1685506894.611,-74.219,-449.219,1.465,-39.062,1621.507
1685506894.615,-55.664,-232.422,-24.414,-49.316,1621.511
1685506894.619,-13.672,-421.875,-20.020,-52.246,1621.515
1685506894.622,-11.230,-315.430,9.766,-55.176,1621.519
1685506894.626,-65.430,-83.008,-6.348,-60.547,1621.522
1685506894.630,-67.871,51.270,-20.508,-50.293,1621.526
1685506894.634,-16.602,-211.914,-30.273,-39.062,1621.530
1685506894.638,-0.488,-669.922,25.391,-27.832,1621.534
1685506894.640,-32.715,-227.539,19.531,-44.434,1621.536
1685506894.644,-54.688,106.445,-19.531,-64.453,1621.540
1685506894.648,-20.996,-330.566,-40.039,-48.340,1621.544
1685506894.652,8.301,-776.367,19.531,-27.832,1621.548
1685506894.656,-26.367,-187.500,23.438,-52.246,1621.552
1685506894.660,-56.152,-175.781,-44.922,-64.941,1621.556
1685506894.664,-39.062,-724.609,-33.691,-39.062,1621.560
1685506894.667,-16.113,-567.383,48.828,-25.391,1621.564
1685506894.671,-37.109,89.355,18.555,-37.598,1621.568
1685506894.675,-78.125,77.637,-40.527,-51.758,1621.572
1685506894.679,-66.895,-321.289,1.953,-53.223,1621.575
1685506894.683,-7.812,5.371,8.789,-49.316,1621.579
1685506894.690,11.230,215.820,-22.949,-46.387,1621.595
1685506894.694,-44.922,-334.961,-42.480,-54.688,1621.599
1685506894.698,-74.219,-909.668,-19.531,-54.688,1621.603
1685506894.702,-22.949,-512.695,68.848,-39.062,1621.607
1685506894.706,-4.883,208.984,0.977,-35.645,1621.611
1685506894.710,-63.965,-191.406,-64.941,-57.617,1621.615
1685506894.714,-92.285,-888.672,-5.371,-50.781,1621.619
1685506894.717,-46.387,-299.805,38.574,-32.227,1621.622
1685506894.721,-3.906,355.469,-7.812,-41.016,1621.626
1685506894.725,-26.367,116.699,-50.781,-49.805,1621.630
1685506894.729,-64.453,-145.020,-37.109,-62.012,1621.634
1685506894.733,-28.320,-15.137,-1.465,-57.129,1621.638
1685506894.731,16.602,233.398,5.371,-37.109,1621.656
1685506894.735,0.000,-25.391,-41.504,-48.340,1621.659
1685506894.739,-54.688,-296.387,-23.926,-55.176,1621.663
1685506894.743,-63.477,-94.238,3.418,-46.387,1621.667
1685506894.747,-26.367,-32.715,-7.812,-39.062,1621.671
1685506894.751,-26.855,-435.547,-68.359,-34.668,1621.675
1685506894.755,-65.430,-798.828,27.832,-53.223,1621.679
1685506894.758,-69.336,-265.137,51.758,-65.918,1621.683
1685506894.762,-19.043,90.332,-37.109,-51.758,1621.687
1685506894.766,15.137,-355.469,-77.637,-47.363,1621.691
1685506894.770,-14.648,-316.406,-40.527,-53.223,1621.695
1685506894.774,-59.570,52.246,-14.648,-42.480,1621.699
1685506894.790,-35.156,-73.242,-40.527,-33.203,1621.687
1685506894.794,-9.766,-442.383,20.020,-32.715,1621.690
1685506894.798,-43.945,-223.633,2.441,-50.781,1621.694
1685506894.802,-71.777,72.754,-32.227,-52.246,1621.698
1685506894.806,-51.758,-140.137,-51.758,-32.715,1621.702
1685506894.810,-10.254,-787.109,-42.969,-35.156,1621.706
1685506894.814,-9.766,-600.098,24.902,-44.434,1621.710
1685506894.817,-46.875,-209.473,-5.859,-62.988,1621.714
1685506894.821,-62.012,-308.105,-40.527,-63.965,1621.718
1685506894.825,-18.066,-305.664,-4.883,-38.086,1621.722
1685506894.829,-6.836,48.828,-15.137,-35.156,1621.726
1685506894.833,-56.641,133.301,-40.527,-53.223,1621.730
1685506894.835,-71.289,-352.051,-59.570,-53.223,1621.731
1685506894.839,-26.367,-722.656,24.414,-33.203,1621.735
1685506894.843,17.578,-46.387,15.137,-20.996,1621.739
1685506894.847,-14.648,141.602,-59.570,-29.785,1621.743
1685506894.851,-64.453,-388.672,-61.035,-38.574,1621.747
1685506894.855,-38.086,-563.477,-41.992,-37.109,1621.751
1685506894.859,5.371,-290.039,5.859,-29.297,1621.755
1685506894.862,-15.625,33.691,-28.320,-35.645,1621.759
1685506894.866,-57.617,-566.895,-108.398,-44.434,1621.763
1685506894.870,-44.922,-921.875,-28.809,-26.855,1621.766
1685506894.874,7.324,-157.227,7.324,-26.855,1621.770
1685506894.878,17.578,141.113,-52.734,-41.016,1621.774
1685506894.880,-27.344,-618.164,-56.641,-40.527,1621.791
1685506894.884,-23.926,-776.855,-29.785,-47.363,1621.795
1685506894.888,21.484,-52.734,-11.230,-31.738,1621.799
1685506894.892,15.625,74.707,-57.129,-19.043,1621.802
1685506894.896,-39.062,-705.566,-72.754,-31.250,1621.806
1685506894.900,-70.801,-821.777,-19.043,-33.691,1621.810
1685506894.904,-24.902,-303.711,3.418,-18.066,1621.814
1685506894.907,14.160,-144.531,-63.477,-11.230,1621.818
1685506894.911,-28.809,-751.953,-66.406,-30.273,1621.822
1685506894.915,-59.570,-477.051,-9.766,-39.551,1621.826
1685506894.919,-16.602,62.012,-36.133,-23.438,1621.830
1685506894.923,16.113,-204.590,-48.828,-22.461,1621.834
1685506894.925,-4.395,-373.535,-32.227,-33.691,1621.821
1685506894.929,-42.480,-123.535,-20.508,-48.828,1621.825
1685506894.933,-44.434,-35.156,-36.621,-55.664,1621.829
1685506894.937,3.418,-269.043,-50.293,-37.109,1621.833
1685506894.941,14.648,-357.910,-31.250,-40.527,1621.837
1685506894.945,-51.758,-354.980,-44.922,-62.988,1621.841
1685506894.949,-64.453,-541.016,-52.734,-62.500,1621.845
1685506894.952,-21.484,-578.613,-65.430,-40.527,1621.848
1685506894.956,1.953,-248.047,-22.461,-26.367,1621.852
1685506894.960,-13.184,24.902,-16.602,-43.457,1621.856
1685506894.964,-50.781,-143.555,-53.223,-57.617,1621.860
1685506894.968,-18.555,-656.250,-62.988,-41.504,1621.864
1685506895.000,9.766,-435.059,-35.156,-25.391,1621.897
1685506895.004,-38.086,-242.676,-37.109,-33.203,1621.901
1685506895.008,-91.797,-613.770,-60.547,-41.504,1621.904
1685506895.012,-61.035,-899.902,-31.250,-36.621,1621.908
1685506895.016,-5.859,-502.930,34.180,-29.785,1621.912
1685506895.020,-26.855,-184.082,-29.297,-23.926,1621.916
1685506895.024,-70.312,-522.949,-55.664,-29.297,1621.920
1685506895.027,-62.988,-882.324,-12.207,-30.762,1621.924
1685506895.031,-1.465,-285.156,14.648,-29.785,1621.928
1685506895.035,25.391,274.902,-35.156,-36.133,1621.932
1685506895.039,-18.555,-82.520,-50.781,-48.828,1621.936
1685506895.043,-36.133,-304.688,-19.531,-51.270,1621.940
1685506895.015,19.043,-20.020,-4.883,-30.273,1621.912
1685506895.019,18.066,178.711,-26.855,-23.438,1621.916
1685506895.023,-64.453,-145.508,-56.152,-38.086,1621.920
1685506895.027,-84.473,-287.109,-24.414,-33.203,1621.923
1685506895.031,-31.738,-91.309,-15.137,-24.902,1621.927
1685506895.035,0.977,-195.801,-37.109,-31.250,1621.931
1685506895.039,-28.320,-606.934,-72.266,-31.738,1621.935
1685506895.042,-72.754,-637.207,-27.832,-47.852,1621.939
1685506895.046,-47.852,-135.254,21.484,-57.617,1621.943
1685506895.050,-5.859,2.441,-29.297,-42.969,1621.947
1685506895.054,-14.160,-455.566,-79.102,-28.320,1621.951
1685506895.058,-48.340,-348.145,-37.109,-30.762,1621.955
1685506895.060,-57.617,-159.668,-30.762,-15.625,1621.971
1685506895.064,-15.137,-404.785,-39.062,-4.883,1621.975
1685506895.068,-4.395,-842.773,-49.805,-18.066,1621.979
1685506895.072,-61.035,-1000.000,-21.973,-33.203,1621.983
1685506895.076,-72.266,-439.941,-1.953,-42.969,1621.987
1685506895.080,-17.090,-381.348,-31.738,-33.203,1621.990
1685506895.084,12.207,-834.961,-23.926,-30.762,1621.994
1685506895.087,-4.395,-502.930,-12.695,-48.828,1621.998
1685506895.091,-33.691,-214.355,-17.578,-63.965,1622.002
1685506895.095,-12.207,-278.320,-42.969,-61.035,1622.006
1685506895.099,39.551,-312.988,-10.254,-45.898,1622.010
1685506895.103,10.742,41.992,-9.766,-48.828,1622.014
1685506895.120,-48.828,68.359,-42.969,-67.871,1622.016
1685506895.124,-29.785,-208.008,-22.461,-59.570,1622.020
1685506895.128,15.625,-74.707,4.883,-36.621,1622.024
1685506895.132,1.953,206.543,-15.625,-37.109,1622.028
1685506895.136,-45.410,67.871,-51.758,-47.852,1622.032
1685506895.140,-44.434,-520.020,-64.453,-33.203,1622.036
1685506895.144,16.113,-529.297,6.348,-7.324,1622.040
1685506895.147,33.691,92.285,14.160,-1.465,1622.044
1685506895.151,-11.719,96.680,-50.781,-20.020,1622.048
1685506895.155,-30.762,-648.926,-88.867,-26.855,1622.052
1685506895.159,16.602,-748.047,-5.371,-13.184,1622.055
1685506895.163,59.570,-35.156,21.484,-7.812,1622.059
1685506895.165,33.691,-13.184,-65.918,-21.484,1622.062
1685506895.169,-22.949,-831.055,-36.621,-41.016,1622.066
1685506895.173,-12.695,-728.516,70.801,-30.273,1622.069
1685506895.177,32.227,56.152,28.320,-12.695,1622.073
1685506895.181,-7.812,63.965,-42.969,-23.438,1622.077
1685506895.185,-68.359,-476.562,-38.574,-36.133,1622.081
1685506895.189,-53.223,-560.059,10.742,-36.133,1622.085
1685506895.192,13.672,-96.680,7.812,-29.785,1622.089
1685506895.196,32.715,-76.172,-56.641,-28.320,1622.093
1685506895.200,-20.508,-791.016,-26.855,-30.762,1622.097
1685506895.204,-42.969,-464.355,25.879,-37.109,1622.101
1685506895.208,-18.555,116.211,-14.648,-33.691,1622.105
1685506895.210,-2.930,-125.488,-39.551,-24.902,1622.106
1685506895.214,-33.691,-377.930,-22.461,-33.691,1622.110
1685506895.218,-56.641,-216.309,-8.789,-42.969,1622.114
1685506895.222,-17.578,-3.906,-22.949,-7.324,1622.118
1685506895.226,13.184,-246.094,-58.594,8.789,1622.122
1685506895.230,-33.691,-669.434,-22.949,-30.762,1622.126
1685506895.234,-73.730,-489.746,25.879,-32.227,1622.129
1685506895.237,-35.156,-69.336,-11.719,-6.348,1622.133
1685506895.241,5.371,-435.547,-88.379,-13.184,1622.137
1685506895.245,-5.859,-630.371,-11.719,-40.039,1622.141
1685506895.249,-44.434,-134.766,-13.672,-68.359,1622.145
1685506895.253,-41.992,-132.324,-50.293,-63.965,1622.149
1685506895.270,14.648,-392.578,0.977,-41.016,1622.167
1685506895.274,23.438,-425.781,-24.414,-41.992,1622.170
1685506895.278,-19.043,-180.664,-44.434,-61.523,1622.174
1685506895.282,-32.227,-303.711,-65.430,-61.523,1622.178
1685506895.286,-0.488,-865.234,-68.848,-39.551,1622.182
1685506895.290,20.996,-718.750,-14.160,-42.480,1622.186
1685506895.294,-22.461,-247.070,-13.184,-50.293,1622.190
1685506895.297,-77.148,-355.957,-81.055,-47.363,1622.194
1685506895.301,-57.617,-851.074,-49.805,-33.203,1622.198
1685506895.305,-15.625,-281.738,8.789,-19.043,1622.202
1685506895.309,-34.180,169.434,-60.547,-18.555,1622.206
1685506895.313,-67.871,-241.211,-75.195,-49.316,1622.210
1685506895.301,-42.969,-350.098,-34.668,-49.316,1622.199
1685506895.305,7.812,22.949,-18.066,-22.949,1622.202
1685506895.309,1.465,123.047,-54.199,-15.137,1622.206
1685506895.313,-50.293,-302.246,-77.637,5.371,1622.210
1685506895.317,-47.363,-396.484,-40.527,10.742,1622.214
1685506895.321,32.227,-353.516,-40.039,18.555,1622.218
1685506895.325,46.875,-395.020,-61.035,-6.348,1622.222
1685506895.328,-31.250,-596.680,-94.238,-72.266,1622.226
1685506895.332,-58.594,-486.328,-52.246,-86.914,1622.230
1685506895.336,0.977,-73.242,-9.766,-56.641,1622.234
1685506895.340,49.805,9.277,-58.105,-34.180,1622.238
1685506895.344,18.555,-646.973,-104.980,-28.809,1622.242
1685506895.345,-8.301,-942.871,9.277,-22.949,1622.241
1685506895.349,28.809,-503.906,7.812,2.930,1622.245
1685506895.353,27.832,-292.969,-55.664,28.809,1622.249
1685506895.357,-28.809,-560.547,20.508,24.902,1622.253
1685506895.361,-60.059,-390.625,-2.930,25.879,1622.257
1685506895.365,-39.062,-366.699,-51.270,41.504,1622.261
1685506895.369,16.113,-496.582,-33.203,64.941,1622.265
1685506895.372,25.879,-840.332,-59.570,77.148,1622.269
1685506895.376,-16.602,-947.754,-7.324,68.848,1622.273
1685506895.380,-18.555,-389.648,-5.371,68.848,1622.276
1685506895.384,41.504,-251.953,-38.574,76.172,1622.280
1685506895.388,71.777,-376.953,-8.789,77.637,1622.284
1685506895.420,25.879,-126.465,-27.344,75.684,1622.317
1685506895.424,-9.277,-215.820,-40.039,71.777,1622.321
1685506895.428,40.527,-331.055,-38.574,82.031,1622.325
1685506895.432,79.590,-98.633,-27.832,95.215,1622.329
1685506895.436,42.969,32.715,-35.645,83.496,1622.333
1685506895.440,-5.371,-359.375,-73.242,75.195,1622.336
1685506895.444,6.348,-784.668,-58.594,79.102,1622.340
1685506895.447,59.082,-644.531,27.832,86.426,1622.344
1685506895.451,51.758,-4.883,-12.207,75.195,1622.348
1685506895.455,1.465,-47.363,-57.617,52.734,1622.352
1685506895.459,13.672,-540.039,-34.180,48.340,1622.356
1685506895.463,68.848,-455.078,-14.648,64.453,1622.360
1685506895.450,79.102,-119.141,-51.758,63.965,1622.360
1685506895.454,26.855,-471.191,-75.195,41.016,1622.364
1685506895.458,10.254,-817.383,11.719,30.273,1622.368
1685506895.462,51.270,-346.191,0.977,41.992,1622.372
1685506895.466,57.617,8.789,-38.086,38.574,1622.376
1685506895.470,-0.488,-368.164,-71.289,17.578,1622.379
1685506895.474,-33.691,-963.867,-60.059,31.250,1622.383
1685506895.477,19.043,-749.023,40.039,46.875,1622.387
1685506895.481,76.660,-91.309,-11.719,46.875,1622.391
1685506895.485,54.688,-229.492,-79.590,40.527,1622.395
1685506895.489,11.230,-631.836,-43.457,28.809,1622.399
1685506895.493,43.457,-329.590,-12.695,32.715,1622.403
1685506895.483,91.797,-0.977,-41.992,47.363,1622.405
1685506895.487,75.195,-357.910,-75.195,42.969,1622.409
1685506895.491,26.855,-948.242,-57.617,35.645,1622.413
1685506895.495,17.578,-533.203,-14.160,28.809,1622.417
1685506895.499,71.777,-24.414,-44.434,31.738,1622.421
1685506895.503,86.914,-424.316,-83.008,46.387,1622.425
1685506895.507,44.922,-737.793,-60.059,47.363,1622.429
1685506895.510,29.297,-357.422,-33.203,32.227,1622.433
1685506895.514,64.941,-109.863,-53.223,36.133,1622.436
1685506895.518,90.332,-588.867,-109.375,51.758,1622.440
1685506895.522,66.895,-743.652,-46.387,38.574,1622.444
1685506895.526,27.344,-274.414,-24.902,23.438,1622.448
1685506895.555,45.898,-248.535,-41.016,32.227,1622.452
1685506895.559,81.543,-615.234,1.953,52.734,1622.456
1685506895.563,53.711,-381.348,-25.879,42.969,1622.460
1685506895.567,9.766,-248.535,-77.637,24.902,1622.464
1685506895.571,24.902,-583.984,-65.430,38.574,1622.468
1685506895.575,70.312,-959.473,-80.078,55.664,1622.472
1685506895.579,57.129,-911.621,1.953,47.852,1622.475
1685506895.582,4.883,-356.934,-8.301,31.250,1622.479
1685506895.586,12.695,-431.152,-73.242,39.062,1622.483
1685506895.590,72.266,-512.207,-11.719,48.340,1622.487
1685506895.594,83.984,-105.957,-20.508,48.828,1622.491
1685506895.598,36.133,-104.492,-51.270,41.016,1622.495
1685506895.585,12.695,-501.465,-59.570,31.738,1622.481
1685506895.589,62.988,-569.824,-22.461,49.805,1622.485
1685506895.593,104.004,-173.828,-28.320,64.453,1622.489
1685506895.597,60.059,-165.527,-50.781,55.664,1622.493
1685506895.601,21.484,-603.516,-59.570,51.270,1622.497
1685506895.605,64.941,-837.891,-46.875,57.129,1622.501
1685506895.609,101.562,-645.508,-13.184,58.105,1622.505
1685506895.612,75.195,-646.484,-42.480,48.828,1622.509
1685506895.616,25.879,-900.391,-84.473,41.992,1622.512
1685506895.620,31.738,-665.527,-22.461,47.852,1622.516
1685506895.624,88.379,-242.676,-12.695,71.777,1622.520
1685506895.628,97.656,-229.004,-44.922,69.336,1622.524
1685506895.631,42.480,-808.594,-86.914,57.617,1622.526
1685506895.635,28.320,-1000.000,-19.043,64.941,1622.530
1685506895.639,84.961,-448.730,26.367,69.336,1622.534
1685506895.643,107.422,-243.652,-62.988,65.430,1622.538
1685506895.647,58.594,-712.891,-17.090,60.547,1622.542
1685506895.651,23.438,-905.762,-3.418,64.453,1622.546
1685506895.655,64.453,-627.441,0.000,73.242,1622.550
1685506895.658,101.562,-395.996,-48.340,74.707,1622.554
1685506895.662,73.242,-839.355,-70.312,70.801,1622.558
1685506895.666,32.227,-870.605,-28.809,63.965,1622.561
1685506895.670,57.617,-505.859,-31.738,78.125,1622.565
1685506895.674,99.121,-474.609,-21.973,84.961,1622.569
1685506895.690,79.102,-668.457,-0.977,69.824,1622.586
1685506895.694,34.668,-457.520,-28.320,53.223,1622.590
1685506895.698,39.551,-366.211,-40.039,55.176,1622.594
1685506895.702,86.914,-531.250,-33.203,65.430,1622.598
1685506895.706,104.980,-471.680,-19.531,65.918,1622.602
1685506895.710,60.547,-603.027,-45.410,56.152,1622.606
1685506895.714,33.203,-847.168,-48.828,55.176,1622.610
1685506895.717,75.684,-902.832,-53.223,75.684,1622.614
1685506895.721,98.145,-752.441,8.789,76.660,1622.618
1685506895.725,61.035,-315.430,-13.184,61.523,1622.622
1685506895.729,35.156,-412.109,-48.340,59.082,1622.625
1685506895.733,75.684,-731.934,-11.719,67.383,1622.629
1685506895.735,115.723,-677.246,-34.668,74.219,1622.661
1685506895.739,75.684,-610.840,-41.992,60.059,1622.665
1685506895.743,27.832,-632.324,-61.523,56.641,1622.669
1685506895.747,45.410,-904.297,-50.781,70.312,1622.673
1685506895.751,91.797,-686.523,34.180,75.195,1622.677
1685506895.755,81.055,-516.602,-20.508,68.359,1622.681
1685506895.759,30.762,-816.895,-48.340,56.152,1622.685
1685506895.762,40.527,-748.535,13.672,64.453,1622.689
1685506895.766,100.098,-341.797,-3.418,72.754,1622.693
1685506895.770,83.496,-153.320,-42.480,62.012,1622.697
1685506895.774,32.715,-455.566,-76.172,60.059,1622.700
1685506895.778,32.227,-901.855,-16.113,70.312,1622.704
1685506895.768,83.984,-488.281,37.109,81.543,1622.666
1685506895.772,119.141,-89.355,-46.875,89.355,1622.670
1685506895.776,81.543,-541.504,-74.219,73.730,1622.674
1685506895.780,46.875,-750.000,-17.578,59.570,1622.678
1685506895.784,76.660,-396.484,-10.254,72.266,1622.682
1685506895.788,120.605,-464.355,-46.875,85.938,1622.686
1685506895.792,87.891,-797.852,-79.102,77.148,1622.690
1685506895.795,32.715,-699.707,-42.969,71.289,1622.694
1685506895.799,59.082,-375.000,0.000,73.242,1622.698
1685506895.803,111.328,-210.938,-38.086,77.148,1622.701
1685506895.807,92.285,-740.234,-115.723,76.660,1622.705
1685506895.811,32.715,-901.855,-21.484,67.871,1622.709
1685506895.826,28.809,-522.949,-24.902,63.965,1622.722
1685506895.830,86.914,-705.566,-60.059,69.336,1622.726
1685506895.834,96.191,-837.891,27.832,61.035,1622.729
1685506895.838,40.527,-514.648,-1.465,42.480,1622.733
1685506895.842,15.137,-446.289,-53.711,39.551,1622.737
1685506895.846,65.430,-665.039,-38.574,56.641,1622.741
1685506895.850,97.656,-938.965,-63.477,60.547,1622.745
1685506895.853,55.176,-1000.000,-33.203,43.457,1622.749
1685506895.857,14.160,-704.102,5.859,32.227,1622.753
1685506895.861,45.410,-563.965,-29.785,51.758,1622.757
1685506895.865,109.863,-462.891,-27.344,69.336,1622.761
1685506895.869,84.961,-228.516,-24.414,54.688,1622.765
1685506895.856,16.602,-323.730,-11.719,43.457,1622.766
1685506895.860,26.855,-584.961,-24.902,51.758,1622.770
1685506895.864,89.844,-516.113,-14.648,69.336,1622.773
1685506895.868,92.285,-197.266,-23.926,67.383,1622.777
1685506895.872,36.621,-291.016,-57.129,59.082,1622.781
1685506895.876,26.367,-811.035,-58.105,64.453,1622.785
1685506895.880,82.520,-757.324,-0.977,60.547,1622.789
1685506895.883,104.492,-374.512,-12.695,56.152,1622.793
1685506895.887,63.477,-638.672,-48.828,52.734,1622.797
1685506895.891,28.809,-994.141,-98.145,48.340,1622.801
1685506895.895,59.570,-919.922,-4.395,54.688,1622.805
1685506895.899,97.168,-353.027,15.137,53.711,1622.809
1685506895.915,63.477,-371.094,-84.473,32.715,1622.811
1685506895.919,13.184,-894.043,-20.996,33.691,1622.815
1685506895.923,39.062,-633.301,10.742,56.152,1622.819
1685506895.927,94.727,-174.316,-26.367,63.965,1622.823
1685506895.931,77.637,-280.273,-72.754,54.688,1622.827
1685506895.935,13.184,-899.902,-65.918,39.062,1622.831
1685506895.939,16.602,-899.414,10.254,38.086,1622.835
1685506895.942,72.754,-274.414,-9.766,58.105,1622.839
1685506895.946,79.102,-353.027,-80.078,60.547,1622.843
1685506895.950,25.391,-860.352,-40.527,41.992,1622.847
1685506895.954,4.395,-802.246,-1.953,37.109,1622.851
1685506895.958,56.152,-382.812,-12.207,46.387,1622.854
1685506895.975,90.820,-377.441,-37.598,50.293,1622.872
1685506895.979,55.176,-675.781,-26.855,44.434,1622.876
1685506895.983,12.207,-478.516,-30.762,37.109,1622.879
1685506895.987,35.156,-307.617,-41.016,32.227,1622.883
1685506895.991,71.777,-445.801,-54.688,22.461,1622.887
1685506895.995,41.504,-770.020,-50.781,8.301,1622.891
1685506895.999,-6.836,-748.535,-8.789,5.859,1622.895
1685506896.002,12.207,-477.051,-34.668,18.555,1622.899
1685506896.006,51.270,-763.184,-86.426,38.574,1622.903
1685506896.010,39.551,-816.406,0.000,26.855,1622.907
1685506896.014,-3.906,-387.207,-13.672,13.672,1622.911
1685506896.018,3.906,-435.547,-43.945,12.695,1622.915
1685506896.020,52.734,-667.480,20.508,20.020,1622.917
1685506896.024,59.082,-661.133,-27.344,33.203,1622.921
1685506896.028,14.648,-709.473,-37.109,20.508,1622.925
1685506896.032,-15.137,-684.082,-23.926,2.441,1622.929
1685506896.036,25.879,-913.574,-56.641,19.531,1622.933
1685506896.040,48.340,-911.133,-14.648,22.461,1622.937
1685506896.044,9.766,-612.305,-41.992,-2.930,1622.940
1685506896.047,-19.531,-720.215,-50.293,-9.766,1622.944
1685506896.051,11.719,-711.914,-5.371,-2.930,1622.948
1685506896.055,59.570,-261.230,-29.297,8.301,1622.952
1685506896.059,41.016,-132.812,-38.086,4.883,1622.956
1685506896.063,-10.742,-526.855,-68.848,-6.348,1622.960
1685506896.080,-3.418,-895.020,-19.043,1.465,1622.977
1685506896.084,46.875,-366.699,29.297,16.602,1622.981
1685506896.088,45.410,-106.445,-63.965,14.160,1622.985
1685506896.092,-18.555,-623.535,-80.078,-9.766,1622.988
1685506896.096,-21.973,-750.977,-25.391,-5.371,1622.992
1685506896.100,33.203,-622.559,-40.527,16.113,1622.996
1685506896.104,43.457,-640.625,-66.895,13.184,1623.000
1685506896.107,-18.066,-789.062,-95.215,-2.930,1623.004
1685506896.111,-45.898,-685.547,-55.664,-4.883,1623.008
1685506896.115,8.789,-294.434,-21.484,5.859,1623.012
1685506896.119,41.504,-210.449,-63.477,9.766,1623.016
1685506896.123,0.000,-775.879,-106.445,-4.395,1623.020
1685506896.095,-36.133,-953.613,-39.062,-7.324,1623.006
1685506896.099,-3.906,-671.875,-29.297,-0.488,1623.010
1685506896.103,41.016,-626.953,-82.520,8.301,1623.014
1685506896.107,10.254,-849.121,-72.266,-4.395,1623.018
1685506896.111,-39.062,-675.293,-36.133,-26.855,1623.022
1685506896.115,-17.578,-581.543,-47.363,-21.973,1623.026
1685506896.119,41.992,-718.262,-61.035,-10.742,1623.030
1685506896.122,55.664,-676.758,-13.672,-2.930,1623.034
1685506896.126,3.906,-403.320,-15.137,-9.277,1623.038
1685506896.130,-13.672,-248.535,-60.059,-14.648,1623.041
1685506896.134,32.715,-454.590,-55.176,-0.488,1623.045
1685506896.138,53.711,-553.223,-31.738,0.488,1623.049
1685506896.140,-1.465,-330.078,-54.199,-18.555,1623.037
1685506896.144,-41.016,-295.898,-56.641,-24.414,1623.041
1685506896.148,4.395,-592.773,-71.289,-1.953,1623.044
1685506896.152,35.156,-934.082,-43.945,11.230,1623.048
1685506896.156,-2.441,-545.410,-21.973,-18.066,1623.052
1685506896.160,-37.109,-573.242,-74.707,-22.949,1623.056
1685506896.164,-9.766,-947.754,-69.336,0.977,1623.060
1685506896.167,38.574,-642.090,4.395,3.906,1623.064
1685506896.171,19.043,-268.066,-39.062,-10.742,1623.068
1685506896.175,-36.621,-543.457,-76.172,-23.438,1623.072
1685506896.179,-27.344,-962.891,-97.168,-15.625,1623.076
1685506896.183,28.809,-732.422,-8.301,0.488,1623.080
1685506896.185,33.203,-161.621,-26.855,-0.488,1623.096
1685506896.189,-30.762,-531.738,-87.891,-25.391,1623.100
1685506896.193,-49.316,-953.125,-33.691,-36.621,1623.104
1685506896.197,7.324,-427.734,-18.555,-20.996,1623.108
1685506896.201,35.645,47.363,-42.969,-13.672,1623.111
1685506896.205,-17.578,-430.664,-83.984,-28.320,1623.115
1685506896.209,-56.152,-944.824,-59.570,-32.715,1623.119
1685506896.212,-4.395,-457.520,4.395,-15.625,1623.123
1685506896.216,34.668,33.203,-43.457,-10.742,1623.127
1685506896.220,-2.930,-200.195,-77.637,-31.250,1623.131
1685506896.224,-55.176,-503.418,-59.082,-41.992,1623.135
1685506896.228,-26.855,-536.133,-40.527,-24.902,1623.139
1685506896.232,30.273,-269.043,-27.344,-17.090,1623.133
1685506896.236,1.465,-397.949,-46.387,-31.250,1623.136
1685506896.240,-57.617,-660.645,-17.578,-34.668,1623.140
1685506896.244,-55.664,-332.520,-17.578,-18.066,1623.144
1685506896.248,-0.977,-68.848,-25.391,-5.371,1623.148
1685506896.252,0.000,-401.367,-76.172,-14.648,1623.152
1685506896.256,-52.734,-731.934,-65.918,-38.086,1623.156
1685506896.259,-56.152,-400.391,-16.113,-43.945,1623.160
1685506896.263,-1.465,-203.613,-41.016,-27.832,1623.164
1685506896.267,18.066,-597.656,-101.562,-17.090,1623.168
1685506896.271,-29.297,-617.188,-60.059,-28.809,1623.172
1685506896.275,-54.199,-231.445,-23.926,-29.785,1623.176
1685506896.291,-20.020,-257.324,-53.711,-23.926,1623.215
1685506896.295,19.043,-664.551,-32.227,-15.137,1623.219
1685506896.299,1.465,-651.367,-29.785,-21.973,1623.223
1685506896.303,-46.387,-340.332,-33.203,-45.898,1623.227
1685506896.307,-20.508,-316.895,-52.246,-43.457,1623.231
1685506896.311,27.344,-885.742,-84.961,-19.531,1623.235
1685506896.315,4.395,-937.988,11.719,-24.414,1623.239
1685506896.318,-51.758,-308.594,-5.371,-45.898,1623.243
1685506896.322,-49.316,-312.012,-68.359,-35.156,1623.247
1685506896.326,3.906,-323.730,-7.324,-21.973,1623.250
1685506896.330,13.184,-24.414,-28.809,-29.785,1623.254
1685506896.334,-38.574,-83.008,-66.895,-49.316,1623.258
1685506896.335,-78.125,-408.203,-44.922,-51.270,1623.232
1685506896.339,-33.203,-389.160,-15.625,-30.273,1623.236
1685506896.343,11.719,-43.457,-34.180,-32.715,1623.240
1685506896.347,-32.715,-88.379,-57.617,-46.387,1623.244
1685506896.351,-79.590,-552.734,-66.895,-41.016,1623.248
1685506896.355,-49.805,-747.559,-41.016,-32.227,1623.251
1685506896.359,4.395,-468.262,-16.113,-20.996,1623.255
1685506896.362,-11.230,-147.461,-42.480,-33.203,1623.259
1685506896.366,-66.895,-639.648,-120.117,-51.270,1623.263
1685506896.370,-53.711,-983.398,1.465,-40.527,1623.267
1685506896.374,5.859,-208.008,28.320,-28.320,1623.271
1685506896.378,1.953,43.945,-76.172,-35.645,1623.275
1685506896.380,-62.500,-644.043,-38.086,-55.664,1623.276
1685506896.384,-59.082,-845.215,-16.113,-59.570,1623.280
1685506896.388,4.883,-245.117,-9.277,-43.457,1623.284
1685506896.392,0.977,-61.035,-59.570,-44.434,1623.288
1685506896.396,-61.523,-783.203,-68.359,-57.129,1623.292
1685506896.400,-75.195,-916.016,-3.906,-55.176,1623.296
1685506896.404,-25.391,-426.270,0.000,-36.621,1623.300
1685506896.407,5.859,-315.918,-42.480,-28.809,1623.304
1685506896.411,-26.855,-862.305,-44.434,-35.156,1623.308
1685506896.415,-59.082,-648.926,22.949,-36.133,1623.312
1685506896.419,-31.738,-38.574,-10.742,-30.273,1623.315
1685506896.423,10.742,-140.625,-21.484,-23.438,1623.319
1685506896.426,-8.301,-178.711,-12.207,-39.062,1623.321
1685506896.430,-68.359,-73.730,-27.344,-60.059,1623.325
1685506896.434,-62.988,-92.773,-18.555,-45.898,1623.329
1685506896.438,-9.277,-202.637,-20.996,-42.480,1623.333
1685506896.442,-11.230,-176.758,-23.926,-58.594,1623.337
1685506896.446,-63.965,-347.656,-47.363,-65.430,1623.341
1685506896.450,-71.777,-531.738,-27.344,-57.129,1623.345
1685506896.453,-18.555,-697.266,-43.457,-37.109,1623.349
1685506896.457,4.395,-649.414,0.977,-28.320,1623.353
1685506896.461,-35.156,-226.074,-22.949,-42.480,1623.357
1685506896.465,-72.266,-435.059,-43.945,-48.340,1623.360
1685506896.469,-40.039,-707.031,-45.898,-31.250,1623.364
1685506896.500,6.836,-332.031,-43.945,-29.785,1623.396
1685506896.504,-20.020,-145.508,-17.578,-44.434,1623.400
1685506896.508,-66.406,-307.617,-34.668,-48.340,1623.404
1685506896.512,-39.062,-743.164,-20.508,-41.504,1623.408
1685506896.516,12.695,-365.234,15.625,-31.250,1623.412
1685506896.520,-10.254,-72.754,-30.273,-42.969,1623.416
1685506896.524,-64.941,-512.207,-48.828,-50.781,1623.420
1685506896.527,-66.406,-872.070,0.000,-40.039,1623.424
1685506896.531,-15.625,-281.250,41.992,-39.062,1623.428
1685506896.535,-8.789,251.465,-24.414,-41.016,1623.432
1685506896.539,-62.012,-87.891,-46.387,-54.199,1623.436
1685506896.543,-75.684,-283.691,-19.531,-55.176,1623.439
1685506896.530,-18.066,-233.887,-8.301,-43.945,1623.427
1685506896.534,7.812,18.066,-9.277,-44.922,1623.431
1685506896.538,-31.250,-205.566,-24.902,-53.223,1623.435
1685506896.542,-66.895,-517.578,32.227,-62.012,1623.439
1685506896.546,-33.691,-120.117,4.883,-48.828,1623.443
1685506896.550,16.602,-126.465,-35.156,-33.691,1623.447
1685506896.554,-26.367,-464.844,-42.480,-53.711,1623.450
1685506896.557,-84.961,-374.023,-27.344,-71.289,1623.454
1685506896.561,-53.711,13.184,1.465,-52.734,1623.458
1685506896.565,-0.977,109.863,-13.184,-32.715,1623.462
1685506896.569,-16.602,-341.309,-58.105,-41.016,1623.466
1685506896.573,-68.848,-298.828,-28.320,-57.129,1623.470
1685506896.560,-69.824,-100.586,-14.160,-54.688,1623.470
1685506896.564,-19.531,-295.410,-9.277,-31.738,1623.474
1685506896.568,-8.789,-791.504,-36.621,-21.484,1623.478
1685506896.572,-57.129,-1000.000,-13.672,-46.875,1623.482
1685506896.576,-78.613,-313.965,19.043,-55.664,1623.486
1685506896.580,-30.762,-236.816,-24.414,-45.410,1623.490
1685506896.584,-1.465,-423.828,33.203,-48.340,1623.494
1685506896.587,-40.039,-20.996,21.484,-59.082,1623.498
1685506896.591,-75.195,174.805,-26.855,-63.965,1623.502
1685506896.595,-38.574,-52.734,-45.898,-49.805,1623.506
1685506896.599,-0.977,-686.523,-13.672,-40.039,1623.509
1685506896.603,-28.320,-198.242,7.324,-52.246,1623.513
1685506896.620,-72.266,199.219,-27.832,-60.059,1623.517
1685506896.624,-60.059,-83.984,-14.648,-54.688,1623.521
1685506896.628,-11.719,53.223,15.137,-43.457,1623.525
1685506896.632,-15.137,308.105,0.488,-52.734,1623.529
1685506896.636,-72.266,183.105,-37.109,-62.988,1623.532
1685506896.640,-81.055,-371.582,-46.875,-57.129,1623.536
1685506896.644,-26.367,-602.539,-0.488,-53.223,1623.540
1685506896.647,1.465,-105.957,50.781,-50.781,1623.544
1685506896.651,-37.598,190.918,-11.230,-58.105,1623.548
1685506896.655,-77.148,-479.980,-78.125,-65.430,1623.552
1685506896.659,-52.734,-588.867,45.410,-51.758,1623.556
1685506896.663,-12.695,254.883,43.945,-40.039,1623.560
1685506896.666,-44.922,183.594,-62.500,-53.711,1623.561
1685506896.670,-88.379,-655.273,-45.410,-61.523,1623.565
1685506896.674,-61.035,-366.211,23.926,-52.246,1623.569
1685506896.678,-12.695,403.809,8.301,-51.270,1623.573
1685506896.682,-30.762,270.508,-54.199,-53.223,1623.577
1685506896.686,-87.402,-381.836,-26.855,-66.406,1623.581
1685506896.690,-79.590,-280.273,34.668,-65.918,1623.585
1685506896.693,-16.113,253.418,12.207,-46.387,1623.589
1685506896.697,-6.836,33.691,-45.410,-50.781,1623.593
1685506896.701,-55.664,-804.688,-20.996,-61.035,1623.597
1685506896.705,-64.941,-432.129,70.801,-62.988,1623.600
1685506896.709,-24.414,344.238,9.766,-49.316,1623.604
1685506896.740,-9.277,182.617,-26.855,-45.898,1623.637
1685506896.744,-55.664,75.684,5.859,-55.664,1623.640
1685506896.748,-84.961,177.246,-0.488,-53.711,1623.644
1685506896.752,-44.922,269.531,-7.324,-53.711,1623.648
1685506896.756,-8.789,88.379,-37.598,-48.828,1623.652
1685506896.760,-34.668,-233.887,-20.020,-56.152,1623.656
1685506896.764,-88.867,-165.527,27.344,-77.637,1623.660
1685506896.767,-57.617,214.355,7.812,-66.406,1623.664
1685506896.771,13.184,-139.160,-51.270,-36.621,1623.668
1685506896.775,-5.371,-382.324,25.391,-37.598,1623.672
1685506896.779,-67.383,15.625,-5.371,-53.711,1623.676
1685506896.783,-64.941,-101.562,-19.531,-60.547,1623.680
1685506896.755,-10.254,-401.855,1.953,-43.945,1623.651
1685506896.759,-12.207,-266.602,8.301,-37.598,1623.655
1685506896.763,-70.801,173.828,0.000,-60.059,1623.659
1685506896.767,-84.961,115.234,-36.133,-56.152,1623.663
1685506896.771,-41.504,-488.281,-22.949,-35.156,1623.667
1685506896.775,-16.113,-328.125,8.789,-37.598,1623.671
1685506896.779,-56.641,119.629,5.371,-58.594,1623.675
1685506896.782,-88.379,4.395,-26.367,-62.988,1623.678
1685506896.786,-47.852,-160.645,21.973,-54.688,1623.682
1685506896.790,9.277,322.754,30.762,-46.387,1623.686
1685506896.794,-14.648,532.715,-32.227,-59.570,1623.690
1685506896.798,-76.172,113.770,-30.273,-65.430,1623.694
1685506896.816,-61.035,-150.391,22.461,-53.711,1623.725
1685506896.820,2.441,49.316,16.602,-35.156,1623.729
1685506896.824,-0.488,398.926,-8.301,-42.480,1623.733
1685506896.828,-64.453,54.688,-50.781,-75.195,1623.737
1685506896.832,-80.078,-831.543,-7.812,-80.566,1623.741
1685506896.836,-17.090,-431.152,50.781,-66.406,1623.745
1685506896.840,1.953,248.047,-4.395,-66.406,1623.749
1685506896.843,-53.223,-181.152,-49.805,-74.707,1623.753
1685506896.847,-80.078,-463.867,58.105,-76.660,1623.757
1685506896.851,-42.480,328.613,59.082,-61.035,1623.760
1685506896.855,-17.090,550.781,-19.531,-47.852,1623.764
1685506896.859,-69.336,208.496,-6.836,-68.359,1623.768
1685506896.845,-102.051,185.547,2.930,-72.266,1623.741
1685506896.849,-49.316,208.008,17.090,-53.711,1623.745
1685506896.853,-1.465,336.426,4.883,-50.781,1623.749
1685506896.857,-36.133,-262.695,-20.508,-55.176,1623.753
1685506896.861,-85.938,-268.555,31.250,-62.012,1623.757
1685506896.865,-55.664,126.465,5.371,-53.223,1623.761
1685506896.869,1.953,-10.742,11.230,-37.109,1623.765
1685506896.872,-7.812,-23.926,59.570,-52.734,1623.769
1685506896.876,-63.477,239.258,27.344,-76.172,1623.773
1685506896.880,-72.266,526.367,-3.906,-67.383,1623.777
1685506896.884,-25.391,320.801,-39.062,-54.199,1623.780
1685506896.888,-13.672,-454.102,-8.301,-50.781,1623.784
1685506896.905,-59.570,-6.836,34.180,-64.941,1623.816
1685506896.909,-89.844,506.348,-8.789,-70.312,1623.820
1685506896.913,-50.781,191.895,2.930,-45.898,1623.824
1685506896.917,-5.859,198.730,56.641,-46.875,1623.828
1685506896.921,-46.875,447.266,11.719,-64.453,1623.832
1685506896.925,-97.656,232.422,-19.043,-62.012,1623.836
1685506896.929,-66.895,-252.930,-32.227,-49.316,1623.840
1685506896.932,-19.531,-738.281,5.371,-43.945,1623.843
1685506896.936,-27.344,171.387,49.805,-56.641,1623.847
1685506896.940,-72.266,589.844,-19.043,-72.266,1623.851
1685506896.944,-66.895,67.383,-17.578,-75.684,1623.855
1685506896.948,-10.254,399.414,20.508,-62.988,1623.859
1685506896.935,-21.484,677.734,-2.441,-57.617,1623.846
1685506896.939,-76.660,196.289,-25.879,-69.336,1623.850
1685506896.943,-83.984,-440.918,-8.789,-68.359,1623.854
1685506896.947,-32.715,-0.977,51.270,-54.199,1623.857
1685506896.951,-11.719,682.617,23.438,-56.641,1623.861
1685506896.955,-66.406,216.797,-38.086,-71.289,1623.865
1685506896.959,-105.469,-183.594,62.500,-80.078,1623.869
1685506896.962,-53.223,356.445,62.012,-67.871,1623.873
1685506896.966,-5.371,675.293,0.488,-54.199,1623.877
1685506896.970,-53.223,186.523,-6.836,-66.895,1623.881
1685506896.974,-102.539,-498.047,36.621,-79.102,1623.885
1685506896.978,-67.383,80.566,59.082,-68.359,1623.889
1685506896.982,-18.066,773.926,5.859,-61.523,1623.881
1685506896.986,-31.738,329.102,-32.715,-70.801,1623.885
1685506896.990,-88.379,-636.230,-7.324,-79.590,1623.889
1685506896.994,-71.289,-32.227,46.387,-79.590,1623.892
1685506896.998,-11.230,705.078,10.254,-70.312,1623.896
1685506897.002,-20.996,295.410,-35.645,-64.941,1623.900
1685506897.006,-59.570,13.184,-31.738,-78.125,1623.904
1685506897.009,-60.547,359.863,2.441,-75.684,1623.908
1685506897.013,-27.832,606.445,0.000,-54.688,1623.912
1685506897.017,-14.160,152.344,-48.340,-55.664,1623.916
1685506897.021,-62.500,25.391,4.395,-70.312,1623.920
1685506897.025,-105.469,338.379,15.625,-78.125,1623.924
1685506897.040,-72.754,338.379,-1.953,-60.059,1623.936
1685506897.044,-23.926,54.688,11.719,-47.363,1623.940
1685506897.048,-57.617,289.551,20.508,-69.824,1623.944
1685506897.052,-104.980,534.668,0.488,-86.914,1623.948
1685506897.056,-77.148,461.426,-7.812,-73.730,1623.952
1685506897.060,-26.367,-404.297,-20.996,-41.504,1623.956
1685506897.064,-34.668,-796.387,62.012,-43.945,1623.960
1685506897.067,-71.777,244.141,37.109,-64.941,1623.964
1685506897.071,-75.195,407.227,-33.203,-67.871,1623.968
1685506897.075,-20.996,330.078,27.344,-64.941,1623.972
1685506897.079,-8.789,685.059,20.996,-68.848,1623.975
1685506897.083,-65.430,651.855,-21.973,-84.961,1623.979
1685506897.086,-90.332,325.684,0.488,-88.379,1623.985
1685506897.090,-32.715,232.422,53.223,-68.359,1623.989
1685506897.094,16.113,360.352,17.578,-59.082,1623.993
1685506897.098,-20.020,526.855,-13.672,-63.477,1623.997
1685506897.102,-66.406,230.957,-9.766,-54.688,1624.001
1685506897.106,-53.711,-189.941,33.203,-44.434,1624.005
1685506897.110,-19.531,208.008,58.594,-48.828,1624.008
1685506897.113,-31.250,696.777,24.902,-71.289,1624.012
1685506897.117,-75.195,35.156,-54.199,-87.891,1624.016
1685506897.121,-73.242,-312.012,60.547,-77.637,1624.020
1685506897.125,-30.273,530.762,57.129,-65.430,1624.024
1685506897.129,-38.574,657.715,-20.020,-62.500,1624.028
1685506897.130,-95.215,139.160,2.930,-74.219,1624.027
1685506897.134,-94.727,-19.531,18.066,-66.406,1624.031
1685506897.138,-33.691,496.582,26.855,-42.480,1624.035
1685506897.142,-12.207,683.594,-23.926,-43.457,1624.038
1685506897.146,-69.824,-202.148,-30.273,-65.430,1624.042
1685506897.150,-95.703,-284.180,32.227,-67.383,1624.046
1685506897.154,-47.852,240.234,35.156,-51.270,1624.050
1685506897.157,-16.602,366.699,0.977,-41.016,1624.054
1685506897.161,-50.293,-382.324,-16.602,-46.387,1624.058
1685506897.165,-91.309,-304.688,80.566,-64.453,1624.062
1685506897.169,-61.523,592.773,43.457,-60.547,1624.066
1685506897.173,-1.465,622.070,-8.789,-42.480,1624.070
1685506897.176,-27.344,552.246,13.672,-49.316,1624.071
1685506897.180,-80.566,603.516,0.000,-63.477,1624.075
1685506897.184,-68.359,594.727,0.977,-65.918,1624.079
1685506897.188,-16.602,525.391,3.418,-50.293,1624.083
1685506897.192,-9.766,564.941,9.766,-51.758,1624.087
1685506897.196,-64.941,316.895,-1.953,-69.824,1624.091
1685506897.200,-77.637,161.621,9.766,-71.777,1624.095
1685506897.203,-34.668,-72.754,-38.086,-53.711,1624.099
1685506897.207,-17.578,-570.801,19.043,-33.691,1624.103
1685506897.211,-61.523,274.902,53.711,-55.664,1624.107
1685506897.215,-89.844,601.074,-11.719,-74.219,1624.110
1685506897.219,-46.875,250.000,13.184,-55.664,1624.114
1685506897.221,-14.160,509.277,9.766,-49.316,1624.116
1685506897.225,-44.922,507.812,2.930,-63.965,1624.120
1685506897.229,-87.402,375.488,-6.836,-76.660,1624.124
1685506897.233,-56.641,-148.438,4.395,-64.453,1624.128
1685506897.237,0.488,175.293,56.641,-41.504,1624.132
1685506897.241,-15.625,547.363,16.113,-48.828,1624.136
1685506897.245,-76.172,139.648,-21.484,-70.312,1624.140
1685506897.248,-74.219,-455.078,4.883,-67.871,1624.144
1685506897.252,-16.602,131.348,74.707,-61.035,1624.148
1685506897.256,-15.137,751.465,-0.488,-65.918,1624.152
1685506897.260,-69.336,238.770,-22.949,-82.031,1624.155
1685506897.264,-84.961,71.289,58.594,-74.707,1624.159
1685506897.295,-40.039,610.352,43.457,-66.406,1624.221
1685506897.299,-23.926,883.789,-6.836,-61.035,1624.225
1685506897.303,-62.988,427.246,-0.488,-55.176,1624.229
1685506897.307,-88.379,216.797,53.711,-62.012,1624.233
1685506897.311,-58.105,560.547,42.969,-61.035,1624.237
1685506897.315,-19.043,600.586,-7.324,-61.035,1624.241
1685506897.319,-47.852,46.387,-36.621,-70.312,1624.245
1685506897.322,-89.844,-326.660,74.707,-75.195,1624.248
1685506897.326,-62.988,446.289,78.613,-72.266,1624.252
1685506897.330,-19.531,758.301,-8.301,-63.477,1624.256
1685506897.334,-47.363,419.434,-17.090,-72.754,1624.260
1685506897.338,-101.074,440.430,-8.301,-83.984,1624.264
1685506897.328,-87.402,373.535,13.672,-74.219,1624.228
1685506897.332,-30.273,266.602,2.441,-64.941,1624.232
1685506897.336,-21.484,-119.141,-13.184,-66.895,1624.236
1685506897.340,-65.918,75.684,56.152,-79.102,1624.240
1685506897.344,-101.562,587.402,21.973,-85.449,1624.244
1685506897.348,-70.312,249.512,-27.832,-64.453,1624.247
1685506897.352,-43.457,-125.000,41.992,-53.711,1624.251
1685506897.355,-84.961,383.789,61.035,-70.312,1624.255
1685506897.359,-107.422,687.012,2.441,-75.684,1624.259
1685506897.363,-72.266,409.180,3.906,-57.129,1624.263
1685506897.367,-29.297,367.676,44.434,-53.223,1624.267
1685506897.371,-56.152,634.766,23.926,-77.148,1624.271
1685506897.356,-108.887,704.102,1.465,-93.262,1624.266
1685506897.360,-84.473,299.316,-9.277,-76.660,1624.270
1685506897.364,-31.738,-463.867,35.156,-57.617,1624.274
1685506897.368,-40.039,84.473,76.660,-72.754,1624.278
1685506897.372,-90.332,693.359,-6.836,-78.613,1624.282
1685506897.376,-94.727,125.977,-34.180,-61.035,1624.286
1685506897.380,-37.598,6.348,66.406,-53.711,1624.290
1685506897.383,-20.020,615.234,54.199,-77.148,1624.294
1685506897.387,-62.500,788.086,0.488,-97.656,1624.297
1685506897.391,-91.797,62.500,-58.105,-86.914,1624.301
1685506897.395,-51.758,-873.047,16.602,-61.523,1624.305
1685506897.399,-16.113,25.879,119.141,-60.547,1624.309
1685506897.430,-53.711,661.133,-10.254,-71.289,1624.327
1685506897.434,-102.051,-83.984,-25.391,-76.660,1624.331
1685506897.438,-79.102,278.809,46.875,-78.613,1624.335
1685506897.442,-31.738,965.332,24.414,-76.172,1624.338
1685506897.446,-62.012,737.793,-28.809,-89.355,1624.342
1685506897.450,-115.723,-47.363,1.465,-99.609,1624.346
1685506897.454,-99.609,-59.570,39.062,-85.449,1624.350
1685506897.457,-44.922,544.922,47.852,-69.336,1624.354
1685506897.461,-37.109,676.758,-3.418,-78.125,1624.358
1685506897.465,-96.191,-341.309,-48.828,-93.750,1624.362
1685506897.469,-103.516,-75.684,60.059,-89.844,1624.366
1685506897.473,-33.691,812.988,43.945,-73.730,1624.370
1685506897.460,-12.207,685.547,-12.207,-65.430,1624.370
1685506897.464,-54.688,562.500,6.348,-74.707,1624.374
1685506897.468,-84.961,591.309,22.461,-85.449,1624.378
1685506897.472,-52.246,728.027,23.438,-74.219,1624.382
1685506897.476,-8.301,561.035,-11.230,-52.734,1624.386
1685506897.480,-43.945,151.367,16.113,-50.781,1624.390
1685506897.484,-92.773,320.801,51.270,-62.500,1624.394
1685506897.487,-62.988,604.492,11.719,-53.711,1624.397
1685506897.491,-5.859,278.320,-36.133,-42.480,1624.401
1685506897.495,-21.973,274.414,14.160,-48.340,1624.405
1685506897.499,-72.266,605.957,19.531,-68.848,1624.409
1685506897.503,-65.918,657.227,5.859,-54.688,1624.413
1685506897.505,-20.508,-6.836,-44.434,-34.668,1624.401
1685506897.509,-30.273,-909.668,14.648,-41.016,1624.405
1685506897.513,-71.289,-226.562,114.746,-61.035,1624.409
1685506897.517,-79.102,479.492,30.273,-60.059,1624.413
1685506897.521,-38.086,394.043,37.598,-48.828,1624.417
1685506897.525,-13.672,397.949,17.578,-49.805,1624.421
1685506897.529,-52.246,447.266,-9.766,-62.012,1624.425
1685506897.532,-86.426,423.340,-19.043,-74.707,1624.428
1685506897.536,-46.387,-220.703,2.441,-58.594,1624.432
1685506897.540,0.000,355.957,59.570,-58.105,1624.436
1685506897.544,-27.344,800.293,-16.602,-74.219,1624.440
1685506897.548,-90.332,270.996,-8.789,-72.754,1624.444
1685506897.550,-85.449,363.770,53.711,-62.500,1624.446
1685506897.554,-29.297,787.598,32.227,-62.500,1624.450
1685506897.558,-38.574,901.855,-21.484,-69.824,1624.454
1685506897.562,-90.820,419.922,-5.859,-71.289,1624.458
1685506897.566,-76.172,170.898,75.684,-61.035,1624.462
1685506897.570,-24.414,351.074,30.762,-48.340,1624.466
1685506897.574,-27.344,493.164,-3.906,-51.270,1624.469
1685506897.577,-79.590,121.094,-21.484,-64.941,1624.473
1685506897.581,-99.609,-214.844,72.754,-78.125,1624.477
1685506897.585,-33.203,613.770,68.359,-65.918,1624.481
1685506897.589,13.672,886.230,-11.230,-39.551,1624.485
1685506897.593,-37.598,417.969,-15.625,-52.734,1624.489
1685506897.596,-80.078,378.418,-0.977,-73.242,1624.506
1685506897.600,-56.641,437.500,1.953,-64.941,1624.510
1685506897.604,-19.531,395.508,-10.254,-58.594,1624.514
1685506897.608,-38.574,-147.461,0.488,-64.453,1624.518
1685506897.612,-85.938,-182.617,74.707,-80.566,1624.522
1685506897.616,-66.895,316.895,41.992,-72.266,1624.525
1685506897.620,-10.742,346.680,3.418,-50.781,1624.529
1685506897.623,-35.156,-144.531,3.418,-44.434,1624.533
1685506897.627,-101.074,178.223,41.504,-53.223,1624.537
1685506897.631,-87.402,741.699,31.250,-57.617,1624.541
1685506897.635,-22.461,573.242,17.578,-40.039,1624.545
1685506897.639,-9.766,611.328,39.062,-40.039,1624.549
1685506897.640,-73.730,769.043,9.277,-53.711,1624.551
1685506897.644,-101.074,716.797,-5.859,-52.246,1624.555
1685506897.648,-52.734,570.801,13.672,-44.922,1624.559
1685506897.652,-27.344,580.566,34.668,-46.875,1624.563
1685506897.656,-62.500,444.824,13.672,-52.246,1624.566
1685506897.660,-91.797,323.242,16.602,-58.105,1624.570
1685506897.664,-55.176,56.152,-5.859,-44.434,1624.574
1685506897.667,-11.719,-406.738,40.527,-28.320,1624.578
1685506897.671,-31.250,393.066,66.895,-48.828,1624.582
1685506897.675,-79.102,777.832,-11.230,-72.754,1624.586
1685506897.679,-63.477,74.219,-38.574,-56.152,1624.590
1685506897.683,-6.836,251.465,51.758,-36.133,1624.594
1685506897.685,-4.883,769.043,12.695,-45.410,1624.596
1685506897.689,-63.965,334.961,-28.320,-54.688,1624.599
1685506897.693,-75.195,-258.789,-4.883,-47.852,1624.603
1685506897.697,-18.066,214.355,37.598,-43.945,1624.607
1685506897.701,-3.906,894.043,23.926,-50.781,1624.611
1685506897.705,-59.570,418.457,-42.480,-64.453,1624.615
1685506897.709,-88.379,-458.984,-8.789,-62.500,1624.619
1685506897.712,-38.574,-113.770,53.223,-58.105,1624.623
1685506897.716,-6.348,829.590,25.391,-50.293,1624.627
1685506897.720,-55.176,650.879,-52.246,-46.387,1624.631
1685506897.724,-104.004,-364.746,-8.789,-53.711,1624.635
1685506897.728,-74.707,170.410,81.543,-53.223,1624.639
1685506897.745,-18.066,915.527,15.625,-39.062,1624.642
1685506897.749,-32.227,592.773,-16.602,-45.410,1624.645
1685506897.753,-82.520,396.973,13.184,-65.918,1624.649
1685506897.757,-65.430,532.227,17.578,-63.477,1624.653
1685506897.761,-9.277,753.906,4.883,-56.152,1624.657
1685506897.765,-20.020,356.445,-26.367,-58.105,1624.661
1685506897.769,-75.684,-14.648,26.367,-68.848,1624.665
1685506897.772,-80.078,464.355,43.457,-69.336,1624.669
1685506897.776,-30.273,668.945,5.859,-54.199,1624.673
1685506897.780,2.441,191.406,-37.109,-49.316,1624.677
1685506897.784,-43.457,130.859,15.137,-59.082,1624.681
1685506897.788,-91.797,551.758,41.992,-63.477,1624.685
1685506897.791,-57.129,566.895,-18.555,-46.387,1624.687
1685506897.795,-8.789,-171.387,-19.531,-33.691,1624.691
1685506897.799,-39.062,-263.184,83.984,-55.664,1624.695
1685506897.803,-77.637,521.484,47.363,-70.312,1624.699
1685506897.807,-51.270,506.348,-21.484,-52.734,1624.703
1685506897.811,-10.254,3.906,65.918,-40.527,1624.707
1685506897.815,-34.668,197.266,79.590,-48.340,1624.711
1685506897.818,-95.215,658.691,8.301,-60.059,1624.714
1685506897.822,-85.938,409.668,-45.410,-55.664,1624.718
1685506897.826,-37.109,-355.469,5.371,-42.969,1624.722
1685506897.830,-28.320,223.633,59.082,-46.875,1624.726
1685506897.834,-67.871,570.312,-31.738,-62.500,1624.730
1685506897.838,-88.867,60.547,4.883,-54.688,1624.738
1685506897.842,-42.969,150.879,83.008,-39.551,1624.742
1685506897.846,-9.277,627.441,27.832,-46.387,1624.746
1685506897.850,-39.062,683.105,-31.250,-61.523,1624.750
1685506897.854,-74.219,221.191,-27.832,-58.105,1624.753
1685506897.858,-45.898,-52.246,17.090,-55.176,1624.757
1685506897.862,-4.395,266.113,40.527,-56.152,1624.761
1685506897.865,-31.738,660.645,-7.324,-64.941,1624.765
1685506897.869,-84.473,-75.195,-75.684,-78.613,1624.769
1685506897.873,-75.195,-590.820,77.637,-78.125,1624.773
1685506897.877,-14.160,398.926,67.383,-67.871,1624.777
1685506897.881,-17.578,696.289,-39.551,-64.941,1624.781
1685506897.881,-82.520,144.043,-13.184,-74.219,1624.790
1685506897.885,-80.566,-114.746,2.441,-74.219,1624.794
1685506897.889,-19.043,201.660,23.926,-65.918,1624.798
1685506897.893,-17.578,455.078,-14.160,-66.406,1624.801
1685506897.897,-79.102,51.758,28.320,-74.707,1624.805
1685506897.901,-100.098,-129.395,32.715,-71.289,1624.809
1685506897.905,-48.340,162.109,29.297,-62.988,1624.813
1685506897.908,-2.930,503.418,0.488,-56.152,1624.817
1685506897.912,-50.293,-447.266,-54.199,-51.758,1624.821
1685506897.916,-97.656,-957.520,38.086,-57.129,1624.825
1685506897.920,-57.617,134.766,52.246,-63.965,1624.829
1685506897.924,-4.395,510.254,-2.930,-54.688,1624.833
1685506897.926,-20.508,362.305,-11.230,-63.965,1624.853
1685506897.930,-79.102,341.309,-5.371,-70.312,1624.857
1685506897.934,-64.453,416.016,3.906,-57.617,1624.861
1685506897.938,-8.301,386.719,-6.348,-46.875,1624.864
1685506897.942,-9.766,292.480,-1.953,-47.852,1624.868
1685506897.946,-56.641,82.520,-3.418,-63.477,1624.872
1685506897.950,-64.453,50.781,12.695,-63.477,1624.876
1685506897.953,-17.578,-157.715,-31.250,-44.922,1624.880
1685506897.957,-4.883,-720.215,2.930,-38.086,1624.884
1685506897.961,-48.828,74.219,37.598,-50.781,1624.888
1685506897.965,-71.777,460.449,-29.785,-60.547,1624.892
1685506897.969,-26.367,62.012,-28.320,-51.758,1624.896
1685506897.970,9.277,278.320,-3.418,-43.945,1624.866
1685506897.974,-34.668,276.855,-5.859,-63.965,1624.870
1685506897.978,-79.102,118.164,-18.555,-74.219,1624.874
1685506897.982,-51.270,-112.305,31.738,-53.711,1624.878
1685506897.986,-6.836,259.277,46.387,-38.574,1624.882
1685506897.990,-29.297,335.938,-17.578,-44.922,1624.885
1685506897.994,-81.055,-110.352,-36.621,-60.547,1624.889
1685506897.997,-68.359,-821.289,-9.277,-46.875,1624.893
1685506898.001,-13.184,-537.109,98.145,-28.320,1624.897
1685506898.005,3.418,516.602,9.766,-40.039,1624.901
1685506898.009,-42.480,273.438,-70.312,-53.223,1624.905
1685506898.013,-64.453,-343.262,50.293,-43.457,1624.909
1685506898.017,-11.230,172.363,53.223,-25.391,1624.914
1685506898.021,18.066,665.039,-22.949,-25.391,1624.918
1685506898.025,-29.785,151.855,-36.133,-31.250,1624.921
1685506898.029,-69.824,-371.094,31.250,-37.598,1624.925
1685506898.033,-19.531,118.652,27.344,-32.227,1624.929
1685506898.037,32.715,330.566,-11.230,-22.949,1624.933
1685506898.041,1.465,-193.848,-19.531,-28.320,1624.937
1685506898.044,-56.641,-560.547,37.598,-37.598,1624.941
1685506898.048,-35.645,163.574,45.410,-30.762,1624.945
1685506898.052,27.832,478.027,-21.973,-13.672,1624.949
1685506898.056,10.742,-129.395,-64.941,-21.484,1624.953
1685506898.060,-45.898,-59.082,-16.602,-33.691,1624.957
1685506898.061,-44.922,291.016,-5.859,-33.203,1624.971
1685506898.065,-8.789,10.742,-14.160,-21.484,1624.975
1685506898.069,-6.348,-215.332,5.371,-28.320,1624.979
1685506898.073,-53.711,148.438,-2.930,-45.898,1624.983
1685506898.077,-72.754,371.094,-2.930,-38.574,1624.987
1685506898.081,-20.996,144.531,-18.555,-17.090,1624.990
1685506898.085,7.812,-636.719,-38.086,-8.301,1624.994
1685506898.088,-21.484,-656.738,79.102,-19.043,1624.998
1685506898.092,-56.152,175.781,44.922,-29.297,1625.002
1685506898.096,-29.297,239.746,-25.391,-25.391,1625.006
1685506898.100,11.719,231.934,11.719,-31.738,1625.010
1685506898.104,-21.973,377.930,-18.066,-47.363,1625.014
1685506898.106,-80.078,81.055,-37.109,-55.176,1625.014
1685506898.110,-60.059,-135.742,4.395,-52.734,1625.018
1685506898.114,12.695,176.270,27.832,-37.109,1625.022
1685506898.118,8.301,428.223,-3.906,-34.668,1625.026
1685506898.122,-40.039,341.309,-40.527,-52.734,1625.030
1685506898.126,-34.668,-260.254,-55.176,-52.734,1625.034
1685506898.130,7.324,-665.527,73.242,-27.344,1625.038
1685506898.133,24.902,50.781,91.309,-25.879,1625.041
1685506898.137,-33.691,391.602,-38.574,-42.969,1625.045
1685506898.141,-75.684,-327.148,-71.777,-39.551,1625.049
1685506898.145,-25.391,-326.172,38.086,-29.785,1625.053
1685506898.149,20.020,512.207,26.367,-33.203,1625.057
1685506898.165,-24.414,362.305,-62.012,-52.246,1625.061
1685506898.169,-70.312,-418.945,-45.898,-53.711,1625.065
1685506898.173,-29.785,-191.406,14.160,-36.133,1625.069
1685506898.177,13.184,234.375,3.418,-39.062,1625.073
1685506898.181,-26.855,217.773,-43.457,-41.992,1625.077
1685506898.185,-71.289,-659.180,-47.852,-50.781,1625.081
1685506898.189,-48.340,-723.633,81.055,-53.711,1625.085
1685506898.192,12.207,323.730,35.156,-47.852,1625.089
1685506898.196,6.836,360.352,-54.199,-54.688,1625.093
1685506898.200,-56.641,10.254,-10.254,-63.477,1625.096
1685506898.204,-62.988,208.984,4.883,-62.012,1625.100
1685506898.208,-5.371,420.410,-2.930,-47.363,1625.104
1685506898.210,12.695,282.715,-15.137,-34.668,1625.107
1685506898.214,-41.992,132.324,-9.277,-55.176,1625.111
1685506898.218,-75.195,195.312,-8.789,-64.453,1625.114
1685506898.222,-43.457,323.242,-19.531,-55.176,1625.118
1685506898.226,-9.277,148.438,-38.086,-53.711,1625.122
1685506898.230,-36.133,-162.109,-13.184,-60.059,1625.126
1685506898.234,-74.219,-262.207,-11.719,-69.824,1625.130
1685506898.237,-44.434,-85.938,-21.484,-64.941,1625.134
1685506898.241,0.977,-250.977,-63.477,-50.781,1625.138
1685506898.245,-18.555,-810.547,-8.301,-52.734,1625.142
1685506898.249,-70.312,-134.277,19.043,-78.613,1625.146
1685506898.253,-61.035,269.043,-36.621,-65.918,1625.150
1685506898.255,-3.906,-20.020,-4.395,-50.781,1625.151
1685506898.259,-3.418,-33.691,-18.555,-71.777,1625.155
1685506898.263,-58.594,162.598,-33.203,-83.984,1625.159
1685506898.267,-57.129,170.410,-39.551,-72.266,1625.163
1685506898.271,-5.859,-461.914,-51.758,-47.363,1625.167
1685506898.275,6.348,-440.430,-19.043,-37.598,1625.171
1685506898.279,-48.340,60.547,-4.395,-51.758,1625.175
1685506898.282,-91.797,17.090,-58.105,-56.641,1625.179
1685506898.286,-53.711,-776.367,-25.879,-32.715,1625.183
1685506898.290,-11.230,-395.020,70.312,-31.738,1625.187
1685506898.294,-38.086,467.773,-20.996,-46.387,1625.190
1685506898.298,-75.684,161.621,-63.965,-54.199,1625.194
1685506898.301,-54.688,-20.020,-12.695,-45.898,1625.199
1685506898.305,-7.812,369.141,-6.348,-29.297,1625.203
1685506898.309,-19.531,455.078,-43.457,-41.992,1625.207
1685506898.313,-62.988,44.922,-51.270,-53.223,1625.211
1685506898.317,-49.805,-73.730,-4.883,-37.598,1625.214
1685506898.321,-0.488,-69.336,-13.672,-27.832,1625.218
1685506898.325,-2.441,14.160,-33.691,-34.180,1625.222
1685506898.328,-59.570,-302.734,-62.012,-52.246,1625.226
1685506898.332,-75.195,-636.719,23.438,-56.152,1625.230
1685506898.336,-18.066,154.785,27.832,-43.457,1625.234
1685506898.340,21.484,369.141,-54.199,-40.039,1625.238
1685506898.344,-33.203,-321.289,-82.031,-44.922,1625.242
1685506898.345,-70.801,-292.480,-41.992,-50.293,1625.241
1685506898.349,-29.785,-30.273,-12.207,-35.156,1625.245
1685506898.353,3.906,-136.230,-38.574,-25.879,1625.249
1685506898.357,-44.434,-325.195,-1.953,-38.086,1625.253
1685506898.361,-91.309,-59.082,-10.742,-47.852,1625.257
1685506898.365,-59.082,-12.695,-40.039,-39.551,1625.261
1685506898.369,-9.766,-129.395,-5.859,-28.809,1625.265
1685506898.372,-20.996,-714.355,-43.945,-27.344,1625.269
1685506898.376,-62.012,-724.121,43.457,-41.992,1625.273
1685506898.380,-41.992,138.672,20.020,-45.898,1625.277
1685506898.384,10.254,242.676,-50.293,-31.738,1625.280
1685506898.388,9.277,205.566,-24.414,-33.691,1625.284
1685506898.391,-37.598,231.445,-44.434,-41.504,1625.290
1685506898.395,-59.570,-25.391,-39.062,-44.434,1625.294
1685506898.399,-24.414,-216.309,-5.859,-36.133,1625.297
1685506898.403,13.184,-93.262,19.531,-26.855,1625.301
1685506898.407,-22.949,167.480,-34.180,-38.574,1625.305
1685506898.411,-61.035,-69.824,-53.711,-43.945,1625.309
1685506898.415,-34.668,-479.004,-40.527,-34.180,1625.313
1685506898.418,-0.488,-507.324,18.066,-36.621,1625.317
1685506898.422,-17.578,186.035,1.953,-43.945,1625.321
1685506898.426,-61.035,260.742,-50.293,-46.875,1625.325
1685506898.430,-54.688,-196.777,-53.711,-49.805,1625.329
1685506898.434,-4.883,132.324,-18.066,-32.227,1625.333
1685506898.435,-7.324,373.047,-30.273,-24.414,1625.346
1685506898.439,-63.965,-111.328,-54.199,-55.664,1625.350
1685506898.443,-66.895,-668.945,-38.086,-62.500,1625.354
1685506898.447,0.488,-315.918,-0.488,-36.621,1625.358
1685506898.451,20.508,108.887,-26.367,-40.039,1625.362
1685506898.455,-45.410,-177.246,-69.824,-60.059,1625.366
1685506898.459,-79.102,-855.469,-38.574,-55.176,1625.369
1685506898.462,-30.273,-590.820,63.477,-45.410,1625.373
1685506898.466,17.578,285.156,-0.977,-35.645,1625.377
1685506898.470,-25.879,207.031,-67.383,-42.480,1625.381
1685506898.474,-73.730,-53.711,-25.879,-55.664,1625.385
1685506898.478,-39.062,189.941,-11.230,-41.992,1625.389
1685506898.482,3.418,383.301,-32.715,-27.344,1625.389
1685506898.486,-17.578,117.188,-33.691,-35.645,1625.393
1685506898.490,-69.336,-70.312,-20.020,-48.828,1625.397
1685506898.494,-65.918,83.496,-10.742,-48.340,1625.401
1685506898.498,-17.090,266.113,-24.414,-41.504,1625.405
1685506898.502,-12.695,-106.445,-56.152,-38.086,1625.409
1685506898.506,-62.500,-607.910,-18.555,-44.922,1625.413
1685506898.509,-71.289,-332.031,17.090,-55.176,1625.417
1685506898.513,-20.508,181.641,-5.859,-54.199,1625.420
1685506898.517,2.930,-228.027,-67.383,-41.992,1625.424
1685506898.521,-43.457,-624.512,-24.902,-45.898,1625.428
1685506898.525,-68.848,-7.324,-2.441,-54.199,1625.432
1685506898.540,-20.508,111.328,-30.762,-40.527,1625.436
1685506898.544,24.414,-291.992,-31.250,-28.809,1625.440
1685506898.548,-13.184,-76.660,-14.160,-39.062,1625.444
1685506898.552,-57.617,156.250,-6.836,-49.316,1625.448
1685506898.556,-32.715,36.621,-36.621,-42.480,1625.452
1685506898.560,-1.953,-728.516,-50.781,-23.438,1625.456
1685506898.564,-14.160,-752.930,37.598,-20.996,1625.460
1685506898.567,-53.223,-95.215,11.230,-26.367,1625.463
1685506898.571,-68.359,-184.082,-49.316,-44.922,1625.467
1685506898.575,-24.414,-355.957,-11.230,-49.316,1625.471
1685506898.579,-21.973,68.359,-12.207,-58.594,1625.475
1685506898.583,-66.895,270.508,-60.059,-77.148,1625.479
1685506898.585,-86.914,-141.602,-42.969,-81.055,1625.481
1685506898.589,-59.082,-393.066,18.066,-75.684,1625.485
1685506898.593,-24.414,120.605,-0.488,-62.500,1625.489
1685506898.597,-79.102,250.000,-51.270,-81.543,1625.493
1685506898.601,-112.793,-167.969,-61.523,-100.098,1625.497
1685506898.605,-61.523,-414.062,-28.320,-80.566,1625.501
1685506898.609,-32.715,-219.238,9.766,-67.871,1625.505
1685506898.612,-62.012,150.391,-35.156,-77.637,1625.509
1685506898.616,-109.375,-394.043,-88.867,-81.543,1625.513
1685506898.620,-80.566,-734.375,30.762,-64.453,1625.517
1685506898.624,-21.484,58.594,25.879,-60.059,1625.521
1685506898.628,-33.691,190.918,-71.777,-68.848,1625.524
1685506898.645,-86.426,-577.148,-104.004,-75.195,1625.556
1685506898.649,-83.984,-675.293,-33.691,-64.941,1625.560
1685506898.653,-25.391,87.891,14.160,-45.898,1625.564
1685506898.657,-14.160,233.398,-43.457,-57.129,1625.568
1685506898.661,-69.336,-645.508,-59.570,-64.941,1625.572
1685506898.665,-89.355,-812.012,-2.930,-61.035,1625.576
1685506898.669,-42.969,-145.020,25.879,-55.664,1625.579
1685506898.672,-9.277,68.848,-50.293,-48.828,1625.583
1685506898.676,-47.852,-708.984,-59.082,-49.805,1625.587
1685506898.680,-80.566,-440.430,15.625,-54.688,1625.591
1685506898.684,-41.016,218.750,-28.809,-46.387,1625.595
1685506898.688,2.441,74.219,-58.105,-33.691,1625.599
1685506898.676,-19.531,-20.508,-11.230,-49.805,1625.575
1685506898.680,-66.895,-7.812,-25.391,-70.801,1625.579
1685506898.684,-42.480,-176.758,-36.621,-48.828,1625.583
1685506898.688,23.926,-266.113,-10.742,-22.949,1625.587
1685506898.692,15.625,-199.219,1.953,-35.645,1625.591
1685506898.696,-37.598,-252.930,-35.156,-48.340,1625.595
1685506898.700,-47.852,-387.695,-40.527,-45.898,1625.599
1685506898.703,-8.301,-442.383,-35.156,-31.250,1625.603
1685506898.707,10.254,-278.320,-16.602,-28.809,1625.607
1685506898.711,-30.762,133.301,-19.043,-41.992,1625.611
1685506898.715,-52.734,73.730,-48.340,-29.785,1625.614
1685506898.719,-12.695,-458.008,-76.172,-19.043,1625.618
1685506898.720,20.996,-368.652,-38.086,-23.926,1625.617
1685506898.724,-13.184,-133.301,-20.020,-37.109,1625.621
1685506898.728,-65.430,-134.277,-45.898,-44.434,1625.625
1685506898.732,-48.340,-696.289,-49.805,-35.156,1625.629
1685506898.736,-0.488,-775.391,32.227,-30.273,1625.633
1685506898.740,-11.230,-187.500,-0.488,-43.945,1625.637
1685506898.744,-58.105,-297.852,-62.500,-57.617,1625.641
1685506898.747,-44.922,-878.906,-36.133,-47.852,1625.644
1685506898.751,13.672,-523.438,41.504,-31.738,1625.648
1685506898.755,12.207,264.160,-9.766,-31.250,1625.652
1685506898.759,-52.246,82.031,-66.895,-53.711,1625.656
1685506898.763,-68.359,-94.727,-20.996,-58.594,1625.660
1685506898.765,-3.418,146.973,-20.020,-32.715,1625.661
1685506898.769,34.668,148.926,-40.527,-28.320,1625.665
1685506898.773,-22.461,-87.891,-44.434,-50.293,1625.669
1685506898.777,-67.871,-150.391,-15.137,-55.176,1625.673
1685506898.781,-12.207,63.477,-21.973,-39.062,1625.677
1685506898.785,44.922,38.574,-55.176,-31.250,1625.681
1685506898.789,4.395,-387.207,-68.848,-33.691,1625.685
1685506898.792,-71.777,-793.945,-12.695,-48.828,1625.689
1685506898.796,-52.246,-207.520,14.648,-45.410,1625.693
1685506898.800,10.742,287.598,-48.340,-27.832,1625.697
1685506898.804,0.000,-241.699,-114.746,-17.090,1625.701
1685506898.808,-64.941,-321.289,-56.641,-34.668,1625.704
1685506898.810,-79.102,-17.090,-20.996,-54.688,1625.720
1685506898.814,-29.785,-191.895,-46.875,-44.922,1625.724
1685506898.818,-7.812,-602.051,-59.082,-25.879,1625.728
1685506898.822,-51.758,-384.766,-11.719,-39.551,1625.732
1685506898.826,-71.289,53.223,-25.391,-54.199,1625.736
1685506898.830,-36.133,-236.816,-54.199,-46.875,1625.740
1685506898.834,-16.113,-791.504,-34.180,-46.387,1625.744
1685506898.837,-48.340,-405.273,-5.859,-59.082,1625.747
1685506898.841,-74.219,101.562,-40.527,-56.152,1625.751
1685506898.845,-37.109,-113.770,-69.824,-47.363,1625.755
1685506898.849,6.348,-229.004,-26.367,-35.645,1625.759
1685506898.853,-29.297,36.621,-16.602,-43.457,1625.763
1685506898.871,-80.078,117.676,-45.410,-60.547,1625.772
1685506898.875,-51.758,-173.828,-28.809,-46.875,1625.776
1685506898.879,0.488,-344.727,19.043,-41.016,1625.780
1685506898.883,-4.883,52.734,-19.043,-56.641,1625.784
1685506898.887,-45.898,99.609,-51.270,-62.500,1625.787
1685506898.891,-41.016,-489.746,-44.922,-48.340,1625.791
1685506898.895,-4.395,-655.273,5.371,-40.527,1625.795
1685506898.898,4.883,-9.766,-6.348,-51.270,1625.799
1685506898.902,-45.898,91.797,-62.012,-64.941,1625.803
1685506898.906,-67.383,-425.781,-77.637,-64.941,1625.807
1685506898.910,-16.602,-221.191,-45.410,-50.293,1625.811
1685506898.914,-4.395,208.496,-44.434,-33.203,1625.815
1685506898.915,-59.570,-443.848,-77.148,-30.273,1625.811
1685506898.919,-58.594,-833.496,-34.180,-28.320,1625.815
1685506898.923,1.465,-166.992,25.391,-21.973,1625.819
1685506898.927,9.766,255.371,-38.574,-37.109,1625.823
1685506898.931,-47.852,-344.238,-62.500,-48.340,1625.827
1685506898.935,-77.148,-887.207,-37.598,-41.504,1625.831
1685506898.939,-23.438,-399.414,-15.137,-25.879,1625.835
1685506898.942,23.926,138.184,-34.668,-18.555,1625.838
1685506898.946,-6.348,-409.668,-90.820,-27.832,1625.842
1685506898.950,-48.340,-822.266,-25.879,-24.902,1625.846
1685506898.954,-26.367,-86.914,-13.184,-24.902,1625.850
1685506898.958,16.602,110.352,-54.688,-24.902,1625.854
1685506898.960,0.000,-114.746,-36.133,-24.414,1625.857
1685506898.964,-50.781,-121.094,-28.809,-44.434,1625.861
1685506898.968,-43.457,-190.430,-35.156,-59.570,1625.864
1685506898.972,4.883,-285.156,-25.391,-48.828,1625.868
1685506898.976,3.418,-442.383,-39.551,-28.809,1625.872
1685506898.980,-56.641,-616.211,-61.035,-47.363,1625.876
1685506898.984,-73.242,-461.914,-35.156,-58.105,1625.880
1685506898.987,-20.508,-334.473,-61.523,-27.832,1625.884
1685506898.991,-7.812,-667.480,-43.457,-29.785,1625.888
1685506898.995,-51.270,-437.012,-3.418,-63.965,1625.892
1685506898.999,-67.871,50.781,-47.852,-57.617,1625.896
1685506899.003,-23.438,-147.461,-46.875,-20.996,1625.900
1685506899.005,8.301,-378.418,-39.551,-23.926,1625.902
1685506899.009,-26.367,-265.137,-24.902,-44.922,1625.905
1685506899.013,-65.918,6.348,-44.922,-54.688,1625.909
1685506899.017,-43.457,-406.250,-61.523,-45.898,1625.913
1685506899.021,2.441,-696.289,-25.391,-32.227,1625.917
1685506899.025,-12.207,-285.156,-44.434,-45.410,1625.921
1685506899.029,-54.688,-355.469,-53.223,-58.105,1625.925
1685506899.032,-43.945,-741.699,-43.945,-43.457,1625.929
1685506899.036,-4.395,-856.445,20.508,-34.668,1625.933
1685506899.040,0.488,-152.344,19.043,-47.852,1625.937
1685506899.044,-46.875,20.508,-71.289,-53.223,1625.941
1685506899.048,-66.895,-292.480,-46.875,-39.551,1625.945
1685506899.050,-14.648,-80.078,4.395,-24.902,1625.947
1685506899.054,20.020,250.488,-28.320,-19.531,1625.951
1685506899.058,-29.297,9.766,-76.660,-30.273,1625.955
1685506899.062,-79.102,-306.641,-31.250,-33.691,1625.958
1685506899.066,-45.410,-121.582,-24.414,-20.020,1625.962
1685506899.070,7.812,-135.254,-47.852,-9.766,1625.966
1685506899.074,-16.113,-337.891,-63.965,-23.926,1625.970
1685506899.077,-78.613,-754.395,-50.293,-52.734,1625.974
1685506899.081,-52.246,-559.082,19.043,-51.270,1625.978
1685506899.085,14.160,221.680,-23.926,-41.016,1625.982
1685506899.089,9.277,-25.391,-95.215,-42.480,1625.986
1685506899.093,-35.156,-559.082,-90.820,-40.527,1625.990
1685506899.095,-41.992,-387.207,-20.996,-27.344,1625.992
1685506899.099,6.836,-166.504,-23.926,-11.719,1625.996
1685506899.103,20.020,-418.945,-73.730,-7.812,1625.999
1685506899.107,-27.832,-668.457,-39.062,-18.555,1626.003
1685506899.111,-51.758,-211.914,-16.602,-35.645,1626.007
1685506899.115,-5.371,-72.754,-45.898,-35.156,1626.011
1685506899.119,20.996,-530.273,-57.129,-17.578,1626.015
1685506899.122,-31.738,-738.281,-44.434,-21.484,1626.019
1685506899.126,-67.383,-102.051,-11.719,-38.086,1626.023
1685506899.130,-34.668,35.156,-45.410,-30.762,1626.027
1685506899.134,3.906,-261.719,-26.367,-15.137,1626.031
1685506899.138,-16.113,-180.664,-14.160,-26.855,1626.035
1685506899.158,-55.664,36.133,-45.410,-43.457,1626.065
1685506899.162,-30.762,-93.262,-48.340,-28.809,1626.069
1685506899.166,21.973,-291.992,-18.555,-17.578,1626.073
1685506899.170,10.254,-82.031,-5.859,-22.949,1626.077
1685506899.174,-43.945,49.805,-51.270,-39.062,1626.081
1685506899.178,-44.434,-354.980,-71.289,-41.992,1626.085
1685506899.182,8.301,-750.977,-1.465,-33.203,1626.089
1685506899.185,17.578,-353.027,40.039,-31.738,1626.093
1685506899.189,-27.344,139.648,-31.250,-27.832,1626.097
1685506899.193,-47.852,-180.664,-60.547,-20.020,1626.101
1685506899.197,2.930,-253.906,-34.668,-15.625,1626.105
1685506899.201,29.297,114.746,-22.949,-24.902,1626.108
1685506899.200,-21.484,-50.781,-52.246,-31.738,1626.096
1685506899.204,-64.941,-626.465,-68.359,-33.203,1626.100
1685506899.208,-36.621,-774.414,-10.254,-31.738,1626.104
1685506899.212,10.742,-16.113,29.297,-20.996,1626.108
1685506899.216,-10.254,144.531,-66.895,-25.879,1626.112
1685506899.220,-62.012,-615.723,-57.617,-36.133,1626.116
1685506899.224,-49.805,-634.766,30.273,-27.832,1626.120
1685506899.227,5.859,30.762,-10.742,-20.508,1626.124
1685506899.231,6.348,252.930,-53.711,-29.785,1626.128
1685506899.235,-48.828,-403.320,-93.262,-39.062,1626.132
1685506899.239,-60.059,-1000.000,-6.348,-37.109,1626.136
1685506899.243,-0.488,-308.594,52.734,-39.062,1626.139
1685506899.260,16.602,193.359,-47.363,-40.527,1626.157
1685506899.264,-39.062,-330.078,-37.598,-33.691,1626.161
1685506899.268,-67.871,-369.141,-13.184,-41.016,1626.164
1685506899.272,-12.207,-76.172,-40.039,-38.086,1626.168
1685506899.276,24.414,-146.973,-53.223,-29.785,1626.172
1685506899.280,-19.531,-621.582,-46.875,-37.598,1626.176
1685506899.284,-53.711,-630.859,2.441,-36.133,1626.180
1685506899.287,-32.715,-8.301,7.812,-32.715,1626.184
1685506899.291,14.648,-22.461,-56.641,-24.902,1626.188
1685506899.295,5.859,-603.027,-60.059,-32.227,1626.192
1685506899.299,-48.828,-442.871,7.812,-45.898,1626.196
1685506899.303,-50.293,122.070,-29.297,-44.922,1626.200
