timestamps,TP9,AF7,AF8,TP10,Secondary Timestamp
1685917867.319,3.418,-923.340,-151.367,-22.949,19617.431
1685917867.323,18.555,167.969,276.367,-25.879,19617.435
1685917867.327,-23.926,191.406,184.570,-36.621,19617.439
1685917867.331,-43.945,38.086,173.340,-31.738,19617.443
1685917867.335,9.277,339.844,260.254,-18.555,19617.446
1685917867.339,19.043,229.004,237.793,-22.949,19617.450
1685917867.342,-41.016,-257.324,83.496,-37.598,19617.454
1685917867.346,-65.430,-556.641,11.230,-36.621,19617.458
1685917867.350,-20.020,192.383,294.434,-25.879,19617.462
1685917867.354,10.742,504.395,306.152,-15.625,19617.466
1685917867.358,-23.438,46.875,136.230,-27.832,19617.470
1685917867.362,-69.336,77.148,187.988,-41.016,19617.474
1685917867.364,-41.504,301.270,258.301,-31.250,19617.466
1685917867.368,9.277,103.516,168.945,-28.320,19617.470
1685917867.372,-7.812,-332.031,30.273,-24.414,19617.474
1685917867.376,-49.805,-28.320,185.547,-34.668,19617.478
1685917867.380,-50.781,312.012,287.598,-41.992,19617.482
1685917867.384,-7.324,22.461,187.012,-28.320,19617.486
1685917867.387,-5.371,-660.156,-74.707,-25.879,19617.489
1685917867.391,-55.176,-561.523,68.359,-32.227,19617.493
1685917867.395,-66.406,268.066,296.387,-37.109,19617.497
1685917867.399,-16.113,209.961,215.820,-26.855,19617.501
1685917867.403,7.812,-152.344,186.523,-23.926,19617.505
1685917867.407,-31.738,233.887,276.367,-47.363,19617.509
1685917867.424,-64.453,373.047,246.094,-45.898,19617.523
1685917867.428,-20.996,154.785,199.219,-19.043,19617.527
1685917867.432,21.973,237.793,271.973,-18.066,19617.531
1685917867.436,-25.879,172.852,220.215,-31.738,19617.535
1685917867.440,-77.637,98.633,235.352,-41.504,19617.539
1685917867.444,-51.270,-230.469,99.609,-38.086,19617.543
1685917867.447,-3.418,-854.980,-106.445,-26.367,19617.547
1685917867.451,-10.254,-54.199,224.121,-34.180,19617.551
1685917867.455,-51.758,372.070,267.578,-44.434,19617.554
1685917867.459,-51.758,-60.059,122.559,-31.738,19617.558
1685917867.463,-0.488,189.941,270.996,-14.648,19617.562
1685917867.467,20.508,527.832,340.332,-17.090,19617.566
1685917867.468,-38.574,267.578,207.031,-37.598,19617.567
1685917867.472,-64.941,-125.000,111.328,-37.109,19617.571
1685917867.476,-9.277,152.344,260.254,-22.461,19617.575
1685917867.480,12.207,499.023,342.773,-31.250,19617.579
1685917867.484,-33.691,261.719,232.910,-41.504,19617.583
1685917867.488,-64.453,-402.344,49.316,-32.715,19617.587
1685917867.491,-27.344,-352.539,115.723,-23.926,19617.591
1685917867.495,8.301,-28.809,228.516,-23.438,19617.595
1685917867.499,-16.602,-98.633,190.430,-33.203,19617.599
1685917867.503,-63.477,-847.656,-178.223,-34.668,19617.603
1685917867.507,-52.734,-747.559,-67.383,-28.320,19617.606
1685917867.511,15.137,329.102,338.867,-28.809,19617.610
1685917867.514,3.906,380.371,251.465,-35.645,19617.615
1685917867.518,-57.129,146.484,239.258,-39.551,19617.619
1685917867.522,-45.898,277.832,272.461,-21.484,19617.623
1685917867.526,7.324,395.996,269.043,-8.789,19617.627
1685917867.530,2.930,224.609,229.004,-26.367,19617.631
1685917867.534,-41.992,-173.828,145.996,-32.715,19617.634
1685917867.537,-52.246,-232.910,126.465,-26.855,19617.638
1685917867.541,-12.207,250.977,287.109,-20.996,19617.642
1685917867.545,10.742,-103.027,137.695,-18.066,19617.646
1685917867.549,-32.227,-836.914,-82.031,-24.414,19617.650
1685917867.553,-64.453,-45.898,228.027,-29.297,19617.654
1685917867.557,-27.344,347.656,268.066,-18.555,19617.658
1685917867.558,17.578,68.359,180.664,-10.254,19617.657
1685917867.562,-8.301,260.254,290.527,-24.902,19617.661
1685917867.566,-57.617,375.488,287.109,-37.598,19617.665
1685917867.570,-50.293,224.121,225.098,-33.203,19617.669
1685917867.574,1.465,33.691,199.219,-23.926,19617.673
1685917867.578,6.836,-58.594,193.359,-26.367,19617.677
1685917867.581,-47.852,-105.469,181.152,-41.504,19617.681
1685917867.585,-68.848,-189.941,153.320,-39.551,19617.685
1685917867.589,-26.367,-817.871,-63.477,-29.785,19617.689
1685917867.593,-9.277,-568.848,87.402,-34.180,19617.692
1685917867.597,-38.086,317.383,281.250,-31.250,19617.696
1685917867.601,-58.594,-1.465,162.109,-23.438,19617.700
1685917867.604,-22.461,-174.805,251.953,-19.043,19617.705
1685917867.608,12.207,442.871,352.051,-22.461,19617.709
1685917867.612,-23.438,575.684,295.410,-38.086,19617.713
1685917867.616,-66.895,142.578,179.199,-49.316,19617.717
1685917867.620,-36.133,83.008,238.770,-38.574,19617.720
1685917867.624,8.301,102.051,247.070,-27.344,19617.724
1685917867.627,-16.602,190.918,258.789,-29.785,19617.728
1685917867.631,-62.012,-171.387,112.305,-30.273,19617.732
1685917867.635,-55.664,-559.570,37.109,-21.973,19617.736
1685917867.639,0.977,312.988,331.055,-15.625,19617.740
1685917867.643,2.441,566.406,330.566,-24.902,19617.744
1685917867.647,-56.152,72.754,159.668,-41.016,19617.748
1685917867.649,-63.965,158.203,230.957,-39.551,19617.751
1685917867.653,-8.301,353.027,293.945,-28.320,19617.755
1685917867.657,18.066,28.320,155.762,-24.414,19617.759
1685917867.661,-25.391,-431.152,11.719,-29.785,19617.763
1685917867.665,-51.270,-183.594,162.598,-28.320,19617.766
1685917867.669,-5.859,-28.320,215.332,-10.254,19617.770
1685917867.672,36.621,-105.957,204.102,-6.836,19617.774
1685917867.676,1.465,-735.840,-96.680,-14.648,19617.778
1685917867.680,-52.246,-694.336,-27.344,-31.738,19617.782
1685917867.684,-29.297,241.699,308.105,-39.551,19617.786
1685917867.688,26.367,335.938,291.016,-26.855,19617.790
1685917867.692,9.766,235.352,291.992,-33.203,19617.794
1685917867.694,-43.945,379.883,290.039,-46.875,19617.806
1685917867.698,-44.922,350.586,275.391,-43.457,19617.810
1685917867.702,-0.488,188.477,229.492,-30.273,19617.814
1685917867.706,-2.441,217.773,238.770,-35.156,19617.818
1685917867.710,-46.875,80.078,170.898,-46.875,19617.822
1685917867.714,-66.406,-118.164,155.273,-48.828,19617.826
1685917867.717,-21.973,-345.703,107.422,-32.227,19617.830
1685917867.721,13.672,-830.078,-16.113,-24.902,19617.834
1685917867.725,-9.766,-69.824,231.934,-33.691,19617.838
1685917867.729,-31.738,340.332,260.254,-30.273,19617.842
1685917867.733,-8.301,-26.855,147.949,-24.414,19617.845
1685917867.737,23.438,290.039,270.508,-29.297,19617.849
1685917867.738,-12.207,370.117,268.066,-51.270,19617.851
1685917867.742,-64.941,58.105,161.133,-56.152,19617.855
1685917867.746,-39.062,-123.535,122.559,-33.203,19617.859
1685917867.750,18.066,231.445,276.367,-20.020,19617.863
1685917867.754,2.441,387.695,290.527,-28.809,19617.867
1685917867.758,-59.082,-132.812,105.957,-41.504,19617.871
1685917867.761,-66.895,-858.887,-212.891,-38.574,19617.875
1685917867.765,-4.883,-737.793,-33.203,-22.949,19617.878
1685917867.769,15.625,212.891,344.727,-32.715,19617.882
1685917867.773,-34.180,225.586,214.844,-48.828,19617.886
1685917867.777,-64.453,-519.043,17.578,-43.945,19617.890
1685917867.781,-11.719,44.434,239.258,-19.043,19617.894
1685917867.799,27.344,585.938,324.219,-9.766,19617.899
1685917867.803,-29.785,256.836,190.918,-38.574,19617.903
1685917867.807,-73.730,106.445,226.074,-47.852,19617.907
1685917867.811,-31.738,313.477,293.945,-29.297,19617.911
1685917867.815,12.695,439.453,289.551,-27.344,19617.914
1685917867.819,-14.648,-35.645,153.809,-43.945,19617.918
1685917867.822,-64.941,-402.344,97.656,-49.805,19617.922
1685917867.826,-48.340,120.605,247.559,-41.504,19617.926
1685917867.830,11.230,409.180,270.508,-25.391,19617.930
1685917867.834,-1.953,-162.109,127.441,-25.879,19617.934
1685917867.838,-60.547,-386.230,150.391,-34.180,19617.938
1685917867.842,-50.293,168.457,250.977,-22.949,19617.942
1685917867.843,-2.441,236.816,204.102,-15.625,19617.942
1685917867.847,2.441,-144.531,68.848,-29.785,19617.946
1685917867.851,-48.828,-18.555,165.039,-47.363,19617.950
1685917867.855,-79.102,236.328,230.957,-46.875,19617.954
1685917867.859,-23.926,100.586,179.688,-28.320,19617.958
1685917867.863,12.207,-254.883,93.262,-21.484,19617.962
1685917867.866,-34.668,-387.695,68.359,-34.180,19617.966
1685917867.870,-76.172,-208.008,118.652,-45.898,19617.970
1685917867.874,-25.879,-29.297,151.367,-10.742,19617.973
1685917867.878,32.715,-751.953,-96.191,10.254,19617.977
1685917867.882,-20.020,-509.766,102.539,-38.086,19617.981
1685917867.886,-83.984,174.805,232.910,-61.523,19617.985
1685917867.893,-62.012,-206.543,61.035,-41.016,19618.002
1685917867.897,11.230,-284.180,118.164,-5.859,19618.006
1685917867.901,20.020,257.324,247.070,-9.766,19618.009
1685917867.905,-39.551,298.828,196.777,-33.691,19618.013
1685917867.909,-49.316,-119.141,83.984,-14.160,19618.017
1685917867.913,1.465,-300.293,83.008,12.695,19618.021
1685917867.916,32.715,-39.551,173.828,28.320,19618.025
1685917867.920,-3.906,262.207,229.004,21.484,19618.029
1685917867.924,-39.551,-329.102,-48.340,17.578,19618.033
1685917867.928,5.371,-622.070,-50.781,41.016,19618.037
1685917867.932,50.781,246.094,300.293,47.852,19618.041
1685917867.936,20.508,365.723,217.285,41.992,19618.045
1685917867.933,-24.414,-138.672,47.852,41.504,19618.033
1685917867.937,-0.488,39.551,169.922,41.504,19618.036
1685917867.941,60.059,242.676,240.234,55.664,19618.040
1685917867.945,49.805,-54.199,131.348,58.105,19618.044
1685917867.949,-1.953,-565.430,-129.395,47.852,19618.048
1685917867.953,2.930,-481.445,0.000,49.316,19618.052
1685917867.956,53.711,-67.383,211.426,67.383,19618.056
1685917867.960,53.223,-119.141,145.996,63.477,19618.060
1685917867.964,-2.930,-716.797,-107.910,52.734,19618.064
1685917867.968,-8.301,-330.078,75.684,51.270,19618.068
1685917867.972,40.527,466.309,334.961,50.781,19618.072
1685917867.976,59.570,192.383,168.945,51.758,19618.076
1685917867.994,2.930,-463.379,3.906,34.668,19618.095
1685917867.998,-37.109,24.902,206.055,34.668,19618.099
1685917868.002,5.859,417.969,271.973,51.270,19618.103
1685917868.006,50.293,238.770,205.078,52.246,19618.107
1685917868.010,16.113,221.680,222.656,29.297,19618.111
1685917868.014,-44.922,5.859,154.785,-0.977,19618.115
1685917868.017,-24.414,-75.195,149.902,10.742,19618.119
1685917868.021,34.180,-254.883,103.027,13.672,19618.123
1685917868.025,24.414,-786.133,-94.727,14.160,19618.127
1685917868.029,-33.691,-93.262,164.062,15.137,19618.130
1685917868.033,-40.527,347.656,259.277,9.766,19618.134
1685917868.037,27.344,100.586,171.875,23.926,19618.138
1685917868.023,40.527,385.254,286.621,10.254,19618.122
1685917868.027,-15.625,574.707,293.457,-4.883,19618.126
1685917868.031,-40.039,260.254,173.828,2.930,19618.130
1685917868.035,1.465,66.895,143.066,4.395,19618.134
1685917868.039,28.809,237.793,227.051,7.812,19618.138
1685917868.043,-15.625,113.281,182.617,6.348,19618.142
1685917868.046,-49.805,-190.430,99.121,0.000,19618.146
1685917868.050,-11.719,-398.926,75.684,8.301,19618.150
1685917868.054,33.691,-20.020,194.336,16.602,19618.154
1685917868.058,8.301,460.938,299.805,0.488,19618.158
1685917868.062,-46.387,259.277,203.613,-16.113,19618.161
1685917868.066,-37.598,-826.660,-226.562,-3.418,19618.165
1685917868.083,19.531,-838.379,-123.047,13.184,19618.182
1685917868.087,20.020,292.969,297.363,-6.836,19618.186
1685917868.091,-40.039,209.473,140.137,-19.531,19618.190
1685917868.095,-48.828,-28.320,175.293,-8.301,19618.194
1685917868.099,9.277,363.281,291.992,0.488,19618.198
1685917868.103,27.344,351.074,249.512,5.371,19618.202
1685917868.106,-30.273,-179.199,82.031,-4.395,19618.206
1685917868.110,-59.082,-489.258,30.273,-5.859,19618.209
1685917868.114,-4.883,320.312,298.828,6.348,19618.213
1685917868.118,22.461,658.691,297.852,4.395,19618.217
1685917868.122,-22.949,54.688,109.863,-15.625,19618.221
1685917868.126,-51.270,63.477,179.688,-13.672,19618.225
1685917868.113,-18.555,518.555,303.711,4.395,19618.226
1685917868.117,28.320,497.559,249.512,5.859,19618.230
1685917868.121,6.836,40.527,87.891,-14.648,19618.234
1685917868.125,-45.898,152.832,166.016,-29.297,19618.238
1685917868.129,-32.227,314.453,230.469,-14.648,19618.242
1685917868.133,12.695,51.758,148.926,-2.441,19618.246
1685917868.136,2.930,-621.094,-115.723,-8.789,19618.250
1685917868.140,-48.828,-560.059,28.320,-30.762,19618.254
1685917868.144,-62.988,326.172,302.734,-32.227,19618.257
1685917868.148,-11.719,272.949,191.895,-10.254,19618.261
1685917868.152,13.184,-517.578,-15.137,-7.812,19618.265
1685917868.156,-35.645,-43.945,170.410,-32.715,19618.269
1685917868.173,-65.430,251.465,169.922,-36.621,19618.272
1685917868.177,-19.043,-137.695,104.492,-7.324,19618.276
1685917868.181,22.461,-33.691,240.723,-9.766,19618.280
1685917868.185,-15.625,370.605,257.812,-48.340,19618.284
1685917868.189,-66.895,394.531,206.543,-56.641,19618.288
1685917868.193,-44.922,-166.504,95.703,-37.598,19618.292
1685917868.196,9.766,-237.305,123.047,-30.273,19618.296
1685917868.200,5.371,367.188,262.207,-33.203,19618.299
1685917868.204,-46.875,436.035,228.027,-49.805,19618.303
1685917868.208,-44.434,-136.719,20.996,-48.340,19618.307
1685917868.212,9.766,-74.219,144.531,-24.902,19618.311
1685917868.216,17.090,505.371,294.922,-21.484,19618.315
1685917868.218,-41.016,363.770,174.805,-28.809,19618.317
1685917868.222,-69.824,-42.969,62.988,-24.414,19618.321
1685917868.226,-7.324,198.242,176.270,-7.324,19618.325
1685917868.230,27.344,320.312,224.121,-12.207,19618.329
1685917868.234,-25.391,-34.668,104.492,-34.180,19618.333
1685917868.238,-74.707,-734.863,-241.699,-34.180,19618.337
1685917868.241,-38.574,-687.988,-106.445,-16.602,19618.341
1685917868.245,14.160,147.949,245.605,-15.625,19618.345
1685917868.249,-22.461,219.727,142.090,-32.227,19618.348
1685917868.253,-69.336,-668.945,-197.266,-32.715,19618.352
1685917868.257,-35.156,-227.539,80.078,-28.809,19618.356
1685917868.261,19.531,543.945,302.734,-22.461,19618.360
1685917868.264,4.395,284.668,145.996,-21.973,19618.364
1685917868.268,-39.551,103.516,159.180,-29.297,19618.368
1685917868.272,-35.645,270.508,206.055,-25.879,19618.372
1685917868.276,11.719,457.520,242.676,-19.043,19618.376
1685917868.280,9.277,261.719,143.555,-30.762,19618.380
1685917868.284,-45.410,-160.645,44.434,-39.062,19618.384
1685917868.287,-59.570,-250.000,54.199,-30.273,19618.388
1685917868.291,-3.906,103.516,197.754,-18.066,19618.392
1685917868.295,18.066,-113.770,64.453,-13.184,19618.395
1685917868.299,-38.086,-832.520,-228.516,-25.391,19618.399
1685917868.303,-59.570,-131.348,90.820,-35.645,19618.403
1685917868.307,-19.531,346.680,228.516,-16.113,19618.407
1685917868.323,15.625,-3.906,81.543,-11.719,19618.423
1685917868.327,-2.930,207.031,175.293,-26.855,19618.427
1685917868.331,-47.363,366.211,194.824,-27.344,19618.431
1685917868.335,-39.062,153.809,122.559,-17.090,19618.434
1685917868.339,12.695,3.906,107.910,-5.859,19618.438
1685917868.343,16.113,-21.973,127.441,-4.395,19618.442
1685917868.346,-41.504,-118.164,80.566,-19.531,19618.446
1685917868.350,-62.500,-220.703,61.035,-20.996,19618.450
1685917868.354,-24.414,-840.820,-248.535,0.488,19618.454
1685917868.358,-11.230,-935.059,-250.000,-2.930,19618.458
1685917868.362,-46.875,92.773,178.711,-28.320,19618.462
1685917868.366,-70.312,268.555,184.082,-37.598,19618.466
1685917868.354,-28.320,150.391,182.617,-24.414,19618.455
1685917868.358,5.371,489.746,273.926,-26.367,19618.459
1685917868.362,-30.762,516.602,208.008,-46.875,19618.463
1685917868.366,-72.754,134.277,66.895,-55.664,19618.467
1685917868.370,-35.645,67.871,146.484,-34.668,19618.471
1685917868.374,27.832,107.910,187.012,-10.254,19618.474
1685917868.377,-22.949,-21.484,101.562,-42.969,19618.478
1685917868.381,-90.332,-192.871,58.105,-70.312,19618.482
1685917868.385,-55.664,-72.266,142.578,-47.363,19618.486
1685917868.389,12.207,366.699,237.793,-20.020,19618.490
1685917868.393,14.160,479.492,244.141,-26.855,19618.494
1685917868.397,-42.480,-361.816,-144.531,-31.250,19618.498
1685917868.398,-70.312,-825.195,-217.773,-23.438,19618.497
1685917868.402,-14.160,180.664,256.348,-15.137,19618.501
1685917868.406,16.113,470.215,248.047,-14.648,19618.505
1685917868.410,-32.227,55.176,71.777,-23.926,19618.509
1685917868.414,-66.406,64.941,103.027,-30.273,19618.513
1685917868.418,-20.996,18.555,117.676,-19.531,19618.517
1685917868.421,20.508,-37.598,110.352,-13.672,19618.521
1685917868.425,-31.250,-724.609,-265.625,-35.645,19618.525
1685917868.429,-79.590,-717.773,-143.555,-49.805,19618.528
1685917868.433,-41.016,250.977,248.047,-37.109,19618.532
1685917868.437,12.207,377.930,194.824,-20.508,19618.536
1685917868.441,0.000,230.957,176.758,-24.902,19618.540
1685917868.444,-52.246,320.801,162.109,-35.156,19618.545
1685917868.448,-53.223,312.012,154.297,-27.832,19618.549
1685917868.452,7.812,-15.137,75.684,-15.137,19618.553
1685917868.456,12.207,-75.684,117.676,-26.367,19618.557
1685917868.460,-36.621,241.211,196.777,-44.922,19618.561
1685917868.464,-55.664,65.918,96.191,-34.180,19618.565
1685917868.467,-14.648,-374.512,3.418,-25.391,19618.569
1685917868.471,16.113,-462.891,21.484,-30.273,19618.572
1685917868.475,-22.461,260.254,226.562,-41.016,19618.576
1685917868.479,-64.941,389.648,182.617,-51.758,19618.580
1685917868.483,-31.738,17.090,82.031,-39.551,19618.584
1685917868.487,12.695,260.742,204.590,-25.879,19618.588
1685917868.488,-14.648,524.902,244.141,-35.645,19618.601
1685917868.492,-63.965,250.000,120.605,-49.316,19618.605
1685917868.496,-48.828,-63.477,41.016,-41.504,19618.609
1685917868.500,13.184,235.840,173.828,-27.344,19618.613
1685917868.504,8.789,307.129,179.199,-34.180,19618.617
1685917868.508,-43.945,-124.023,41.016,-57.129,19618.621
1685917868.511,-53.711,-846.191,-317.383,-39.062,19618.625
1685917868.515,-7.324,-772.949,-157.715,-18.066,19618.629
1685917868.519,10.742,213.379,253.906,-24.902,19618.633
1685917868.523,-41.992,195.312,85.938,-41.016,19618.636
1685917868.527,-69.336,-309.570,-0.977,-44.922,19618.640
1685917868.531,-20.508,213.379,203.125,-20.508,19618.644
1685917868.549,8.789,581.543,222.656,-15.137,19618.649
1685917868.553,-39.062,213.379,98.145,-36.133,19618.653
1685917868.557,-80.566,44.434,106.445,-48.340,19618.657
1685917868.561,-47.363,305.176,188.965,-29.297,19618.661
1685917868.565,-0.488,466.309,219.238,-13.672,19618.665
1685917868.569,-23.926,-1.953,55.664,-34.180,19618.668
1685917868.572,-74.219,-465.820,-85.449,-44.434,19618.672
1685917868.576,-60.547,-186.523,84.473,-33.691,19618.676
1685917868.580,-6.348,312.500,222.168,-24.902,19618.680
1685917868.584,-8.789,-73.730,-21.973,-17.090,19618.684
1685917868.588,-57.129,-514.648,-84.961,-26.855,19618.688
1685917868.592,-61.523,107.422,142.578,-31.250,19618.692
1685917868.593,-11.719,205.566,105.469,-9.766,19618.692
1685917868.597,3.906,-10.742,52.246,-6.836,19618.696
1685917868.601,-41.016,163.574,119.141,-24.902,19618.700
1685917868.605,-62.988,280.762,155.273,-25.879,19618.704
1685917868.609,-23.438,160.156,125.488,-17.578,19618.708
1685917868.613,4.883,-164.551,34.180,-7.812,19618.712
1685917868.616,-23.438,-225.586,43.457,-25.879,19618.716
1685917868.620,-61.035,-60.059,71.777,-34.668,19618.720
1685917868.624,-37.109,108.398,123.047,-16.113,19618.723
1685917868.628,9.277,-741.211,-264.160,-0.488,19618.727
1685917868.632,-15.625,-785.156,-192.383,-12.207,19618.731
1685917868.636,-69.336,199.707,171.875,-35.645,19618.735
1685917868.639,-58.105,235.840,108.887,-26.367,19618.740
1685917868.643,-6.348,195.801,179.199,-16.602,19618.744
1685917868.647,-5.859,429.688,211.426,-41.016,19618.748
1685917868.651,-55.176,384.766,133.789,-48.340,19618.752
1685917868.655,-63.965,19.043,36.621,-41.016,19618.756
1685917868.659,-16.113,-220.703,32.715,-27.344,19618.759
1685917868.662,6.348,-41.992,96.191,-19.531,19618.763
1685917868.666,-34.668,301.758,155.762,-27.832,19618.767
1685917868.670,-62.012,-224.121,-90.332,-33.203,19618.771
1685917868.674,-30.762,-558.594,-96.191,-27.832,19618.775
1685917868.678,11.719,307.617,217.285,-31.738,19618.779
1685917868.682,-28.320,370.605,129.395,-49.316,19618.783
1685917868.690,-75.684,-290.039,-138.672,-52.246,19618.792
1685917868.694,-43.945,-21.484,46.387,-38.574,19618.796
1685917868.698,3.906,501.953,235.352,-36.133,19618.799
1685917868.702,-16.602,351.074,115.234,-46.387,19618.803
1685917868.706,-88.379,-259.766,-134.277,-60.547,19618.807
1685917868.710,-82.031,-330.566,-76.660,-58.594,19618.811
1685917868.713,-24.414,-40.527,93.750,-45.898,19618.815
1685917868.717,-25.391,-52.734,43.457,-53.711,19618.819
1685917868.721,-72.754,-793.945,-344.238,-50.293,19618.823
1685917868.725,-85.449,-690.918,-180.664,-41.992,19618.827
1685917868.729,-25.879,296.875,209.473,-38.086,19618.831
1685917868.733,4.883,359.863,131.348,-42.480,19618.835
1685917868.729,-35.645,161.133,132.324,-63.477,19618.830
1685917868.733,-66.895,293.457,145.996,-62.500,19618.834
1685917868.737,-30.273,272.461,121.094,-44.434,19618.837
1685917868.741,2.930,24.902,69.824,-32.227,19618.841
1685917868.745,-21.973,13.184,102.539,-37.598,19618.845
1685917868.749,-62.988,-50.293,21.973,-45.410,19618.849
1685917868.752,-41.992,-27.344,41.992,-36.621,19618.853
1685917868.756,11.230,-194.336,-6.836,-20.996,19618.857
1685917868.760,0.977,-807.129,-283.203,-17.578,19618.861
1685917868.764,-48.340,-92.773,30.273,-38.574,19618.865
1685917868.768,-52.246,362.793,159.668,-38.086,19618.869
1685917868.772,-3.418,10.254,13.672,-19.531,19618.873
1685917868.773,6.836,237.305,145.020,-28.809,19618.872
1685917868.777,-35.645,470.215,175.781,-38.574,19618.876
1685917868.781,-58.105,246.582,79.102,-31.738,19618.880
1685917868.785,-5.859,25.879,32.227,0.488,19618.884
1685917868.789,22.949,158.203,99.121,3.906,19618.888
1685917868.793,-47.363,17.578,57.617,-42.969,19618.892
1685917868.796,-90.332,-206.543,-23.926,-59.570,19618.896
1685917868.800,-53.711,-830.566,-358.887,-35.156,19618.900
1685917868.804,-16.113,-973.633,-356.445,-29.785,19618.903
1685917868.808,-41.016,30.762,73.242,-57.129,19618.907
1685917868.812,-82.520,264.160,100.098,-68.359,19618.911
1685917868.816,-68.359,95.215,83.984,-55.664,19618.915
1685917868.819,-6.836,423.340,181.152,-35.645,19618.931
1685917868.823,-3.418,511.230,151.367,-35.645,19618.935
1685917868.827,-65.918,103.516,-13.184,-54.688,19618.939
1685917868.831,-69.824,26.855,54.688,-45.898,19618.943
1685917868.835,-9.766,344.727,155.273,-28.809,19618.947
1685917868.839,3.418,208.984,82.031,-35.645,19618.951
1685917868.842,-48.340,-260.742,-97.168,-41.504,19618.955
1685917868.846,-81.055,-584.961,-150.879,-54.688,19618.959
1685917868.850,-32.227,-103.516,72.266,-39.062,19618.962
1685917868.854,0.977,405.762,159.668,-29.785,19618.966
1685917868.858,-41.504,-23.926,-53.711,-47.852,19618.970
1685917868.862,-80.566,-166.992,-12.207,-52.246,19618.974
1685917868.863,-46.387,279.785,140.625,-40.527,19618.976
1685917868.867,-4.395,355.957,115.723,-28.320,19618.980
1685917868.871,-25.391,56.641,0.000,-48.340,19618.984
1685917868.875,-68.848,122.070,44.922,-55.176,19618.988
1685917868.879,-69.336,174.805,112.305,-39.551,19618.992
1685917868.883,-21.973,-107.910,25.879,-30.762,19618.996
1685917868.886,-15.625,-750.000,-324.219,-31.738,19618.999
1685917868.890,-61.035,-666.016,-181.641,-44.434,19619.003
1685917868.894,-64.453,193.848,169.434,-49.805,19619.007
1685917868.898,-8.301,252.441,92.773,-29.785,19619.011
1685917868.902,9.766,-62.012,13.672,-14.160,19619.015
1685917868.906,-36.621,82.520,79.590,-31.738,19619.019
1685917868.923,-65.918,332.520,126.465,-36.133,19619.023
1685917868.927,-24.902,126.465,43.457,-13.184,19619.027
1685917868.931,10.254,-84.961,-8.789,-11.230,19619.031
1685917868.935,-21.484,252.441,109.863,-21.484,19619.035
1685917868.939,-71.289,384.277,134.766,-36.621,19619.039
1685917868.943,-53.223,-169.922,-44.922,-30.273,19619.043
1685917868.946,3.418,-414.551,-63.965,-12.207,19619.047
1685917868.950,-12.207,221.680,127.930,-26.367,19619.051
1685917868.954,-67.871,354.980,102.051,-41.016,19619.054
1685917868.958,-59.570,-190.918,-83.984,-33.203,19619.058
1685917868.962,-1.953,-100.098,47.852,-12.207,19619.062
1685917868.966,-4.395,457.031,224.121,-19.531,19619.066
1685917868.968,-60.547,223.145,41.992,-32.715,19619.067
1685917868.972,-78.613,-376.465,-244.629,-23.438,19619.071
1685917868.976,-18.555,-62.988,-20.996,-19.531,19619.075
1685917868.980,10.254,455.566,203.613,-25.391,19619.079
1685917868.984,-39.062,226.074,38.086,-32.227,19619.083
1685917868.988,-79.102,-685.547,-344.727,-30.273,19619.087
1685917868.991,-41.504,-622.070,-178.711,-20.508,19619.090
1685917868.995,10.254,11.230,118.652,-23.438,19619.094
1685917868.999,-21.484,54.199,31.738,-42.969,19619.098
1685917869.003,-71.289,-719.238,-317.871,-41.016,19619.102
1685917869.007,-44.922,-375.488,-57.617,-25.879,19619.106
1685917869.011,7.324,458.984,212.402,-26.367,19619.110
1685917869.014,-8.301,254.395,80.566,-41.504,19619.115
1685917869.018,-73.242,66.406,85.449,-57.617,19619.119
1685917869.022,-77.148,247.559,109.375,-53.711,19619.123
1685917869.026,-21.973,290.039,125.977,-37.109,19619.126
1685917869.030,-6.348,-16.113,-0.977,-38.086,19619.130
1685917869.034,-54.199,-409.668,-124.512,-50.293,19619.134
1685917869.037,-78.125,-178.711,29.297,-43.457,19619.138
1685917869.041,-29.297,345.703,171.875,-25.879,19619.142
1685917869.045,0.000,-61.035,-35.156,-23.926,19619.146
1685917869.049,-37.598,-495.117,-107.422,-37.109,19619.150
1685917869.053,-63.477,150.879,140.137,-39.551,19619.154
1685917869.057,-25.879,356.445,129.883,-27.344,19619.158
1685917869.058,15.137,60.059,14.648,-21.973,19619.157
1685917869.062,-14.160,187.012,77.637,-34.180,19619.161
1685917869.066,-64.941,344.238,132.324,-40.039,19619.165
1685917869.070,-40.039,188.477,75.684,-27.344,19619.169
1685917869.074,14.648,-57.617,-0.977,-15.625,19619.173
1685917869.078,2.441,-145.508,-31.738,-18.555,19619.177
1685917869.081,-41.504,-169.434,-27.344,-35.645,19619.181
1685917869.085,-49.805,-238.770,-59.570,-39.062,19619.185
1685917869.089,-9.766,-825.684,-352.539,-20.996,19619.189
1685917869.093,1.465,-962.891,-364.258,-10.254,19619.193
1685917869.097,-40.527,-25.879,36.133,-25.879,19619.196
1685917869.101,-60.059,217.773,70.801,-31.250,19619.200
1685917869.104,-12.207,112.793,58.105,-21.484,19619.217
1685917869.108,25.879,437.988,170.410,-21.484,19619.221
1685917869.112,-18.066,452.637,116.211,-30.273,19619.224
1685917869.116,-67.383,60.547,-33.691,-39.551,19619.228
1685917869.120,-33.203,48.828,53.223,-28.809,19619.232
1685917869.124,22.949,78.125,60.059,-19.043,19619.236
1685917869.127,-1.953,31.250,27.832,-33.203,19619.240
1685917869.131,-62.500,-256.836,-134.277,-42.969,19619.244
1685917869.135,-51.758,-586.914,-174.316,-24.414,19619.248
1685917869.139,-1.465,-8.789,95.703,-15.625,19619.252
1685917869.143,-2.441,419.434,150.879,-23.438,19619.256
1685917869.147,-49.316,-127.930,-106.934,-28.320,19619.260
1685917869.148,-56.152,-142.578,-19.043,-20.996,19619.247
1685917869.152,-2.441,425.293,201.172,-15.137,19619.251
1685917869.156,10.254,410.156,126.465,-25.879,19619.255
1685917869.160,-39.551,65.918,-8.301,-40.527,19619.259
1685917869.164,-68.848,41.992,15.137,-40.039,19619.263
1685917869.168,-35.156,-11.230,28.320,-33.691,19619.267
1685917869.171,-3.418,-133.301,-19.043,-33.691,19619.271
1685917869.175,-39.551,-724.121,-340.820,-45.410,19619.275
1685917869.179,-73.730,-525.391,-194.336,-58.594,19619.279
1685917869.183,-38.086,361.328,183.594,-41.992,19619.283
1685917869.187,7.812,228.516,36.133,-22.461,19619.286
1685917869.191,-14.160,-526.367,-238.770,-33.203,19619.290
1685917869.195,-68.848,-125.000,-16.113,-48.828,19619.306
1685917869.199,-62.500,412.598,145.020,-36.621,19619.310
1685917869.203,-0.488,107.910,-26.367,-20.020,19619.314
1685917869.207,2.441,-101.074,-55.664,-26.367,19619.318
1685917869.211,-50.293,198.242,83.496,-42.480,19619.321
1685917869.215,-62.988,131.836,33.203,-48.828,19619.325
1685917869.218,-25.879,-304.688,-82.520,-30.762,19619.329
1685917869.222,-1.953,-459.961,-69.336,-16.602,19619.333
1685917869.226,-32.715,166.504,96.191,-37.598,19619.337
1685917869.230,-63.965,304.199,69.824,-45.898,19619.341
1685917869.234,-26.367,-3.418,-57.129,-30.762,19619.345
1685917869.238,17.090,209.473,65.918,-27.832,19619.349
1685917869.239,-6.836,467.285,169.922,-41.992,19619.351
1685917869.243,-59.082,193.848,14.160,-52.246,19619.355
1685917869.247,-53.711,-291.016,-192.383,-36.621,19619.359
1685917869.251,-0.488,93.262,56.152,-22.461,19619.363
1685917869.255,-0.977,362.793,150.879,-26.855,19619.367
1685917869.259,-49.805,-127.930,-124.023,-27.832,19619.371
1685917869.262,-59.570,-880.859,-455.078,-19.043,19619.374
1685917869.266,-11.719,-685.059,-203.125,-16.113,19619.378
1685917869.270,10.254,343.262,177.246,-26.367,19619.382
1685917869.274,-35.645,290.039,10.742,-35.645,19619.386
1685917869.278,-56.641,-97.168,-58.594,-29.297,19619.390
1685917869.282,-5.859,216.797,102.051,-11.230,19619.394
1685917869.299,18.066,485.840,122.070,-11.719,19619.399
1685917869.303,-21.973,207.031,-7.812,-15.625,19619.403
1685917869.307,-66.406,0.000,-5.859,-20.508,19619.407
1685917869.311,-43.457,189.941,76.172,-24.414,19619.411
1685917869.315,7.812,259.766,91.309,-20.020,19619.415
1685917869.319,-20.508,-242.188,-129.395,-28.809,19619.419
1685917869.322,-67.871,-713.867,-278.320,-37.598,19619.423
1685917869.326,-40.527,-15.625,27.832,-24.414,19619.427
1685917869.330,10.742,426.758,138.672,-15.625,19619.431
1685917869.334,-3.418,-68.359,-64.941,-23.926,19619.434
1685917869.338,-55.664,-125.000,-7.324,-37.109,19619.438
1685917869.342,-60.547,300.293,119.141,-33.203,19619.442
1685917869.343,-11.719,314.941,69.336,-19.531,19619.442
1685917869.347,7.812,-2.930,-46.875,-16.602,19619.446
1685917869.351,-31.250,62.988,27.344,-29.297,19619.450
1685917869.355,-53.711,287.109,97.656,-37.109,19619.454
1685917869.359,-14.160,181.641,44.922,-20.020,19619.458
1685917869.363,13.672,-225.586,-94.238,-8.301,19619.462
1685917869.366,-30.762,-348.145,-173.340,-19.043,19619.466
1685917869.370,-69.824,-252.441,-178.711,-30.762,19619.470
1685917869.374,-35.156,-162.109,-125.000,-30.762,19619.474
1685917869.378,3.906,-746.582,-353.516,-12.695,19619.477
1685917869.382,-18.555,-792.480,-291.992,-16.602,19619.481
1685917869.386,-57.129,63.477,45.410,-36.621,19619.485
1685917869.404,-43.457,143.066,15.137,-26.855,19619.504
1685917869.408,13.672,147.461,93.262,-18.555,19619.508
1685917869.412,10.742,418.945,130.859,-25.391,19619.512
1685917869.416,-44.922,378.418,92.773,-33.691,19619.515
1685917869.420,-53.223,25.879,-62.500,-24.902,19619.519
1685917869.424,-2.930,-162.598,-102.051,-4.883,19619.523
1685917869.427,17.578,51.270,41.992,-16.113,19619.527
1685917869.431,-22.949,317.871,112.305,-30.762,19619.531
1685917869.435,-58.594,-194.336,-157.227,-31.250,19619.535
1685917869.439,-30.762,-625.488,-200.195,-27.832,19619.539
1685917869.443,9.766,24.414,93.262,-26.855,19619.543
1685917869.447,-15.625,366.211,82.031,-29.297,19619.547
1685917869.433,-67.383,-241.699,-209.961,-33.203,19619.532
1685917869.437,-43.457,-144.531,-36.621,-22.461,19619.536
1685917869.441,8.301,424.805,185.547,-11.719,19619.540
1685917869.445,-8.789,360.352,64.941,-14.648,19619.544
1685917869.449,-60.059,-100.586,-104.980,-22.461,19619.548
1685917869.453,-50.293,-231.445,-183.594,-20.020,19619.552
1685917869.456,2.441,-29.785,-60.547,-8.789,19619.556
1685917869.460,3.906,-118.652,-58.105,-16.602,19619.560
1685917869.464,-44.434,-495.605,-261.230,-29.297,19619.564
1685917869.468,-60.547,-85.938,-37.109,-25.879,19619.567
1685917869.472,-16.602,424.805,149.414,-11.719,19619.571
1685917869.476,8.301,210.938,14.160,-16.602,19619.575
1685917869.480,-44.922,-807.617,-461.426,-35.645,19619.582
1685917869.484,-83.496,-689.453,-243.652,-34.668,19619.586
1685917869.488,-36.133,277.344,167.969,-18.066,19619.590
1685917869.492,8.301,267.090,4.883,-20.508,19619.594
1685917869.496,-15.137,140.137,15.625,-36.621,19619.598
1685917869.500,-58.105,-13.672,-89.355,-42.969,19619.602
1685917869.503,-42.480,-36.133,-151.855,-32.715,19619.606
1685917869.507,7.812,-143.555,-118.164,-16.113,19619.610
1685917869.511,0.488,-421.387,-121.582,-23.926,19619.614
1685917869.515,-43.945,114.746,40.039,-39.062,19619.618
1685917869.519,-44.434,298.828,57.617,-35.645,19619.622
1685917869.523,4.395,21.973,-29.297,-18.555,19619.625
1685917869.523,19.043,256.836,81.543,-17.090,19619.622
1685917869.527,-22.461,449.219,113.281,-35.156,19619.626
1685917869.531,-45.410,93.262,-48.828,-33.203,19619.630
1685917869.535,-9.277,-103.027,-90.820,-17.090,19619.634
1685917869.539,20.020,167.480,43.945,-14.160,19619.638
1685917869.543,-17.090,11.230,-49.316,-28.809,19619.642
1685917869.546,-56.641,-239.258,-207.520,-34.180,19619.646
1685917869.550,-33.691,-832.520,-435.547,-9.277,19619.649
1685917869.554,13.672,-996.094,-435.059,1.465,19619.653
1685917869.558,1.465,1.953,20.508,-20.020,19619.657
1685917869.562,-41.016,280.762,53.711,-34.668,19619.661
1685917869.566,-26.367,58.105,-68.848,-24.902,19619.665
1685917869.569,19.531,371.582,120.117,-14.160,19619.669
1685917869.573,0.000,543.945,137.695,-25.879,19619.673
1685917869.577,-48.828,172.363,-68.848,-31.738,19619.677
1685917869.581,-54.688,42.969,-53.711,-26.367,19619.681
1685917869.585,-9.277,292.969,86.914,-20.508,19619.685
1685917869.589,12.207,239.258,104.492,-24.414,19619.689
1685917869.592,-41.016,-250.488,-158.203,-44.434,19619.693
1685917869.596,-78.125,-879.883,-451.660,-37.598,19619.697
1685917869.600,-17.578,-104.980,2.930,-17.578,19619.701
1685917869.604,26.367,467.773,154.297,-10.742,19619.705
1685917869.608,-29.297,34.180,-126.465,-26.367,19619.709
1685917869.612,-80.566,97.656,-24.414,-53.711,19619.712
1685917869.613,-52.734,390.137,125.488,-54.688,19619.726
1685917869.617,-12.207,379.883,88.379,-47.852,19619.730
1685917869.621,-39.062,12.695,-55.176,-57.129,19619.734
1685917869.625,-86.914,101.562,15.625,-64.453,19619.738
1685917869.629,-75.684,201.172,54.688,-50.293,19619.741
1685917869.633,-16.602,-59.082,-29.297,-29.297,19619.745
1685917869.636,-14.160,-711.426,-352.539,-29.785,19619.749
1685917869.640,-73.242,-826.172,-370.605,-45.410,19619.753
1685917869.644,-80.078,-121.582,-117.188,-48.828,19619.757
1685917869.648,-22.461,85.938,-23.438,-30.273,19619.761
1685917869.652,3.906,-132.324,-15.137,-21.973,19619.765
1685917869.656,-42.480,214.355,75.195,-34.668,19619.769
1685917869.673,-72.266,352.539,49.316,-37.598,19619.773
1685917869.677,-22.461,117.188,17.090,-22.461,19619.777
1685917869.681,16.602,200.684,104.004,-23.438,19619.781
1685917869.685,-18.555,380.859,87.402,-43.945,19619.785
1685917869.689,-63.965,291.504,41.016,-51.758,19619.789
1685917869.693,-43.457,-192.871,-141.113,-38.574,19619.793
1685917869.696,1.465,-325.195,-143.066,-24.414,19619.797
1685917869.700,-8.789,273.926,98.633,-33.691,19619.801
1685917869.704,-52.246,363.770,42.969,-38.086,19619.805
1685917869.708,-50.781,-156.738,-168.457,-22.949,19619.808
1685917869.712,3.906,-253.906,-69.824,-13.672,19619.812
1685917869.716,6.348,210.938,127.930,-23.438,19619.816
1685917869.718,-46.387,314.453,51.758,-31.250,19619.817
1685917869.722,-66.406,-333.984,-269.043,-15.137,19619.821
1685917869.726,-16.113,-180.176,-58.594,-2.930,19619.825
1685917869.730,10.742,436.523,208.984,-14.160,19619.829
1685917869.734,-37.109,270.996,58.105,-27.344,19619.833
1685917869.738,-71.777,-602.051,-357.422,-28.320,19619.837
1685917869.741,-24.414,-576.172,-286.133,-14.160,19619.841
1685917869.745,28.320,54.199,41.992,-9.766,19619.845
1685917869.749,-1.953,90.332,3.418,-22.949,19619.849
1685917869.753,-65.430,-695.801,-375.977,-34.180,19619.852
1685917869.757,-47.363,-335.938,-120.605,-31.250,19619.856
1685917869.761,11.719,514.160,192.383,-22.949,19619.860
1685917869.781,2.930,280.273,6.836,-28.809,19619.883
1685917869.785,-58.105,-126.953,-143.066,-51.270,19619.887
1685917869.789,-59.082,90.332,29.297,-44.922,19619.891
1685917869.793,0.977,471.680,155.273,-22.949,19619.895
1685917869.797,11.230,178.711,-26.855,-26.367,19619.899
1685917869.801,-49.805,-420.898,-224.121,-42.480,19619.903
1685917869.804,-79.590,-207.520,-120.117,-47.363,19619.907
1685917869.808,-21.484,381.348,111.816,-27.832,19619.911
1685917869.812,3.906,4.395,-71.777,-16.602,19619.914
1685917869.816,-43.945,-476.074,-163.574,-34.668,19619.918
1685917869.820,-72.754,96.680,41.016,-44.434,19619.922
1685917869.824,-37.598,299.316,56.641,-30.273,19619.926
1685917869.808,3.906,61.035,-28.809,-16.113,19619.908
1685917869.812,-15.625,204.102,42.480,-23.438,19619.912
1685917869.816,-59.082,319.336,85.938,-37.109,19619.916
1685917869.820,-53.223,114.746,-5.859,-36.621,19619.919
1685917869.824,-0.488,-162.598,-66.895,-30.273,19619.923
1685917869.828,-1.465,-198.242,-64.941,-35.156,19619.927
1685917869.831,-61.035,-175.781,-172.363,-49.316,19619.931
1685917869.835,-66.895,-314.941,-251.953,-46.875,19619.935
1685917869.839,-13.184,-546.387,-273.438,-30.273,19619.939
1685917869.843,2.930,40.039,11.230,-31.738,19619.943
1685917869.847,-40.039,404.785,115.723,-47.363,19619.947
1685917869.851,-68.359,42.480,-108.398,-45.898,19619.951
1685917869.869,-31.738,-847.168,-486.816,-15.625,19619.970
1685917869.873,9.766,-842.773,-334.961,-11.230,19619.974
1685917869.877,-17.090,136.719,75.195,-35.645,19619.978
1685917869.881,-59.082,140.137,-20.508,-40.039,19619.982
1685917869.885,-37.598,58.105,22.949,-34.668,19619.986
1685917869.889,0.000,49.805,25.391,-29.297,19619.990
1685917869.892,-17.090,-31.738,-54.688,-33.203,19619.994
1685917869.896,-68.359,-288.574,-251.465,-31.738,19619.998
1685917869.900,-62.500,-888.672,-427.246,-18.555,19620.002
1685917869.904,4.883,-82.031,8.789,-12.207,19620.006
1685917869.908,8.789,491.211,126.465,-25.879,19620.009
1685917869.912,-49.805,16.602,-128.906,-47.852,19620.013
1685917869.928,-59.570,142.578,16.113,-45.410,19620.027
1685917869.932,-9.277,511.230,187.500,-31.250,19620.031
1685917869.936,13.672,440.430,97.168,-28.809,19620.035
1685917869.940,-40.527,29.297,-113.281,-41.504,19620.039
1685917869.944,-73.242,8.789,-44.434,-48.340,19620.043
1685917869.948,-24.414,54.199,37.598,-27.832,19620.047
1685917869.951,21.973,-92.285,-45.410,-9.277,19620.051
1685917869.955,-15.625,-447.754,-227.539,-32.227,19620.054
1685917869.959,-66.895,-143.555,-83.496,-55.176,19620.058
1685917869.963,-45.410,85.938,17.090,-42.969,19620.062
1685917869.967,5.859,166.016,67.871,-35.156,19620.066
1685917869.971,-18.066,-612.793,-328.125,-34.180,19620.070
1685917869.944,-76.172,-1000.000,-468.262,-41.992,19620.070
1685917869.948,-58.594,-118.652,-15.137,-39.551,19620.074
1685917869.952,3.418,266.113,65.918,-14.648,19620.078
1685917869.956,14.648,278.809,95.703,-15.137,19620.082
1685917869.960,-36.133,451.660,131.836,-32.715,19620.086
1685917869.964,-58.594,126.465,-31.738,-25.879,19620.090
1685917869.967,-13.184,-136.719,-68.359,-25.879,19620.094
1685917869.971,11.230,220.215,70.801,-29.785,19620.098
1685917869.975,-31.250,456.055,112.793,-41.016,19620.102
1685917869.979,-72.754,317.871,67.871,-47.363,19620.106
1685917869.983,-30.762,-59.570,-88.867,-33.691,19620.109
1685917869.987,11.719,-99.609,-7.324,-25.391,19620.113
1685917869.989,-14.160,189.453,130.371,-25.879,19620.091
1685917869.993,-49.316,311.035,92.285,-25.391,19620.095
1685917869.997,-36.133,-459.961,-308.594,-13.672,19620.098
1685917870.001,16.113,-686.523,-238.770,-1.465,19620.102
1685917870.005,13.672,165.527,128.418,-9.766,19620.106
1685917870.009,-40.527,30.273,-56.641,-21.973,19620.110
1685917870.012,-43.457,-813.965,-411.621,-14.648,19620.114
1685917870.016,3.418,-562.012,-187.988,-11.230,19620.118
1685917870.020,21.484,409.180,157.715,-17.090,19620.122
1685917870.024,-30.273,287.109,14.648,-24.414,19620.126
1685917870.028,-62.988,-29.297,-62.500,-34.668,19620.130
1685917870.032,-16.602,329.102,97.168,-35.156,19620.134
1685917870.049,18.066,604.492,168.945,-29.785,19620.154
1685917870.053,-8.789,235.840,-26.855,-30.273,19620.158
1685917870.057,-57.129,-232.910,-179.199,-43.945,19620.162
1685917870.061,-43.457,120.605,27.344,-42.969,19620.166
1685917870.065,1.465,490.723,166.504,-29.297,19620.170
1685917870.069,-20.020,-29.785,-99.121,-34.668,19620.174
1685917870.072,-68.359,-873.047,-456.543,-36.621,19620.178
1685917870.076,-43.457,-185.547,-35.156,-32.227,19620.182
1685917870.080,12.207,468.750,159.668,-22.461,19620.186
1685917870.084,-2.441,143.555,-54.199,-30.762,19620.190
1685917870.088,-55.664,136.719,17.090,-43.457,19620.194
1685917870.092,-50.293,288.086,88.867,-35.156,19620.197
1685917870.093,11.230,325.684,95.703,-20.020,19620.192
1685917870.097,25.391,111.328,-17.578,-14.160,19620.196
1685917870.101,-28.809,160.645,32.227,-28.809,19620.200
1685917870.105,-62.500,304.688,90.332,-38.086,19620.204
1685917870.109,-20.020,97.168,17.578,-13.184,19620.208
1685917870.113,4.395,-470.215,-250.488,-11.719,19620.212
1685917870.116,-26.855,-424.805,-269.043,-37.109,19620.216
1685917870.120,-56.152,-158.203,-161.133,-41.016,19620.220
1685917870.124,-33.203,-154.785,-189.453,-34.668,19620.224
1685917870.128,11.230,-750.488,-389.160,-19.531,19620.227
1685917870.132,-1.465,-632.812,-170.410,-22.949,19620.231
1685917870.136,-47.852,229.492,109.863,-41.504,19620.235
1685917870.140,-41.504,187.988,1.953,-38.086,19620.242
1685917870.144,8.301,143.066,53.711,-17.578,19620.246
1685917870.148,8.789,409.668,136.230,-20.020,19620.250
1685917870.152,-40.039,435.547,98.633,-32.227,19620.253
1685917870.156,-58.105,107.422,-78.125,-28.809,19620.257
1685917870.160,-14.648,-155.762,-126.465,-18.555,19620.261
1685917870.163,2.441,-15.625,7.324,-21.484,19620.265
1685917870.167,-38.086,88.867,12.695,-26.367,19620.269
1685917870.171,-61.523,-352.051,-233.887,-12.695,19620.273
1685917870.175,-32.715,-861.816,-404.297,1.465,19620.277
1685917870.179,13.672,12.207,32.227,0.000,19620.281
1685917870.183,-6.836,411.621,107.910,-18.066,19620.285
1685917870.183,-59.082,-81.543,-138.672,-32.227,19620.282
1685917870.187,-38.086,130.371,28.809,-30.273,19620.286
1685917870.191,15.625,503.418,178.711,-28.320,19620.290
1685917870.195,0.488,391.602,90.820,-36.621,19620.294
1685917870.199,-50.293,-157.715,-154.297,-31.738,19620.298
1685917870.203,-46.387,-259.277,-149.414,-13.672,19620.302
1685917870.206,4.883,-25.391,30.273,-10.742,19620.306
1685917870.210,9.766,-18.555,4.883,-13.672,19620.309
1685917870.214,-45.410,-708.984,-397.949,-19.043,19620.313
1685917870.218,-59.082,-937.500,-439.941,-17.578,19620.317
1685917870.222,-14.160,-59.082,-20.020,-13.184,19620.321
1685917870.226,8.789,198.730,29.297,-20.020,19620.325
1685917870.244,-35.156,-163.086,-55.664,-41.016,19620.344
1685917870.248,-69.336,166.992,68.359,-45.898,19620.348
1685917870.252,-32.715,383.789,78.125,-30.273,19620.352
1685917870.256,10.742,271.973,50.781,-22.461,19620.356
1685917870.260,-17.090,245.605,63.477,-28.809,19620.360
1685917870.264,-60.547,13.184,-61.523,-28.809,19620.364
1685917870.267,-40.039,-51.758,-40.527,-16.602,19620.368
1685917870.271,7.324,-206.543,-55.176,-9.766,19620.371
1685917870.275,-5.859,-482.422,-111.816,-15.625,19620.375
1685917870.279,-50.293,155.762,81.055,-24.414,19620.379
1685917870.283,-53.711,342.773,82.520,-19.043,19620.383
1685917870.287,-1.953,91.309,-10.254,-10.742,19620.387
1685917870.273,5.859,93.262,-12.207,-23.926,19620.375
1685917870.277,-47.852,98.633,23.926,-40.527,19620.379
1685917870.281,-69.824,175.781,41.992,-40.527,19620.383
1685917870.285,-31.250,-203.613,-173.828,-27.344,19620.387
1685917870.289,2.930,-62.012,-29.785,-20.508,19620.391
1685917870.293,-28.809,119.141,66.895,-30.273,19620.394
1685917870.296,-64.453,-278.320,-170.898,-32.715,19620.398
1685917870.300,-33.691,-399.414,-132.812,-19.531,19620.402
1685917870.304,16.113,192.871,108.398,-14.648,19620.406
1685917870.308,-14.160,463.379,115.723,-33.203,19620.410
1685917870.312,-71.777,177.734,0.488,-45.410,19620.414
1685917870.316,-55.664,-791.992,-400.391,-31.738,19620.418
1685917870.319,0.000,-595.703,-155.762,-21.973,19620.449
1685917870.323,6.836,411.621,196.777,-31.250,19620.453
1685917870.327,-38.574,97.656,-78.125,-32.227,19620.457
1685917870.331,-56.152,-168.457,-117.188,-21.484,19620.461
1685917870.335,-11.719,265.625,111.816,-14.648,19620.465
1685917870.339,7.324,282.227,121.582,-24.902,19620.468
1685917870.342,-41.992,-184.082,-107.910,-46.875,19620.472
1685917870.346,-88.867,-843.262,-397.949,-47.852,19620.476
1685917870.350,-42.969,-78.613,37.109,-41.992,19620.480
1685917870.354,14.648,568.359,200.195,-34.668,19620.484
1685917870.358,-19.043,94.238,-91.797,-41.504,19620.488
1685917870.362,-67.383,98.145,-5.859,-58.105,19620.492
1685917870.379,-32.227,357.910,146.484,-47.852,19620.478
1685917870.383,17.090,389.648,101.562,-29.785,19620.481
1685917870.387,-5.859,56.152,-66.895,-37.109,19620.485
1685917870.391,-66.895,120.605,37.598,-56.152,19620.489
1685917870.395,-70.801,191.895,73.730,-60.547,19620.493
1685917870.399,-11.719,-108.887,-53.711,-47.852,19620.497
1685917870.402,-16.602,-705.566,-330.566,-45.898,19620.501
1685917870.406,-69.824,-833.984,-355.957,-68.848,19620.505
1685917870.410,-67.871,-42.969,-34.668,-69.336,19620.509
1685917870.414,-13.672,203.125,54.688,-44.434,19620.513
1685917870.418,3.418,-56.152,-9.766,-39.062,19620.517
1685917870.422,-34.668,186.035,75.684,-55.664,19620.521
1685917870.424,-60.059,395.020,112.305,-43.457,19620.524
1685917870.428,-26.855,120.117,-6.836,-17.090,19620.528
1685917870.432,5.859,-353.516,-103.027,-20.508,19620.532
1685917870.436,-25.879,135.254,74.219,-40.527,19620.536
1685917870.440,-63.477,378.906,89.844,-42.480,19620.539
1685917870.444,-41.016,-166.992,-79.102,-34.180,19620.543
1685917870.447,3.906,-189.453,-55.176,-30.273,19620.547
1685917870.451,-12.695,242.676,85.938,-31.738,19620.551
1685917870.455,-62.500,132.324,21.484,-43.945,19620.555
1685917870.459,-53.223,-387.207,-217.285,-39.062,19620.559
1685917870.463,-4.883,-821.289,-346.191,-21.484,19620.563
1685917870.467,-3.906,53.223,73.730,-29.297,19620.567
1685917870.468,-47.363,380.859,102.051,-31.250,19620.567
1685917870.472,-60.059,-100.586,-91.309,-23.926,19620.571
1685917870.476,-22.949,176.270,83.984,-21.484,19620.575
1685917870.480,-1.953,535.645,198.242,-25.879,19620.579
1685917870.484,-48.340,289.551,69.824,-38.574,19620.583
1685917870.488,-85.938,-401.367,-200.195,-39.551,19620.587
1685917870.491,-43.457,-340.332,-109.375,-29.297,19620.590
1685917870.495,-1.465,25.879,69.824,-27.344,19620.594
1685917870.499,-24.902,-66.406,-28.320,-41.992,19620.598
1685917870.503,-66.895,-753.906,-391.602,-33.691,19620.602
1685917870.507,-49.316,-640.625,-214.844,-23.926,19620.606
1685917870.511,1.953,143.066,135.742,-20.508,19620.610
1685917870.514,-9.277,222.656,35.156,-16.602,19620.616
1685917870.518,-60.547,-31.250,-44.434,-31.250,19620.620
1685917870.522,-54.199,205.078,84.473,-29.297,19620.624
1685917870.526,10.254,446.289,146.973,-4.395,19620.627
1685917870.530,22.461,160.645,-15.137,-15.625,19620.631
1685917870.534,-28.809,-385.742,-210.938,-27.344,19620.635
1685917870.537,-49.316,-162.598,-71.777,-11.230,19620.639
1685917870.541,-2.441,388.672,132.812,-1.465,19620.643
1685917870.545,21.973,-4.395,-44.434,-7.324,19620.647
1685917870.549,-21.973,-496.582,-125.488,-15.625,19620.651
1685917870.553,-58.594,120.117,104.004,-23.438,19620.655
1685917870.557,-29.785,381.836,126.953,-14.160,19620.659
1685917870.559,14.648,73.242,-18.066,-10.254,19620.662
1685917870.563,-9.766,-75.195,-68.848,-27.832,19620.665
1685917870.567,-62.012,120.605,63.477,-29.297,19620.669
1685917870.571,-46.387,241.699,69.824,-17.090,19620.673
1685917870.575,1.953,-272.461,-189.941,-9.766,19620.677
1685917870.579,-3.906,-311.523,-95.215,-16.602,19620.681
1685917870.582,-48.828,-95.703,12.207,-26.367,19620.685
1685917870.586,-62.012,-170.898,-53.711,-22.949,19620.689
1685917870.590,-12.207,-740.723,-332.520,2.930,19620.693
1685917870.594,17.090,-612.793,-157.715,9.277,19620.697
1685917870.598,-31.250,256.836,140.625,-24.414,19620.701
1685917870.602,-69.824,208.008,62.500,-34.180,19620.705
1685917870.604,-21.973,111.328,116.211,-20.996,19620.704
1685917870.608,11.719,416.992,159.180,-25.391,19620.708
1685917870.612,-32.715,481.445,124.512,-38.574,19620.712
1685917870.616,-79.590,61.523,-19.531,-41.016,19620.716
1685917870.620,-40.527,-146.973,-6.348,-21.484,19620.720
1685917870.624,18.066,-48.828,37.109,-6.836,19620.723
1685917870.627,-10.254,145.508,90.820,-24.414,19620.727
1685917870.631,-67.871,-97.656,-87.891,-39.551,19620.731
1685917870.635,-63.477,-859.863,-395.020,-27.832,19620.735
1685917870.639,0.977,-72.754,55.176,-20.020,19620.739
1685917870.643,11.719,492.676,205.078,-25.391,19620.743
1685917870.647,-47.363,8.301,-58.105,-35.645,19620.747
1685917870.648,-59.082,83.984,29.785,-31.250,19620.747
1685917870.652,-6.348,398.438,158.203,-23.438,19620.751
1685917870.656,11.230,354.980,98.633,-30.762,19620.755
1685917870.660,-29.297,32.227,-13.672,-42.969,19620.759
1685917870.664,-60.547,23.926,32.715,-36.133,19620.763
1685917870.668,-25.391,-50.293,24.414,-23.438,19620.767
1685917870.671,15.137,-78.613,40.039,-24.902,19620.771
1685917870.675,-28.320,-678.223,-332.520,-40.039,19620.775
1685917870.679,-74.219,-1000.000,-460.938,-38.086,19620.778
1685917870.683,-41.504,-105.957,26.367,-23.438,19620.782
1685917870.687,10.742,316.406,136.719,-17.090,19620.786
1685917870.691,-2.441,125.977,80.078,-19.043,19620.790
1685917870.694,-53.711,137.695,49.805,-23.438,19620.806
1685917870.698,-52.734,243.652,92.773,-30.273,19620.810
1685917870.702,-5.859,231.445,93.262,-13.672,19620.813
1685917870.706,-10.254,170.410,68.359,-17.090,19620.817
1685917870.710,-59.570,260.742,82.031,-43.945,19620.821
1685917870.714,-72.754,79.102,19.531,-42.969,19620.825
1685917870.717,-25.879,-324.219,-72.266,-21.973,19620.829
1685917870.721,6.836,-488.281,-55.176,-14.160,19620.833
1685917870.725,-32.227,106.934,103.027,-30.762,19620.837
1685917870.729,-64.453,73.242,11.230,-44.434,19620.841
1685917870.733,-16.602,-291.504,-80.566,-20.508,19620.845
1685917870.737,19.043,4.395,75.684,-10.742,19620.849
1685917870.738,-20.020,435.059,165.039,-33.203,19620.851
1685917870.742,-63.965,250.000,51.270,-36.621,19620.855
1685917870.746,-50.293,-173.828,-91.309,-22.949,19620.859
1685917870.750,0.000,176.270,91.797,-24.414,19620.863
1685917870.754,-8.301,426.270,183.594,-32.715,19620.867
1685917870.758,-62.012,-42.969,-19.043,-41.992,19620.870
1685917870.761,-61.035,-847.168,-381.348,-38.086,19620.874
1685917870.765,-2.441,-623.047,-159.668,-25.391,19620.878
1685917870.769,10.254,364.258,213.379,-40.527,19620.882
1685917870.773,-45.898,223.633,41.016,-53.223,19620.886
1685917870.777,-68.359,-83.008,-39.551,-41.992,19620.890
1685917870.781,-17.578,93.750,64.941,-29.297,19620.894
1685917870.798,19.043,243.164,127.441,-20.996,19620.898
1685917870.802,-21.484,130.371,2.930,-25.391,19620.902
1685917870.806,-68.848,-242.188,-72.266,-38.086,19620.906
1685917870.810,-30.273,127.930,122.559,-22.461,19620.909
1685917870.814,21.484,473.633,187.500,-12.207,19620.913
1685917870.818,-16.113,-47.852,-48.828,-30.273,19620.917
1685917870.821,-68.359,-460.938,-135.742,-30.273,19620.921
1685917870.825,-49.316,125.488,118.652,-18.066,19620.925
1685917870.829,-2.441,437.500,152.344,-17.578,19620.929
1685917870.833,-5.859,10.254,-5.371,-20.996,19620.933
1685917870.837,-56.641,-97.168,36.621,-39.062,19620.937
1685917870.841,-62.012,273.438,154.297,-38.086,19620.941
1685917870.844,-1.953,337.891,124.023,-18.555,19620.946
1685917870.848,9.766,57.129,-6.348,-24.902,19620.950
1685917870.852,-44.922,-111.816,-33.691,-41.016,19620.954
1685917870.856,-67.871,104.004,102.539,-47.852,19620.958
1685917870.860,-18.066,273.438,130.371,-31.738,19620.961
1685917870.864,5.859,-478.516,-268.555,-26.367,19620.965
1685917870.867,-39.062,-777.832,-253.906,-31.738,19620.969
1685917870.871,-68.359,-93.750,82.031,-29.297,19620.973
1685917870.875,-40.527,138.184,64.941,-32.715,19620.977
1685917870.879,-2.930,-542.480,-231.934,-26.855,19620.981
1685917870.883,-26.855,-179.688,3.906,-47.363,19620.985
1685917870.887,-81.055,327.148,145.508,-73.730,19620.989
1685917870.890,-63.965,85.449,66.406,-45.898,19620.990
1685917870.894,-3.418,142.090,165.527,-27.344,19620.994
1685917870.898,3.418,341.797,164.062,-36.621,19620.998
1685917870.902,-46.387,295.898,98.145,-41.992,19621.002
1685917870.906,-60.547,-52.246,-21.973,-38.086,19621.005
1685917870.910,-8.789,-216.309,1.953,-26.367,19621.009
1685917870.913,12.695,-134.277,30.273,-30.762,19621.013
1685917870.917,-36.621,-50.293,32.227,-51.270,19621.017
1685917870.921,-78.613,-311.035,-124.023,-62.500,19621.021
1685917870.925,-42.969,-855.957,-346.191,-43.945,19621.025
1685917870.929,5.371,1.465,74.707,-33.203,19621.029
1685917870.933,-17.578,473.633,161.621,-40.527,19621.033
1685917870.933,-69.824,-30.762,-52.734,-47.852,19621.032
1685917870.937,-43.945,121.582,93.262,-47.363,19621.036
1685917870.941,17.578,429.199,181.152,-27.832,19621.040
1685917870.945,0.000,360.840,111.328,-30.273,19621.044
1685917870.949,-57.129,-96.191,-41.992,-43.945,19621.048
1685917870.953,-52.734,-261.230,-42.480,-35.156,19621.052
1685917870.956,-1.465,-130.371,27.344,-17.090,19621.056
1685917870.960,2.441,-75.195,55.176,-25.391,19621.060
1685917870.964,-53.711,-729.004,-325.684,-42.969,19621.064
1685917870.968,-76.660,-1000.000,-436.035,-34.668,19621.067
1685917870.972,-23.926,33.203,79.590,-24.414,19621.071
1685917870.976,1.465,385.742,156.250,-22.949,19621.075
1685917870.979,-34.180,155.762,108.887,-31.738,19621.079
1685917870.983,-57.129,333.008,136.719,-43.945,19621.083
1685917870.987,-17.578,435.059,141.602,-31.250,19621.087
1685917870.991,23.926,344.727,109.863,-15.137,19621.091
1685917870.995,-5.859,210.938,90.820,-27.344,19621.095
1685917870.999,-54.199,-36.621,18.066,-35.156,19621.099
1685917871.002,-30.273,-47.363,46.875,-18.555,19621.103
1685917871.006,16.113,-142.578,-4.883,-9.277,19621.107
1685917871.010,-0.488,-445.801,-59.570,-21.484,19621.111
1685917871.014,-48.340,25.391,86.426,-31.250,19621.115
1685917871.018,-54.688,35.645,36.621,-29.785,19621.118
1685917871.022,-4.883,-262.207,-72.266,-24.902,19621.122
1685917871.024,8.301,43.945,86.914,-23.438,19621.125
1685917871.028,-41.504,403.320,183.105,-44.922,19621.129
1685917871.032,-71.289,201.660,55.176,-41.992,19621.133
1685917871.036,-30.762,3.906,15.625,-20.996,19621.137
1685917871.040,7.812,159.180,99.609,-18.555,19621.141
1685917871.044,-35.156,41.992,62.988,-29.297,19621.145
1685917871.047,-72.754,-192.871,-23.926,-32.715,19621.149
1685917871.051,-35.645,-832.031,-333.496,-6.836,19621.153
1685917871.055,11.230,-661.133,-136.719,4.883,19621.157
1685917871.059,-13.672,345.215,200.684,-22.949,19621.161
1685917871.063,-68.359,253.906,72.754,-32.227,19621.165
1685917871.067,-45.898,90.332,94.727,-16.113,19621.168
1685917871.083,17.090,251.465,133.301,-8.301,19621.182
1685917871.087,7.812,256.348,136.230,-14.648,19621.186
1685917871.091,-53.711,101.562,52.246,-31.250,19621.190
1685917871.095,-62.012,-75.684,-8.301,-37.109,19621.194
1685917871.099,-14.648,251.953,144.531,-37.109,19621.198
1685917871.103,-3.906,287.109,181.641,-37.109,19621.202
1685917871.106,-52.246,-210.938,-34.180,-41.504,19621.206
1685917871.110,-77.637,-870.605,-344.727,-28.809,19621.210
1685917871.114,-22.461,-140.137,47.363,-5.371,19621.213
1685917871.118,10.254,480.469,213.867,-22.461,19621.217
1685917871.122,-31.738,68.359,-23.926,-48.828,19621.221
1685917871.126,-76.172,117.676,48.340,-47.852,19621.225
1685917871.113,-49.316,304.199,133.789,-37.598,19621.241
1685917871.117,6.348,345.703,148.926,-29.785,19621.245
1685917871.121,-7.324,49.805,-8.301,-29.297,19621.249
1685917871.125,-61.523,-131.836,-33.203,-31.738,19621.253
1685917871.129,-53.711,57.129,82.031,-28.320,19621.257
1685917871.133,-2.441,29.297,69.824,-26.367,19621.261
1685917871.136,-7.812,-639.160,-273.438,-25.391,19621.264
1685917871.140,-58.105,-719.727,-217.773,-32.715,19621.268
1685917871.144,-63.965,221.191,176.270,-46.387,19621.272
1685917871.148,-18.555,348.633,123.535,-27.832,19621.276
1685917871.152,1.953,-482.422,-225.098,-20.996,19621.280
1685917871.156,-37.598,-145.020,-9.766,-50.781,19621.284
1685917871.174,-72.266,340.820,133.301,-59.082,19621.274
1685917871.178,-36.621,173.828,64.453,-38.574,19621.278
1685917871.182,2.930,251.953,156.250,-25.391,19621.282
1685917871.186,-23.438,427.734,155.762,-39.551,19621.286
1685917871.190,-64.453,380.859,132.812,-54.199,19621.290
1685917871.194,-41.992,-105.469,-24.414,-31.250,19621.294
1685917871.197,5.859,-395.996,-102.539,-14.160,19621.298
1685917871.201,-7.324,6.836,81.055,-30.762,19621.301
1685917871.205,-53.223,298.340,120.117,-37.598,19621.305
1685917871.209,-52.734,-81.055,-41.992,-34.668,19621.309
1685917871.213,1.953,-25.391,64.941,-22.461,19621.313
1685917871.217,13.672,456.543,188.477,-26.367,19621.317
1685917871.218,-38.086,409.180,115.234,-38.574,19621.317
1685917871.222,-51.758,-349.121,-204.102,-26.855,19621.321
1685917871.226,-2.441,-473.633,-135.742,-11.719,19621.325
1685917871.230,21.973,340.820,225.098,-14.648,19621.329
1685917871.234,-21.484,305.176,62.012,-27.344,19621.333
1685917871.238,-60.059,-340.332,-202.637,-29.785,19621.337
1685917871.241,-23.438,-293.945,-63.477,-21.484,19621.341
1685917871.245,17.578,-17.578,78.125,-10.254,19621.345
1685917871.249,-11.230,-24.902,24.902,-19.043,19621.348
1685917871.253,-60.547,-788.086,-404.297,-27.832,19621.352
1685917871.257,-43.945,-856.445,-314.453,-18.555,19621.356
1685917871.261,10.254,235.352,165.039,-13.672,19621.360
1685917871.264,2.441,320.312,102.539,-14.648,19621.365
1685917871.268,-54.199,95.703,92.285,-29.785,19621.368
1685917871.272,-41.992,316.895,135.742,-20.508,19621.372
1685917871.276,18.555,496.094,173.828,-3.906,19621.376
1685917871.280,17.090,351.074,96.191,-27.344,19621.380
1685917871.284,-33.203,-145.508,-37.598,-37.109,19621.384
1685917871.287,-48.340,-150.391,10.254,-26.367,19621.388
1685917871.291,0.000,346.680,151.855,-16.113,19621.392
1685917871.295,24.902,27.344,-18.066,-8.789,19621.396
1685917871.299,-28.809,-515.137,-113.281,-27.832,19621.400
1685917871.303,-65.918,-46.387,56.641,-36.133,19621.404
1685917871.307,-32.227,-23.926,9.766,-22.461,19621.408
1685917871.308,9.766,-250.000,-84.961,-26.367,19621.407
1685917871.312,-12.207,83.984,37.598,-39.062,19621.411
1685917871.316,-64.941,355.957,147.461,-46.875,19621.415
1685917871.320,-53.223,224.121,65.430,-40.527,19621.419
1685917871.324,3.906,-261.719,-157.715,-19.531,19621.423
1685917871.328,-2.441,-275.391,-63.477,-20.508,19621.427
1685917871.331,-43.945,-62.500,24.414,-36.621,19621.431
1685917871.335,-56.641,-161.133,-33.203,-33.203,19621.435
1685917871.339,-13.184,-762.207,-285.645,-21.973,19621.439
1685917871.343,0.977,-640.625,-143.066,-18.555,19621.443
1685917871.347,-43.945,281.738,149.902,-26.855,19621.446
1685917871.351,-64.453,206.543,43.457,-33.203,19621.450
1685917871.356,-20.996,82.520,76.660,-25.391,19621.458
1685917871.360,13.184,206.055,77.148,-21.973,19621.462
1685917871.364,-21.973,241.211,103.027,-42.480,19621.466
1685917871.368,-69.336,59.082,-14.160,-49.316,19621.470
1685917871.372,-43.945,-155.273,-50.293,-25.391,19621.474
1685917871.376,3.418,-6.348,52.734,-13.672,19621.478
1685917871.379,-28.320,89.355,36.621,-33.691,19621.482
1685917871.383,-70.312,-215.332,-118.164,-38.086,19621.486
1685917871.387,-47.852,-520.508,-120.605,-22.949,19621.490
1685917871.391,6.836,265.137,174.316,-16.113,19621.494
1685917871.395,14.160,511.230,121.582,-18.555,19621.498
1685917871.399,-25.879,4.395,-92.773,-15.137,19621.501
1685917871.398,-42.969,73.242,23.438,-24.414,19621.498
1685917871.402,-5.371,414.551,168.457,-26.855,19621.502
1685917871.406,6.348,410.645,114.258,-22.949,19621.506
1685917871.410,-40.527,-9.277,-30.273,-43.945,19621.510
1685917871.414,-63.965,-241.211,-84.961,-48.828,19621.514
1685917871.418,-20.020,-140.625,-25.879,-36.133,19621.517
1685917871.421,14.160,-53.223,22.461,-25.391,19621.521
1685917871.425,-20.508,-686.035,-366.211,-20.020,19621.525
1685917871.429,-64.941,-1000.000,-489.258,-25.391,19621.529
1685917871.433,-41.504,-66.895,46.387,-28.320,19621.533
1685917871.437,14.160,429.199,177.734,-20.996,19621.537
1685917871.441,-8.301,254.883,109.863,-30.762,19621.541
1685917871.444,-74.707,370.605,112.305,-55.176,19621.556
1685917871.448,-63.965,365.234,91.309,-43.945,19621.560
1685917871.452,-16.602,265.137,68.359,-25.879,19621.564
1685917871.456,-12.207,281.250,125.488,-29.785,19621.568
1685917871.460,-50.781,328.125,95.703,-43.457,19621.572
1685917871.464,-69.336,96.191,13.672,-40.527,19621.576
1685917871.467,-30.762,-287.109,-66.406,-23.926,19621.580
1685917871.471,-5.371,-825.684,-303.223,-23.438,19621.584
1685917871.475,-41.992,-158.691,-12.695,-38.086,19621.588
1685917871.479,-74.707,381.348,138.184,-40.039,19621.591
1685917871.483,-31.738,52.734,-38.086,-19.043,19621.595
1685917871.487,11.719,233.398,71.777,-9.766,19621.599
1685917871.488,-18.555,473.633,148.926,-27.832,19621.600
1685917871.492,-67.383,266.602,61.035,-42.969,19621.604
1685917871.496,-54.688,-96.680,-43.945,-38.086,19621.608
1685917871.500,0.000,166.992,84.473,-32.715,19621.612
1685917871.504,-7.324,327.148,109.863,-39.062,19621.616
1685917871.508,-62.500,-86.914,-71.777,-41.504,19621.620
1685917871.511,-69.824,-833.496,-423.828,-29.785,19621.624
1685917871.515,-11.230,-640.137,-195.312,-15.137,19621.628
1685917871.519,10.254,320.801,178.223,-18.066,19621.632
1685917871.523,-39.062,30.273,-83.984,-27.344,19621.636
1685917871.527,-63.965,-715.820,-328.613,-28.320,19621.640
1685917871.531,-12.695,-7.812,31.738,-27.344,19621.643
1685917871.548,24.902,427.246,146.484,-24.414,19621.662
1685917871.552,-16.602,-44.922,-66.406,-26.367,19621.666
1685917871.556,-65.918,-7.324,-41.504,-40.527,19621.670
1685917871.560,-40.527,270.020,93.262,-30.762,19621.674
1685917871.564,11.719,434.082,149.414,-20.996,19621.677
1685917871.568,-16.602,-72.754,-112.305,-33.691,19621.681
1685917871.571,-69.336,-604.004,-215.820,-39.551,19621.685
1685917871.575,-46.387,70.801,83.984,-36.133,19621.689
1685917871.579,6.836,425.293,119.141,-25.879,19621.693
1685917871.583,-2.441,50.781,-70.801,-37.598,19621.697
1685917871.587,-56.152,31.738,-5.859,-40.039,19621.701
1685917871.591,-71.777,105.957,54.688,-25.879,19621.705
1685917871.593,-17.578,-46.875,-19.043,-18.066,19621.693
1685917871.597,8.301,-242.676,-126.465,-18.066,19621.697
1685917871.601,-37.109,-75.684,-34.668,-39.551,19621.700
1685917871.605,-73.242,305.664,100.586,-45.898,19621.704
1685917871.609,-26.855,162.598,39.551,-32.715,19621.708
1685917871.613,7.324,-405.762,-241.211,-27.344,19621.712
1685917871.616,-37.109,-395.508,-239.746,-40.527,19621.716
1685917871.620,-72.266,21.973,10.254,-50.293,19621.720
1685917871.624,-33.203,103.516,42.480,-33.203,19621.724
1685917871.628,6.836,-590.332,-278.320,-23.926,19621.728
1685917871.632,-15.625,-269.043,-62.988,-39.551,19621.732
1685917871.636,-53.223,433.594,158.691,-42.969,19621.736
1685917871.639,-49.805,85.938,-18.066,-31.738,19621.740
1685917871.643,-4.395,-436.035,-192.871,-17.090,19621.744
1685917871.647,0.000,-77.637,-41.992,-17.578,19621.748
1685917871.651,-49.805,271.484,113.281,-25.879,19621.752
1685917871.655,-59.082,22.461,-70.312,-24.902,19621.755
1685917871.659,-10.254,-337.891,-162.598,-17.578,19621.759
1685917871.662,3.418,-60.059,28.320,-20.020,19621.763
1685917871.666,-30.762,375.488,119.629,-24.414,19621.767
1685917871.670,-58.105,-109.863,-134.277,-20.508,19621.771
1685917871.674,-26.855,-537.109,-166.504,-15.625,19621.775
1685917871.678,13.184,249.512,142.090,-22.949,19621.779
1685917871.682,-14.160,393.555,80.078,-33.691,19621.783
1685917871.683,-52.246,-83.008,-124.512,-40.039,19621.782
1685917871.687,-27.832,80.078,-1.465,-34.180,19621.786
1685917871.691,17.578,444.336,158.691,-28.809,19621.790
1685917871.695,-2.441,371.094,90.820,-39.551,19621.794
1685917871.699,-56.152,-185.059,-176.270,-47.852,19621.798
1685917871.703,-50.293,-315.430,-169.434,-39.062,19621.802
1685917871.706,12.695,-76.172,3.418,-19.531,19621.806
1685917871.710,17.090,-14.160,-3.418,-18.066,19621.810
1685917871.714,-41.504,-699.219,-389.648,-33.691,19621.814
1685917871.718,-55.664,-1000.000,-475.098,-28.320,19621.818
1685917871.722,4.395,2.930,53.711,-14.160,19621.821
1685917871.726,30.762,416.016,120.605,-11.230,19621.825
1685917871.729,-21.973,187.988,6.348,-18.066,19621.830
1685917871.733,-57.129,320.801,81.543,-19.531,19621.834
1685917871.737,-10.742,404.297,100.098,-4.395,19621.837
1685917871.741,35.645,307.129,60.059,-0.977,19621.841
1685917871.745,-3.418,190.430,65.430,-17.090,19621.845
1685917871.749,-49.805,-93.750,-109.863,-25.879,19621.849
1685917871.752,-23.926,-114.746,-134.766,-24.902,19621.853
1685917871.756,27.344,-184.082,-103.027,-9.277,19621.857
1685917871.760,13.184,-824.219,-347.656,-17.090,19621.861
1685917871.764,-48.828,-172.852,-25.391,-47.852,19621.865
1685917871.768,-55.664,365.723,115.723,-32.227,19621.869
1685917871.772,1.953,35.156,-70.312,-6.836,19621.873
1685917871.773,17.578,245.117,54.688,-18.066,19621.872
1685917871.777,-32.715,478.516,115.234,-32.227,19621.876
1685917871.781,-52.734,260.742,21.973,-25.391,19621.880
1685917871.785,-7.324,36.133,-38.086,-12.695,19621.884
1685917871.789,11.719,134.277,10.254,-17.090,19621.888
1685917871.793,-29.297,20.508,-25.391,-37.598,19621.892
1685917871.796,-67.383,-158.203,-145.508,-44.922,19621.896
1685917871.800,-43.945,-785.645,-416.992,-20.508,19621.900
1685917871.804,6.348,-698.730,-223.145,-8.789,19621.904
1685917871.808,-10.254,251.465,120.117,-28.809,19621.907
1685917871.812,-55.664,-23.926,-127.441,-30.273,19621.911
1685917871.816,-42.480,-429.199,-160.156,-17.578,19621.915
1685917871.819,11.719,236.816,127.441,-8.789,19621.931
1685917871.823,2.441,554.688,142.578,-27.344,19621.935
1685917871.827,-56.152,142.578,-63.965,-40.527,19621.939
1685917871.831,-62.988,23.438,-92.773,-32.227,19621.943
1685917871.835,-18.555,283.691,70.312,-25.879,19621.947
1685917871.839,-2.930,201.172,67.383,-22.461,19621.951
1685917871.842,-44.922,-244.141,-136.230,-21.973,19621.954
1685917871.846,-70.312,-606.445,-247.559,-20.508,19621.958
1685917871.850,-19.531,92.285,69.824,-11.230,19621.962
1685917871.854,22.949,483.398,125.977,-3.906,19621.966
1685917871.858,-14.648,68.359,-112.305,-15.625,19621.970
1685917871.862,-66.895,71.777,-32.227,-29.297,19621.974
1685917871.864,-39.062,177.246,56.152,-17.578,19621.966
1685917871.868,7.324,-16.602,-18.066,-12.695,19621.969
1685917871.872,-23.438,-324.219,-178.223,-34.180,19621.973
1685917871.876,-75.195,-92.773,-60.547,-54.688,19621.977
1685917871.880,-60.059,166.016,63.965,-48.340,19621.981
1685917871.884,0.488,-37.598,-3.906,-29.297,19621.985
1685917871.887,5.371,-640.137,-336.426,-23.438,19621.989
1685917871.891,-51.758,-656.250,-243.652,-41.992,19621.993
1685917871.895,-64.453,180.176,111.328,-40.527,19621.997
1685917871.899,-11.719,199.219,2.930,-19.043,19622.001
1685917871.903,9.766,-7.324,-36.621,-17.090,19622.005
1685917871.907,-36.621,268.555,64.453,-33.203,19622.009
1685917871.924,-65.918,337.891,43.945,-34.668,19622.024
1685917871.928,-26.367,199.707,49.805,-18.555,19622.028
1685917871.932,9.277,178.223,101.074,-21.484,19622.032
1685917871.936,-29.297,101.562,9.766,-33.691,19622.035
1685917871.940,-64.941,205.078,47.363,-36.133,19622.039
1685917871.944,-31.738,-94.238,-103.516,-16.113,19622.043
1685917871.947,5.859,-856.934,-387.695,-1.465,19622.047
1685917871.951,-9.766,-176.758,-33.203,-21.973,19622.051
1685917871.955,-66.895,396.484,123.535,-44.434,19622.055
1685917871.959,-64.453,26.855,-89.844,-28.320,19622.059
1685917871.963,4.395,166.016,27.832,-20.508,19622.063
1685917871.967,6.348,479.004,165.527,-39.062,19622.067
1685917871.968,-47.363,177.246,-26.367,-50.293,19622.068
1685917871.972,-71.289,-219.238,-229.980,-43.945,19622.071
1685917871.976,-36.621,118.164,4.395,-35.645,19622.075
1685917871.980,-10.742,492.188,155.762,-39.551,19622.079
1685917871.984,-52.246,269.531,21.484,-52.734,19622.083
1685917871.988,-81.543,-375.000,-265.137,-46.387,19622.087
1685917871.991,-42.969,-333.984,-201.660,-27.832,19622.091
1685917871.995,-1.465,-31.250,26.367,-25.391,19622.095
1685917871.999,-30.273,-75.684,-32.715,-32.227,19622.099
1685917872.003,-87.402,-796.875,-461.426,-40.527,19622.103
1685917872.007,-71.777,-876.465,-399.414,-33.691,19622.107
1685917872.011,-0.977,251.465,124.512,-22.949,19622.110
1685917872.014,-6.836,416.016,64.453,-30.762,19622.115
1685917872.018,-62.988,99.121,-51.758,-41.992,19622.119
1685917872.022,-64.453,260.742,74.219,-33.203,19622.123
1685917872.026,-11.719,404.297,115.723,-23.438,19622.126
1685917872.030,0.000,258.789,19.043,-31.738,19622.130
1685917872.034,-45.410,-170.898,-181.641,-41.016,19622.134
1685917872.037,-74.219,-134.277,-118.652,-43.457,19622.138
1685917872.041,-24.414,331.543,122.070,-31.738,19622.142
1685917872.045,13.184,-32.715,-84.473,-22.461,19622.146
1685917872.049,-25.391,-869.629,-412.598,-38.574,19622.150
1685917872.053,-56.152,-200.684,-31.250,-48.340,19622.154
1685917872.057,-30.762,348.633,119.629,-31.250,19622.158
1685917872.058,14.160,26.855,-84.961,-17.090,19622.157
1685917872.062,-5.859,168.945,19.531,-25.391,19622.161
1685917872.066,-67.871,336.914,106.445,-29.297,19622.165
1685917872.070,-45.410,226.074,60.547,-24.902,19622.169
1685917872.074,15.625,-13.672,-36.133,-17.578,19622.173
1685917872.078,2.930,-143.066,-59.570,-22.461,19622.177
1685917872.081,-56.641,-135.742,-86.914,-43.945,19622.181
1685917872.085,-61.523,-146.973,-176.758,-40.527,19622.185
1685917872.089,-10.742,-729.004,-391.113,-20.508,19622.189
1685917872.093,7.812,-654.297,-185.547,-15.625,19622.193
1685917872.097,-37.598,214.355,86.914,-35.156,19622.197
1685917872.101,-70.801,-50.293,-111.816,-33.691,19622.200
1685917872.106,-23.926,-323.242,-78.125,-11.719,19622.209
1685917872.110,20.020,330.566,165.039,-11.230,19622.213
1685917872.114,-17.090,471.680,104.492,-25.391,19622.217
1685917872.118,-67.871,63.965,-59.082,-40.039,19622.220
1685917872.122,-34.180,73.242,22.461,-29.785,19622.224
1685917872.126,16.602,73.730,42.480,-15.137,19622.228
1685917872.129,-10.254,127.930,38.574,-24.414,19622.232
1685917872.133,-64.453,-92.285,-129.395,-31.738,19622.236
1685917872.137,-54.199,-557.617,-191.406,-21.973,19622.240
1685917872.141,5.371,172.852,117.676,-20.508,19622.244
1685917872.145,1.465,480.469,106.934,-40.039,19622.248
1685917872.149,-50.293,-26.367,-116.699,-42.969,19622.252
1685917872.149,-57.129,38.574,-11.719,-33.203,19622.250
1685917872.153,-3.418,219.727,114.258,-20.020,19622.254
1685917872.157,15.625,50.293,-0.977,-19.043,19622.258
1685917872.161,-36.621,-357.422,-220.215,-34.180,19622.262
1685917872.165,-71.289,-263.184,-108.398,-36.621,19622.266
1685917872.169,-24.902,-34.180,-2.930,-21.484,19622.270
1685917872.172,14.648,-85.938,-24.414,-19.043,19622.274
1685917872.176,-26.367,-664.551,-352.539,-31.250,19622.278
1685917872.180,-70.801,-1000.000,-492.676,-28.320,19622.282
1685917872.184,-35.156,-64.941,21.484,-21.973,19622.286
1685917872.188,18.555,347.656,88.867,-16.602,19622.289
1685917872.192,-1.953,158.203,-4.883,-17.090,19622.293
1685917872.239,-60.059,344.238,94.238,-31.250,19622.339
1685917872.243,-53.223,397.461,93.750,-26.367,19622.343
1685917872.247,-0.488,304.688,77.637,-13.184,19622.347
1685917872.251,7.324,204.102,75.195,-23.926,19622.351
1685917872.255,-44.434,-6.836,-58.594,-44.434,19622.355
1685917872.259,-62.500,-129.395,-165.527,-44.922,19622.359
1685917872.262,-17.578,-253.418,-188.965,-24.414,19622.363
1685917872.266,-0.488,-814.453,-368.652,-20.508,19622.367
1685917872.270,-28.320,-235.352,-80.078,-40.527,19622.371
1685917872.274,-62.988,328.613,116.211,-52.734,19622.375
1685917872.278,-31.250,35.156,-52.246,-33.203,19622.378
1685917872.282,15.625,230.957,58.105,-20.508,19622.382
1685917872.243,-20.020,475.586,137.695,-40.039,19622.347
1685917872.247,-69.824,245.117,9.277,-45.410,19622.351
1685917872.251,-45.410,-77.148,-89.355,-24.414,19622.355
1685917872.255,7.324,225.586,90.332,-18.066,19622.358
1685917872.259,-7.812,375.977,130.371,-32.715,19622.362
1685917872.263,-57.617,-141.602,-89.355,-38.574,19622.366
1685917872.266,-54.199,-375.488,-124.023,-35.645,19622.370
1685917872.270,-5.859,-217.773,-23.438,-42.480,19622.374
1685917872.274,-1.465,128.906,77.637,-52.246,19622.378
1685917872.278,-55.664,153.320,6.836,-58.594,19622.382
1685917872.282,-83.984,-521.484,-262.207,-61.035,19622.386
1685917872.286,-28.320,-59.082,12.207,-44.922,19622.390
1685917872.298,17.090,535.156,195.801,-30.273,19622.398
1685917872.302,-23.438,177.734,-27.344,-33.203,19622.402
1685917872.306,-63.965,-216.797,-105.469,-43.945,19622.406
1685917872.310,-28.809,68.848,57.129,-37.109,19622.410
1685917872.314,18.555,351.074,136.719,-27.344,19622.414
1685917872.318,-9.277,-18.066,-27.832,-41.992,19622.418
1685917872.321,-60.059,-907.715,-514.160,-46.387,19622.422
1685917872.325,-43.457,-1000.000,-471.191,-27.832,19622.426
1685917872.329,4.883,-49.316,49.805,-20.996,19622.430
1685917872.333,1.465,132.812,11.230,-20.996,19622.434
1685917872.337,-48.828,29.785,-21.484,-36.133,19622.438
1685917872.341,-59.082,355.469,104.492,-44.922,19622.441
1685917872.343,-9.277,421.875,103.027,-29.297,19622.443
1685917872.347,9.766,48.340,-74.707,-20.508,19622.446
1685917872.351,-26.855,69.336,-20.020,-34.180,19622.450
1685917872.355,-55.664,354.492,104.004,-57.129,19622.454
1685917872.359,-26.855,250.488,69.824,-48.340,19622.458
1685917872.363,3.418,-323.242,-202.637,-35.156,19622.462
1685917872.366,-24.902,-433.105,-201.172,-48.340,19622.466
1685917872.370,-59.082,-50.293,7.812,-50.781,19622.470
1685917872.374,-23.438,148.926,43.945,-37.109,19622.474
1685917872.378,19.043,-541.016,-267.578,-18.555,19622.478
1685917872.382,-6.836,-368.652,-119.141,-23.926,19622.482
1685917872.386,-50.781,253.418,75.195,-45.410,19622.486
