timestamps,TP9,AF7,AF8,TP10,Secondary Timestamp
1686714805.842,-28.320,-377.441,103.027,6.348,885.737
1686714805.846,21.484,130.371,190.918,58.105,885.741
1686714805.850,-17.578,-194.824,-35.156,-36.133,885.745
1686714805.854,-71.289,-720.703,-179.688,-100.098,885.749
1686714805.858,-43.945,-340.332,66.895,-18.066,885.753
1686714805.862,19.531,-248.535,106.934,77.148,885.757
1686714805.865,13.672,-606.934,-90.332,7.324,885.761
1686714805.869,-60.547,-871.582,-288.574,-101.562,885.764
1686714805.873,-61.035,-700.195,2.930,-55.664,885.768
1686714805.877,7.812,-258.789,200.684,50.781,885.772
1686714805.881,9.277,-343.750,-21.973,16.602,885.776
1686714805.885,-53.223,-672.363,-62.500,-98.633,885.780
1686714805.886,-68.359,-293.945,133.789,-93.262,885.782
1686714805.890,-9.277,-25.879,141.113,30.762,885.786
1686714805.894,16.113,-292.480,-43.945,46.875,885.790
1686714805.898,-28.320,-365.234,-8.789,-75.684,885.794
1686714805.902,-55.176,-235.840,60.059,-101.074,885.798
1686714805.906,-18.555,-406.250,-27.344,11.230,885.802
1686714805.909,20.508,-794.434,-190.430,70.312,885.806
1686714805.913,-11.719,-761.719,-84.961,-33.203,885.809
1686714805.917,-63.965,-250.000,134.766,-111.328,885.813
1686714805.921,-39.062,-143.555,90.820,-19.043,885.817
1686714805.925,23.438,-493.652,-75.684,76.172,885.821
1686714805.929,8.789,-633.301,-89.844,3.418,885.825
1686714805.933,-55.664,-550.781,-17.090,-112.305,885.841
1686714805.937,-45.410,-379.883,29.297,-64.453,885.845
1686714805.941,7.812,-812.500,-206.543,65.430,885.849
1686714805.945,12.695,-685.547,-1.953,42.480,885.853
1686714805.949,-36.133,-189.453,189.941,-77.148,885.857
1686714805.953,-69.824,-565.430,-70.801,-86.426,885.861
1686714805.956,-23.438,-921.387,-211.426,31.250,885.864
1686714805.960,20.508,-367.188,105.469,51.758,885.868
1686714805.964,-21.973,-80.566,117.188,-63.477,885.872
1686714805.968,-70.312,-424.316,-46.387,-119.141,885.876
1686714805.972,-28.320,-393.066,82.520,-17.090,885.880
1686714805.976,23.926,-29.785,143.066,63.477,885.884
1686714805.992,-9.766,-32.715,54.688,-36.133,885.887
1686714805.996,-62.988,-532.715,-154.785,-114.746,885.891
1686714806.000,-46.387,-633.789,-45.410,-38.574,885.895
1686714806.004,20.020,-120.605,150.391,60.059,885.899
1686714806.008,16.113,-29.785,56.152,13.184,885.903
1686714806.012,-41.504,-688.965,-295.898,-83.008,885.907
1686714806.015,-61.523,-877.930,-174.805,-56.152,885.911
1686714806.019,-5.371,-125.000,239.258,48.828,885.914
1686714806.023,21.484,-11.719,95.703,41.016,885.918
1686714806.027,-48.828,-569.824,-197.754,-89.355,885.922
1686714806.031,-85.449,-585.938,-58.105,-99.609,885.926
1686714806.035,-33.203,-416.016,114.746,18.555,885.930
1686714806.037,8.789,-291.992,66.895,51.758,885.937
1686714806.041,-34.668,-754.395,-254.395,-45.410,885.941
1686714806.045,-75.684,-595.215,-36.621,-112.793,885.945
1686714806.049,-29.785,-44.922,198.730,-21.973,885.949
1686714806.053,21.973,-262.695,-12.207,68.359,885.953
1686714806.057,-9.277,-778.809,-140.137,-9.277,885.956
1686714806.060,-71.289,-748.535,-27.832,-112.793,885.960
1686714806.064,-59.570,-231.934,172.852,-53.711,885.964
1686714806.068,8.789,-256.836,40.039,68.848,885.968
1686714806.072,4.395,-821.289,-234.375,28.320,885.972
1686714806.076,-65.430,-448.242,25.391,-106.445,885.976
1686714806.080,-73.730,-105.957,142.090,-94.727,885.980
1686714806.082,-15.137,-327.637,-10.742,32.715,885.977
1686714806.086,12.207,-314.453,34.668,46.875,885.981
1686714806.090,-25.391,-191.406,43.457,-66.406,885.985
1686714806.094,-56.641,-244.141,-4.395,-92.773,885.989
1686714806.098,-16.113,-450.195,-77.148,25.879,885.993
1686714806.102,21.973,-545.410,-36.133,70.801,885.997
1686714806.105,-15.137,-550.781,-15.625,-34.180,886.001
1686714806.109,-67.871,-569.336,-47.363,-104.492,886.005
1686714806.113,-44.434,-890.137,-233.887,-8.301,886.009
1686714806.117,18.066,-831.543,-124.512,83.496,886.013
1686714806.121,14.648,-309.570,167.969,3.418,886.016
1686714806.125,-42.969,-591.797,-20.020,-97.168,886.020
1686714806.127,-45.410,-916.992,-201.660,-54.199,886.022
1686714806.131,21.973,-364.258,98.145,57.617,886.026
1686714806.135,34.668,87.402,216.797,27.344,886.030
1686714806.139,-31.738,-202.637,-25.879,-100.586,886.034
1686714806.143,-54.688,-489.258,-30.762,-90.332,886.038
1686714806.147,-0.977,-449.219,35.645,36.133,886.042
1686714806.150,32.227,-263.184,89.355,50.293,886.046
1686714806.154,-21.484,-331.543,-58.105,-79.102,886.050
1686714806.158,-71.777,-846.191,-305.176,-114.746,886.054
1686714806.162,-30.273,-556.641,41.504,0.000,886.058
1686714806.166,20.996,-167.480,180.664,62.012,886.061
1686714806.170,-3.906,-469.727,-62.988,-19.043,886.065
1686714806.172,-49.316,-618.652,-33.691,-100.098,886.068
1686714806.176,-30.762,-156.250,158.203,-27.344,886.072
1686714806.180,17.090,18.555,127.441,70.312,886.075
1686714806.184,5.371,-298.828,-57.617,10.742,886.079
1686714806.188,-51.758,-381.348,-25.391,-94.727,886.083
1686714806.192,-53.711,-457.520,-39.551,-55.664,886.087
1686714806.195,14.160,-517.578,-9.766,64.453,886.091
1686714806.199,27.344,-723.145,-162.598,49.805,886.095
1686714806.203,-31.250,-755.371,-107.422,-73.242,886.099
1686714806.207,-45.898,-203.613,149.414,-80.566,886.103
1686714806.211,5.371,-154.785,65.918,35.156,886.107
1686714806.215,33.691,-758.789,-220.215,76.660,886.111
1686714806.218,-5.371,-759.766,-97.656,-34.180,886.116
1686714806.222,-48.340,-226.562,151.367,-96.680,886.120
1686714806.226,-21.484,-192.871,53.711,8.301,886.123
1686714806.230,18.555,-749.512,-202.148,76.660,886.127
1686714806.234,-12.695,-523.926,-41.504,-22.949,886.131
1686714806.238,-65.430,-406.250,9.766,-105.469,886.135
1686714806.241,-53.223,-657.715,-67.383,-38.086,886.139
1686714806.245,-3.418,-832.031,-143.066,56.152,886.143
1686714806.249,-5.371,-354.004,83.008,4.883,886.147
1686714806.253,-58.594,-80.566,107.422,-104.004,886.151
1686714806.257,-72.754,-339.355,-20.020,-73.242,886.155
1686714806.261,-20.508,-213.867,96.680,47.852,886.159
1686714806.262,-3.906,26.855,120.117,30.273,886.171
1686714806.266,-58.594,-65.430,-8.789,-89.355,886.175
1686714806.270,-81.055,-538.574,-166.504,-91.797,886.179
1686714806.274,-30.273,-479.980,25.879,17.090,886.183
1686714806.278,7.324,-41.016,104.980,50.293,886.187
1686714806.282,-28.320,-352.051,-138.184,-61.523,886.191
1686714806.285,-78.613,-895.508,-355.957,-115.234,886.195
1686714806.289,-44.434,-915.039,-185.547,-1.465,886.199
1686714806.293,20.996,-200.195,201.660,75.684,886.202
1686714806.297,0.977,-23.926,119.141,-10.254,886.206
1686714806.301,-54.199,-626.953,-155.762,-95.703,886.210
1686714806.305,-49.316,-704.102,-79.102,-41.016,886.214
1686714806.307,12.207,-99.121,187.988,70.312,886.217
1686714806.311,18.066,-83.008,53.223,42.480,886.221
1686714806.315,-48.828,-824.707,-300.293,-87.891,886.225
1686714806.319,-60.059,-551.270,-3.906,-83.008,886.229
1686714806.323,1.465,-70.312,182.617,47.363,886.233
1686714806.327,24.902,-420.898,-50.781,61.035,886.237
1686714806.330,-33.691,-873.047,-179.199,-64.941,886.241
1686714806.334,-79.102,-682.129,29.785,-112.305,886.244
1686714806.338,-31.738,-89.355,211.914,4.395,886.248
1686714806.342,21.484,-244.629,-24.902,70.312,886.252
1686714806.346,-22.461,-848.633,-268.555,-30.762,886.256
1686714806.350,-73.730,-463.379,36.133,-102.539,886.260
1686714806.352,-41.504,-67.383,162.598,-13.184,886.262
1686714806.356,15.625,-275.879,7.324,83.984,886.266
1686714806.360,0.488,-380.371,4.395,9.766,886.270
1686714806.364,-54.688,-251.465,51.758,-99.121,886.274
1686714806.368,-51.270,-146.484,89.355,-48.340,886.278
1686714806.372,16.113,-507.812,-90.820,70.801,886.281
1686714806.375,26.855,-663.574,-82.520,37.109,886.285
1686714806.379,-43.945,-414.062,50.781,-86.426,886.289
1686714806.383,-63.965,-556.152,-45.898,-73.730,886.293
1686714806.387,-6.836,-855.957,-208.496,47.852,886.297
1686714806.391,14.160,-867.188,-103.027,59.570,886.301
1686714806.395,-26.855,-556.641,109.863,-55.664,886.305
1686714806.413,-61.523,-393.555,79.102,-93.750,886.307
1686714806.417,-27.344,-781.738,-160.156,6.836,886.311
1686714806.421,15.137,-423.340,51.758,61.523,886.315
1686714806.425,-2.441,42.480,172.363,-33.203,886.319
1686714806.429,-42.969,-303.711,-16.113,-103.516,886.323
1686714806.433,-27.344,-710.938,-48.828,-23.926,886.327
1686714806.436,25.391,-469.727,67.383,62.500,886.331
1686714806.440,17.090,-93.262,117.676,-0.977,886.335
1686714806.444,-40.039,-407.715,-109.375,-98.633,886.339
1686714806.448,-51.270,-736.816,-132.812,-49.805,886.343
1686714806.452,7.812,-396.484,132.324,65.430,886.346
1686714806.456,19.043,-172.852,143.555,34.180,886.350
1686714806.457,-47.363,-467.285,-94.727,-88.867,886.352
1686714806.461,-68.848,-630.859,-64.941,-91.309,886.356
1686714806.465,-12.695,-182.129,128.418,26.367,886.360
1686714806.469,22.949,6.836,107.910,55.664,886.364
1686714806.473,-25.391,-419.922,-135.254,-63.477,886.368
1686714806.477,-67.871,-802.246,-234.863,-112.305,886.372
1686714806.480,-26.367,-547.852,21.973,-8.789,886.376
1686714806.484,15.137,-180.664,110.352,47.363,886.380
1686714806.488,-21.484,-694.824,-243.164,-36.133,886.384
1686714806.492,-66.406,-785.156,-133.301,-114.746,886.387
1686714806.496,-43.945,-345.703,153.809,-52.734,886.391
1686714806.500,8.301,-457.520,45.410,51.758,886.395
1686714806.502,-9.277,-844.727,-241.211,6.348,886.398
1686714806.506,-81.055,-814.453,-89.844,-112.305,886.402
1686714806.510,-76.660,-219.238,200.195,-90.820,886.406
1686714806.514,-5.859,-131.348,103.516,31.250,886.410
1686714806.518,14.648,-649.902,-68.359,32.227,886.414
1686714806.522,-45.410,-709.473,-71.777,-86.426,886.418
1686714806.525,-74.219,-530.762,43.457,-106.445,886.422
1686714806.529,-21.484,-532.227,22.949,5.859,886.425
1686714806.533,8.301,-827.637,-200.195,39.551,886.429
1686714806.537,-24.414,-430.664,60.059,-67.871,886.433
1686714806.541,-55.664,-115.723,119.629,-113.770,886.437
1686714806.545,-14.648,-309.082,9.277,-3.906,886.441
1686714806.547,30.762,-198.730,111.328,68.848,886.443
1686714806.551,-13.184,-8.789,108.887,-29.785,886.447
1686714806.555,-71.289,-144.531,-4.883,-127.441,886.451
1686714806.559,-57.129,-526.855,-131.836,-63.477,886.454
1686714806.563,-2.930,-401.855,53.711,48.828,886.458
1686714806.567,-1.465,-360.352,18.555,6.348,886.462
1686714806.570,-56.641,-588.867,-132.812,-114.746,886.466
1686714806.574,-76.172,-847.656,-267.090,-92.285,886.470
1686714806.578,-27.832,-741.211,-56.641,25.879,886.474
1686714806.582,-0.488,-59.082,244.629,18.555,886.478
1686714806.586,-48.340,-261.719,-15.137,-100.098,886.482
1686714806.590,-82.520,-874.023,-298.828,-120.117,886.486
1686714806.591,-37.109,-467.285,38.574,-3.906,886.487
1686714806.595,12.695,83.496,225.586,52.734,886.491
1686714806.599,-17.578,-140.137,-0.488,-45.898,886.495
1686714806.603,-71.289,-441.895,-18.555,-113.770,886.499
1686714806.607,-43.945,-190.430,112.305,-32.227,886.503
1686714806.611,12.207,-273.926,50.293,47.852,886.507
1686714806.614,-12.207,-615.234,-140.625,-25.879,886.511
1686714806.618,-79.102,-933.105,-331.055,-123.535,886.515
1686714806.622,-67.383,-577.637,94.727,-62.988,886.519
1686714806.626,4.395,26.367,266.113,51.758,886.523
1686714806.630,11.719,-213.379,-5.371,19.043,886.526
1686714806.634,-41.992,-401.367,8.789,-95.215,886.530
1686714806.637,-62.500,-154.785,121.094,-95.215,886.533
1686714806.641,-13.672,16.113,122.070,23.438,886.536
1686714806.645,18.066,-226.074,-67.383,45.898,886.540
1686714806.649,-25.391,-380.859,-42.969,-79.590,886.544
1686714806.653,-55.664,-248.535,50.293,-116.211,886.548
1686714806.657,-18.066,-395.020,-37.598,-0.488,886.552
1686714806.660,16.113,-742.188,-173.340,60.547,886.556
1686714806.664,-15.625,-724.121,-75.195,-37.598,886.560
1686714806.668,-68.359,-436.035,106.934,-126.465,886.564
1686714806.672,-48.340,-514.160,25.391,-48.828,886.568
1686714806.676,15.137,-825.684,-183.105,53.711,886.572
1686714806.680,-1.465,-703.613,-45.898,-21.973,886.576
1686714806.682,-55.176,-213.867,160.156,-124.512,886.594
1686714806.686,-36.621,-286.621,40.527,-59.082,886.598
1686714806.690,11.719,-804.199,-191.406,67.383,886.602
1686714806.694,3.418,-425.293,32.715,46.387,886.605
1686714806.698,-47.363,-40.527,151.855,-80.078,886.609
1686714806.702,-72.754,-532.715,-153.320,-80.566,886.613
1686714806.705,-26.367,-919.434,-262.207,45.898,886.617
1686714806.709,8.789,-358.887,112.793,59.082,886.621
1686714806.713,-40.039,-16.113,124.512,-56.152,886.625
1686714806.717,-73.730,-319.824,-16.602,-93.750,886.629
1686714806.721,-27.832,-356.445,71.777,5.859,886.633
1686714806.725,15.137,-293.945,58.105,75.195,886.637
1686714806.728,-7.812,-203.613,62.988,-11.719,886.636
1686714806.732,-68.359,-446.289,-90.332,-104.492,886.640
1686714806.736,-63.965,-581.543,-62.012,-36.133,886.644
1686714806.740,-0.977,-114.746,158.691,61.035,886.648
1686714806.744,1.465,-14.648,92.773,7.324,886.652
1686714806.748,-47.852,-631.348,-227.539,-95.703,886.656
1686714806.751,-48.828,-716.797,-41.016,-65.918,886.660
1686714806.755,13.184,-94.727,209.473,42.969,886.664
1686714806.759,31.738,-85.938,34.180,31.250,886.667
1686714806.763,-23.438,-671.875,-249.023,-83.496,886.671
1686714806.767,-50.293,-623.047,-75.684,-94.238,886.675
1686714806.771,-6.348,-353.516,134.277,22.949,886.679
1686714806.787,34.668,-270.996,61.523,57.129,886.683
1686714806.791,-11.719,-782.715,-288.574,-46.387,886.687
1686714806.795,-71.289,-835.449,-91.797,-113.770,886.691
1686714806.799,-35.645,-116.211,248.047,-34.180,886.695
1686714806.803,18.555,-83.984,73.242,54.199,886.699
1686714806.807,1.465,-815.918,-257.324,-5.859,886.702
1686714806.810,-47.363,-925.293,-118.652,-90.820,886.706
1686714806.814,-43.457,-389.648,151.367,-54.199,886.710
1686714806.818,6.836,-268.555,27.344,47.363,886.714
1686714806.822,5.859,-803.711,-226.074,23.926,886.718
1686714806.826,-43.457,-484.863,57.617,-90.332,886.722
1686714806.830,-45.898,-115.723,158.691,-54.199,886.726
1686714806.832,13.672,-286.133,39.551,80.566,886.727
1686714806.836,48.340,-208.984,100.586,86.914,886.731
1686714806.840,4.395,-88.867,60.059,-31.250,886.735
1686714806.844,-24.902,-184.570,33.691,-54.199,886.739
1686714806.848,20.996,-511.719,-58.594,74.219,886.743
1686714806.852,52.246,-648.438,-39.062,124.512,886.747
1686714806.855,26.855,-530.273,18.066,25.879,886.751
1686714806.859,-10.742,-318.848,54.199,-37.598,886.755
1686714806.863,1.953,-731.445,-182.617,48.828,886.759
1686714806.867,52.246,-712.402,-73.730,126.953,886.762
1686714806.871,51.758,-128.906,177.734,42.969,886.766
1686714806.875,-3.906,-502.441,-36.621,-65.430,886.770
1686714806.876,-8.789,-892.578,-239.258,-12.207,886.772
1686714806.880,50.781,-399.414,48.340,96.680,886.776
1686714806.884,67.871,39.551,199.219,63.477,886.780
1686714806.888,11.719,-205.078,-5.859,-42.480,886.784
1686714806.892,-20.508,-448.730,-14.160,-30.273,886.788
1686714806.896,20.508,-455.078,24.414,84.473,886.792
1686714806.899,46.875,-410.645,67.383,88.867,886.795
1686714806.903,-2.930,-503.906,-83.496,-32.715,886.799
1686714806.907,-45.410,-936.035,-343.262,-61.035,886.803
1686714806.911,-1.953,-508.301,92.285,48.828,886.807
1686714806.915,41.016,77.637,228.516,101.074,886.811
1686714806.919,6.836,-288.574,-29.297,0.000,886.815
1686714806.921,-43.945,-422.852,36.621,-86.426,886.818
1686714806.925,-24.414,-102.051,132.812,-13.672,886.822
1686714806.929,30.273,38.086,115.234,82.031,886.825
1686714806.933,18.066,-269.043,-80.078,11.230,886.829
1686714806.937,-38.086,-446.777,-70.312,-100.586,886.833
1686714806.941,-36.133,-472.168,3.906,-50.293,886.837
1686714806.944,17.578,-440.918,33.203,73.242,886.841
1686714806.948,22.461,-684.082,-165.527,51.270,886.845
1686714806.952,-38.086,-755.371,-104.492,-79.590,886.849
1686714806.956,-57.617,-346.191,142.090,-83.008,886.853
1686714806.960,-10.742,-407.227,56.152,36.621,886.857
1686714806.964,18.555,-858.887,-246.094,65.918,886.861
1686714806.967,-16.113,-770.020,-90.332,-51.758,886.862
1686714806.971,-52.246,-229.492,176.758,-106.445,886.866
1686714806.975,-18.066,-222.656,105.957,-6.348,886.870
1686714806.979,18.066,-297.363,105.957,52.246,886.874
1686714806.983,-16.602,-138.184,75.684,-35.645,886.878
1686714806.987,-61.523,-390.137,-80.566,-112.305,886.882
1686714806.990,-48.828,-687.500,-165.039,-44.434,886.886
1686714806.994,-1.953,-872.070,-201.172,52.246,886.890
1686714806.998,-3.418,-404.785,78.613,-9.766,886.894
1686714807.002,-56.641,-42.969,125.977,-124.512,886.897
1686714807.006,-62.012,-278.809,-7.324,-86.914,886.901
1686714807.010,-4.395,-320.312,73.730,38.086,886.905
1686714807.027,7.324,-303.711,18.555,35.645,886.922
1686714807.031,-47.852,-189.453,41.992,-84.961,886.926
1686714807.035,-69.824,-429.199,-83.496,-93.262,886.930
1686714807.039,-19.043,-566.406,-41.992,21.973,886.934
1686714807.043,18.066,-101.074,142.578,48.828,886.938
1686714807.047,-26.367,-314.453,-68.359,-61.523,886.942
1686714807.050,-74.707,-887.207,-312.012,-106.445,886.946
1686714807.054,-40.527,-700.195,-42.480,-5.371,886.950
1686714807.058,9.277,-21.484,237.793,56.641,886.954
1686714807.062,-5.859,-50.293,60.059,-31.738,886.958
1686714807.066,-59.570,-604.980,-186.523,-119.629,886.961
1686714807.070,-51.758,-684.570,-100.586,-49.805,886.965
1686714807.056,20.020,-111.816,185.059,62.012,886.967
1686714807.060,20.996,-25.879,67.383,20.020,886.971
1686714807.064,-47.852,-832.520,-355.957,-83.496,886.975
1686714807.068,-51.270,-738.770,-52.734,-59.570,886.978
1686714807.072,12.207,-40.527,226.562,61.035,886.982
1686714807.076,21.484,-325.684,-40.039,59.570,886.986
1686714807.079,-39.551,-900.879,-267.090,-71.777,886.990
1686714807.083,-66.895,-523.438,20.020,-96.191,886.994
1686714807.087,-8.301,22.949,218.750,16.602,886.998
1686714807.091,26.855,-208.984,-12.695,62.988,887.002
1686714807.095,-24.414,-821.289,-257.324,-36.133,887.006
1686714807.099,-71.289,-480.957,40.527,-104.004,887.010
1686714807.102,-37.598,-86.426,171.387,-8.301,887.026
1686714807.106,17.090,-250.000,9.766,72.266,887.030
1686714807.110,4.395,-280.762,32.227,-2.930,887.034
1686714807.114,-38.574,-159.180,58.594,-86.426,887.038
1686714807.118,-27.832,-137.695,58.594,-27.344,887.042
1686714807.122,30.762,-472.656,-74.707,84.961,887.045
1686714807.125,40.039,-694.336,-88.867,45.410,887.049
1686714807.129,-11.719,-599.121,-11.230,-72.754,887.053
1686714807.133,-20.508,-320.312,88.379,-54.688,887.057
1686714807.137,30.762,-632.812,-144.531,72.754,887.061
1686714807.141,39.551,-853.027,-129.395,77.148,887.065
1686714807.145,-7.324,-499.512,119.629,-43.457,887.069
1686714807.161,-34.668,-359.375,88.867,-72.266,887.057
1686714807.165,3.418,-755.859,-182.129,41.992,887.061
1686714807.169,50.293,-467.285,10.254,87.402,887.065
1686714807.173,19.531,42.480,193.848,-25.391,887.069
1686714807.177,-41.992,-259.766,-27.344,-109.863,887.073
1686714807.181,-24.902,-722.656,-88.867,-33.203,887.077
1686714807.184,35.645,-408.691,94.727,58.594,887.081
1686714807.188,26.367,-63.477,92.285,0.977,887.085
1686714807.192,-44.434,-527.832,-146.484,-101.562,887.088
1686714807.196,-51.270,-639.160,-45.410,-60.547,887.092
1686714807.200,19.043,-71.777,168.457,62.988,887.096
1686714807.204,25.879,102.051,127.441,32.715,887.100
1686714807.206,-43.945,-440.918,-184.082,-96.680,887.102
1686714807.210,-68.359,-930.664,-342.285,-86.426,887.106
1686714807.214,-14.160,-322.266,123.047,25.391,887.110
1686714807.218,15.137,62.988,181.152,41.016,887.114
1686714807.222,-31.738,-427.246,-137.207,-68.848,887.118
1686714807.226,-69.824,-713.867,-101.562,-120.605,887.122
1686714807.229,-29.297,-544.922,74.219,-11.719,887.126
1686714807.233,22.461,-366.699,65.430,63.965,887.130
1686714807.237,-7.324,-722.168,-195.312,-24.902,887.134
1686714807.241,-67.871,-745.117,-96.680,-118.652,887.138
1686714807.245,-59.082,-320.312,156.738,-55.176,887.141
1686714807.249,3.418,-395.020,72.754,53.223,887.145
1686714807.252,0.488,-867.676,-254.883,7.324,887.147
1686714807.256,-62.988,-766.113,-99.609,-128.418,887.151
1686714807.260,-63.477,-154.785,205.078,-108.398,887.155
1686714807.264,-6.348,-83.008,127.930,20.996,887.159
1686714807.268,4.395,-257.812,47.852,2.441,887.163
1686714807.272,-47.852,-512.207,-66.406,-109.863,887.167
1686714807.275,-64.941,-431.641,30.273,-108.398,887.170
1686714807.279,-9.766,-265.625,43.945,14.160,887.174
1686714807.283,14.648,-809.570,-207.520,47.363,887.178
1686714807.287,-25.879,-457.520,45.410,-70.801,887.182
1686714807.291,-63.477,-67.871,117.188,-115.723,887.186
1686714807.295,-42.969,-260.742,0.488,-13.184,887.190
1686714807.298,12.695,-249.512,72.266,68.848,887.195
1686714807.302,6.348,-343.262,27.832,7.324,887.199
1686714807.306,-61.035,-277.832,21.484,-92.285,887.203
1686714807.310,-66.406,-410.645,-28.320,-46.875,887.207
1686714807.314,-11.230,-432.129,79.102,52.246,887.211
1686714807.318,-2.441,-381.836,45.410,12.695,887.215
1686714807.321,-43.945,-560.059,-65.918,-88.379,887.219
1686714807.325,-54.199,-810.059,-172.363,-59.082,887.222
1686714807.329,2.930,-657.227,-1.465,59.570,887.226
1686714807.333,24.414,20.020,242.188,47.363,887.230
1686714807.337,-36.621,-183.105,-8.301,-76.172,887.234
1686714807.341,-64.941,-827.148,-283.691,-90.820,887.238
1686714807.342,-8.789,-436.523,31.250,19.043,887.237
1686714807.346,37.109,113.770,181.641,56.152,887.241
1686714807.350,-9.277,-133.301,-31.250,-49.805,887.245
1686714807.354,-59.082,-680.664,-68.848,-112.305,887.249
1686714807.358,-24.902,-515.137,45.898,-13.184,887.253
1686714807.362,19.531,-287.598,93.750,77.148,887.257
1686714807.365,-7.324,-484.863,-40.527,7.324,887.261
1686714807.369,-71.289,-910.156,-326.660,-95.215,887.265
1686714807.373,-63.477,-598.145,64.941,-53.711,887.268
1686714807.377,0.000,80.078,262.207,53.711,887.272
1686714807.381,1.465,-89.355,8.789,9.766,887.276
1686714807.385,-51.758,-350.586,30.762,-110.840,887.280
1686714807.387,-64.941,-194.824,116.699,-85.449,887.283
1686714807.391,-14.648,-24.414,117.188,30.762,887.287
1686714807.395,14.160,-230.469,-56.152,40.039,887.291
1686714807.399,-32.227,-337.402,-4.395,-77.148,887.294
1686714807.403,-67.383,-222.168,55.176,-103.027,887.298
1686714807.407,-33.691,-416.016,1.953,11.230,887.302
1686714807.410,-5.371,-782.227,-188.965,67.871,887.306
1686714807.414,-28.320,-945.312,-261.230,-25.391,887.310
1686714807.418,-59.082,-404.297,113.770,-117.676,887.314
1686714807.422,-35.645,-100.098,154.297,-38.086,887.318
1686714807.426,13.672,-444.824,-29.785,61.035,887.322
1686714807.430,-4.395,-600.098,-12.695,2.441,887.326
1686714807.432,-53.223,-344.238,123.535,-98.145,887.342
1686714807.436,-48.828,-213.379,92.285,-61.523,887.346
1686714807.440,8.789,-768.555,-209.961,65.430,887.350
1686714807.444,21.973,-522.949,-15.137,48.340,887.354
1686714807.448,-33.203,-108.398,164.062,-78.125,887.358
1686714807.452,-59.570,-571.289,-97.168,-81.543,887.362
1686714807.455,-16.602,-928.223,-224.609,27.832,887.365
1686714807.459,15.137,-364.746,98.633,48.340,887.369
1686714807.463,-19.531,-100.098,114.258,-53.223,887.373
1686714807.467,-59.082,-615.234,-113.770,-100.098,887.377
1686714807.471,-36.621,-612.793,18.066,-6.348,887.381
1686714807.475,16.602,-43.945,162.598,65.918,887.385
1686714807.492,-10.254,-18.555,36.621,-30.273,887.388
1686714807.496,-63.965,-438.965,-109.863,-108.398,887.391
1686714807.500,-32.715,-358.398,51.270,-31.250,887.395
1686714807.504,24.902,35.156,180.176,61.035,887.399
1686714807.508,8.789,24.414,52.734,5.371,887.403
1686714807.512,-60.059,-605.957,-249.023,-94.238,887.407
1686714807.515,-52.246,-747.070,-114.746,-58.594,887.411
1686714807.519,11.719,-104.004,184.082,50.293,887.415
1686714807.523,20.020,-35.645,76.172,28.320,887.419
1686714807.527,-33.203,-683.594,-273.926,-84.473,887.423
1686714807.531,-57.129,-769.531,-98.633,-89.844,887.427
1686714807.535,-2.930,-427.246,162.109,24.902,887.431
1686714807.537,26.367,-444.824,40.039,54.688,887.432
1686714807.541,-18.066,-877.441,-275.879,-53.711,887.436
1686714807.545,-63.965,-748.047,-77.148,-111.816,887.440
1686714807.549,-26.367,-111.328,255.371,-11.230,887.444
1686714807.553,28.320,-101.562,88.867,72.754,887.448
1686714807.557,-2.930,-627.930,-62.988,-1.465,887.452
1686714807.560,-64.941,-573.730,42.480,-92.773,887.456
1686714807.564,-48.340,-65.918,173.828,-28.320,887.460
1686714807.568,14.648,-182.617,13.672,87.891,887.463
1686714807.572,8.301,-826.172,-256.348,43.945,887.467
1686714807.576,-47.852,-470.703,25.391,-88.379,887.471
1686714807.580,-51.270,-60.059,147.949,-68.848,887.475
1686714807.583,8.789,-192.871,41.016,65.430,887.480
1686714807.587,20.996,-254.395,29.297,58.105,887.484
1686714807.591,-35.645,-382.812,-12.695,-68.359,887.488
1686714807.595,-47.852,-261.230,68.359,-84.961,887.492
1686714807.599,2.930,-372.559,0.000,43.457,887.496
1686714807.603,32.715,-706.055,-54.688,83.496,887.499
1686714807.606,-5.371,-500.488,55.176,-32.715,887.503
1686714807.610,-54.199,-235.840,91.309,-98.633,887.507
1686714807.614,-33.691,-691.406,-150.879,-5.859,887.511
1686714807.618,20.508,-642.090,-39.551,75.684,887.515
1686714807.622,7.812,-240.234,107.910,-9.277,887.519
1686714807.626,-53.223,-647.949,-120.605,-108.398,887.523
1686714807.627,-60.059,-901.855,-233.398,-41.992,887.523
1686714807.631,5.859,-341.309,108.398,60.059,887.526
1686714807.635,26.855,96.680,230.469,21.973,887.530
1686714807.639,-35.156,-216.797,2.441,-87.891,887.534
1686714807.643,-54.688,-642.090,-76.660,-76.660,887.538
1686714807.647,-8.301,-561.523,46.875,41.992,887.542
1686714807.650,7.812,-395.508,94.238,46.387,887.546
1686714807.654,-33.203,-572.754,-127.930,-70.801,887.550
1686714807.658,-59.082,-936.523,-319.824,-85.938,887.554
1686714807.662,-11.230,-452.637,157.715,19.531,887.558
1686714807.666,25.879,154.297,275.879,46.875,887.562
1686714807.670,-18.066,-158.691,-3.418,-57.129,887.565
1686714807.672,-63.965,-361.816,36.133,-130.859,887.567
1686714807.676,-38.574,-95.703,119.629,-44.434,887.571
1686714807.680,10.742,58.105,128.418,52.246,887.575
1686714807.684,-13.672,-266.602,-63.477,-22.461,887.579
1686714807.688,-78.125,-409.180,-53.711,-132.324,887.583
1686714807.692,-72.754,-455.078,-55.664,-79.590,887.587
1686714807.695,-13.184,-491.699,9.766,34.668,887.591
1686714807.699,-0.977,-721.680,-166.992,20.508,887.595
1686714807.703,-58.105,-956.055,-258.789,-83.984,887.599
1686714807.707,-76.660,-269.531,177.734,-99.121,887.603
1686714807.711,-20.020,-63.477,155.762,22.461,887.606
1686714807.715,9.277,-748.535,-225.098,55.176,887.610
1686714807.716,-29.297,-496.582,3.906,-66.895,887.612
1686714807.720,-64.453,-32.227,194.336,-114.258,887.616
1686714807.724,-36.133,-146.484,70.312,-7.812,887.620
1686714807.728,8.789,-257.324,38.086,57.129,887.624
1686714807.732,-15.625,-199.707,2.930,-38.086,887.628
1686714807.736,-63.965,-422.852,-130.371,-120.117,887.632
1686714807.739,-40.039,-631.836,-123.047,-40.039,887.636
1686714807.743,16.602,-850.098,-164.062,63.965,887.640
1686714807.747,13.184,-396.973,63.477,4.395,887.643
1686714807.751,-39.062,-166.992,91.309,-106.934,887.647
1686714807.755,-54.199,-604.004,-57.617,-80.078,887.651
1686714807.759,-7.324,-547.852,51.758,34.668,887.655
1686714807.761,9.277,-56.152,137.695,25.879,887.662
1686714807.765,-48.828,-83.984,27.344,-92.773,887.666
1686714807.769,-72.754,-497.559,-124.023,-98.145,887.669
1686714807.773,-28.320,-316.895,51.758,20.508,887.673
1686714807.777,-1.465,-17.090,127.930,51.758,887.677
1686714807.781,-41.504,-387.207,-141.113,-62.988,887.681
1686714807.784,-82.031,-881.836,-334.961,-107.422,887.685
1686714807.788,-47.852,-700.195,-60.059,-8.301,887.689
1686714807.792,4.883,-38.574,219.727,52.734,887.693
1686714807.796,-18.066,-12.695,73.730,-29.297,887.697
1686714807.800,-76.660,-621.582,-203.613,-116.211,887.701
1686714807.804,-69.336,-693.848,-91.309,-54.199,887.705
1686714807.807,-10.254,-322.266,114.258,52.246,887.704
1686714807.811,-7.812,-283.691,29.785,2.930,887.708
1686714807.815,-62.500,-844.727,-340.820,-104.980,887.712
1686714807.819,-68.848,-698.730,-88.867,-83.984,887.716
1686714807.823,-2.930,-52.734,239.258,29.297,887.720
1686714807.827,17.090,-337.402,-31.738,40.039,887.724
1686714807.830,-49.316,-905.762,-287.598,-74.707,887.728
1686714807.834,-74.707,-506.348,35.156,-106.445,887.731
1686714807.838,-24.902,27.344,202.637,0.488,887.735
1686714807.842,12.207,-109.863,40.039,41.992,887.739
1686714807.846,-23.926,-332.031,8.789,-64.941,887.743
1686714807.850,-73.730,-305.664,23.438,-132.324,887.747
1686714807.866,-44.434,-100.098,85.938,-28.809,887.762
1686714807.870,15.137,-161.133,32.715,68.359,887.766
1686714807.874,-6.836,-369.141,-38.086,-12.695,887.770
1686714807.878,-69.824,-527.832,-149.902,-116.211,887.774
1686714807.882,-54.199,-264.160,52.246,-62.988,887.778
1686714807.886,6.348,-480.957,-97.168,57.129,887.782
1686714807.889,6.348,-987.305,-317.383,32.227,887.786
1686714807.893,-51.270,-470.215,68.848,-105.957,887.790
1686714807.897,-61.035,-213.867,112.793,-98.633,887.794
1686714807.901,-8.301,-389.160,21.973,28.320,887.797
1686714807.905,20.508,-332.031,30.273,51.758,887.801
1686714807.909,-28.320,-424.805,-4.883,-62.988,887.805
1686714807.912,-66.406,-391.602,24.902,-95.703,887.807
1686714807.916,-18.555,-742.188,-189.453,22.949,887.811
1686714807.920,28.320,-421.387,31.250,72.754,887.815
1686714807.924,-4.395,24.902,143.066,-33.691,887.819
1686714807.928,-61.035,-323.242,-81.055,-109.863,887.823
1686714807.932,-41.504,-605.957,-52.246,-19.531,887.827
1686714807.935,13.672,-534.668,39.551,69.824,887.831
1686714807.939,-13.184,-402.344,43.945,-23.926,887.835
1686714807.943,-69.824,-438.477,-86.426,-136.719,887.839
1686714807.947,-66.406,-897.461,-323.242,-73.730,887.843
1686714807.951,-3.906,-447.754,102.051,44.434,887.847
1686714807.955,13.184,60.547,195.312,12.695,887.850
1686714807.957,-42.480,-321.289,-56.152,-109.863,887.852
1686714807.961,-59.570,-365.723,65.918,-113.281,887.856
1686714807.965,-6.836,-48.340,132.324,11.230,887.860
1686714807.969,22.461,52.734,105.957,33.691,887.864
1686714807.973,-17.578,-357.422,-140.137,-78.613,887.868
1686714807.977,-55.176,-775.391,-197.266,-113.770,887.872
1686714807.980,-22.949,-467.285,51.270,-4.395,887.876
1686714807.984,34.180,-72.754,119.141,64.941,887.880
1686714807.988,-0.488,-657.715,-278.320,-22.461,887.884
1686714807.992,-67.383,-954.102,-300.293,-104.980,887.888
1686714807.996,-33.691,-423.828,139.160,-37.598,887.892
1686714808.000,27.344,-445.801,75.195,53.711,887.895
1686714808.002,5.371,-829.590,-246.582,1.953,887.897
1686714808.006,-58.594,-527.832,-16.113,-107.422,887.901
1686714808.010,-54.688,-37.109,203.125,-70.312,887.905
1686714808.014,7.324,-67.871,74.219,58.105,887.909
1686714808.018,19.531,-333.984,22.461,51.758,887.913
1686714808.022,-19.531,-569.336,-110.840,-59.082,887.917
1686714808.025,-24.902,-563.477,-75.684,-53.223,887.921
1686714808.029,-1.953,-514.648,8.301,46.387,887.925
1686714808.033,3.906,-836.426,-199.707,65.918,887.929
1686714808.037,-37.109,-462.891,35.645,-56.152,887.933
1686714808.041,-78.613,-246.094,113.281,-120.605,887.937
1686714808.045,-52.246,-563.965,-4.395,-23.926,887.940
1686714808.047,-1.953,-486.328,57.617,58.105,887.942
1686714808.051,-24.902,-105.469,112.793,-28.320,887.946
1686714808.055,-84.473,-138.672,45.898,-132.324,887.950
1686714808.059,-69.336,-370.605,5.859,-59.570,887.954
1686714808.063,-8.301,-166.992,90.332,54.688,887.958
1686714808.067,-9.766,-306.152,-22.461,8.301,887.962
1686714808.070,-64.453,-597.656,-159.668,-106.934,887.966
1686714808.074,-66.895,-824.707,-233.887,-69.824,887.970
1686714808.078,-15.625,-683.594,-28.809,56.641,887.973
1686714808.082,1.953,-16.602,222.656,41.016,887.977
1686714808.086,-38.574,-116.211,45.898,-79.590,887.981
1686714808.090,-68.848,-772.949,-269.531,-95.703,887.985
1686714808.093,-17.090,-482.910,-15.137,20.020,887.990
1686714808.097,24.902,-136.719,137.695,61.523,887.994
1686714808.101,-14.160,-303.223,-21.484,-43.457,887.998
1686714808.105,-65.430,-774.902,-263.184,-107.910,888.002
1686714808.109,-43.945,-475.586,10.254,-20.020,888.006
1686714808.113,12.695,-224.121,126.465,69.824,888.010
1686714808.116,-8.301,-564.453,-107.422,0.000,888.014
1686714808.120,-64.453,-881.348,-282.715,-92.773,888.017
1686714808.124,-44.922,-397.461,63.965,-34.180,888.021
1686714808.128,12.695,125.000,229.492,70.312,888.025
1686714808.132,12.695,-166.992,-8.789,27.344,888.029
1686714808.136,-35.156,-331.543,14.160,-81.055,888.033
1686714808.137,-45.898,-104.492,124.023,-73.242,888.032
1686714808.141,4.395,85.938,108.398,40.527,888.036
1686714808.145,23.438,-131.348,-50.293,53.223,888.040
1686714808.149,-26.855,-422.363,-101.562,-67.383,888.044
1686714808.153,-48.828,-483.887,-63.477,-84.961,888.048
1686714808.157,-3.418,-409.668,27.832,40.039,888.052
1686714808.160,30.273,-634.277,-108.398,80.566,888.056
1686714808.164,-11.230,-963.379,-298.340,-28.809,888.060
1686714808.168,-58.105,-454.102,71.777,-111.816,888.064
1686714808.172,-32.227,-34.180,198.730,-19.043,888.068
1686714808.176,19.043,-340.820,0.488,80.566,888.071
1686714808.180,-1.465,-543.945,-50.781,-3.906,888.075
1686714808.182,-58.105,-256.348,76.172,-110.352,888.091
1686714808.186,-48.828,-146.484,81.543,-57.617,888.095
1686714808.190,4.883,-732.910,-200.195,59.570,888.099
1686714808.194,5.859,-430.176,10.254,32.715,888.103
1686714808.198,-45.898,-22.461,134.277,-83.984,888.107
1686714808.202,-62.988,-515.137,-163.086,-84.961,888.111
1686714808.205,-18.555,-946.289,-285.645,33.203,888.115
1686714808.209,15.137,-522.461,50.781,49.805,888.119
1686714808.213,-23.438,-23.438,157.715,-74.707,888.123
1686714808.217,-66.406,-348.145,-82.031,-114.746,888.127
1686714808.221,-30.273,-603.027,-31.250,-0.977,888.130
1686714808.225,20.996,-94.727,180.176,56.641,888.134
1686714808.227,-7.812,24.414,77.637,-28.809,888.137
1686714808.231,-59.570,-390.137,-97.168,-99.609,888.141
1686714808.235,-40.039,-364.746,37.598,-27.832,888.145
1686714808.239,14.648,-44.922,123.535,64.453,888.149
1686714808.243,0.000,-50.781,27.344,-0.977,888.153
1686714808.247,-58.105,-628.906,-255.371,-102.051,888.156
1686714808.250,-57.129,-744.629,-115.234,-59.082,888.160
1686714808.254,7.324,-85.938,200.195,53.223,888.164
1686714808.258,31.250,-115.234,25.879,37.109,888.168
1686714808.262,-27.344,-802.246,-365.723,-68.848,888.172
1686714808.266,-71.777,-826.172,-150.879,-88.867,888.176
1686714808.270,-22.949,-428.223,169.922,16.602,888.180
1686714808.287,17.578,-444.824,41.504,52.734,888.183
1686714808.291,-21.973,-816.406,-238.770,-51.270,888.187
1686714808.295,-59.570,-518.066,17.090,-108.887,888.190
1686714808.299,-27.832,52.734,245.117,0.000,888.194
1686714808.303,18.066,-19.531,74.219,79.590,888.198
1686714808.307,-2.930,-651.367,-156.250,-5.859,888.202
1686714808.310,-58.594,-706.055,-73.730,-98.145,888.206
1686714808.314,-33.691,-98.145,185.547,-36.133,888.210
1686714808.318,26.367,-152.344,23.438,75.684,888.214
1686714808.322,8.301,-702.637,-145.020,23.438,888.218
1686714808.326,-40.039,-376.953,69.336,-107.910,888.222
1686714808.330,-43.457,-228.027,71.777,-76.172,888.226
1686714808.332,4.883,-518.555,-13.672,56.152,888.227
1686714808.336,23.926,-516.602,0.000,48.828,888.231
1686714808.340,-21.973,-205.078,68.848,-69.824,888.235
1686714808.344,-51.758,-156.738,55.664,-85.938,888.239
1686714808.348,8.301,-375.488,-10.742,41.992,888.243
1686714808.352,45.410,-538.574,-19.043,85.449,888.247
1686714808.355,-9.277,-423.340,50.781,-39.062,888.251
1686714808.359,-50.293,-195.312,82.031,-106.934,888.255
1686714808.363,-24.902,-666.504,-183.105,-4.883,888.259
1686714808.367,22.461,-653.809,-46.875,73.242,888.262
1686714808.371,16.602,-136.230,184.570,-7.812,888.266
1686714808.375,-40.527,-538.574,-100.586,-93.750,888.270
1686714808.378,-36.621,-874.512,-228.516,-33.691,888.276
1686714808.382,22.461,-402.344,58.594,69.824,888.280
1686714808.386,19.043,-166.992,122.559,21.484,888.284
1686714808.390,-36.133,-376.465,-20.020,-90.332,888.288
1686714808.394,-51.270,-700.195,-103.027,-61.035,888.291
1686714808.398,4.395,-627.441,21.973,60.059,888.295
1686714808.401,26.855,-288.086,127.930,64.941,888.299
1686714808.405,-19.043,-301.758,-4.395,-57.617,888.303
1686714808.409,-46.875,-844.727,-269.043,-87.402,888.307
1686714808.413,-7.324,-361.816,87.891,22.461,888.311
1686714808.417,33.203,153.320,219.727,74.707,888.315
1686714808.421,-3.418,-254.395,-75.684,-25.879,888.319
1686714808.422,-56.641,-379.883,-33.691,-101.074,888.318
1686714808.426,-27.344,-84.473,138.184,-6.348,888.322
1686714808.430,31.250,76.660,100.098,94.238,888.326
1686714808.434,7.324,-238.770,-83.984,18.555,888.330
1686714808.438,-47.852,-522.949,-117.676,-89.844,888.334
1686714808.442,-33.691,-567.871,-49.805,-39.062,888.337
1686714808.445,32.227,-441.406,71.777,78.613,888.341
1686714808.449,39.551,-638.184,-139.160,62.500,888.345
1686714808.453,-20.508,-978.516,-294.434,-51.270,888.349
1686714808.457,-28.809,-355.957,140.625,-67.383,888.353
1686714808.461,20.508,-30.273,179.688,46.875,888.357
1686714808.465,31.738,-656.738,-179.199,69.824,888.361
1686714808.467,-16.602,-492.188,-10.742,-47.852,888.362
1686714808.471,-53.223,-77.637,133.301,-82.520,888.366
1686714808.475,-7.324,-190.918,59.082,30.762,888.370
1686714808.479,45.410,-354.492,60.547,90.332,888.374
1686714808.483,15.137,-207.031,51.270,-14.160,888.378
1686714808.487,-35.156,-421.875,-104.492,-94.727,888.382
1686714808.490,-11.719,-704.102,-182.129,-6.348,888.386
1686714808.494,30.762,-928.223,-221.680,94.238,888.390
1686714808.498,17.578,-584.473,108.887,29.297,888.394
1686714808.502,-31.738,-100.098,180.176,-83.984,888.398
1686714808.506,-40.527,-273.438,19.043,-52.246,888.401
1686714808.510,24.902,-263.672,128.418,68.359,888.405
1686714808.512,40.527,-3.418,144.531,62.500,888.407
1686714808.516,-20.020,-51.270,38.086,-53.711,888.411
1686714808.520,-44.434,-357.910,-43.457,-62.500,888.415
1686714808.524,9.766,-239.258,78.613,48.828,888.419
1686714808.528,40.039,-30.762,88.867,72.754,888.423
1686714808.532,-16.113,-381.348,-117.188,-37.598,888.427
1686714808.535,-57.129,-853.516,-271.484,-76.172,888.431
1686714808.539,-20.996,-709.961,-52.734,25.879,888.435
1686714808.543,27.344,-52.734,219.727,82.520,888.439
1686714808.547,6.836,-62.988,40.039,-8.301,888.443
1686714808.551,-49.805,-735.352,-273.438,-83.008,888.447
1686714808.555,-25.391,-778.320,-78.613,-18.555,888.450
1686714808.572,41.504,-119.629,204.590,77.148,888.467
1686714808.576,32.227,-76.660,52.734,26.367,888.471
1686714808.580,-46.387,-821.289,-306.641,-94.727,888.475
1686714808.584,-45.410,-560.547,4.883,-60.059,888.479
1686714808.588,35.645,37.109,227.051,77.148,888.483
1686714808.592,49.805,-334.961,-46.387,70.312,888.487
1686714808.595,-6.836,-906.738,-306.641,-55.664,888.491
1686714808.599,-23.438,-517.578,31.250,-70.801,888.495
1686714808.603,31.250,47.852,236.328,47.852,888.499
1686714808.607,61.035,-63.965,45.898,88.867,888.503
1686714808.611,9.766,-263.672,37.598,-19.531,888.507
1686714808.615,-31.738,-218.750,43.457,-55.176,888.510
1686714808.604,2.441,-251.953,15.625,37.598,888.504
1686714808.608,51.758,-446.777,-14.160,98.633,888.508
1686714808.612,24.902,-544.922,-22.461,10.742,888.511
1686714808.616,-29.785,-253.418,77.148,-91.309,888.515
1686714808.620,-16.113,-89.844,91.797,-25.391,888.519
1686714808.624,37.598,-396.973,-52.246,94.727,888.523
1686714808.627,38.574,-604.980,-37.598,49.805,888.527
1686714808.631,-12.207,-306.641,108.398,-72.754,888.531
1686714808.635,-24.414,-143.555,94.238,-56.152,888.535
1686714808.639,30.273,-615.234,-160.645,68.848,888.539
1686714808.643,60.059,-762.695,-118.652,73.242,888.543
1686714808.647,10.742,-456.055,58.105,-48.340,888.547
1686714808.662,-18.066,-346.680,29.785,-69.824,888.558
1686714808.666,20.020,-565.430,-59.082,45.898,888.562
1686714808.670,52.246,-330.566,36.621,91.309,888.566
1686714808.674,14.648,-276.367,-4.883,-9.277,888.570
1686714808.678,-34.180,-387.207,-11.719,-77.637,888.573
1686714808.682,-11.230,-871.094,-323.242,18.555,888.577
1686714808.685,48.828,-898.926,-166.992,110.840,888.581
1686714808.689,40.039,-157.715,198.242,22.949,888.585
1686714808.693,-19.531,-204.102,82.031,-79.590,888.589
1686714808.697,-14.648,-308.594,138.672,-15.137,888.593
1686714808.701,40.527,6.348,171.875,93.750,888.597
1686714808.705,41.016,-74.707,77.637,56.641,888.601
1686714808.707,-18.555,-413.574,-96.680,-57.617,888.602
1686714808.711,-38.574,-387.695,32.715,-50.293,888.606
1686714808.715,14.648,-3.418,178.223,68.848,888.610
1686714808.719,44.922,92.773,89.844,83.496,888.614
1686714808.723,6.348,-337.891,-145.996,-28.809,888.618
1686714808.727,-22.949,-635.254,-139.160,-65.918,888.622
1686714808.730,13.184,-505.859,33.203,32.715,888.625
1686714808.734,47.363,-400.391,49.316,81.055,888.629
1686714808.738,12.695,-731.934,-203.125,-13.184,888.633
1686714808.742,-44.922,-945.801,-272.949,-90.332,888.637
1686714808.746,-21.484,-386.719,149.902,-16.113,888.641
1686714808.750,42.969,-316.895,107.422,94.727,888.645
1686714808.752,25.879,-661.133,-140.137,24.902,888.648
1686714808.756,-37.109,-371.094,22.461,-92.773,888.651
1686714808.760,-27.344,-15.625,171.387,-38.574,888.655
1686714808.764,36.133,-49.316,83.496,90.820,888.659
1686714808.768,47.363,-731.934,-274.902,76.172,888.663
1686714808.772,-7.812,-910.645,-165.527,-51.270,888.667
1686714808.775,-32.227,-372.070,167.969,-54.199,888.671
1686714808.779,24.414,-247.070,74.219,76.172,888.675
1686714808.783,46.875,-814.941,-247.559,103.516,888.679
1686714808.787,0.000,-485.840,19.531,-36.133,888.683
1686714808.791,-35.645,7.812,208.008,-89.844,888.687
1686714808.795,-2.441,-265.625,21.973,19.531,888.690
1686714808.797,37.109,-495.117,-15.137,83.008,888.692
1686714808.801,13.672,-140.625,94.727,-5.371,888.696
1686714808.805,-36.133,-87.891,56.641,-95.215,888.700
1686714808.809,-25.391,-336.426,-21.973,-27.832,888.704
1686714808.813,31.738,-189.453,99.609,77.637,888.708
1686714808.817,23.926,-301.270,-26.855,29.297,888.712
1686714808.820,-28.809,-517.578,-172.852,-85.938,888.715
1686714808.824,-26.367,-739.258,-217.773,-50.781,888.719
1686714808.828,23.926,-651.855,-28.320,65.918,888.723
1686714808.832,41.504,10.254,219.727,48.828,888.727
1686714808.836,-9.277,-118.652,25.879,-66.895,888.731
1686714808.840,-40.039,-823.730,-262.207,-67.383,888.735
1686714808.842,20.020,-609.375,-9.277,58.594,888.737
1686714808.846,59.082,98.633,221.191,89.844,888.741
1686714808.850,10.254,-52.734,12.695,-23.438,888.745
1686714808.854,-29.785,-830.078,-301.270,-70.312,888.749
1686714808.858,3.418,-599.609,-5.371,23.926,888.753
1686714808.862,57.129,-181.641,183.594,97.656,888.757
1686714808.865,29.785,-464.355,-59.082,23.438,888.761
1686714808.869,-37.598,-877.441,-266.602,-64.941,888.765
1686714808.873,-24.902,-407.715,84.473,-9.277,888.769
1686714808.877,44.434,176.270,252.441,98.145,888.773
1686714808.881,44.922,-103.027,-3.906,52.734,888.777
1686714808.885,-18.555,-304.199,-15.625,-63.965,888.780
1686714808.888,-26.367,-187.988,62.500,-28.320,888.786
1686714808.892,24.902,-182.617,24.902,82.031,888.790
1686714808.896,56.152,-448.242,-39.062,80.566,888.794
1686714808.900,9.277,-548.340,-23.438,-39.062,888.798
1686714808.904,-24.902,-200.195,88.379,-69.824,888.802
1686714808.908,20.508,-230.469,58.105,52.734,888.806
1686714808.911,48.340,-628.418,-130.371,102.051,888.810
1686714808.915,4.883,-723.633,-99.121,-6.348,888.814
1686714808.919,-28.809,-250.000,131.836,-61.035,888.818
1686714808.923,-0.488,-38.574,158.691,28.809,888.821
1686714808.927,46.387,-386.719,4.883,99.609,888.825
1686714808.931,33.203,-530.762,-33.691,20.508,888.829
1686714808.932,-21.484,-192.383,100.586,-85.449,888.841
1686714808.936,-17.090,-146.484,65.430,-20.996,888.845
1686714808.940,36.133,-704.590,-190.430,108.887,888.849
1686714808.944,39.062,-535.156,-49.316,67.383,888.853
1686714808.948,-15.625,-374.512,4.883,-46.875,888.857
1686714808.952,-31.250,-629.883,-91.309,-33.691,888.861
1686714808.955,24.902,-925.293,-212.402,92.773,888.865
1686714808.959,53.711,-597.656,21.973,94.727,888.869
1686714808.963,12.695,-90.820,145.508,-40.527,888.873
1686714808.967,-28.809,-259.277,20.508,-67.871,888.876
1686714808.971,10.254,-249.023,127.441,49.316,888.880
1686714808.975,67.383,80.078,164.062,101.562,888.884
1686714808.977,33.203,44.922,70.312,-5.371,888.887
1686714808.981,-24.902,-355.957,-73.730,-75.684,888.891
1686714808.985,1.465,-306.152,48.828,15.137,888.895
1686714808.989,58.594,73.730,161.621,107.910,888.899
1686714808.993,40.039,23.926,36.133,37.598,888.903
1686714808.997,-23.438,-569.824,-252.930,-67.871,888.907
1686714809.000,-26.367,-785.645,-142.090,-19.531,888.911
1686714809.004,35.645,-305.176,138.672,91.797,888.915
1686714809.008,40.527,-14.160,118.652,68.848,888.919
1686714809.012,-22.461,-618.164,-282.227,-52.734,888.922
1686714809.016,-45.898,-940.918,-214.355,-61.523,888.926
1686714809.020,18.555,-419.922,198.242,63.477,888.930
1686714809.037,46.875,-114.258,152.832,77.637,888.933
1686714809.041,-5.859,-695.801,-251.465,-38.574,888.936
1686714809.045,-41.992,-555.664,-45.898,-92.285,888.940
1686714809.049,-1.465,32.715,207.031,1.953,888.944
1686714809.053,43.945,-39.551,80.078,80.566,888.948
1686714809.057,6.836,-612.305,-127.441,-5.859,888.952
1686714809.060,-37.598,-625.000,-80.566,-91.797,888.956
1686714809.064,-10.742,-51.758,164.551,-13.184,888.960
1686714809.068,31.250,-157.227,26.367,87.891,888.964
1686714809.072,12.695,-831.543,-295.410,29.785,888.968
1686714809.076,-36.621,-476.074,4.883,-82.520,888.972
1686714809.080,-35.156,-4.883,170.898,-43.945,888.976
1686714809.082,24.902,-221.191,1.465,77.637,888.978
1686714809.086,47.852,-330.078,45.898,67.871,888.981
1686714809.090,-7.324,-136.719,88.379,-55.664,888.985
1686714809.094,-45.410,-112.793,51.758,-72.754,888.989
1686714809.098,-8.301,-311.035,-26.855,49.316,888.993
1686714809.102,23.926,-561.523,-67.871,89.844,888.997
1686714809.105,-10.742,-519.043,-12.695,-33.203,889.001
1686714809.109,-46.387,-196.289,101.562,-97.656,889.005
1686714809.113,-7.812,-616.211,-116.211,13.672,889.009
1686714809.117,38.086,-657.715,-52.246,92.285,889.013
1686714809.121,4.395,-227.539,111.816,-3.906,889.017
1686714809.125,-55.664,-588.867,-116.699,-102.051,889.021
1686714809.143,-41.504,-966.797,-256.348,-26.855,889.038
1686714809.147,19.531,-660.645,27.344,80.078,889.042
1686714809.151,16.602,-31.738,218.750,23.438,889.046
1686714809.155,-33.691,-171.387,46.387,-82.031,889.050
1686714809.159,-39.062,-441.895,19.531,-53.711,889.053
1686714809.163,8.789,-356.445,59.082,50.293,889.057
1686714809.166,26.855,-260.254,105.957,45.898,889.061
1686714809.170,-19.531,-314.453,-4.395,-66.406,889.065
1686714809.174,-51.270,-849.121,-284.180,-80.078,889.069
1686714809.178,-4.395,-392.578,86.426,28.320,889.073
1686714809.182,45.410,181.152,226.562,67.871,889.077
1686714809.186,4.395,-191.895,-74.707,-32.227,889.081
1686714809.173,-51.758,-391.602,-37.598,-99.609,889.074
1686714809.177,-24.414,-171.875,107.910,-14.160,889.078
1686714809.181,31.250,-191.406,59.570,74.707,889.081
1686714809.185,17.090,-486.816,-62.500,10.254,889.085
1686714809.189,-35.645,-577.637,-59.570,-93.262,889.089
1686714809.193,-28.320,-507.812,30.273,-40.527,889.093
1686714809.196,20.996,-474.121,55.664,70.801,889.097
1686714809.200,20.996,-578.125,-37.109,38.086,889.101
1686714809.204,-24.414,-476.074,55.176,-78.125,889.105
1686714809.208,-39.551,-95.215,150.879,-71.777,889.109
1686714809.212,13.184,-98.145,72.754,49.805,889.113
1686714809.216,32.227,-767.578,-280.762,67.871,889.117
1686714809.221,-24.902,-1000.000,-306.641,-52.734,889.115
1686714809.225,-46.387,-293.457,153.809,-91.309,889.119
1686714809.229,6.836,-28.809,194.824,36.133,889.123
1686714809.233,46.387,-204.590,68.848,95.215,889.127
1686714809.237,10.254,-194.824,40.039,-21.484,889.131
1686714809.241,-33.691,-405.762,-28.320,-88.379,889.135
1686714809.244,-9.277,-548.828,-13.184,3.418,889.139
1686714809.248,36.621,-874.512,-181.641,92.285,889.143
1686714809.252,17.090,-626.953,6.348,12.695,889.147
1686714809.256,-41.016,-90.332,179.199,-91.797,889.151
1686714809.260,-39.062,-232.910,63.477,-39.551,889.154
1686714809.264,17.578,-329.590,108.398,78.125,889.158
1686714809.262,30.762,14.648,144.043,62.988,889.158
1686714809.266,-23.438,-1.953,29.785,-62.988,889.162
1686714809.270,-50.781,-375.977,-84.961,-66.895,889.166
1686714809.274,0.488,-218.262,85.449,60.547,889.170
1686714809.278,38.574,60.547,144.531,78.125,889.173
1686714809.282,-7.324,-307.129,-97.168,-41.016,889.177
1686714809.285,-41.992,-796.875,-287.598,-73.730,889.181
1686714809.289,-7.324,-819.336,-107.422,26.855,889.185
1686714809.293,44.922,-149.902,212.402,81.543,889.189
1686714809.297,16.602,45.410,107.422,-10.742,889.193
1686714809.301,-53.223,-675.781,-240.234,-90.820,889.197
1686714809.305,-30.762,-821.777,-86.426,-18.555,889.201
1686714809.307,30.273,-86.914,236.816,73.730,889.216
1686714809.311,16.602,34.180,80.566,15.625,889.220
1686714809.315,-41.016,-755.371,-288.086,-85.449,889.224
1686714809.319,-36.133,-515.625,-8.789,-46.387,889.228
1686714809.323,21.973,53.223,224.121,72.754,889.232
1686714809.327,23.438,-339.355,-41.504,65.918,889.236
1686714809.330,-35.645,-897.461,-325.684,-52.246,889.240
1686714809.334,-50.293,-500.000,12.695,-77.637,889.244
1686714809.338,3.418,81.055,228.027,31.738,889.248
1686714809.342,28.809,-174.805,-7.812,64.941,889.252
1686714809.346,-14.160,-529.785,-26.367,-52.246,889.255
1686714809.350,-48.340,-245.605,100.098,-107.910,889.259
1686714809.355,-14.648,-4.395,123.535,8.789,889.254
1686714809.359,27.344,-207.520,10.254,83.496,889.258
1686714809.363,-1.953,-409.668,-13.672,-10.254,889.262
1686714809.367,-49.805,-192.383,99.121,-98.145,889.266
1686714809.371,-31.738,-32.227,125.488,-35.156,889.269
1686714809.375,24.414,-442.871,-71.777,77.637,889.273
1686714809.378,20.508,-650.391,-70.801,29.297,889.277
1686714809.382,-35.156,-236.328,98.145,-90.820,889.281
1686714809.386,-45.898,-169.434,65.430,-68.848,889.285
1686714809.390,7.812,-533.203,-98.145,55.664,889.289
1686714809.394,24.414,-477.539,-6.348,58.594,889.293
1686714809.398,-29.297,-459.473,-23.438,-74.219,889.297
1686714809.412,-60.547,-616.699,-59.570,-87.891,889.307
1686714809.416,-6.836,-692.383,-47.852,49.316,889.311
1686714809.420,37.598,-229.492,112.793,80.078,889.315
1686714809.424,-3.418,27.344,121.582,-42.969,889.319
1686714809.428,-46.875,-330.566,-46.875,-83.008,889.323
1686714809.432,-21.484,-911.621,-354.980,24.902,889.327
1686714809.435,27.832,-1000.000,-278.320,97.168,889.331
1686714809.439,19.531,-309.570,157.227,9.277,889.335
1686714809.443,-41.016,-239.258,116.699,-91.797,889.339
1686714809.447,-45.898,-459.473,78.125,-40.527,889.343
1686714809.451,13.672,-66.895,175.781,69.336,889.346
1686714809.455,16.602,32.715,100.098,33.691,889.350
1686714809.457,-41.992,-353.027,-64.941,-83.008,889.353
1686714809.461,-58.594,-405.762,26.367,-83.008,889.357
1686714809.465,0.488,-136.230,105.469,37.109,889.361
1686714809.469,20.020,-238.770,35.156,49.805,889.365
1686714809.473,-29.785,-600.586,-128.906,-71.289,889.368
1686714809.477,-63.477,-858.398,-124.023,-88.867,889.372
1686714809.480,-17.090,-459.961,146.484,23.926,889.376
1686714809.484,26.855,-54.688,154.785,61.035,889.380
1686714809.488,-18.066,-607.910,-202.148,-43.457,889.384
1686714809.492,-63.477,-787.109,-108.398,-111.328,889.388
1686714809.496,-22.461,-243.652,197.754,-22.949,889.392
1686714809.500,39.062,-367.188,55.176,75.684,889.396
1686714809.502,13.184,-825.684,-214.844,9.766,889.397
1686714809.506,-41.504,-526.367,4.883,-98.633,889.401
1686714809.510,-32.715,-48.828,195.801,-54.688,889.405
1686714809.514,11.719,-61.523,113.770,59.570,889.409
1686714809.518,6.348,-287.109,62.988,30.273,889.413
1686714809.522,-46.875,-558.594,-124.023,-87.402,889.417
1686714809.525,-63.965,-595.215,-93.262,-97.656,889.421
1686714809.529,-10.254,-487.305,39.551,8.789,889.425
1686714809.533,22.949,-865.234,-207.520,40.039,889.429
1686714809.537,-27.832,-618.164,37.109,-75.195,889.433
1686714809.541,-67.383,-152.832,177.734,-115.234,889.437
1686714809.545,-26.367,-325.195,70.801,2.930,889.440
1686714809.547,21.484,-184.082,174.805,60.547,889.443
1686714809.551,0.488,-22.949,101.562,-28.809,889.447
1686714809.555,-53.223,-169.922,13.672,-104.492,889.451
1686714809.559,-34.180,-362.305,-20.996,-35.156,889.455
1686714809.563,25.879,-231.934,71.289,72.266,889.459
1686714809.567,9.277,-347.656,7.324,18.555,889.462
1686714809.570,-50.781,-563.477,-45.410,-102.539,889.466
1686714809.574,-50.293,-749.023,-109.863,-65.918,889.470
1686714809.578,6.836,-815.918,-56.641,56.641,889.474
1686714809.582,19.531,-153.320,212.402,34.668,889.478
1686714809.586,-34.668,-77.637,117.676,-89.355,889.482
1686714809.590,-65.918,-853.516,-299.316,-88.867,889.486
1686714809.592,-20.996,-744.629,-78.125,32.227,889.487
1686714809.596,26.855,55.176,273.926,59.570,889.491
1686714809.600,-11.230,-78.125,42.969,-41.992,889.495
1686714809.604,-53.711,-490.234,-15.137,-91.797,889.499
1686714809.608,-22.461,-187.500,121.582,9.277,889.503
1686714809.612,16.602,-232.910,63.477,80.566,889.507
1686714809.615,-9.277,-558.105,-75.684,-3.906,889.511
1686714809.619,-60.059,-876.465,-297.852,-88.379,889.515
1686714809.623,-39.551,-421.875,46.387,-29.297,889.519
1686714809.627,27.832,180.176,242.676,68.848,889.523
1686714809.631,23.438,-192.871,-27.832,14.160,889.527
1686714809.635,-40.039,-575.684,-43.945,-105.957,889.530
1686714809.637,-41.504,-196.777,122.070,-66.895,889.532
1686714809.641,17.090,68.848,109.375,64.453,889.536
1686714809.645,25.391,-231.934,-33.691,53.223,889.540
1686714809.649,-22.949,-406.250,-4.883,-69.824,889.544
1686714809.653,-39.062,-200.195,57.129,-82.031,889.548
1686714809.657,2.930,-291.504,49.316,38.086,889.552
1686714809.660,27.832,-624.512,-77.637,74.707,889.556
1686714809.664,-21.484,-741.699,-86.426,-38.574,889.560
1686714809.668,-65.918,-300.781,145.508,-103.027,889.564
1686714809.672,-26.855,-41.016,152.344,-3.906,889.568
1686714809.676,22.949,-353.027,-10.254,87.891,889.572
1686714809.680,0.000,-512.207,-19.531,5.859,889.575
1686714809.683,-55.176,-259.766,68.848,-97.168,889.581
1686714809.687,-46.875,-329.590,18.555,-43.945,889.585
1686714809.691,12.207,-871.582,-230.957,78.613,889.589
1686714809.695,26.367,-651.367,-51.270,54.199,889.592
1686714809.699,-27.344,-123.047,175.781,-67.871,889.596
1686714809.703,-54.199,-543.945,-60.547,-56.152,889.600
1686714809.706,-6.836,-932.617,-208.984,65.430,889.604
1686714809.710,33.203,-333.496,104.004,65.918,889.608
1686714809.714,6.348,18.555,155.273,-42.969,889.612
1686714809.718,-30.273,-276.855,3.906,-67.383,889.616
1686714809.722,-1.465,-306.152,96.191,32.227,889.620
1686714809.726,45.898,-0.488,156.250,83.008,889.624
1686714809.727,19.531,30.762,62.500,-16.602,889.637
1686714809.731,-42.969,-349.609,-82.031,-93.262,889.641
1686714809.735,-21.484,-353.516,28.809,-5.859,889.645
1686714809.739,39.551,-62.012,108.887,88.379,889.649
1686714809.743,20.996,-321.777,-23.438,20.020,889.653
1686714809.747,-38.574,-795.410,-273.926,-67.871,889.657
1686714809.750,-37.598,-964.844,-298.340,-20.020,889.660
1686714809.754,27.832,-255.371,176.270,82.031,889.664
1686714809.758,40.039,5.859,157.715,59.570,889.668
1686714809.762,-21.973,-454.102,-122.070,-69.336,889.672
1686714809.766,-48.340,-485.840,-19.043,-75.684,889.676
1686714809.770,5.859,-364.258,108.887,48.828,889.680
1686714809.787,39.551,-187.988,91.797,65.918,889.682
1686714809.791,-20.508,-702.637,-261.719,-50.293,889.686
1686714809.795,-59.082,-611.328,-42.969,-91.309,889.690
1686714809.799,-11.230,11.230,225.586,18.066,889.694
1686714809.803,30.762,-54.688,62.500,83.496,889.698
1686714809.807,-4.883,-654.297,-110.840,-10.254,889.702
1686714809.810,-61.035,-787.598,-69.336,-103.027,889.706
1686714809.814,-38.086,-348.145,134.766,-30.762,889.710
1686714809.818,18.066,-183.105,88.379,65.430,889.714
1686714809.822,12.207,-806.641,-295.898,19.043,889.718
1686714809.826,-41.016,-578.125,-23.438,-93.262,889.721
1686714809.830,-41.992,-70.801,208.496,-63.965,889.725
1686714809.832,9.277,-185.547,49.805,60.547,889.727
1686714809.836,14.160,-202.637,85.938,36.621,889.731
1686714809.840,-29.785,-108.887,68.848,-83.984,889.735
1686714809.844,-50.781,-175.293,8.301,-89.844,889.739
1686714809.848,-7.324,-336.914,-22.461,27.832,889.743
1686714809.852,30.762,-503.906,-33.691,58.105,889.747
1686714809.855,-17.578,-508.789,-50.781,-58.594,889.750
1686714809.859,-60.059,-247.070,71.289,-113.281,889.754
1686714809.863,-30.273,-618.652,-93.262,-7.812,889.758
1686714809.867,12.207,-825.195,-99.609,61.523,889.762
1686714809.871,-1.465,-328.613,127.441,-31.250,889.766
1686714809.875,-54.199,-558.594,-38.086,-117.188,889.770
1686714809.877,-42.480,-794.922,-75.195,-38.086,889.772
1686714809.881,19.531,-241.699,138.184,67.871,889.776
1686714809.885,10.742,125.977,167.969,10.254,889.780
1686714809.889,-53.223,-147.461,9.277,-99.121,889.784
1686714809.893,-68.359,-820.801,-310.059,-60.059,889.788
1686714809.897,-14.648,-818.848,-117.188,54.199,889.792
1686714809.900,6.836,-262.207,176.758,36.133,889.796
1686714809.904,-41.016,-272.949,5.371,-83.008,889.800
1686714809.908,-66.895,-862.793,-249.512,-94.727,889.803
1686714809.912,-9.277,-372.559,86.426,15.137,889.807
1686714809.916,29.297,221.680,230.469,55.664,889.811
1686714809.920,-20.020,-233.887,-72.266,-59.082,889.815
1686714809.922,-63.477,-513.184,-70.801,-124.512,889.817
1686714809.926,-34.668,-134.277,117.188,-27.344,889.821
1686714809.930,13.672,104.980,113.770,52.246,889.825
1686714809.934,-3.418,-244.141,-82.520,-18.555,889.829
1686714809.938,-52.246,-462.402,-37.109,-110.840,889.833
1686714809.942,-37.109,-413.086,31.738,-48.340,889.836
1686714809.945,11.719,-352.539,58.594,61.523,889.840
1686714809.949,2.930,-551.758,-115.723,14.648,889.844
1686714809.953,-55.176,-778.320,-127.441,-108.887,889.848
1686714809.957,-63.477,-228.027,177.246,-89.844,889.852
1686714809.961,-10.742,-50.781,121.582,34.668,889.856
1686714809.965,2.930,-664.062,-186.523,46.875,889.860
1686714809.968,-44.922,-549.805,-30.273,-76.172,889.866
1686714809.972,-67.383,-125.000,125.000,-111.816,889.870
1686714809.976,-24.414,-390.625,-40.039,-1.953,889.874
1686714809.980,11.230,-741.699,-152.344,55.176,889.878
1686714809.984,-24.902,-406.738,-20.020,-41.504,889.881
1686714809.988,-72.266,-413.086,-62.500,-112.793,889.885
1686714809.991,-37.109,-662.598,-99.609,-20.508,889.889
1686714809.995,14.160,-836.426,-163.086,73.242,889.893
1686714809.999,-10.254,-420.898,62.012,-3.906,889.897
1686714810.003,-62.988,-31.250,142.578,-110.840,889.901
1686714810.007,-49.805,-239.746,19.043,-60.059,889.905
1686714810.011,9.766,-224.609,116.699,56.641,889.909
1686714810.012,11.230,11.230,143.555,25.391,889.908
1686714810.016,-47.852,-59.082,32.715,-92.773,889.911
1686714810.020,-66.406,-362.793,-87.891,-85.449,889.915
1686714810.024,-10.742,-209.961,69.336,37.109,889.919
1686714810.028,12.695,-76.172,54.688,46.387,889.923
1686714810.032,-31.738,-420.410,-146.484,-69.336,889.927
1686714810.035,-61.523,-793.945,-294.922,-95.215,889.931
1686714810.039,-37.598,-946.289,-273.438,6.836,889.935
1686714810.043,12.695,-277.344,152.344,53.223,889.939
1686714810.047,-15.625,-24.902,143.555,-45.410,889.943
1686714810.051,-78.613,-593.750,-188.965,-129.883,889.947
1686714810.055,-53.223,-619.141,-83.008,-50.781,889.950
1686714810.057,2.930,8.789,212.402,41.016,889.966
1686714810.061,-6.348,-26.367,44.922,-16.113,889.970
1686714810.065,-62.012,-793.457,-362.793,-112.305,889.974
1686714810.069,-57.129,-481.445,-12.207,-63.965,889.978
1686714810.073,10.254,71.777,228.027,61.523,889.982
1686714810.077,15.625,-366.211,-99.121,48.340,889.986
1686714810.080,-43.945,-859.863,-321.289,-69.824,889.990
1686714810.084,-64.941,-687.012,-43.457,-82.520,889.994
1686714810.088,-14.160,-131.836,212.402,37.109,889.998
1686714810.092,12.695,-128.906,55.176,66.406,890.001
1686714810.096,-31.738,-578.613,-49.316,-50.293,890.005
1686714810.100,-62.012,-320.312,71.777,-100.098,890.009
1686714810.117,-22.949,-20.996,126.953,2.930,890.013
1686714810.121,24.414,-122.559,30.762,78.125,890.017
1686714810.125,-3.906,-249.023,36.133,-5.371,890.020
1686714810.129,-60.059,-205.566,25.879,-101.074,890.024
1686714810.133,-38.574,-116.211,35.156,-43.457,890.028
1686714810.137,24.414,-457.520,-82.520,67.871,890.032
1686714810.140,13.184,-685.547,-104.004,16.602,890.036
1686714810.144,-39.551,-247.070,64.941,-102.539,890.040
1686714810.148,-41.504,-136.230,71.289,-70.801,890.044
1686714810.152,-0.977,-626.465,-116.699,51.270,890.048
1686714810.156,7.812,-730.957,-70.312,42.969,890.052
1686714810.160,-30.762,-551.270,31.738,-76.660,890.056
1686714810.177,-55.664,-384.766,55.176,-91.309,890.073
1686714810.181,-15.625,-758.789,-189.941,33.203,890.076
1686714810.185,22.949,-759.766,-77.148,71.289,890.080
1686714810.189,-11.230,-107.422,189.941,-51.270,890.084
1686714810.193,-65.918,-190.918,30.762,-114.746,890.088
1686714810.197,-42.969,-561.523,-32.227,-10.742,890.092
1686714810.200,22.461,-505.371,40.039,77.637,890.096
1686714810.204,-0.488,-181.152,114.746,-20.996,890.100
1686714810.208,-73.242,-322.266,-42.969,-126.465,890.104
1686714810.212,-70.801,-879.395,-279.297,-57.129,890.108
1686714810.216,-10.254,-339.844,89.844,35.156,890.112
1686714810.220,-2.441,116.699,184.082,-11.230,890.116
1686714810.207,-62.012,-414.062,-115.723,-113.281,890.102
1686714810.211,-69.824,-525.391,-35.645,-98.145,890.106
1686714810.215,-12.695,-38.574,174.316,10.254,890.110
1686714810.219,1.465,76.660,105.469,15.625,890.114
1686714810.223,-53.223,-437.988,-150.391,-104.004,890.118
1686714810.227,-83.008,-847.656,-207.031,-121.582,890.122
1686714810.230,-33.203,-478.027,74.707,-0.977,890.126
1686714810.234,8.301,-24.414,152.832,41.992,890.130
1686714810.238,-26.367,-492.188,-153.320,-53.223,890.133
1686714810.242,-69.824,-566.406,-45.410,-114.258,890.137
1686714810.246,-46.387,-248.535,101.074,-21.973,890.141
1686714810.250,2.930,-387.207,19.043,64.941,890.145
1686714810.252,-16.113,-822.266,-299.316,-14.160,890.148
1686714810.256,-74.219,-989.746,-317.383,-117.676,890.151
1686714810.260,-58.105,-359.863,136.230,-66.406,890.155
1686714810.264,0.977,-289.062,99.609,43.945,890.159
1686714810.268,1.953,-738.770,-111.328,11.719,890.163
1686714810.272,-50.293,-744.629,-53.223,-107.422,890.167
1686714810.275,-60.547,-453.125,95.215,-97.656,890.171
1686714810.279,-6.348,-241.211,87.891,34.180,890.175
1686714810.283,10.254,-767.090,-196.777,53.711,890.179
1686714810.287,-35.156,-479.492,19.531,-70.801,890.183
1686714810.291,-65.430,-10.742,162.109,-113.770,890.187
1686714810.295,-32.227,-224.121,11.230,-9.277,890.191
1686714810.312,12.207,-253.418,61.523,57.617,890.208
1686714810.316,-13.184,-64.941,89.355,-33.203,890.212
1686714810.320,-70.312,-126.953,0.488,-116.211,890.216
1686714810.324,-48.828,-329.102,-30.762,-34.668,890.220
1686714810.328,9.766,-211.426,87.891,66.406,890.224
1686714810.332,-13.184,-404.785,-102.051,-7.812,890.228
1686714810.335,-74.707,-630.371,-189.453,-121.582,890.231
1686714810.339,-73.242,-789.551,-222.168,-71.289,890.235
1686714810.343,-19.043,-933.594,-211.914,60.059,890.239
1686714810.347,2.441,-270.020,128.418,36.621,890.243
1686714810.351,-51.758,-210.449,69.824,-103.027,890.247
1686714810.355,-76.660,-829.102,-210.449,-101.562,890.251
1686714810.342,-20.020,-462.402,68.848,22.461,890.237
1686714810.346,22.949,125.000,214.844,53.223,890.241
1686714810.350,-20.996,-136.230,-12.207,-63.477,890.245
1686714810.354,-74.707,-518.066,-40.527,-114.746,890.249
1686714810.358,-36.621,-201.172,101.074,-6.836,890.253
1686714810.362,8.301,-174.316,38.574,54.688,890.257
1686714810.365,-22.949,-554.688,-166.992,-29.297,890.261
1686714810.369,-68.359,-705.078,-122.559,-104.004,890.265
1686714810.373,-50.781,-533.691,42.969,-30.273,890.269
1686714810.377,6.348,-103.027,167.480,66.895,890.273
1686714810.381,3.418,-166.504,3.418,8.789,890.277
1686714810.385,-63.965,-886.719,-356.934,-102.539,890.280
1686714810.387,-59.082,-582.520,31.738,-71.777,890.283
1686714810.391,-1.953,50.781,244.629,44.434,890.287
1686714810.395,4.883,-150.391,-14.160,33.691,890.291
1686714810.399,-37.598,-297.852,6.836,-78.125,890.294
1686714810.403,-68.848,-194.336,48.340,-93.262,890.298
1686714810.407,-33.691,-353.516,4.395,13.184,890.302
1686714810.410,0.488,-637.207,-119.141,57.129,890.306
1686714810.414,-39.062,-707.520,-91.797,-48.828,890.310
1686714810.418,-77.637,-251.953,121.094,-113.770,890.314
1686714810.422,-48.340,-68.848,130.859,-23.926,890.318
1686714810.426,0.977,-377.930,-8.301,56.152,890.322
1686714810.430,-17.090,-599.609,-94.727,-22.949,890.326
1686714810.432,-77.148,-567.383,-33.691,-123.047,890.342
1686714810.436,-60.059,-283.691,89.355,-60.059,890.346
1686714810.440,3.418,-732.422,-222.656,65.430,890.350
1686714810.444,0.488,-775.391,-120.117,16.602,890.354
1686714810.448,-54.199,-156.250,156.250,-115.723,890.358
1686714810.452,-68.359,-465.820,-44.922,-99.121,890.361
1686714810.455,-15.137,-897.461,-202.637,25.391,890.365
1686714810.459,14.648,-367.188,92.285,28.809,890.369
1686714810.463,-33.203,-50.781,135.742,-79.102,890.373
1686714810.467,-71.777,-334.961,4.395,-99.121,890.377
1686714810.471,-27.344,-306.641,106.445,13.672,890.381
1686714810.475,24.902,9.766,125.000,70.312,890.385
1686714810.478,-14.160,-14.648,45.898,-40.527,890.401
1686714810.482,-63.965,-454.102,-105.957,-105.469,890.405
1686714810.486,-34.180,-425.781,25.879,-9.766,890.409
1686714810.490,18.066,38.086,156.738,71.777,890.413
1686714810.494,-3.418,19.043,40.527,-9.277,890.417
1686714810.498,-60.547,-635.742,-256.836,-107.422,890.421
1686714810.501,-59.570,-802.734,-135.254,-60.059,890.425
1686714810.505,8.301,-83.008,213.867,46.387,890.429
1686714810.509,21.484,48.340,76.172,21.973,890.433
1686714810.513,-40.527,-595.215,-243.652,-83.496,890.436
1686714810.517,-46.387,-722.656,-109.863,-56.152,890.440
1686714810.521,7.324,-354.980,136.230,55.176,890.444
1686714810.537,20.020,-163.574,96.191,53.711,890.433
1686714810.541,-26.367,-685.547,-249.023,-49.805,890.437
1686714810.545,-60.547,-579.590,-50.293,-90.820,890.441
1686714810.549,-16.602,-19.043,208.008,7.812,890.444
1686714810.553,25.879,-279.297,-2.441,67.871,890.448
1686714810.557,-7.812,-879.883,-317.383,-24.414,890.452
1686714810.560,-58.105,-672.363,-41.992,-112.305,890.456
1686714810.564,-35.645,-28.809,219.238,-36.133,890.460
1686714810.568,16.602,-133.301,40.527,65.430,890.464
1686714810.572,-5.371,-479.980,-0.488,-1.953,890.468
1686714810.576,-58.594,-235.352,90.332,-103.027,890.472
1686714810.580,-46.875,-24.902,104.004,-56.641,890.476
1686714810.582,5.859,-166.016,-4.395,56.641,890.478
1686714810.586,10.742,-349.121,-53.223,28.320,890.481
1686714810.590,-39.551,-229.004,29.297,-96.680,890.485
1686714810.594,-58.105,-152.832,62.500,-98.633,890.489
1686714810.598,-12.695,-338.379,-44.922,20.996,890.493
1686714810.602,10.742,-588.379,-94.727,49.805,890.497
1686714810.605,-33.203,-648.438,-78.613,-59.570,890.501
1686714810.609,-69.824,-593.262,-65.918,-108.398,890.505
1686714810.613,-40.527,-760.742,-134.277,-4.883,890.509
1686714810.617,4.395,-888.184,-178.223,66.406,890.513
1686714810.621,-10.254,-413.086,83.008,-29.297,890.517
1686714810.625,-64.941,-551.270,18.555,-113.281,890.521
1686714810.627,-45.898,-897.461,-150.879,-40.527,890.522
1686714810.631,15.625,-387.695,91.797,63.965,890.526
1686714810.635,13.184,71.777,196.777,12.695,890.530
1686714810.639,-38.086,-210.938,4.883,-97.168,890.534
1686714810.643,-39.551,-497.070,-17.090,-59.082,890.538
1686714810.647,16.113,-461.914,24.902,60.547,890.542
1686714810.650,25.391,-272.461,90.820,41.992,890.546
1686714810.654,-31.738,-266.113,-7.324,-70.801,890.550
1686714810.658,-64.453,-848.633,-331.055,-80.078,890.554
1686714810.662,-18.555,-644.531,-24.414,14.648,890.558
1686714810.666,21.484,0.488,213.867,45.410,890.562
1686714810.670,-20.020,-218.750,-65.430,-57.129,890.565
1686714810.672,-67.383,-642.090,-71.777,-115.723,890.567
1686714810.676,-35.645,-230.957,127.930,-18.066,890.571
1686714810.680,12.695,31.250,99.609,60.059,890.575
1686714810.684,-7.812,-275.879,-48.828,-28.320,890.579
1686714810.688,-67.871,-412.598,-47.852,-119.629,890.583
1686714810.692,-56.152,-494.629,-81.543,-41.992,890.587
1686714810.695,-3.906,-521.484,-1.953,63.477,890.590
1686714810.699,-21.484,-646.973,-99.609,9.277,890.594
1686714810.703,-82.031,-755.859,-96.680,-112.793,890.598
1686714810.707,-81.543,-208.496,187.988,-94.727,890.602
1686714810.711,-20.508,-62.012,137.695,23.438,890.606
1686714810.715,-0.488,-714.844,-187.012,29.785,890.610
1686714810.718,-44.434,-819.336,-124.512,-90.332,890.616
1686714810.722,-71.289,-218.750,171.387,-118.164,890.620
1686714810.726,-28.809,-40.527,125.488,1.465,890.624
1686714810.730,10.254,-687.500,-213.867,59.082,890.628
1686714810.734,-23.926,-591.797,-68.359,-47.363,890.631
1686714810.738,-70.801,-384.277,54.688,-121.094,890.635
1686714810.741,-49.805,-606.445,-26.855,-35.156,890.639
1686714810.745,-4.883,-838.867,-198.730,46.387,890.643
1686714810.749,-19.043,-465.820,25.391,-34.180,890.647
1686714810.753,-62.500,-85.449,144.531,-129.395,890.651
1686714810.757,-46.875,-224.609,49.805,-68.359,890.655
1686714810.761,3.906,-180.176,143.555,45.898,890.659
1686714810.763,0.000,-6.348,114.746,17.090,890.671
1686714810.767,-52.734,-134.766,-13.184,-93.262,890.674
1686714810.771,-65.918,-468.262,-82.031,-73.242,890.678
1686714810.775,-9.766,-303.711,88.379,45.410,890.682
1686714810.779,21.484,-0.488,95.215,48.828,890.686
1686714810.783,-29.297,-364.258,-120.117,-68.848,890.690
1686714810.786,-67.871,-853.027,-305.176,-101.562,890.694
1686714810.790,-20.996,-960.449,-256.348,18.066,890.698
1686714810.794,19.043,-276.855,141.602,62.988,890.702
1686714810.798,-18.555,14.160,141.113,-53.223,890.706
1686714810.802,-66.406,-557.129,-153.809,-122.070,890.710
1686714810.806,-48.340,-714.844,-53.711,-34.180,890.714
1686714810.807,15.137,-182.129,203.613,56.641,890.716
1686714810.811,7.324,-62.500,83.496,-7.324,890.720
1686714810.815,-53.223,-767.578,-310.547,-104.980,890.724
1686714810.819,-50.781,-514.648,-31.738,-61.523,890.728
1686714810.823,6.348,15.137,204.590,45.898,890.732
1686714810.827,21.973,-343.262,-28.809,23.926,890.736
1686714810.830,-35.156,-927.246,-345.703,-84.473,890.740
1686714810.834,-66.406,-661.621,-48.828,-97.168,890.744
1686714810.838,-11.230,-6.348,248.535,20.508,890.748
1686714810.842,9.766,-179.688,10.254,49.805,890.752
1686714810.846,-32.715,-465.332,-33.203,-65.430,890.756
1686714810.850,-67.871,-214.844,86.914,-111.328,890.759
1686714810.852,-32.715,-6.348,116.211,-2.441,890.762
1686714810.856,18.555,-142.090,38.574,66.895,890.766
1686714810.860,-6.836,-304.688,-4.883,-34.668,890.770
1686714810.864,-58.594,-203.613,39.551,-120.117,890.774
1686714810.868,-44.922,-81.543,80.078,-35.156,890.778
1686714810.872,6.348,-419.434,-81.055,76.660,890.782
1686714810.875,-1.953,-678.711,-86.426,14.648,890.786
1686714810.879,-60.059,-483.887,-11.230,-103.027,890.789
1686714810.883,-61.523,-408.203,8.789,-65.918,890.793
1686714810.887,-9.277,-598.145,-77.637,56.152,890.797
1686714810.891,4.395,-812.988,-105.957,46.875,890.801
1686714810.895,-44.922,-625.000,41.504,-76.660,890.805
