timestamps,TP9,AF7,AF8,TP10,Secondary Timestamp
1686197759.120,-43.457,60.547,133.301,-36.133,1164.020
1686197759.124,-4.883,84.961,176.270,-18.555,1164.023
1686197759.128,-24.414,358.398,187.012,-53.223,1164.027
1686197759.132,-78.125,79.102,38.086,-67.383,1164.031
1686197759.136,-82.520,-804.688,-5.371,-34.668,1164.035
1686197759.140,-34.668,-489.746,211.426,-15.625,1164.039
1686197759.143,-32.227,164.551,204.590,-42.480,1164.043
1686197759.147,-83.496,-98.633,36.621,-78.125,1164.047
1686197759.151,-85.449,-514.648,112.305,-59.082,1164.051
1686197759.155,-18.066,207.520,262.695,-18.066,1164.055
1686197759.159,2.930,499.023,144.531,-22.461,1164.059
1686197759.163,-48.340,58.594,-17.578,-55.176,1164.063
1686197759.166,-65.918,133.789,130.371,-47.363,1164.063
1686197759.170,-16.602,491.211,245.117,-9.766,1164.067
1686197759.174,6.348,441.895,104.004,-14.160,1164.071
1686197759.178,-36.621,-89.355,-17.090,-50.293,1164.075
1686197759.182,-75.195,-59.570,150.879,-77.637,1164.079
1686197759.186,-54.688,87.891,210.449,-62.500,1164.082
1686197759.189,-5.371,9.277,147.949,-40.527,1164.086
1686197759.193,-29.297,-592.285,-32.715,-57.129,1164.090
1686197759.197,-86.426,-658.203,138.672,-80.078,1164.094
1686197759.201,-60.059,261.230,273.926,-52.246,1164.098
1686197759.205,-5.859,398.926,125.488,-13.672,1164.102
1686197759.209,-15.137,155.762,108.398,-33.691,1164.106
1686197759.210,-71.289,241.211,159.668,-74.707,1164.106
1686197759.214,-79.102,353.516,173.340,-70.801,1164.110
1686197759.218,-33.203,335.449,161.133,-35.156,1164.114
1686197759.222,-23.926,166.504,172.852,-35.156,1164.118
1686197759.226,-67.383,-66.895,130.371,-74.219,1164.122
1686197759.230,-83.008,-127.441,165.527,-79.102,1164.125
1686197759.233,-41.992,-160.156,130.371,-34.180,1164.129
1686197759.237,-22.949,-877.441,-18.555,-15.625,1164.133
1686197759.241,-49.316,-632.812,207.520,-60.059,1164.137
1686197759.245,-82.031,236.328,235.352,-83.984,1164.141
1686197759.249,-64.453,115.723,78.613,-43.945,1164.145
1686197759.253,-17.090,267.578,161.621,-18.066,1164.149
1686197759.256,-30.762,538.086,185.059,-50.781,1164.153
1686197759.260,-79.590,356.934,128.418,-80.078,1164.157
1686197759.264,-63.965,21.973,108.398,-61.035,1164.161
1686197759.268,-5.859,254.883,189.941,-26.367,1164.165
1686197759.272,-7.324,498.047,156.250,-45.898,1164.169
1686197759.276,-58.594,61.523,-19.531,-77.148,1164.173
1686197759.279,-80.566,-610.840,-56.641,-62.988,1164.177
1686197759.283,-37.598,-187.500,202.637,-29.297,1164.180
1686197759.287,-10.742,424.316,199.707,-25.391,1164.184
1686197759.291,-56.641,8.301,33.691,-62.012,1164.188
1686197759.295,-78.125,-345.703,101.562,-71.777,1164.192
1686197759.299,-38.574,187.988,226.562,-41.992,1164.196
1686197759.299,-7.812,529.785,192.383,-36.133,1164.210
1686197759.303,-42.969,229.980,70.312,-68.359,1164.214
1686197759.307,-89.355,115.723,107.910,-90.332,1164.218
1686197759.311,-62.012,259.766,174.316,-53.711,1164.222
1686197759.315,-16.113,157.715,163.086,-19.531,1164.226
1686197759.319,-34.668,-208.496,90.820,-48.828,1164.230
1686197759.322,-95.215,-875.488,12.695,-83.008,1164.234
1686197759.326,-79.590,-290.039,252.930,-76.660,1164.238
1686197759.330,-15.625,479.004,215.820,-41.504,1164.242
1686197759.334,-16.113,195.312,41.016,-45.410,1164.245
1686197759.338,-65.918,67.871,90.332,-84.473,1164.249
1686197759.342,-81.543,49.805,178.223,-78.125,1164.253
1686197759.347,-38.086,257.324,205.566,-37.109,1164.254
1686197759.351,-18.555,-8.301,19.043,-33.203,1164.258
1686197759.355,-64.453,-80.078,96.191,-74.707,1164.262
1686197759.359,-96.680,338.867,204.590,-86.914,1164.266
1686197759.363,-55.176,336.914,132.812,-55.664,1164.270
1686197759.367,-20.508,-106.445,43.945,-29.785,1164.274
1686197759.370,-45.898,-95.215,149.902,-61.035,1164.277
1686197759.374,-82.031,352.539,231.934,-93.262,1164.281
1686197759.378,-77.148,224.121,110.840,-65.430,1164.285
1686197759.382,-36.133,-405.762,-1.953,-33.691,1164.289
1686197759.386,-30.762,-12.695,151.855,-59.082,1164.293
1686197759.390,-76.172,406.738,169.922,-91.797,1164.297
1686197759.405,-80.566,190.430,101.562,-77.148,1164.304
1686197759.409,-26.367,43.945,127.930,-26.367,1164.308
1686197759.413,-19.531,100.586,181.152,-25.879,1164.312
1686197759.417,-72.754,254.883,146.484,-77.148,1164.316
1686197759.421,-101.074,-75.684,11.230,-87.891,1164.320
1686197759.425,-55.664,-912.109,37.109,-40.039,1164.324
1686197759.428,-18.066,-573.242,298.340,-29.785,1164.328
1686197759.432,-45.410,334.961,206.055,-66.895,1164.332
1686197759.436,-76.660,95.215,41.992,-80.078,1164.336
1686197759.440,-51.270,124.512,178.223,-48.340,1164.340
1686197759.444,-4.883,415.527,151.855,-23.926,1164.343
1686197759.448,-23.926,293.945,102.051,-50.293,1164.347
1686197759.450,-77.148,24.414,4.883,-83.008,1164.348
1686197759.454,-64.941,139.648,126.465,-58.594,1164.352
1686197759.458,-9.766,480.469,233.887,-23.926,1164.356
1686197759.462,-6.836,377.441,87.402,-42.480,1164.359
1686197759.466,-52.246,-134.766,-34.668,-78.125,1164.363
1686197759.470,-63.965,-259.766,118.652,-63.965,1164.367
1686197759.473,-16.113,50.293,231.445,-22.461,1164.371
1686197759.477,-7.324,274.902,129.395,-19.531,1164.375
1686197759.481,-75.684,-572.266,-58.594,-56.641,1164.379
1686197759.485,-100.098,-683.594,160.156,-75.684,1164.383
1686197759.489,-38.574,301.758,280.273,-47.852,1164.387
1686197759.493,-2.930,379.883,78.613,-33.691,1164.391
1686197759.494,-38.574,105.469,59.082,-61.035,1164.391
1686197759.498,-76.660,164.062,177.734,-81.055,1164.395
1686197759.502,-53.711,375.488,212.891,-47.852,1164.399
1686197759.506,-9.766,259.277,72.754,-22.461,1164.403
1686197759.510,-33.691,-174.805,27.344,-57.129,1164.407
1686197759.514,-80.078,-258.301,143.555,-84.961,1164.411
1686197759.517,-68.848,-13.184,227.539,-64.453,1164.414
1686197759.521,-20.996,-38.086,128.906,-28.809,1164.418
1686197759.525,-17.578,-858.887,-25.879,-25.879,1164.422
1686197759.529,-54.688,-473.145,228.027,-71.289,1164.426
1686197759.533,-60.059,310.547,230.957,-76.660,1164.430
1686197759.537,-22.949,117.676,69.824,-38.086,1164.434
1686197759.541,0.000,248.535,141.602,-46.875,1164.439
1686197759.545,-49.805,430.664,156.250,-87.891,1164.443
1686197759.549,-82.031,246.094,120.117,-85.449,1164.446
1686197759.553,-55.664,14.160,150.879,-44.922,1164.450
1686197759.557,-26.367,186.523,181.641,-29.297,1164.454
1686197759.561,-49.316,92.285,24.414,-58.594,1164.458
1686197759.564,-99.121,-192.383,-1.953,-81.055,1164.462
1686197759.568,-80.078,-599.121,24.414,-47.852,1164.466
1686197759.572,-25.391,-238.770,178.223,-20.020,1164.470
1686197759.576,-30.762,275.391,126.953,-38.574,1164.474
1686197759.580,-90.820,-130.859,-40.527,-68.359,1164.478
1686197759.584,-98.633,-372.559,96.680,-61.035,1164.482
1686197759.584,-32.715,221.680,232.422,-30.762,1164.481
1686197759.588,-22.461,483.398,145.508,-35.156,1164.485
1686197759.592,-69.824,187.500,52.734,-82.031,1164.489
1686197759.596,-75.684,28.320,125.977,-82.520,1164.493
1686197759.600,-30.273,-38.574,177.246,-40.527,1164.497
1686197759.604,-2.930,36.133,167.480,-31.250,1164.500
1686197759.607,-53.223,-186.035,80.566,-69.336,1164.504
1686197759.611,-97.168,-878.906,0.000,-87.402,1164.508
1686197759.615,-57.129,-248.535,239.746,-48.828,1164.512
1686197759.619,-7.324,474.121,202.637,-26.855,1164.516
1686197759.623,-34.180,150.879,-12.695,-59.570,1164.520
1686197759.627,-81.055,79.102,98.633,-83.984,1164.524
1686197759.632,-62.012,150.391,217.773,-60.059,1164.532
1686197759.636,-10.742,339.355,157.227,-21.484,1164.535
1686197759.640,2.441,-44.922,-77.637,-14.160,1164.539
1686197759.644,-54.199,-107.422,94.238,-62.012,1164.543
1686197759.648,-84.473,195.801,195.312,-77.148,1164.547
1686197759.652,-44.922,2.930,94.727,-40.527,1164.551
1686197759.655,-36.621,-526.367,-4.883,-41.504,1164.555
1686197759.659,-77.148,-330.078,151.367,-81.543,1164.559
1686197759.663,-96.680,335.938,229.980,-85.938,1164.563
1686197759.667,-56.152,282.227,138.672,-39.551,1164.567
1686197759.671,-22.949,156.738,139.160,-27.832,1164.571
1686197759.675,-51.270,306.152,165.527,-62.012,1164.574
1686197759.689,-83.496,332.520,149.902,-79.590,1164.586
1686197759.693,-50.293,210.449,108.398,-52.246,1164.590
1686197759.697,-1.465,78.613,123.535,-1.953,1164.594
1686197759.701,-27.344,-83.496,110.352,-21.973,1164.597
1686197759.705,-83.984,-163.086,127.441,-55.664,1164.601
1686197759.709,-67.871,-203.613,158.203,-21.484,1164.605
1686197759.712,-16.602,-888.672,15.137,32.715,1164.609
1686197759.716,-18.066,-649.902,180.664,20.508,1164.613
1686197759.720,-62.988,234.863,220.703,-29.785,1164.617
1686197759.724,-71.289,128.906,79.102,-17.578,1164.621
1686197759.728,-25.879,239.258,172.363,33.691,1164.625
1686197759.732,-16.113,502.441,155.762,25.879,1164.629
1686197759.721,-52.734,330.078,60.059,-11.230,1164.630
1686197759.725,-64.453,8.301,38.086,-6.836,1164.634
1686197759.729,-28.809,145.996,150.879,26.855,1164.637
1686197759.733,3.418,459.473,210.938,31.250,1164.641
1686197759.737,-17.578,273.438,49.805,-0.488,1164.645
1686197759.741,-58.594,-314.941,-51.758,-20.508,1164.649
1686197759.744,-45.410,-355.469,135.254,-5.371,1164.653
1686197759.748,-5.371,90.820,250.000,7.812,1164.657
1686197759.752,-15.137,228.516,76.172,-1.953,1164.661
1686197759.756,-70.801,-704.590,-80.566,-25.879,1164.665
1686197759.760,-58.594,-638.184,247.559,-18.066,1164.669
1686197759.764,-0.977,378.418,265.137,9.766,1164.673
1686197759.779,-5.371,339.844,37.598,3.906,1164.676
1686197759.783,-61.523,29.785,66.895,-40.039,1164.680
1686197759.787,-71.777,149.414,166.992,-36.621,1164.684
1686197759.791,-22.461,299.805,158.691,10.254,1164.687
1686197759.795,-0.977,-30.762,50.293,7.324,1164.691
1686197759.799,-40.527,-819.824,5.859,-36.133,1164.695
1686197759.802,-65.918,-419.434,212.402,-48.828,1164.699
1686197759.806,-27.344,338.379,213.379,-8.789,1164.703
1686197759.810,4.395,-72.266,51.758,15.625,1164.707
1686197759.814,-24.414,-520.020,100.098,-16.113,1164.711
1686197759.818,-58.594,102.539,217.285,-46.387,1164.715
1686197759.822,-35.645,403.320,157.227,-24.414,1164.719
1686197759.824,7.812,81.055,23.438,12.207,1164.721
1686197759.828,-0.977,211.426,97.168,-12.695,1164.725
1686197759.832,-47.363,376.953,154.785,-60.059,1164.729
1686197759.836,-51.270,252.930,131.836,-41.504,1164.733
1686197759.840,-7.812,26.367,101.562,5.371,1164.737
1686197759.844,-7.324,-75.195,95.215,-11.230,1164.741
1686197759.847,-51.758,-39.062,95.703,-53.223,1164.745
1686197759.851,-63.965,58.105,125.000,-51.270,1164.748
1686197759.855,-39.551,-485.352,-5.371,-16.113,1164.752
1686197759.859,-11.230,-239.258,136.230,-9.277,1164.756
1686197759.863,-41.016,165.039,94.238,-46.875,1164.760
1686197759.867,-82.520,-260.254,-30.762,-60.547,1164.764
1686197759.870,-50.781,-250.488,157.227,-22.461,1164.769
1686197759.874,-2.930,212.891,209.961,6.836,1164.773
1686197759.878,-24.414,399.414,90.820,-25.391,1164.777
1686197759.882,-73.730,9.277,-96.680,-67.383,1164.781
1686197759.886,-62.988,-782.227,-31.738,-31.250,1164.784
1686197759.890,-14.160,-509.277,201.660,0.488,1164.788
1686197759.893,-17.090,146.973,196.777,-39.062,1164.792
1686197759.897,-71.289,-154.297,-5.859,-71.777,1164.796
1686197759.901,-77.637,-586.914,72.266,-50.781,1164.800
1686197759.905,-15.137,198.242,251.953,-24.414,1164.804
1686197759.909,0.000,513.184,110.840,-33.203,1164.808
1686197759.913,-63.965,37.598,-46.387,-68.848,1164.812
1686197759.917,-87.402,-20.020,77.637,-73.730,1164.817
1686197759.921,-28.809,138.184,218.750,-29.785,1164.821
1686197759.925,-18.555,290.527,129.883,-27.344,1164.825
1686197759.929,-61.523,-99.609,-80.078,-71.289,1164.829
1686197759.933,-85.449,-96.680,79.590,-87.891,1164.833
1686197759.937,-66.895,35.156,118.652,-57.617,1164.837
1686197759.940,-28.809,-27.832,75.684,-25.879,1164.840
1686197759.944,-46.387,-588.379,-69.824,-52.246,1164.844
1686197759.948,-87.891,-649.414,94.727,-84.473,1164.848
1686197759.952,-66.895,251.953,253.418,-63.965,1164.852
1686197759.956,-20.996,331.055,97.168,-29.785,1164.856
1686197759.960,-31.738,120.605,80.078,-42.480,1164.860
1686197759.960,-75.684,250.488,129.395,-81.543,1164.857
1686197759.964,-76.172,350.586,147.461,-76.172,1164.860
1686197759.968,-31.250,258.301,117.188,-40.039,1164.864
1686197759.972,-30.273,36.621,29.785,-41.016,1164.868
1686197759.976,-74.219,-168.457,-42.480,-81.543,1164.872
1686197759.980,-104.004,-176.758,37.109,-97.168,1164.876
1686197759.983,-67.871,-176.758,102.539,-55.176,1164.880
1686197759.987,-29.785,-891.113,-50.781,-33.691,1164.884
1686197759.991,-62.500,-632.324,144.531,-68.359,1164.888
1686197759.995,-94.238,204.590,202.148,-98.633,1164.892
1686197759.999,-73.730,62.012,38.574,-64.453,1164.896
1686197760.003,-26.367,215.332,144.531,-35.645,1164.900
1686197760.006,-28.809,460.449,94.727,-60.059,1164.914
1686197760.010,-84.473,261.719,-52.246,-84.473,1164.918
1686197760.014,-78.613,-36.621,-50.293,-63.965,1164.922
1686197760.018,-19.043,238.770,128.418,-36.133,1164.926
1686197760.022,-11.719,440.430,123.535,-48.828,1164.930
1686197760.026,-66.406,-42.969,-86.914,-80.078,1164.934
1686197760.029,-85.938,-770.508,-67.871,-78.613,1164.938
1686197760.033,-32.715,-520.508,254.395,-26.855,1164.941
1686197760.037,-8.789,355.469,220.703,-20.996,1164.945
1686197760.041,-55.176,191.406,-20.020,-78.125,1164.949
1686197760.045,-78.613,-221.191,76.660,-80.566,1164.953
1686197760.049,-35.156,179.688,215.820,-35.156,1164.957
1686197760.049,4.395,477.051,155.762,-23.926,1164.976
1686197760.053,-27.832,206.543,9.277,-56.152,1164.979
1686197760.057,-80.078,-2.441,37.109,-89.844,1164.983
1686197760.061,-57.129,129.883,166.016,-67.871,1164.987
1686197760.065,-8.789,92.285,94.727,-31.738,1164.991
1686197760.069,-23.926,-248.535,-48.340,-50.781,1164.995
1686197760.072,-73.730,-841.309,-50.781,-83.008,1164.999
1686197760.076,-54.199,-269.043,221.680,-64.453,1165.003
1686197760.080,-3.906,371.582,190.430,-25.391,1165.007
1686197760.084,-3.906,-118.652,-43.945,-38.086,1165.011
1686197760.088,-48.340,-375.977,81.055,-70.312,1165.015
1686197760.092,-67.383,172.852,223.633,-69.824,1165.019
1686197760.109,-35.645,385.742,141.602,-37.109,1165.006
1686197760.113,-16.602,71.289,-42.480,-32.715,1165.010
1686197760.117,-43.457,102.539,38.574,-72.266,1165.014
1686197760.121,-65.430,310.547,184.570,-84.473,1165.018
1686197760.125,-38.086,303.711,106.445,-35.645,1165.022
1686197760.129,-5.859,-183.594,-62.500,-10.742,1165.026
1686197760.132,-28.320,-227.539,74.707,-53.711,1165.029
1686197760.136,-62.500,219.727,188.965,-76.660,1165.033
1686197760.140,-49.805,172.363,109.375,-42.969,1165.037
1686197760.144,-6.836,-169.922,106.934,-10.254,1165.041
1686197760.148,-13.184,30.762,103.027,-37.598,1165.045
1686197760.152,-59.570,35.156,-24.414,-75.195,1165.049
1686197760.154,-62.012,-232.910,-10.742,-64.941,1165.051
1686197760.158,-23.438,-758.301,9.766,-27.344,1165.055
1686197760.162,-13.672,-268.555,162.598,-30.273,1165.058
1686197760.166,-48.340,235.840,79.102,-63.477,1165.062
1686197760.170,-70.801,-290.039,-70.312,-65.430,1165.066
1686197760.174,-45.898,-624.023,97.168,-21.973,1165.070
1686197760.177,-7.324,-205.078,208.008,-5.859,1165.074
1686197760.181,-30.762,276.855,118.652,-61.523,1165.078
1686197760.185,-67.871,-162.598,-52.246,-71.777,1165.082
1686197760.189,-40.527,-568.848,102.539,-22.949,1165.086
1686197760.193,13.672,177.246,234.375,-2.441,1165.090
1686197760.197,-6.836,388.184,79.102,-36.621,1165.094
1686197760.201,-65.918,-18.066,-38.574,-61.035,1165.101
1686197760.205,-51.270,-3.418,88.867,-39.062,1165.105
1686197760.209,-6.348,130.371,181.152,-15.137,1165.109
1686197760.213,-18.066,245.605,83.984,-38.574,1165.113
1686197760.217,-69.336,-295.898,-126.953,-72.266,1165.117
1686197760.221,-82.031,-537.598,79.102,-67.871,1165.120
1686197760.224,-20.996,27.832,257.324,-31.250,1165.124
1686197760.228,5.371,281.738,89.355,-33.691,1165.128
1686197760.232,-45.898,-517.578,-97.656,-62.500,1165.132
1686197760.236,-81.055,-389.648,143.066,-74.219,1165.136
1686197760.240,-33.203,343.750,224.609,-32.227,1165.140
1686197760.244,4.883,201.172,32.715,-8.301,1165.144
1686197760.244,-31.738,-0.977,49.316,-52.246,1165.141
1686197760.248,-64.453,125.000,147.949,-76.660,1165.145
1686197760.252,-40.039,307.129,176.270,-40.039,1165.149
1686197760.256,-10.254,171.387,68.359,-9.766,1165.153
1686197760.260,-37.598,-248.535,-7.812,-36.621,1165.157
1686197760.264,-77.637,-328.613,5.859,-82.520,1165.160
1686197760.267,-66.406,-141.602,142.578,-77.148,1165.164
1686197760.271,-12.695,-159.668,125.000,-26.367,1165.168
1686197760.275,-20.508,-873.535,-36.621,-34.668,1165.172
1686197760.279,-58.105,-516.602,237.305,-83.008,1165.176
1686197760.283,-60.547,129.883,179.688,-62.500,1165.180
1686197760.287,-29.785,-33.203,49.805,-17.578,1165.184
1686197760.291,-3.418,221.680,137.207,-14.648,1165.188
1686197760.295,-37.109,356.934,63.965,-53.223,1165.192
1686197760.299,-83.008,166.504,22.949,-71.289,1165.196
1686197760.303,-59.082,11.230,93.750,-39.062,1165.200
1686197760.307,-8.789,218.262,132.324,-18.066,1165.203
1686197760.311,-30.273,51.758,-18.066,-47.852,1165.207
1686197760.314,-84.473,-240.234,-20.020,-77.637,1165.211
1686197760.318,-66.895,-720.215,-12.695,-55.664,1165.215
1686197760.322,-17.578,-587.402,174.805,-32.715,1165.219
1686197760.326,-20.996,305.664,208.496,-47.363,1165.223
1686197760.330,-70.312,224.609,0.977,-89.844,1165.227
1686197760.334,-74.707,-54.688,69.336,-83.008,1165.231
1686197760.334,-11.719,309.570,204.590,-37.598,1165.231
1686197760.338,2.930,463.867,118.652,-49.316,1165.235
1686197760.342,-60.547,184.570,-6.348,-90.332,1165.239
1686197760.346,-85.938,-50.781,32.715,-93.262,1165.242
1686197760.350,-38.574,-123.535,110.840,-50.293,1165.246
1686197760.354,-12.695,-5.859,82.520,-31.250,1165.250
1686197760.357,-52.246,-180.664,-65.430,-75.195,1165.254
1686197760.361,-89.355,-871.582,-63.965,-83.984,1165.258
1686197760.365,-54.199,-299.805,225.586,-55.664,1165.262
1686197760.369,-10.254,404.785,156.250,-43.945,1165.266
1686197760.373,-32.227,-94.238,-38.086,-55.664,1165.270
1686197760.377,-73.242,-188.477,142.090,-73.730,1165.274
1686197760.395,-61.523,337.891,231.445,-49.805,1165.292
1686197760.399,-11.230,422.852,136.230,-20.508,1165.296
1686197760.403,-35.645,-20.020,-55.176,-50.293,1165.300
1686197760.407,-96.680,32.715,79.590,-99.121,1165.304
1686197760.411,-89.844,294.922,223.633,-89.844,1165.308
1686197760.415,-37.109,117.188,0.488,-42.480,1165.312
1686197760.418,-14.648,-532.227,-119.629,-33.203,1165.316
1686197760.422,-56.152,-395.508,163.086,-76.172,1165.320
1686197760.426,-75.684,288.086,209.473,-93.262,1165.324
1686197760.430,-35.645,240.723,71.289,-45.410,1165.328
1686197760.434,-9.766,76.172,101.562,-38.574,1165.332
1686197760.438,-36.133,190.430,63.965,-69.824,1165.335
1686197760.425,-83.496,-2.930,-66.406,-85.938,1165.334
1686197760.429,-60.547,-157.227,31.738,-55.176,1165.338
1686197760.433,-9.766,105.469,194.336,-18.066,1165.342
1686197760.437,-26.367,171.875,60.547,-45.898,1165.346
1686197760.441,-72.266,-103.516,-38.086,-87.402,1165.350
1686197760.445,-65.918,-341.797,15.137,-68.359,1165.354
1686197760.448,-14.648,-714.355,57.129,-24.902,1165.358
1686197760.452,-5.859,-91.309,184.570,-38.574,1165.362
1686197760.456,-56.641,423.340,94.238,-75.684,1165.366
1686197760.460,-71.777,-143.066,-75.195,-67.871,1165.369
1686197760.464,-36.133,-849.121,-17.578,-32.227,1165.373
1686197760.468,-14.160,-82.031,191.406,-31.738,1165.377
1686197760.471,-40.527,354.492,62.988,-58.594,1165.380
1686197760.475,-68.359,-70.801,-78.125,-66.406,1165.384
1686197760.479,-38.086,53.223,96.191,-27.344,1165.388
1686197760.483,-7.324,202.148,163.574,-16.602,1165.392
1686197760.487,-31.738,214.355,-8.789,-63.965,1165.396
1686197760.491,-81.543,-570.312,-180.176,-85.938,1165.400
1686197760.494,-63.965,-627.441,148.926,-48.340,1165.404
1686197760.498,-13.184,346.680,242.676,-15.137,1165.408
1686197760.502,-26.367,313.477,2.930,-40.527,1165.412
1686197760.506,-78.125,-155.273,54.199,-80.566,1165.416
1686197760.510,-74.707,133.301,200.684,-61.035,1165.419
1686197760.514,-21.973,420.410,140.137,-24.414,1165.423
1686197760.529,-19.043,177.246,-43.945,-38.086,1165.426
1686197760.533,-66.406,-60.547,-7.324,-76.172,1165.430
1686197760.537,-85.938,159.180,161.621,-79.102,1165.434
1686197760.541,-46.387,344.238,114.258,-42.969,1165.438
1686197760.545,-32.715,-139.160,-98.145,-41.016,1165.442
1686197760.549,-78.125,-766.113,-34.180,-70.801,1165.446
1686197760.552,-103.516,-516.113,138.184,-81.055,1165.449
1686197760.556,-70.312,89.844,183.594,-43.945,1165.453
1686197760.560,-32.715,26.855,6.836,-24.902,1165.457
1686197760.564,-63.477,-726.562,-29.785,-63.965,1165.461
1686197760.568,-97.168,-143.555,194.824,-94.727,1165.465
1686197760.572,-68.848,403.320,128.906,-63.965,1165.469
1686197760.575,-29.297,149.902,-15.625,-30.273,1165.472
1686197760.579,-42.480,199.707,-11.230,-52.734,1165.476
1686197760.583,-85.449,267.578,-43.457,-85.938,1165.480
1686197760.587,-81.543,213.867,-51.758,-70.312,1165.484
1686197760.591,-36.621,59.570,-65.430,-34.668,1165.488
1686197760.595,-30.762,-81.055,-90.332,-46.875,1165.492
1686197760.598,-66.406,-92.285,-31.738,-87.402,1165.495
1686197760.602,-73.242,20.996,-42.480,-83.008,1165.499
1686197760.606,-41.992,-643.066,-148.926,-38.086,1165.503
1686197760.610,-19.043,-644.043,104.492,-20.020,1165.507
1686197760.614,-42.969,189.941,144.531,-57.617,1165.511
1686197760.618,-83.984,88.867,-107.422,-88.379,1165.515
1686197760.619,-58.105,-81.055,51.758,-51.270,1165.516
1686197760.623,-10.742,269.531,158.691,-21.973,1165.520
1686197760.627,-33.203,372.559,-19.531,-58.105,1165.524
1686197760.631,-85.938,15.137,-118.164,-82.031,1165.528
1686197760.635,-65.430,-270.020,20.996,-46.387,1165.532
1686197760.639,-15.137,-181.641,76.660,-16.113,1165.535
1686197760.642,-17.090,7.812,17.090,-38.086,1165.539
1686197760.646,-56.152,-140.625,-86.426,-72.754,1165.543
1686197760.650,-72.754,-833.984,-83.984,-63.477,1165.547
1686197760.654,-23.438,-168.457,183.105,-33.691,1165.551
1686197760.658,-5.859,334.961,49.316,-33.691,1165.555
1686197760.662,-51.758,-248.535,-113.770,-68.359,1165.559
1686197760.666,-75.684,-199.219,126.953,-74.219,1165.563
1686197760.670,-36.621,385.742,221.191,-29.297,1165.567
1686197760.674,7.812,394.043,34.180,-14.160,1165.571
1686197760.678,-29.297,-64.941,-103.027,-54.199,1165.575
1686197760.682,-61.523,18.066,54.199,-76.172,1165.579
1686197760.686,-31.738,62.012,36.621,-41.016,1165.583
1686197760.689,10.254,-100.586,-55.664,-14.160,1165.587
1686197760.693,-12.695,-573.242,-132.324,-31.738,1165.591
1686197760.697,-58.594,-419.922,125.000,-58.594,1165.594
1686197760.701,-40.527,258.301,223.145,-39.551,1165.598
1686197760.705,-4.395,201.660,16.113,-2.441,1165.602
1686197760.709,-1.465,38.574,67.383,-20.020,1165.606
1686197760.724,-44.922,110.840,49.316,-61.523,1165.621
1686197760.728,-54.199,-12.207,-46.875,-55.176,1165.625
1686197760.732,-7.324,-146.973,-25.391,-12.695,1165.629
1686197760.736,1.953,-365.234,74.219,-18.555,1165.633
1686197760.740,-39.062,-358.398,59.570,-62.988,1165.637
1686197760.744,-65.918,-235.840,-16.113,-74.707,1165.641
1686197760.747,-40.527,-239.258,26.855,-39.062,1165.645
1686197760.751,-7.324,-810.547,-42.480,-17.578,1165.648
1686197760.755,-27.344,-370.605,168.945,-56.641,1165.652
1686197760.759,-67.383,257.324,120.605,-83.984,1165.656
1686197760.763,-49.805,3.906,-36.133,-37.598,1165.660
1686197760.767,-2.441,184.082,123.535,-5.371,1165.664
1686197760.756,-10.254,414.062,83.496,-37.109,1165.653
1686197760.760,-54.688,231.934,-81.055,-71.777,1165.657
1686197760.764,-54.688,-90.332,-71.289,-51.758,1165.661
1686197760.768,-9.766,25.391,89.355,-12.207,1165.664
1686197760.772,3.418,107.422,76.172,-20.020,1165.668
1686197760.776,-44.434,-170.410,-71.777,-73.242,1165.672
1686197760.779,-72.754,-663.574,-100.586,-74.219,1165.676
1686197760.783,-32.715,-268.555,151.367,-22.461,1165.680
1686197760.787,4.395,399.902,163.086,-11.230,1165.684
1686197760.791,-34.668,195.312,-78.125,-49.316,1165.688
1686197760.795,-74.707,-666.016,-125.488,-64.941,1165.692
1686197760.799,-30.273,-269.531,191.895,-38.574,1165.696
1686197760.799,12.207,470.215,135.254,-17.090,1165.710
1686197760.803,-21.973,130.371,-126.953,-41.992,1165.714
1686197760.807,-62.988,-57.129,41.016,-70.312,1165.718
1686197760.811,-43.457,135.742,131.836,-50.781,1165.722
1686197760.815,-4.883,54.199,-20.996,-17.578,1165.726
1686197760.819,-21.484,-258.789,-93.750,-41.016,1165.730
1686197760.822,-74.707,-928.711,-87.402,-82.520,1165.734
1686197760.826,-74.219,-637.695,198.242,-67.871,1165.738
1686197760.830,-20.996,283.203,185.547,-30.762,1165.742
1686197760.834,-19.531,161.621,-51.270,-36.621,1165.746
1686197760.838,-64.453,-37.598,58.594,-73.242,1165.750
1686197760.842,-73.730,225.098,172.852,-72.266,1165.753
1686197760.861,-23.926,329.590,112.793,-23.926,1165.758
1686197760.865,0.488,41.992,-62.012,-15.625,1165.762
1686197760.869,-39.062,19.043,-50.781,-57.617,1165.766
1686197760.873,-75.195,145.996,-6.348,-70.801,1165.770
1686197760.877,-48.340,128.906,35.156,-30.762,1165.774
1686197760.881,-12.207,-292.969,-92.773,-11.719,1165.778
1686197760.884,-38.574,-313.477,41.504,-47.852,1165.781
1686197760.888,-79.590,141.113,160.645,-76.660,1165.785
1686197760.892,-68.848,89.355,-33.203,-48.340,1165.789
1686197760.896,-29.297,-646.484,-65.918,-3.906,1165.793
1686197760.900,-23.926,-456.055,209.961,-18.555,1165.797
1686197760.904,-59.082,208.496,119.629,-56.641,1165.801
1686197760.904,-68.848,64.453,-83.984,-47.363,1165.801
1686197760.908,-26.367,-28.320,76.172,-9.766,1165.805
1686197760.912,-8.301,253.418,107.422,-14.648,1165.809
1686197760.916,-44.922,178.223,-54.688,-48.828,1165.813
1686197760.920,-71.777,-289.551,-71.289,-49.316,1165.817
1686197760.924,-30.762,-493.652,50.781,-10.254,1165.821
1686197760.927,15.625,-291.016,170.898,8.301,1165.825
1686197760.931,-11.230,81.543,158.691,-28.809,1165.828
1686197760.935,-56.152,-154.297,-28.320,-50.781,1165.832
1686197760.939,-41.504,-889.648,-41.016,-22.949,1165.836
1686197760.943,6.836,-238.770,207.031,2.930,1165.840
1686197760.947,0.000,150.879,22.949,-16.113,1165.844
1686197760.950,-52.734,-429.688,-118.164,-41.504,1165.847
1686197760.954,-49.805,-236.816,157.715,-27.344,1165.851
1686197760.958,4.395,345.703,204.590,0.977,1165.855
1686197760.962,1.465,273.926,-13.184,-11.230,1165.859
1686197760.966,-46.875,-201.172,-122.070,-53.711,1165.863
1686197760.970,-55.664,-374.023,-10.254,-49.316,1165.867
1686197760.973,-6.348,-27.344,194.824,-8.301,1165.870
1686197760.977,12.695,215.332,99.609,-8.789,1165.874
1686197760.981,-36.621,-579.590,-127.930,-45.898,1165.878
1686197760.985,-61.035,-447.266,131.836,-52.246,1165.882
1686197760.989,-19.531,320.312,244.629,-19.531,1165.886
1686197760.993,13.672,251.465,55.664,-10.742,1165.890
1686197760.995,-23.438,6.836,46.875,-42.969,1165.894
1686197760.999,-63.965,16.602,69.824,-61.035,1165.898
1686197761.003,-30.273,-17.090,17.578,-36.133,1165.902
1686197761.007,11.230,-169.922,21.973,-6.348,1165.906
1686197761.011,-14.160,-715.820,-36.133,-19.531,1165.910
1686197761.015,-47.852,-626.465,103.516,-45.410,1165.914
1686197761.018,-42.969,-112.305,190.918,-37.598,1165.918
1686197761.022,-29.785,-77.637,44.434,-28.320,1165.921
1686197761.026,-45.410,-730.469,-19.043,-46.387,1165.925
1686197761.030,-75.195,-205.078,173.828,-82.031,1165.929
1686197761.034,-81.543,299.805,165.039,-76.172,1165.933
1686197761.038,-53.223,14.160,40.527,-41.992,1165.937
1686197761.041,-33.203,188.965,109.375,-38.574,1165.938
1686197761.045,-59.082,360.352,106.445,-72.754,1165.942
1686197761.049,-101.074,204.102,-41.016,-89.844,1165.946
1686197761.053,-71.289,-15.137,-45.410,-54.199,1165.950
1686197761.057,-11.719,41.016,68.359,-21.973,1165.954
1686197761.061,-31.738,-93.750,11.719,-50.293,1165.958
1686197761.064,-82.520,-258.301,-40.039,-79.102,1165.961
1686197761.068,-61.035,-692.871,-62.500,-43.945,1165.965
1686197761.072,-8.789,-634.766,156.250,-10.742,1165.969
1686197761.076,-13.672,198.242,227.539,-33.203,1165.973
1686197761.080,-56.152,162.109,9.277,-74.219,1165.977
1686197761.084,-61.523,-101.074,69.336,-60.059,1165.981
1686197761.085,-19.043,247.559,215.332,-13.672,1165.982
1686197761.089,-8.789,371.094,72.754,-18.066,1165.986
1686197761.093,-53.223,42.480,-86.914,-61.035,1165.989
1686197761.097,-75.195,-206.055,16.113,-70.312,1165.993
1686197761.101,-31.250,-186.523,138.184,-22.461,1165.997
1686197761.105,2.930,-96.680,135.254,-11.719,1166.001
1686197761.108,-38.086,-258.301,23.926,-52.734,1166.005
1686197761.112,-80.566,-945.801,-57.617,-60.059,1166.009
1686197761.116,-40.039,-648.926,210.449,-27.344,1166.013
1686197761.120,11.230,286.133,205.566,-6.836,1166.017
1686197761.124,-17.578,115.234,-60.059,-22.949,1166.021
1686197761.128,-61.035,-4.883,62.500,-54.688,1166.025
1686197761.131,-41.504,332.520,223.145,-35.645,1166.028
1686197761.135,5.371,430.176,134.277,7.324,1166.032
1686197761.139,3.906,84.961,-36.133,-6.836,1166.036
1686197761.143,-54.688,62.988,39.551,-52.734,1166.040
1686197761.147,-60.059,184.082,136.230,-43.945,1166.044
1686197761.151,-10.742,7.324,104.492,-0.488,1166.048
1686197761.154,-13.184,-533.691,-32.227,-5.371,1166.052
1686197761.158,-53.711,-424.316,140.137,-54.688,1166.056
1686197761.162,-59.082,223.633,219.727,-61.523,1166.059
1686197761.166,-23.438,176.270,117.676,-17.578,1166.063
1686197761.170,-4.883,-118.164,128.418,-2.930,1166.067
1686197761.174,-43.945,106.934,130.859,-38.086,1166.071
1686197761.174,-77.148,277.344,110.840,-70.801,1166.085
1686197761.178,-51.758,99.609,93.750,-48.828,1166.089
1686197761.182,-7.812,-2.441,120.605,-15.137,1166.093
1686197761.186,-26.855,84.961,78.613,-38.086,1166.097
1686197761.190,-71.777,-104.492,-13.672,-75.684,1166.101
1686197761.194,-56.152,-329.590,-2.930,-49.805,1166.105
1686197761.197,-20.020,-867.188,9.766,-8.301,1166.109
1686197761.201,-15.137,-435.547,242.188,-25.879,1166.113
1686197761.205,-53.223,212.891,182.129,-65.918,1166.117
1686197761.209,-63.965,-13.672,14.648,-58.594,1166.120
1686197761.213,-12.207,108.887,144.531,-16.113,1166.124
1686197761.217,17.578,332.031,117.676,-13.184,1166.128
1686197761.222,-21.973,61.523,-63.477,-48.340,1166.129
1686197761.226,-66.895,-396.484,-83.008,-70.312,1166.133
1686197761.230,-30.762,-157.227,165.039,-36.133,1166.137
1686197761.234,19.043,385.254,221.680,-4.883,1166.141
1686197761.238,-14.648,235.352,-4.883,-35.645,1166.144
1686197761.242,-66.895,-385.742,-107.910,-60.059,1166.148
1686197761.245,-45.410,-301.758,131.348,-33.203,1166.152
1686197761.249,7.812,352.539,233.398,-3.418,1166.156
1686197761.253,-5.859,248.535,24.414,-26.855,1166.160
1686197761.257,-65.918,-652.832,-110.840,-57.617,1166.164
1686197761.261,-51.758,-318.359,153.320,-38.086,1166.168
1686197761.265,5.859,418.457,228.516,-4.395,1166.172
1686197761.279,2.930,202.637,23.438,-17.578,1166.176
1686197761.283,-36.621,-62.500,45.410,-49.805,1166.180
1686197761.287,-53.223,-2.930,133.301,-60.547,1166.184
1686197761.291,-28.320,-44.434,100.098,-35.156,1166.188
1686197761.295,-10.254,-255.859,52.246,-20.508,1166.191
1686197761.299,-52.734,-888.672,-78.125,-49.805,1166.195
1686197761.302,-87.891,-696.777,150.879,-64.941,1166.199
1686197761.306,-50.293,132.324,239.746,-33.203,1166.203
1686197761.310,0.000,142.090,64.941,-6.836,1166.207
1686197761.314,-22.949,49.805,123.047,-37.598,1166.211
1686197761.318,-70.312,242.188,148.926,-72.266,1166.215
1686197761.322,-52.246,264.648,113.281,-44.922,1166.219
1686197761.339,0.000,20.996,8.301,-3.418,1166.236
1686197761.343,-0.977,73.730,106.445,-26.367,1166.240
1686197761.347,-46.875,211.914,140.137,-62.500,1166.244
1686197761.351,-48.340,148.926,109.375,-41.504,1166.248
1686197761.355,-4.883,-100.098,46.875,0.488,1166.252
1686197761.359,-3.418,-201.660,-32.715,-11.719,1166.255
1686197761.362,-55.664,-251.953,-13.184,-54.688,1166.259
1686197761.366,-62.012,-278.809,47.852,-50.293,1166.263
1686197761.370,-28.320,-717.285,-33.203,0.000,1166.267
1686197761.374,-6.348,-660.156,102.539,2.441,1166.271
1686197761.378,-33.203,107.422,226.562,-47.852,1166.275
1686197761.382,-75.684,87.402,47.363,-62.988,1166.279
1686197761.369,-46.387,-24.414,87.891,-29.785,1166.266
1686197761.373,-5.371,295.898,187.012,-7.812,1166.270
1686197761.377,-20.996,312.500,60.547,-38.574,1166.274
1686197761.381,-74.707,-76.660,-31.738,-69.336,1166.278
1686197761.385,-63.965,-322.266,66.895,-41.992,1166.282
1686197761.389,-7.324,-233.398,146.973,-4.883,1166.286
1686197761.392,-10.742,-13.672,147.461,-27.832,1166.289
1686197761.396,-61.035,-208.984,-4.395,-66.895,1166.293
1686197761.400,-80.566,-646.484,65.430,-48.828,1166.297
1686197761.404,-25.391,-2.930,232.910,-10.254,1166.301
1686197761.408,-3.418,437.988,102.539,-12.695,1166.305
1686197761.412,-50.781,-201.172,-123.047,-50.781,1166.309
1686197761.431,-79.102,-905.273,-10.742,-62.012,1166.340
1686197761.435,-37.598,-90.820,266.113,-29.785,1166.344
1686197761.439,4.883,393.066,115.723,-18.555,1166.348
1686197761.443,-24.902,-59.570,-77.148,-52.734,1166.352
1686197761.447,-58.594,-36.621,23.438,-66.406,1166.356
1686197761.451,-37.598,-86.426,76.172,-31.738,1166.360
1686197761.454,-2.441,-142.578,63.477,-8.789,1166.364
1686197761.458,-15.625,-566.895,-52.246,-24.902,1166.367
1686197761.462,-54.688,-463.867,128.906,-57.129,1166.371
1686197761.466,-37.109,239.258,238.770,-43.945,1166.375
1686197761.470,12.695,129.883,90.332,-2.441,1166.379
1686197761.474,-8.789,-191.895,122.559,-23.438,1166.383
1686197761.459,-69.824,17.090,161.621,-77.148,1166.356
1686197761.463,-69.824,219.727,166.016,-63.477,1166.360
1686197761.467,-26.367,55.664,69.336,-10.742,1166.364
1686197761.471,-13.672,-341.309,64.941,-4.395,1166.367
1686197761.475,-42.480,-313.477,122.070,-39.062,1166.371
1686197761.479,-67.383,-253.906,78.125,-58.594,1166.375
1686197761.482,-36.133,-283.691,156.250,-33.203,1166.379
1686197761.486,8.789,-134.277,214.844,-5.371,1166.383
1686197761.490,-16.113,97.656,160.156,-35.156,1166.387
1686197761.494,-58.105,192.383,88.867,-59.570,1166.391
1686197761.498,-39.551,-181.152,-45.898,-24.902,1166.395
1686197761.502,-5.859,-886.230,-25.879,10.742,1166.399
1686197761.508,-9.277,-407.715,168.945,-17.090,1166.408
1686197761.512,-48.828,-20.996,70.801,-55.664,1166.412
1686197761.516,-49.316,-549.316,-24.414,-34.668,1166.416
1686197761.520,8.301,-474.609,188.477,6.836,1166.420
1686197761.524,20.508,195.312,179.199,-3.418,1166.424
1686197761.528,-33.203,-99.121,-56.641,-42.480,1166.428
1686197761.531,-64.941,-753.418,-69.336,-45.410,1166.432
1686197761.535,-21.973,-357.910,202.148,-1.465,1166.435
1686197761.539,7.812,360.840,193.359,8.789,1166.439
1686197761.543,-31.250,166.504,-26.855,-35.156,1166.443
1686197761.547,-65.918,-347.656,46.875,-57.129,1166.447
1686197761.551,-29.297,9.277,214.844,-28.809,1166.451
1686197761.549,12.207,407.715,136.719,-9.766,1166.475
1686197761.553,-11.719,120.117,-13.184,-42.969,1166.479
1686197761.557,-54.688,-127.441,45.898,-59.570,1166.483
1686197761.561,-35.156,5.859,161.133,-23.926,1166.487
1686197761.565,10.254,-34.668,123.047,6.348,1166.490
1686197761.569,7.812,-237.305,56.152,-12.207,1166.494
1686197761.572,-48.828,-895.020,-95.703,-42.969,1166.498
1686197761.576,-59.082,-894.043,105.469,-40.039,1166.502
1686197761.580,2.930,16.113,244.141,-11.230,1166.506
1686197761.584,10.742,96.680,35.645,-16.602,1166.510
1686197761.588,-38.086,-31.738,103.516,-62.988,1166.514
1686197761.592,-60.547,211.426,193.848,-61.523,1166.518
1686197761.625,-26.855,254.883,131.348,-12.207,1166.521
1686197761.629,-2.441,-12.695,-1.953,0.488,1166.525
1686197761.633,-37.598,8.301,58.594,-38.086,1166.529
1686197761.637,-62.012,193.848,155.273,-59.570,1166.533
1686197761.641,-40.527,175.781,139.160,-36.621,1166.537
1686197761.645,-8.789,-236.328,-65.918,-15.625,1166.541
1686197761.648,-21.973,-421.875,-6.836,-41.992,1166.544
1686197761.652,-56.641,-137.207,156.250,-72.266,1166.548
1686197761.656,-44.922,35.645,126.465,-44.434,1166.552
1686197761.660,-6.348,-538.086,-36.133,4.883,1166.556
1686197761.664,-7.324,-349.121,97.656,-16.602,1166.560
1686197761.668,-44.434,196.289,176.758,-62.012,1166.564
1686197761.654,-55.664,-30.762,43.945,-57.617,1166.551
1686197761.658,-22.461,-713.867,-23.926,-21.973,1166.555
1686197761.662,2.441,-278.809,150.879,-21.484,1166.559
1686197761.666,-36.621,148.926,78.125,-65.918,1166.563
1686197761.670,-72.266,-335.449,-58.105,-74.707,1166.567
1686197761.674,-36.621,-809.570,37.109,-30.273,1166.571
1686197761.677,10.742,-319.824,187.988,-10.742,1166.575
1686197761.681,-14.648,267.090,130.371,-41.992,1166.579
1686197761.685,-67.871,-139.160,-25.879,-76.172,1166.583
1686197761.689,-47.363,-370.117,125.488,-45.410,1166.586
1686197761.693,5.371,131.348,212.891,-4.883,1166.590
1686197761.697,-1.953,373.047,71.777,-28.809,1166.594
1686197761.700,-54.688,-268.555,-141.602,-59.082,1166.597
1686197761.704,-57.617,-894.531,-18.555,-39.062,1166.601
1686197761.708,4.395,-17.090,244.629,-3.418,1166.605
1686197761.712,18.555,421.387,103.516,-7.324,1166.609
1686197761.716,-29.785,-128.906,-97.656,-44.922,1166.613
1686197761.720,-40.527,-319.824,-12.695,-41.504,1166.617
1686197761.723,1.465,8.301,204.590,-7.812,1166.621
1686197761.727,14.648,301.758,96.680,-9.766,1166.625
1686197761.731,-35.156,-479.980,-130.859,-40.039,1166.629
1686197761.735,-60.547,-427.734,141.602,-47.363,1166.633
1686197761.739,-25.879,331.543,231.934,-15.137,1166.636
1686197761.743,6.348,144.043,28.320,-4.883,1166.640
1686197761.745,-8.789,-196.289,65.918,-32.715,1166.641
1686197761.749,-47.852,20.020,166.504,-48.828,1166.645
1686197761.753,-37.109,309.082,164.551,-24.414,1166.649
1686197761.757,6.836,94.238,44.922,5.859,1166.653
1686197761.761,1.953,-466.309,55.664,-11.719,1166.657
1686197761.765,-42.969,-418.457,133.301,-50.293,1166.660
1686197761.768,-57.129,-135.254,171.387,-44.434,1166.664
1686197761.772,-14.648,-165.039,104.980,-6.348,1166.668
1686197761.776,5.371,-797.852,-70.312,-10.742,1166.672
1686197761.780,-34.668,-299.316,164.062,-50.293,1166.676
1686197761.784,-52.734,288.086,180.664,-44.434,1166.680
1686197761.788,-14.648,28.809,24.902,-6.348,1166.684
1686197761.792,14.648,142.578,130.371,-2.441,1166.692
1686197761.796,-16.113,209.961,51.270,-35.156,1166.696
1686197761.800,-50.293,-102.539,-75.684,-46.387,1166.700
1686197761.804,-24.902,-409.668,18.555,-15.625,1166.704
1686197761.808,9.766,-99.609,139.160,9.766,1166.708
1686197761.812,-10.742,-13.184,-0.977,-22.461,1166.712
1686197761.815,-46.875,-350.586,-78.125,-52.246,1166.715
1686197761.819,-38.086,-695.312,-31.738,-22.949,1166.719
1686197761.823,13.184,-316.895,167.969,13.672,1166.723
1686197761.827,18.066,329.590,175.293,-9.766,1166.727
1686197761.831,-28.320,72.754,0.000,-49.805,1166.731
1686197761.835,-37.598,-214.355,90.820,-28.809,1166.735
1686197761.834,9.277,173.828,204.590,19.043,1166.760
1686197761.838,18.066,356.934,108.398,4.883,1166.764
1686197761.842,-23.926,68.848,-63.477,-33.203,1166.768
1686197761.846,-47.363,-181.152,9.766,-34.668,1166.772
1686197761.850,-23.438,-184.570,167.969,-3.418,1166.776
1686197761.854,15.137,-95.215,134.766,5.859,1166.780
1686197761.857,-10.742,-282.227,-30.273,-35.645,1166.784
1686197761.861,-62.012,-948.242,-70.801,-47.852,1166.787
1686197761.865,-33.203,-697.754,232.422,-14.160,1166.791
1686197761.869,17.090,184.570,211.426,8.789,1166.795
1686197761.873,2.930,50.293,-44.922,-12.207,1166.799
1686197761.877,-32.227,-79.102,87.891,-34.668,1166.803
1686197761.881,-20.020,235.352,220.703,-9.766,1166.790
1686197761.885,23.438,321.289,145.508,24.902,1166.794
1686197761.889,18.555,-33.691,-51.270,9.277,1166.798
1686197761.893,-24.414,-22.461,46.387,-24.414,1166.802
1686197761.897,-15.625,179.199,168.457,-16.113,1166.805
1686197761.901,22.949,-46.387,12.207,25.879,1166.809
1686197761.904,20.996,-577.637,-141.113,29.785,1166.813
1686197761.908,-22.949,-561.035,33.203,-14.648,1166.817
1686197761.912,-46.875,14.160,216.309,-32.227,1166.821
1686197761.916,-9.277,173.340,121.582,0.000,1166.825
1686197761.920,27.832,-525.879,-72.266,23.926,1166.829
1686197761.924,10.742,-402.344,64.453,-9.766,1166.833
1686197761.924,-26.367,208.496,198.242,-44.434,1166.835
1686197761.928,-10.742,42.969,85.449,-11.719,1166.839
1686197761.932,38.574,-643.066,3.418,36.133,1166.843
1686197761.936,33.203,-387.695,85.938,12.207,1166.847
1686197761.940,-11.230,-175.293,-4.395,-20.508,1166.851
1686197761.944,-5.371,-408.691,-0.977,3.906,1166.855
1686197761.947,35.156,-835.449,12.695,45.410,1166.859
1686197761.951,44.922,-389.160,172.852,27.832,1166.863
1686197761.955,9.277,222.656,139.160,-15.137,1166.867
1686197761.959,-18.066,-164.062,-1.465,2.930,1166.870
1686197761.963,27.344,-365.234,146.973,46.875,1166.874
1686197761.967,52.734,126.953,212.891,45.410,1166.878
1686197762.000,4.883,273.926,41.016,8.301,1166.903
1686197762.004,-12.207,-216.797,-97.656,6.836,1166.907
1686197762.008,24.414,-181.641,130.859,45.410,1166.911
1686197762.012,61.523,358.398,206.055,57.617,1166.915
1686197762.016,30.273,279.785,-5.859,26.855,1166.919
1686197762.020,-10.742,-382.812,-136.230,-0.488,1166.923
1686197762.023,8.301,-336.426,119.141,18.555,1166.927
1686197762.027,51.758,277.344,241.699,56.152,1166.931
1686197762.031,45.410,208.496,42.969,33.203,1166.935
1686197762.035,-9.766,-647.461,-115.723,-0.488,1166.938
1686197762.039,-9.277,-368.652,145.508,8.789,1166.942
1686197762.043,55.176,359.375,211.426,43.457,1166.946
1686197762.029,62.988,-19.531,-40.527,47.852,1166.926
1686197762.033,6.836,-590.820,31.738,6.348,1166.930
1686197762.037,0.977,-168.945,212.402,11.230,1166.934
1686197762.041,41.016,161.133,137.207,54.688,1166.938
1686197762.045,56.152,-286.621,-47.363,48.340,1166.942
1686197762.049,25.391,-812.500,-17.578,13.672,1166.946
1686197762.052,-9.766,-427.246,198.242,-0.488,1166.950
1686197762.056,21.973,217.773,180.176,39.551,1166.954
1686197762.060,67.871,47.852,45.410,67.383,1166.957
1686197762.064,41.504,-191.895,103.516,32.715,1166.961
1686197762.068,-8.301,4.395,154.297,0.977,1166.965
1686197762.072,17.578,258.301,168.945,21.484,1166.969
1686197762.075,70.312,-113.770,-19.531,62.012,1166.973
1686197762.079,53.711,-869.141,-52.246,51.270,1166.977
1686197762.083,2.930,-347.656,165.527,4.883,1166.981
1686197762.087,5.371,-55.176,53.711,14.648,1166.985
1686197762.091,49.316,-461.426,-40.527,51.758,1166.989
1686197762.095,58.105,-525.879,104.004,49.805,1166.993
1686197762.098,21.484,-134.766,181.152,11.719,1166.997
1686197762.102,-1.953,71.777,106.934,5.371,1167.000
1686197762.106,34.180,-492.188,-35.645,49.805,1167.004
1686197762.110,69.824,-294.434,135.254,68.848,1167.008
1686197762.114,47.852,315.918,105.957,32.715,1167.012
1686197762.118,14.160,79.102,-90.820,4.395,1167.016
1686197762.119,38.086,-93.750,83.008,41.992,1167.016
1686197762.123,82.520,252.930,172.363,78.613,1167.020
1686197762.127,59.082,349.609,-4.883,46.387,1167.024
1686197762.131,-0.977,4.883,-109.863,7.812,1167.028
1686197762.135,10.742,-379.883,55.664,27.832,1167.031
1686197762.139,63.477,-275.879,188.965,63.965,1167.035
1686197762.142,58.105,-134.766,85.938,51.270,1167.039
1686197762.146,19.043,-340.332,-69.824,20.996,1167.043
1686197762.150,12.207,-932.129,-55.664,38.086,1167.047
1686197762.154,58.594,-560.547,279.297,76.172,1167.051
1686197762.158,80.566,206.543,184.082,71.777,1167.055
1686197762.162,40.527,-38.574,-62.012,38.574,1167.059
1686197762.166,18.555,-50.293,104.004,20.996,1167.090
1686197762.170,48.340,313.965,204.590,51.270,1167.094
1686197762.174,82.520,292.969,84.473,73.242,1167.097
1686197762.178,56.641,-101.562,-75.195,35.645,1167.101
1686197762.182,19.531,-209.961,-41.016,19.043,1167.105
1686197762.186,39.062,-161.621,65.430,50.293,1167.109
1686197762.189,83.984,-89.355,83.008,69.336,1167.113
1686197762.193,71.289,-601.074,-115.723,53.223,1167.117
1686197762.197,18.066,-741.211,88.379,19.043,1167.121
1686197762.201,32.227,51.758,252.441,27.832,1167.125
1686197762.205,81.543,178.711,39.062,71.289,1167.129
1686197762.209,72.266,-400.879,-21.973,70.312,1167.133
1686197762.209,24.902,-149.902,117.676,30.762,1167.106
1686197762.213,18.555,205.566,150.391,35.645,1167.110
1686197762.217,58.594,156.738,89.355,80.078,1167.114
1686197762.221,81.055,-15.625,-9.277,80.566,1167.117
1686197762.225,35.156,-270.508,-63.965,34.668,1167.121
1686197762.229,-2.441,-325.684,14.160,26.367,1167.125
1686197762.232,37.109,-295.898,96.680,66.895,1167.129
1686197762.236,71.289,-819.336,-17.090,85.938,1167.133
1686197762.240,48.828,-446.777,164.062,51.270,1167.137
1686197762.244,14.648,195.312,151.855,23.438,1167.141
1686197762.248,20.020,-165.527,-22.949,39.551,1167.145
1686197762.252,61.523,-225.098,145.508,67.383,1167.149
1686197762.271,58.105,169.922,144.043,50.781,1167.168
1686197762.275,6.348,208.984,-38.574,7.812,1167.172
1686197762.279,-0.977,-387.207,-113.770,23.438,1167.176
1686197762.283,50.293,-541.992,129.883,68.359,1167.180
1686197762.287,63.477,162.109,163.086,67.871,1167.184
1686197762.291,20.508,-95.703,-86.914,27.832,1167.188
1686197762.294,-5.859,-769.531,-127.441,24.414,1167.192
1686197762.298,38.086,-395.996,177.246,58.105,1167.196
1686197762.302,80.566,301.758,218.262,68.359,1167.199
1686197762.306,42.969,123.535,-18.066,42.480,1167.203
1686197762.310,0.488,-222.168,49.805,24.902,1167.207
1686197762.314,35.156,86.426,212.402,52.734,1167.211
1686197762.300,79.102,355.957,110.840,76.660,1167.209
1686197762.304,54.199,-88.867,-97.656,55.176,1167.213
1686197762.308,9.766,-570.312,55.176,23.926,1167.217
1686197762.312,27.832,-144.043,189.453,52.734,1167.221
1686197762.316,66.406,-3.906,89.844,95.215,1167.225
1686197762.320,52.734,-379.883,-9.766,63.477,1167.229
1686197762.323,11.719,-554.199,20.020,21.484,1167.233
1686197762.327,13.672,-83.984,189.941,30.273,1167.236
1686197762.331,68.359,335.938,173.828,67.383,1167.240
1686197762.335,83.008,-26.367,-80.078,71.289,1167.244
1686197762.339,20.020,-881.348,-144.043,35.156,1167.248
1686197762.343,7.812,-393.066,195.312,26.855,1167.252
1686197762.346,59.570,255.371,180.664,62.500,1167.256
1686197762.350,83.984,-7.324,-55.664,78.125,1167.259
1686197762.354,58.105,-20.020,22.949,46.387,1167.263
1686197762.358,16.602,31.738,28.809,26.367,1167.267
1686197762.362,36.133,-108.887,-15.137,55.664,1167.271
1686197762.366,86.426,-593.262,-97.168,86.914,1167.275
1686197762.369,72.266,-651.855,61.523,63.965,1167.279
1686197762.373,25.879,59.570,186.523,29.785,1167.283
1686197762.377,34.668,94.238,67.871,40.527,1167.287
1686197762.381,75.195,-174.805,90.332,66.406,1167.291
1686197762.385,66.406,-30.273,71.777,52.734,1167.295
1686197762.389,19.531,129.395,23.926,18.066,1167.299
1686197762.405,4.883,-8.301,-38.086,21.973,1167.301
1686197762.409,43.457,-134.277,73.242,65.430,1167.305
1686197762.413,72.754,174.316,125.977,75.195,1167.309
1686197762.417,38.086,135.742,-43.945,32.227,1167.313
1686197762.421,4.395,-397.949,-101.562,13.184,1167.317
1686197762.425,30.273,-856.934,0.000,57.617,1167.320
1686197762.428,73.730,-502.441,168.457,74.219,1167.324
1686197762.432,47.363,2.930,125.977,23.926,1167.328
1686197762.436,-1.465,-235.840,-43.457,-8.301,1167.332
1686197762.440,14.160,-800.293,-10.742,32.227,1167.336
1686197762.444,64.453,-78.125,214.355,62.012,1167.340
1686197762.448,58.594,364.746,116.211,39.062,1167.344
1686197762.451,15.625,-104.004,-67.383,17.578,1167.347
1686197762.455,18.555,-30.762,103.027,38.086,1167.351
1686197762.459,62.988,315.918,188.965,79.590,1167.355
1686197762.463,74.219,247.559,14.648,68.359,1167.359
1686197762.467,27.832,-190.918,-112.305,24.902,1167.363
1686197762.471,9.277,-384.277,-15.137,27.832,1167.367
1686197762.474,46.875,-61.523,202.148,63.477,1167.371
1686197762.478,68.848,210.938,105.957,70.801,1167.375
1686197762.482,25.391,-596.680,-174.805,32.715,1167.379
1686197762.486,-8.789,-758.789,110.840,14.160,1167.383
1686197762.490,32.227,124.512,261.719,48.828,1167.386
1686197762.494,66.406,174.805,21.973,70.312,1167.390
1686197762.495,48.340,-353.516,31.738,50.781,1167.394
1686197762.499,13.672,-186.523,147.461,28.809,1167.398
1686197762.503,7.812,189.941,176.270,42.969,1167.402
1686197762.507,39.551,34.668,54.199,65.430,1167.406
1686197762.511,39.551,-522.949,21.973,44.434,1167.410
1686197762.515,-3.906,-585.938,133.301,5.859,1167.414
1686197762.518,-9.766,-219.238,176.758,12.207,1167.418
1686197762.522,33.203,-105.957,62.500,51.270,1167.422
1686197762.526,32.715,-795.898,-72.266,46.875,1167.426
1686197762.530,-6.836,-368.164,149.902,9.766,1167.430
1686197762.534,-20.020,211.426,159.668,5.859,1167.433
1686197762.538,17.090,-110.840,0.000,41.504,1167.437
1686197762.541,49.316,-86.914,118.164,65.430,1167.440
1686197762.545,25.391,194.824,104.980,31.738,1167.444
1686197762.549,-7.324,161.133,-32.715,1.465,1167.448
1686197762.553,12.207,-316.406,-60.059,36.133,1167.451
1686197762.557,48.828,-286.133,108.398,59.570,1167.455
1686197762.561,24.902,-122.070,3.906,32.715,1167.459
1686197762.564,-21.973,-304.199,-73.730,-1.465,1167.463
1686197762.568,-19.531,-706.055,-73.730,9.766,1167.467
1686197762.572,16.602,-675.781,103.027,42.480,1167.471
1686197762.576,20.996,125.000,187.988,19.043,1167.475
1686197762.580,-20.508,118.652,2.441,-22.949,1167.479
1686197762.584,-20.020,-140.137,72.266,-4.395,1167.483
1686197762.585,24.414,201.660,178.711,37.109,1167.485
1686197762.589,37.109,345.215,44.922,41.992,1167.489
1686197762.593,-5.371,-108.398,-75.684,8.789,1167.493
1686197762.597,-34.668,-552.734,82.031,-0.977,1167.497
1686197762.601,10.742,-285.645,189.453,31.250,1167.500
1686197762.605,40.527,-41.992,129.883,41.992,1167.504
1686197762.608,8.789,-282.227,-31.250,6.836,1167.508
1686197762.612,-30.762,-944.336,-86.426,-5.859,1167.512
1686197762.616,-10.742,-569.824,223.633,14.160,1167.516
1686197762.620,41.992,356.934,185.547,32.227,1167.520
1686197762.624,23.438,140.625,-65.918,5.371,1167.524
1686197762.628,-18.555,-62.988,55.176,-27.832,1167.528
1686197762.631,1.953,231.445,198.730,-5.371,1167.528
1686197762.635,37.109,339.844,129.395,28.809,1167.532
1686197762.639,31.738,18.555,-65.430,23.926,1167.536
1686197762.643,-0.977,22.461,14.160,-7.324,1167.540
1686197762.647,-17.578,120.605,67.383,-6.836,1167.544
1686197762.651,18.555,-59.570,-28.320,38.086,1167.548
1686197762.654,33.203,-633.789,-173.828,48.340,1167.551
1686197762.658,-12.207,-744.141,50.293,3.906,1167.555
1686197762.662,-31.250,53.223,225.586,-20.996,1167.559
1686197762.666,1.465,160.645,83.008,20.996,1167.563
1686197762.670,32.227,0.000,108.398,42.480,1167.567
1686197762.674,12.695,186.523,105.469,6.836,1167.571
1686197762.674,-26.367,239.746,-1.953,-14.160,1167.585
1686197762.678,-16.602,116.699,-19.043,5.371,1167.589
1686197762.682,26.855,56.641,85.449,26.855,1167.593
1686197762.686,25.391,115.234,50.781,5.371,1167.597
1686197762.690,-28.809,-144.043,-50.781,-26.855,1167.601
1686197762.694,-33.203,-343.262,-4.395,-16.602,1167.605
1686197762.697,6.836,-840.332,-24.902,24.902,1167.609
1686197762.701,10.254,-617.676,184.570,20.996,1167.613
1686197762.705,-26.855,103.027,188.965,-26.855,1167.617
1686197762.709,-41.016,-33.691,25.879,-24.414,1167.621
1686197762.713,4.395,-97.168,203.613,10.254,1167.624
1686197762.717,31.738,350.098,137.207,12.207,1167.628
1686197762.721,-8.301,312.988,-65.430,-24.414,1167.630
1686197762.725,-46.387,-42.480,-58.594,-45.898,1167.634
1686197762.729,-11.719,111.328,119.629,-6.836,1167.638
1686197762.733,27.344,438.965,174.316,15.625,1167.641
1686197762.737,-1.465,270.996,-10.254,-14.160,1167.645
1686197762.741,-44.434,-387.207,-121.582,-45.898,1167.649
1686197762.744,-28.320,-332.520,127.930,-26.367,1167.653
1686197762.748,13.672,339.844,225.098,17.090,1167.657
1686197762.752,6.836,318.848,43.457,1.953,1167.661
1686197762.756,-48.340,-556.641,-84.961,-38.086,1167.665
1686197762.760,-59.570,-553.223,138.184,-35.645,1167.669
1686197762.764,1.953,301.758,247.070,2.930,1167.673
1686197762.779,24.414,233.398,33.691,4.395,1167.676
1686197762.783,-26.855,-403.809,9.766,-32.227,1167.680
1686197762.787,-48.340,-59.570,205.078,-40.527,1167.684
1686197762.791,-6.836,307.129,145.996,-7.324,1167.688
1686197762.795,12.207,-94.727,-65.430,-0.488,1167.692
1686197762.799,-31.250,-822.754,-94.238,-32.227,1167.695
1686197762.802,-65.430,-465.820,190.918,-62.988,1167.699
1686197762.806,-36.621,297.852,214.355,-30.762,1167.703
1686197762.810,-0.488,124.023,23.926,-0.488,1167.707
1686197762.814,-19.531,-131.348,85.938,-24.414,1167.711
1686197762.818,-63.477,31.738,101.562,-53.711,1167.715
1686197762.822,-49.316,175.781,107.422,-32.715,1167.719
1686197762.825,2.441,24.902,75.684,-1.953,1167.722
1686197762.829,5.371,31.738,112.305,-22.461,1167.726
1686197762.833,-39.551,273.926,157.227,-59.570,1167.730
1686197762.837,-45.410,309.570,134.277,-47.852,1167.734
1686197762.841,-4.883,-115.234,15.137,0.488,1167.738
1686197762.845,5.371,-331.543,96.680,-0.488,1167.742
1686197762.848,-40.527,-105.957,177.734,-52.734,1167.746
1686197762.852,-61.523,107.422,129.883,-56.641,1167.750
1686197762.856,-29.297,-373.535,-10.742,-9.277,1167.754
1686197762.860,0.000,-279.297,136.719,2.441,1167.758
1686197762.864,-19.043,353.516,201.172,-28.809,1167.762
1686197762.868,-52.734,189.453,58.594,-48.340,1167.765
1686197762.869,-30.762,36.621,102.539,-18.555,1167.766
1686197762.873,10.742,296.875,172.852,1.465,1167.770
1686197762.877,-3.906,325.195,88.867,-31.250,1167.774
1686197762.881,-49.805,-180.664,-38.574,-59.082,1167.778
1686197762.885,-48.340,-697.266,54.199,-27.832,1167.782
1686197762.889,-18.555,-325.195,198.730,-4.883,1167.786
1686197762.892,-17.578,35.156,166.016,-26.367,1167.790
1686197762.896,-56.152,-245.117,44.434,-58.105,1167.794
1686197762.900,-86.426,-836.426,-18.066,-59.082,1167.797
1686197762.904,-42.969,-102.539,223.145,-16.113,1167.801
1686197762.908,-2.930,581.055,189.453,-9.277,1167.805
1686197762.912,-38.574,136.230,-30.762,-54.688,1167.809
1686197762.916,-74.219,72.754,121.094,-63.477,1167.813
1686197762.920,-38.086,462.891,243.164,-18.555,1167.817
1686197762.924,1.465,547.363,131.836,-8.301,1167.821
1686197762.928,-24.414,144.531,-18.555,-39.551,1167.825
1686197762.932,-61.035,87.891,72.754,-62.500,1167.829
1686197762.936,-43.457,76.660,122.070,-34.180,1167.832
1686197762.939,-0.488,117.676,139.648,1.465,1167.836
1686197762.943,-17.090,-428.711,-34.180,-18.066,1167.840
1686197762.947,-64.453,-641.602,91.797,-62.012,1167.844
1686197762.951,-55.176,299.316,259.766,-54.688,1167.848
1686197762.955,-7.812,472.168,161.621,-7.324,1167.852
1686197762.959,-4.395,239.746,141.113,-20.020,1167.856
1686197762.959,-51.270,362.305,158.203,-62.988,1167.856
1686197762.963,-68.848,470.215,186.035,-58.105,1167.860
1686197762.967,-25.879,387.207,131.348,-23.926,1167.864
1686197762.971,8.301,159.180,44.434,-8.789,1167.868
1686197762.975,-28.320,-31.250,55.664,-42.969,1167.872
1686197762.979,-66.406,-14.648,167.480,-60.059,1167.876
1686197762.982,-41.504,30.273,162.598,-34.180,1167.879
1686197762.986,-13.184,-666.504,26.367,-7.324,1167.883
1686197762.990,-33.691,-545.898,188.477,-34.668,1167.887
1686197762.994,-63.965,289.551,215.820,-65.430,1167.891
1686197762.998,-50.293,221.680,120.117,-42.480,1167.895
1686197763.002,-11.719,197.266,221.680,-9.277,1167.899
1686197763.007,-18.555,545.410,175.781,-28.320,1167.904
1686197763.011,-60.059,479.492,124.512,-72.266,1167.908
1686197763.015,-58.594,173.340,93.750,-58.594,1167.912
1686197763.019,-14.160,417.969,166.504,-18.066,1167.916
1686197763.023,-2.930,499.023,109.863,-29.297,1167.920
1686197763.027,-52.246,88.379,-33.691,-71.777,1167.924
1686197763.030,-81.543,-396.484,3.418,-69.336,1167.928
1686197763.034,-31.250,-131.348,226.074,-28.809,1167.932
1686197763.038,2.441,637.695,224.609,-19.043,1167.936
1686197763.042,-42.969,524.902,79.590,-54.199,1167.940
1686197763.046,-77.148,116.699,102.539,-71.777,1167.943
1686197763.050,-39.062,172.363,186.523,-29.297,1167.947
1686197763.050,10.742,654.785,220.703,2.930,1167.959
1686197763.054,-16.113,502.930,78.125,-34.180,1167.963
1686197763.058,-69.824,-101.074,78.125,-64.941,1167.967
1686197763.062,-46.875,190.430,218.750,-44.434,1167.971
1686197763.066,-2.930,345.703,200.684,-15.137,1167.975
1686197763.070,-6.348,119.141,121.094,-25.879,1167.979
1686197763.073,-58.105,-765.137,-5.859,-47.363,1167.983
1686197763.077,-69.336,-577.148,243.652,-47.852,1167.987
1686197763.081,-10.742,549.805,282.227,-11.719,1167.991
1686197763.085,4.883,543.457,72.754,-6.836,1167.994
1686197763.089,-34.180,403.320,130.371,-53.223,1167.998
1686197763.093,-51.758,612.305,192.871,-55.176,1168.002
1686197763.112,-17.578,672.363,167.969,-0.977,1168.013
1686197763.116,13.672,379.883,60.059,13.672,1168.016
1686197763.120,-15.137,333.984,131.348,-33.691,1168.020
1686197763.124,-51.758,530.273,217.773,-55.664,1168.024
1686197763.128,-34.180,674.316,184.082,-21.973,1168.028
1686197763.132,-3.906,-37.598,-39.062,3.906,1168.032
1686197763.135,-19.043,-497.559,66.895,-26.367,1168.036
1686197763.139,-51.758,402.344,238.770,-60.547,1168.040
1686197763.143,-45.410,584.961,156.250,-37.109,1168.044
1686197763.147,-7.812,252.930,135.254,7.812,1168.048
1686197763.151,-4.883,488.281,142.090,-8.301,1168.052
1686197763.155,-41.504,649.902,166.016,-46.875,1168.055
1686197763.154,-54.199,441.406,165.527,-38.574,1168.051
1686197763.158,-9.277,351.074,175.293,1.953,1168.055
1686197763.162,16.113,623.535,213.867,1.465,1168.059
1686197763.166,-31.738,544.434,78.125,-49.805,1168.063
1686197763.170,-72.266,138.672,43.457,-64.941,1168.067
1686197763.174,-43.945,-9.766,149.902,-29.785,1168.071
1686197763.177,-4.395,155.273,187.012,-5.859,1168.075
1686197763.181,-23.926,371.094,202.637,-39.551,1168.079
1686197763.185,-67.383,251.465,68.359,-70.312,1168.083
1686197763.189,-59.082,-713.867,24.902,-33.203,1168.086
1686197763.193,-13.672,-462.891,303.223,-2.441,1168.090
1686197763.197,-16.113,592.285,222.656,-28.320,1168.094
1686197763.200,-60.059,392.578,18.066,-62.988,1168.098
1686197763.204,-58.105,393.066,171.875,-52.246,1168.102
1686197763.208,-12.207,848.145,246.582,-10.254,1168.105
1686197763.212,0.000,803.711,139.160,-8.301,1168.109
1686197763.216,-49.316,320.312,4.395,-47.363,1168.113
1686197763.220,-74.219,148.438,121.094,-53.711,1168.117
1686197763.223,-29.297,302.734,246.582,-9.766,1168.121
1686197763.227,-3.906,461.426,169.434,-2.441,1168.125
1686197763.231,-50.293,-209.473,-20.508,-43.945,1168.129
1686197763.235,-88.379,-454.590,120.117,-62.012,1168.133
1686197763.239,-41.504,471.191,224.121,-33.691,1168.137
1686197763.243,0.488,616.699,149.902,-7.324,1168.141
1686197763.244,-28.809,426.758,159.180,-31.738,1168.141
1686197763.248,-70.312,603.516,194.824,-51.270,1168.145
1686197763.252,-49.316,782.715,215.820,-32.227,1168.149
1686197763.256,-7.812,621.094,137.695,-3.906,1168.153
1686197763.260,-14.160,241.699,116.699,-13.184,1168.157
1686197763.264,-62.988,137.207,176.270,-50.781,1168.161
1686197763.267,-77.148,351.074,233.398,-46.387,1168.165
1686197763.271,-31.738,483.398,152.344,-4.395,1168.168
1686197763.275,-13.672,-386.230,-17.090,1.465,1168.172
1686197763.279,-50.781,-197.266,163.086,-36.621,1168.176
1686197763.283,-69.824,629.395,249.023,-44.434,1168.180
1686197763.287,-40.039,503.418,133.789,-9.766,1168.184
1686197763.291,-21.484,453.613,202.637,-4.883,1168.188
1686197763.295,-51.270,758.301,193.359,-46.387,1168.192
1686197763.299,-77.148,700.684,150.879,-67.383,1168.196
1686197763.303,-46.387,471.191,183.594,-35.156,1168.200
1686197763.307,0.000,656.738,176.758,-13.184,1168.204
1686197763.311,-24.902,533.203,41.992,-43.457,1168.208
1686197763.314,-73.730,248.047,82.520,-67.383,1168.212
1686197763.318,-65.430,-90.332,94.727,-47.363,1168.216
1686197763.322,-20.020,187.500,224.121,-17.090,1168.220
1686197763.326,-15.625,857.422,240.723,-29.297,1168.224
1686197763.330,-67.383,668.945,114.258,-65.918,1168.227
1686197763.334,-83.496,305.664,145.996,-54.688,1168.231
1686197763.334,-23.926,474.121,221.191,-18.066,1168.232
1686197763.338,3.418,876.465,207.520,-21.973,1168.236
1686197763.342,-45.410,638.184,82.520,-63.477,1168.240
1686197763.346,-78.613,21.973,119.141,-68.359,1168.244
1686197763.350,-32.715,192.383,241.699,-28.320,1168.248
1686197763.354,3.418,496.094,199.219,-21.973,1168.252
1686197763.357,-40.527,270.020,133.789,-57.129,1168.256
1686197763.361,-90.820,-564.453,56.152,-71.777,1168.259
1686197763.365,-55.664,-82.031,277.832,-39.062,1168.263
1686197763.369,3.906,883.789,267.578,-9.277,1168.267
1686197763.373,-12.207,659.180,85.938,-32.227,1168.271
1686197763.377,-53.223,567.383,168.945,-69.824,1168.275
1686197763.381,-48.340,826.660,243.652,-52.246,1168.278
1686197763.385,-9.766,886.719,199.219,-8.789,1168.282
1686197763.389,-6.348,452.637,80.078,-8.789,1168.286
1686197763.393,-47.852,456.055,159.668,-50.781,1168.290
1686197763.397,-67.383,760.742,250.000,-60.547,1168.294
1686197763.401,-24.414,631.348,185.059,-22.949,1168.298
1686197763.404,-2.930,-70.312,44.922,-1.465,1168.302
1686197763.408,-37.598,-226.074,180.176,-35.645,1168.305
1686197763.412,-64.453,614.746,280.762,-66.895,1168.309
1686197763.416,-43.457,787.598,181.641,-37.109,1168.313
1686197763.420,-4.883,548.340,181.641,-15.137,1168.317
1686197763.424,-23.438,648.926,199.707,-49.805,1168.321
1686197763.424,-72.266,765.625,195.801,-78.613,1168.336
1686197763.428,-51.270,641.602,208.496,-43.945,1168.340
1686197763.432,2.930,620.605,271.484,-6.348,1168.344
1686197763.436,-7.324,639.648,153.809,-23.926,1168.347
1686197763.440,-62.500,339.844,130.859,-63.477,1168.351
1686197763.444,-65.430,211.914,192.383,-54.199,1168.355
1686197763.447,-24.902,-484.863,69.336,-12.695,1168.359
1686197763.451,-9.277,-236.816,249.023,-11.230,1168.363
1686197763.455,-44.434,754.395,243.164,-46.875,1168.367
1686197763.459,-61.523,524.902,161.621,-55.176,1168.371
1686197763.463,-20.996,403.320,277.344,-23.438,1168.375
1686197763.467,10.254,888.184,238.281,-16.113,1168.379
1686197763.486,-26.855,879.395,169.922,-56.641,1168.383
1686197763.490,-62.012,470.215,120.605,-63.965,1168.387
1686197763.494,-31.250,582.031,186.523,-21.484,1168.391
1686197763.498,-5.371,929.199,245.117,-10.742,1168.395
1686197763.502,-28.809,818.359,155.273,-48.340,1168.399
1686197763.506,-71.777,206.055,-10.742,-84.473,1168.402
1686197763.509,-64.941,246.094,171.387,-56.641,1168.406
1686197763.513,-23.438,677.246,255.371,-15.625,1168.410
1686197763.517,-31.250,522.461,118.164,-28.809,1168.414
1686197763.521,-79.590,-200.195,33.691,-54.688,1168.418
1686197763.525,-84.961,-113.281,254.395,-45.898,1168.422
1686197763.529,-31.250,820.801,291.504,-14.648,1168.426
1686197763.530,-5.371,823.242,134.277,-16.113,1168.427
1686197763.534,-44.434,477.539,139.160,-60.059,1168.431
1686197763.538,-80.566,707.520,226.074,-69.824,1168.435
1686197763.542,-57.617,844.238,214.844,-34.668,1168.439
1686197763.546,-27.344,527.344,193.359,-34.668,1168.442
1686197763.550,-56.641,309.570,194.336,-65.430,1168.446
1686197763.553,-93.262,349.121,205.078,-83.008,1168.450
1686197763.557,-55.664,802.246,239.746,-49.316,1168.454
1686197763.561,-14.160,729.980,108.887,-22.461,1168.458
1686197763.565,-55.176,-434.082,-11.719,-50.781,1168.462
1686197763.569,-92.285,-249.512,219.238,-88.379,1168.466
1686197763.573,-59.082,748.047,251.465,-65.918,1168.470
1686197763.577,-19.531,621.094,115.723,-32.227,1168.477
1686197763.581,-27.832,518.066,184.570,-53.223,1168.481
1686197763.585,-75.195,788.574,198.730,-97.656,1168.485
1686197763.589,-80.566,815.918,195.312,-83.496,1168.489
1686197763.593,-33.691,641.113,163.574,-29.297,1168.493
1686197763.597,-23.438,504.395,145.996,-31.738,1168.497
1686197763.600,-63.477,540.527,197.754,-78.613,1168.501
1686197763.604,-85.449,728.027,190.918,-84.473,1168.504
1686197763.608,-52.246,186.035,86.914,-39.062,1168.508
1686197763.612,-19.043,173.340,233.887,-18.555,1168.512
1686197763.616,-41.016,927.246,249.512,-60.059,1168.516
1686197763.620,-84.961,759.766,145.996,-87.891,1168.520
1686197763.664,-71.289,217.285,185.547,-55.664,1168.561
1686197763.668,-20.996,526.367,242.188,-25.879,1168.565
1686197763.672,-26.855,993.164,211.426,-52.734,1168.569
1686197763.676,-71.289,666.016,66.406,-82.031,1168.573
1686197763.680,-72.266,172.363,114.258,-59.082,1168.577
1686197763.684,-19.043,343.750,251.465,-20.508,1168.581
1686197763.687,-5.371,645.020,207.520,-31.738,1168.585
1686197763.691,-58.594,572.754,91.309,-78.613,1168.589
1686197763.695,-87.402,-515.625,39.551,-67.383,1168.593
1686197763.699,-42.969,-364.258,279.785,-24.414,1168.597
1686197763.703,-11.719,667.480,200.195,-27.832,1168.601
1686197763.707,-46.387,543.945,91.309,-63.477,1168.604
1686197763.669,-81.543,634.277,194.336,-78.125,1168.567
1686197763.673,-57.129,975.586,253.906,-52.734,1168.571
1686197763.677,-21.484,948.730,197.266,-32.227,1168.575
1686197763.681,-42.969,502.930,34.668,-50.781,1168.579
1686197763.685,-81.055,516.113,133.789,-75.195,1168.582
1686197763.689,-70.801,644.043,232.422,-59.082,1168.586
1686197763.692,-28.320,561.523,197.266,-29.785,1168.590
1686197763.696,-40.527,207.520,41.992,-45.898,1168.594
1686197763.700,-82.520,377.441,138.672,-86.914,1168.598
1686197763.704,-77.148,932.129,262.207,-83.008,1168.602
1686197763.708,-36.621,863.770,164.062,-41.992,1168.606
1686197763.712,-32.227,489.258,125.000,-41.016,1168.610
1686197763.709,-72.754,620.605,171.387,-87.891,1168.606
1686197763.713,-88.379,892.578,218.262,-90.332,1168.610
1686197763.717,-41.992,772.949,167.480,-36.133,1168.614
1686197763.721,-11.719,428.711,133.789,-19.043,1168.618
1686197763.725,-50.293,328.125,193.848,-53.223,1168.622
1686197763.729,-89.844,298.828,194.336,-79.102,1168.626
1686197763.732,-60.547,336.426,203.613,-48.828,1168.629
1686197763.736,-20.996,-330.078,28.809,-15.137,1168.633
1686197763.740,-43.457,-838.867,43.945,-43.457,1168.637
1686197763.744,-84.961,-23.926,284.180,-77.148,1168.641
1686197763.748,-71.289,621.094,238.281,-63.965,1168.645
1686197763.752,-18.066,782.227,213.867,-29.785,1168.649
1686197763.769,-19.043,975.586,205.566,-46.387,1168.680
1686197763.773,-81.055,915.039,163.086,-81.543,1168.684
1686197763.777,-95.215,627.441,142.090,-71.289,1168.688
1686197763.781,-41.016,777.344,233.398,-34.180,1168.692
1686197763.785,-33.203,980.469,216.309,-37.109,1168.696
1686197763.789,-77.148,601.074,37.109,-76.660,1168.700
1686197763.792,-95.215,-19.043,30.273,-69.824,1168.704
1686197763.796,-49.316,204.590,263.184,-33.691,1168.707
1686197763.800,-2.930,787.598,212.891,-25.391,1168.711
1686197763.804,-39.062,520.508,96.680,-60.547,1168.715
1686197763.808,-94.727,106.445,135.254,-84.473,1168.719
1686197763.812,-69.824,583.496,235.352,-62.500,1168.723
1686197763.799,-20.508,-965.820,233.887,-38.574,1168.710
1686197763.803,-41.992,785.645,122.070,-65.430,1168.714
1686197763.807,-87.402,595.703,130.859,-97.656,1168.718
1686197763.811,-70.312,719.238,220.215,-66.895,1168.722
1686197763.815,-26.367,723.145,219.238,-27.344,1168.726
1686197763.819,-31.250,380.859,118.652,-38.574,1168.730
1686197763.822,-72.754,-351.074,26.855,-63.965,1168.733
1686197763.826,-64.941,265.137,209.961,-54.688,1168.737
1686197763.830,-20.996,-924.805,266.602,-31.250,1168.741
1686197763.834,-18.066,641.602,52.246,-31.738,1168.745
1686197763.838,-58.594,-249.023,41.016,-61.035,1168.749
1686197763.842,-84.961,136.719,258.301,-79.590,1168.753
1686197763.862,-44.922,936.035,245.605,-45.410,1168.763
1686197763.866,-7.812,580.566,74.219,-18.555,1168.767
1686197763.870,-45.410,69.824,132.324,-49.805,1168.771
1686197763.874,-77.637,613.281,251.465,-82.520,1168.775
1686197763.878,-49.316,788.086,197.266,-55.664,1168.779
1686197763.882,-14.160,309.082,116.211,-26.367,1168.783
1686197763.885,-25.391,426.758,183.594,-46.387,1168.786
1686197763.889,-66.406,902.832,264.160,-77.148,1168.790
1686197763.893,-64.941,802.734,185.547,-57.129,1168.794
1686197763.897,-23.438,363.770,104.004,-13.672,1168.798
1686197763.901,-20.508,649.902,207.031,-26.855,1168.802
1686197763.905,-61.035,946.289,231.445,-79.102,1168.806
1686197763.905,-74.707,724.609,166.992,-78.125,1168.805
1686197763.909,-41.016,445.801,167.969,-36.621,1168.808
1686197763.913,-28.809,639.648,257.324,-32.715,1168.812
1686197763.917,-62.012,789.551,166.504,-76.660,1168.816
1686197763.921,-91.309,333.008,79.590,-80.566,1168.820
1686197763.925,-68.848,69.336,172.363,-44.434,1168.824
1686197763.928,-21.973,422.852,240.723,-24.414,1168.828
1686197763.932,-32.227,803.711,219.727,-39.062,1168.832
1686197763.936,-90.820,541.016,86.426,-68.359,1168.836
1686197763.940,-78.613,-550.781,75.195,-47.363,1168.840
1686197763.944,-23.926,-375.488,311.523,-3.906,1168.844
1686197763.948,-27.832,748.535,239.746,-30.273,1168.848
1686197763.950,-73.242,572.754,43.457,-76.172,1168.847
1686197763.954,-73.242,529.785,183.105,-67.871,1168.851
1686197763.958,-30.273,961.426,282.227,-36.621,1168.855
1686197763.962,-20.508,918.945,147.461,-41.992,1168.859
1686197763.966,-76.172,272.461,-32.715,-76.172,1168.863
1686197763.970,-99.121,70.312,141.602,-76.660,1168.867
1686197763.973,-50.781,561.523,304.199,-38.574,1168.871
1686197763.977,-15.625,942.871,178.711,-32.715,1168.875
1686197763.981,-62.988,-4.395,-90.332,-69.824,1168.879
1686197763.985,-105.469,-446.777,130.371,-89.355,1168.882
1686197763.989,-60.059,709.473,313.965,-55.176,1168.886
1686197763.993,-20.020,912.109,148.438,-31.250,1168.890
1686197763.994,-54.688,537.598,127.930,-63.965,1168.891
1686197763.998,-93.750,619.629,207.520,-95.703,1168.895
1686197764.002,-80.078,856.934,241.211,-81.543,1168.899
1686197764.006,-35.645,754.883,148.926,-43.457,1168.903
1686197764.010,-39.551,306.152,103.027,-52.246,1168.907
1686197764.014,-82.520,161.133,178.223,-93.262,1168.911
1686197764.017,-91.309,310.059,252.441,-84.961,1168.914
1686197764.021,-45.898,372.070,208.984,-36.133,1168.918
1686197764.025,-31.738,-348.633,47.363,-32.227,1168.922
1686197764.029,-69.824,42.969,205.078,-82.031,1168.926
1686197764.033,-81.543,811.035,251.953,-90.332,1168.930
1686197764.037,-49.805,520.508,157.715,-53.223,1168.934
1686197764.041,-15.625,496.582,233.887,-36.621,1168.938
1686197764.045,-30.762,809.570,228.516,-59.082,1168.942
1686197764.049,-74.707,755.371,175.293,-78.125,1168.946
1686197764.053,-61.523,511.719,143.066,-53.223,1168.950
1686197764.057,-26.367,692.383,187.500,-22.949,1168.954
1686197764.061,-44.434,611.328,65.918,-50.293,1168.958
1686197764.064,-86.914,333.008,71.289,-92.773,1168.962
1686197764.068,-72.266,-37.109,120.117,-67.871,1168.966
1686197764.072,-23.926,167.480,237.305,-31.250,1168.969
1686197764.076,-15.137,663.086,141.602,-47.852,1168.973
1686197764.080,-61.523,312.988,-47.363,-83.008,1168.977
1686197764.084,-75.195,93.750,123.535,-73.242,1168.981
1686197764.084,-18.555,661.621,257.324,-28.809,1168.981
1686197764.088,0.977,950.195,195.801,-35.645,1168.985
1686197764.092,-47.852,626.953,84.473,-78.613,1168.989
1686197764.096,-79.590,291.504,118.652,-76.172,1168.993
1686197764.100,-41.504,325.195,239.746,-36.621,1168.997
1686197764.104,1.465,458.496,220.215,-20.996,1169.000
1686197764.107,-37.109,241.699,118.164,-49.805,1169.004
1686197764.111,-83.008,-576.660,40.039,-72.754,1169.008
1686197764.115,-63.965,-92.773,282.715,-55.176,1169.012
1686197764.119,-22.461,865.723,250.977,-33.691,1169.016
1686197764.123,-41.504,620.117,62.012,-55.664,1169.020
1686197764.127,-87.891,415.039,145.996,-87.402,1169.024
1686197764.132,-72.266,494.629,239.258,-74.707,1169.032
1686197764.136,-22.949,825.684,209.961,-32.715,1169.036
1686197764.140,-22.461,532.227,24.902,-31.738,1169.040
1686197764.144,-65.430,302.246,132.324,-80.078,1169.044
1686197764.148,-83.496,646.484,268.555,-86.426,1169.047
1686197764.152,-36.133,629.883,187.500,-33.691,1169.051
1686197764.155,-22.461,52.734,57.617,-20.020,1169.055
1686197764.159,-63.965,4.883,211.914,-66.406,1169.059
1686197764.163,-82.031,648.926,271.973,-85.449,1169.063
1686197764.167,-48.828,719.238,186.035,-36.133,1169.067
1686197764.171,-11.719,562.500,199.707,-11.719,1169.071
1686197764.175,-32.227,667.969,198.242,-52.734,1169.075
