timestamps,TP9,AF7,AF8,TP10,Secondary Timestamp
1685400379.579,-7.812,22.949,126.953,-7.324,4580.477
1685400379.583,-19.043,238.770,162.598,-15.625,4580.481
1685400379.587,-6.348,-276.367,-82.031,5.371,4580.485
1685400379.591,13.184,-383.301,-87.891,15.137,4580.489
1685400379.595,6.348,62.012,105.469,0.488,4580.493
1685400379.599,-20.508,-122.070,9.766,-14.648,4580.497
1685400379.603,-21.973,-610.352,-253.906,-11.719,4580.501
1685400379.606,-1.953,-943.848,-286.621,0.977,4580.505
1685400379.610,6.348,-124.512,139.648,-5.371,4580.509
1685400379.614,-0.977,237.793,113.770,-14.648,4580.513
1685400379.618,-9.766,-110.352,-7.324,-11.719,4580.516
1685400379.622,3.906,39.551,113.770,6.348,4580.520
1685400379.639,14.160,385.254,204.102,11.719,4580.536
1685400379.643,3.906,234.863,99.121,-1.465,4580.540
1685400379.647,-22.949,-258.789,-57.617,-6.348,4580.544
1685400379.651,-15.625,-74.219,59.570,-0.977,4580.547
1685400379.655,18.555,277.832,173.340,9.766,4580.551
1685400379.659,13.184,-24.414,52.734,7.324,4580.555
1685400379.663,-14.160,-747.070,-261.719,-3.906,4580.559
1685400379.666,-15.625,-482.422,-84.961,-5.859,4580.563
1685400379.670,13.672,299.316,245.117,7.324,4580.567
1685400379.674,18.555,101.562,81.055,9.277,4580.571
1685400379.678,-7.324,-175.781,-37.109,-11.230,4580.575
1685400379.682,-9.277,9.277,80.566,-15.625,4580.579
1685400379.669,0.488,185.547,156.738,-12.695,4580.581
1685400379.673,8.789,43.945,66.895,-11.719,4580.585
1685400379.677,-0.488,-23.926,47.852,-19.043,4580.589
1685400379.681,-15.137,55.176,74.219,-20.020,4580.593
1685400379.685,4.395,-121.094,33.691,-4.883,4580.597
1685400379.689,32.227,-579.102,-146.973,2.930,4580.600
1685400379.693,17.578,-866.699,-294.922,-8.301,4580.604
1685400379.696,-16.113,-457.031,-104.004,-20.508,4580.608
1685400379.700,-10.254,-11.230,75.684,-17.090,4580.612
1685400379.704,16.602,-487.305,-132.812,-0.488,4580.616
1685400379.708,7.324,-623.047,-156.738,2.930,4580.620
1685400379.712,-24.902,154.785,158.691,-19.531,4580.624
1685400379.730,-20.020,42.480,36.621,-10.742,4580.627
1685400379.734,0.977,-158.691,19.043,12.207,4580.631
1685400379.738,3.418,99.121,156.250,11.719,4580.635
1685400379.742,-13.184,242.676,143.555,0.000,4580.639
1685400379.746,-22.949,-72.754,-25.879,-2.930,4580.643
1685400379.750,-10.254,-475.098,-92.773,11.230,4580.647
1685400379.754,7.812,-195.312,71.289,22.949,4580.651
1685400379.757,-4.883,0.488,87.891,6.348,4580.655
1685400379.761,-15.137,-370.605,-197.754,-11.719,4580.659
1685400379.765,1.465,-780.273,-310.547,3.418,4580.662
1685400379.769,14.160,-229.492,109.863,8.301,4580.666
1685400379.773,11.230,356.445,219.727,-7.812,4580.670
1685400379.774,-3.906,-125.977,-62.500,-20.508,4580.671
1685400379.778,-6.836,-319.336,-62.500,-14.648,4580.675
1685400379.782,11.719,165.039,165.527,-4.883,4580.679
1685400379.786,16.113,352.051,184.570,-8.301,4580.683
1685400379.790,-13.184,-196.777,-35.156,-21.484,4580.687
1685400379.794,-27.344,-560.059,-182.129,-21.484,4580.691
1685400379.798,-12.695,-354.492,-29.297,-7.812,4580.695
1685400379.801,-8.301,-16.113,141.602,-13.672,4580.699
1685400379.805,-8.301,-353.516,-140.625,-16.602,4580.702
1685400379.809,-21.973,-938.965,-409.180,-15.137,4580.706
1685400379.813,-26.367,-316.895,9.277,-16.113,4580.710
1685400379.817,0.000,234.375,174.805,-0.977,4580.714
1685400379.821,6.836,-151.855,-54.199,-1.953,4580.718
1685400379.825,-17.090,-227.539,-22.461,-20.020,4580.722
1685400379.829,-7.812,131.348,124.023,-11.230,4580.726
1685400379.833,16.602,128.418,103.027,13.672,4580.730
1685400379.837,8.789,1.953,64.453,2.441,4580.734
1685400379.841,-3.418,-267.578,-61.035,-11.230,4580.738
1685400379.845,-3.906,-202.637,-13.672,-7.324,4580.742
1685400379.848,7.324,-27.832,46.387,1.953,4580.746
1685400379.852,12.695,-561.523,-139.648,4.883,4580.749
1685400379.856,-7.812,-324.707,12.207,-5.371,4580.753
1685400379.860,-12.695,126.953,103.027,4.395,4580.757
1685400379.864,18.066,-90.820,14.648,19.043,4580.761
1685400379.864,28.809,-228.516,-2.930,14.648,4580.763
1685400379.868,13.184,-24.414,65.430,-4.883,4580.767
1685400379.872,-4.883,149.902,114.258,-10.254,4580.771
1685400379.876,8.301,-295.898,-53.711,15.137,4580.775
1685400379.880,26.367,-567.383,-120.605,27.344,4580.779
1685400379.884,6.348,-244.629,35.156,9.766,4580.782
1685400379.888,-13.672,-221.680,-32.715,-10.254,4580.786
1685400379.891,0.488,-619.629,-266.602,-2.930,4580.790
1685400379.895,14.648,-932.617,-290.039,14.648,4580.794
1685400379.899,7.812,-182.617,102.051,0.000,4580.798
1685400379.903,-11.719,132.812,71.777,-18.066,4580.802
1685400379.907,-19.043,-158.203,-33.203,-19.531,4580.806
1685400379.916,-7.812,79.102,143.066,-9.766,4580.819
1685400379.920,5.859,399.902,205.078,-1.953,4580.823
1685400379.924,-2.930,121.094,44.922,-16.113,4580.827
1685400379.928,-26.367,-324.707,-90.332,-23.438,4580.831
1685400379.932,-18.066,-73.730,56.152,-3.418,4580.835
1685400379.936,0.000,22.949,131.348,5.859,4580.839
1685400379.940,-14.160,-250.488,-30.273,-8.301,4580.843
1685400379.943,-27.344,-757.812,-288.574,-19.043,4580.846
1685400379.947,-10.254,-428.711,-11.719,-10.254,4580.850
1685400379.951,7.324,320.312,240.234,0.000,4580.854
1685400379.955,-4.883,59.570,13.672,-13.672,4580.858
1685400379.959,-26.367,-212.402,-77.637,-30.273,4580.862
1685400379.954,-24.902,28.320,102.051,-16.602,4580.867
1685400379.958,5.859,269.043,186.035,9.766,4580.871
1685400379.962,7.324,64.453,87.402,6.348,4580.875
1685400379.966,-23.926,-80.566,44.922,-7.812,4580.879
1685400379.970,-28.809,-182.129,-2.441,-6.836,4580.882
1685400379.974,-5.371,-253.418,33.691,0.000,4580.886
1685400379.978,2.441,-464.844,-85.938,0.488,4580.890
1685400379.981,-4.883,-1000.000,-399.414,-11.230,4580.894
1685400379.985,-13.672,-484.863,-83.496,-16.602,4580.898
1685400379.989,-3.906,168.945,138.184,0.977,4580.902
1685400379.993,14.648,-332.520,-46.875,15.137,4580.906
1685400379.997,-5.859,-336.914,14.648,-4.883,4580.910
1685400380.015,-21.484,216.309,149.902,-18.066,4580.913
1685400380.019,-7.812,77.637,45.410,2.930,4580.917
1685400380.023,11.719,-43.945,43.457,8.301,4580.921
1685400380.027,12.207,184.082,166.016,-8.301,4580.925
1685400380.031,-3.906,203.613,115.723,-7.324,4580.928
1685400380.035,2.441,-226.562,-111.328,1.465,4580.932
1685400380.039,21.973,-663.086,-163.086,13.184,4580.936
1685400380.042,13.672,-236.816,102.539,1.465,4580.940
1685400380.046,-13.672,28.809,90.332,-20.996,4580.944
1685400380.050,-17.090,-448.242,-235.840,-14.648,4580.948
1685400380.054,4.883,-539.551,-158.691,-0.488,4580.952
1685400380.058,5.371,110.352,204.590,-1.465,4580.956
1685400380.059,-14.160,322.754,145.508,-17.578,4580.956
1685400380.063,-13.672,-122.559,-14.160,-14.648,4580.960
1685400380.067,7.324,-125.000,28.809,3.418,4580.964
1685400380.071,14.160,279.297,203.613,4.883,4580.968
1685400380.075,-1.465,44.434,65.918,-4.883,4580.972
1685400380.079,-23.438,-602.539,-187.988,-17.090,4580.976
1685400380.083,-8.301,-639.648,-137.695,-4.883,4580.979
1685400380.086,15.137,-4.883,90.820,11.230,4580.983
1685400380.090,9.277,351.074,211.914,-9.277,4580.987
1685400380.094,-12.695,-364.258,-181.152,-28.320,4580.991
1685400380.098,-11.719,-1000.000,-405.762,-6.348,4580.995
1685400380.102,16.602,-294.434,62.500,9.766,4580.999
1685400380.104,18.555,286.621,175.781,6.836,4581.001
1685400380.108,1.953,-155.273,-62.500,5.371,4581.005
1685400380.112,-9.277,-189.453,-8.301,-0.977,4581.009
1685400380.116,10.254,264.160,175.293,5.371,4581.013
1685400380.120,32.715,271.973,141.602,13.184,4581.017
1685400380.124,12.695,-187.012,-106.445,2.930,4581.021
1685400380.128,-15.625,-298.828,-85.449,-2.441,4581.025
1685400380.131,-3.418,130.371,154.297,1.953,4581.028
1685400380.135,16.113,68.359,45.898,5.371,4581.032
1685400380.139,5.371,-582.031,-178.223,5.859,4581.036
1685400380.143,-13.184,-323.242,-3.418,-3.418,4581.040
1685400380.147,9.766,164.551,156.250,11.719,4581.044
1685400380.149,35.645,-1.953,66.895,24.414,4581.047
1685400380.153,19.043,-235.352,-20.020,12.695,4581.051
1685400380.157,-0.977,-113.770,29.297,6.348,4581.055
1685400380.161,-3.906,147.461,134.277,4.883,4581.059
1685400380.165,9.277,-311.523,-68.359,11.230,4581.062
1685400380.169,12.207,-863.770,-263.672,8.789,4581.066
1685400380.173,-12.207,-456.543,-22.461,-12.695,4581.070
1685400380.176,-26.367,23.926,102.051,-21.484,4581.074
1685400380.180,-14.648,-454.102,-141.602,2.930,4581.078
1685400380.184,1.953,-596.191,-120.605,8.301,4581.082
1685400380.188,-9.277,177.246,186.523,-18.555,4581.086
1685400380.192,-27.832,75.195,40.527,-29.297,4581.090
1685400380.196,-18.066,-181.641,-12.695,-10.254,4581.093
1685400380.200,-4.883,-20.996,107.910,-3.906,4581.097
1685400380.204,-20.020,284.180,184.570,-16.113,4581.101
1685400380.208,-40.039,9.277,5.859,-27.832,4581.105
1685400380.212,-23.926,-347.656,-73.730,-15.137,4581.109
1685400380.216,5.859,-228.516,64.941,0.000,4581.113
1685400380.220,2.930,-4.395,152.344,-11.230,4581.117
1685400380.223,-21.973,-93.262,-4.883,-26.855,4581.121
1685400380.227,-21.484,-756.348,-288.086,-10.254,4581.125
1685400380.231,-9.277,-353.027,37.598,5.371,4581.128
1685400380.235,-5.859,351.074,237.793,-2.930,4581.132
1685400380.239,-23.926,25.391,7.324,-23.438,4581.136
1685400380.239,-46.387,-219.727,-81.055,-41.016,4581.136
1685400380.243,-27.832,61.523,103.516,-18.555,4581.140
1685400380.247,-15.137,286.133,188.965,-6.836,4581.144
1685400380.251,-30.273,10.254,33.203,-25.879,4581.148
1685400380.255,-42.969,-390.625,-115.234,-30.762,4581.152
1685400380.259,-32.715,-415.039,-154.297,-15.137,4581.156
1685400380.263,-6.348,-203.613,-1.465,-1.953,4581.160
1685400380.266,-3.906,-462.402,-88.379,-2.441,4581.164
1685400380.270,-37.109,-1000.000,-468.750,-18.555,4581.168
1685400380.274,-40.039,-538.574,-142.090,-15.625,4581.172
1685400380.278,-17.090,151.367,146.973,-2.441,4581.176
1685400380.282,-5.859,60.547,96.191,-6.836,4581.179
1685400380.286,-22.461,103.516,126.953,-16.602,4581.194
1685400380.290,-33.203,170.410,112.793,-22.949,4581.198
1685400380.294,1.465,106.445,107.910,-0.977,4581.202
1685400380.298,14.648,-7.812,77.148,10.254,4581.206
1685400380.302,-9.766,53.223,104.004,-14.160,4581.210
1685400380.306,-27.344,-151.855,-50.293,-17.090,4581.214
1685400380.310,-9.277,-328.125,-124.512,-4.395,4581.218
1685400380.313,7.812,-577.637,-82.520,0.977,4581.222
1685400380.317,-10.254,-345.215,25.391,-17.090,4581.226
1685400380.321,-24.414,-79.590,1.465,-29.297,4581.230
1685400380.325,-16.602,-433.105,-200.684,-18.555,4581.233
1685400380.329,5.371,-364.746,-71.289,-17.090,4581.237
1685400380.329,1.953,179.199,173.828,-22.949,4581.226
1685400380.333,-28.809,179.199,78.613,-30.762,4581.230
1685400380.337,-35.156,-184.082,-27.344,-30.762,4581.234
1685400380.341,-12.207,-50.781,61.523,-11.230,4581.238
1685400380.345,-13.184,43.457,108.887,-11.230,4581.242
1685400380.349,-30.273,-218.262,3.418,-21.484,4581.245
1685400380.353,-28.809,-666.504,-263.672,-15.137,4581.249
1685400380.356,-12.695,-968.262,-322.754,-0.977,4581.253
1685400380.360,-6.348,-133.301,126.953,-11.230,4581.257
1685400380.364,-8.789,267.578,143.555,-20.508,4581.261
1685400380.368,-20.020,-166.992,-92.285,-18.066,4581.265
1685400380.372,-22.461,-225.098,-10.742,-13.184,4581.269
1685400380.420,-13.672,99.609,164.062,-13.184,4581.319
1685400380.424,-21.484,234.863,104.004,-29.785,4581.323
1685400380.428,-26.855,-295.898,-104.980,-32.715,4581.327
1685400380.432,-12.695,-254.883,-3.906,-27.344,4581.330
1685400380.436,4.395,212.402,148.926,-26.367,4581.334
1685400380.440,8.789,11.230,59.570,-22.461,4581.338
1685400380.444,-10.254,-710.449,-228.516,-34.180,4581.342
1685400380.447,-15.137,-524.414,-107.910,-36.133,4581.346
1685400380.451,0.000,231.445,191.406,-11.230,4581.350
1685400380.455,-5.859,117.188,72.754,-8.789,4581.354
1685400380.459,-25.391,-63.965,25.879,-19.531,4581.358
1685400380.463,-32.715,111.328,109.375,-25.879,4581.362
1685400380.424,-11.719,236.328,148.926,-16.113,4581.327
1685400380.428,8.301,31.738,75.195,-6.348,4581.331
1685400380.432,3.418,-274.414,-37.109,-15.137,4581.335
1685400380.436,-8.789,-126.953,26.367,-14.648,4581.339
1685400380.440,-3.906,-21.973,89.844,-0.488,4581.343
1685400380.444,17.578,-529.785,-125.488,8.789,4581.347
1685400380.448,7.324,-798.340,-235.840,-0.488,4581.351
1685400380.451,-15.625,-103.027,74.707,-16.602,4581.355
1685400380.455,-6.836,149.414,118.652,-5.859,4581.358
1685400380.459,17.090,-119.629,4.883,11.719,4581.362
1685400380.463,16.113,-3.418,98.145,-2.930,4581.366
1685400380.467,1.953,182.129,127.441,-14.648,4581.370
1685400380.479,-5.859,8.301,-2.930,-2.930,4581.377
1685400380.483,-15.625,-175.781,-5.371,-3.418,4581.381
1685400380.487,-8.789,34.668,125.488,-0.488,4581.385
1685400380.491,-8.789,195.801,130.859,-6.836,4581.389
1685400380.495,-20.508,-68.848,-5.859,-18.066,4581.393
1685400380.499,-14.648,-667.969,-245.605,3.906,4581.396
1685400380.503,-7.324,-1000.000,-414.062,15.137,4581.400
1685400380.506,-28.320,-569.336,-86.426,-5.859,4581.404
1685400380.510,-53.223,-139.160,25.879,-24.902,4581.408
1685400380.514,-37.598,-225.098,-69.336,-12.207,4581.412
1685400380.518,-8.789,213.379,164.062,4.395,4581.416
1685400380.522,-12.695,372.559,168.457,0.000,4581.420
1685400380.525,-25.391,-26.367,-5.859,-10.742,4581.421
1685400380.529,-16.113,-197.754,-39.062,-10.254,4581.425
1685400380.533,3.418,177.734,153.320,-4.395,4581.429
1685400380.537,18.555,390.137,205.566,-15.137,4581.433
1685400380.541,1.953,-266.113,-101.074,-33.691,4581.437
1685400380.545,-13.672,-759.766,-276.367,-28.809,4581.441
1685400380.549,8.789,-318.359,-24.902,-9.766,4581.445
1685400380.552,8.301,-11.719,125.488,-4.395,4581.449
1685400380.556,-12.207,-484.863,-189.453,-7.324,4581.453
1685400380.560,-17.578,-973.633,-380.859,0.000,4581.457
1685400380.564,-12.695,-200.195,88.379,-2.441,4581.460
1685400380.568,-0.977,232.910,150.879,8.301,4581.464
1685400380.571,-10.742,-10.742,46.387,12.695,4581.468
1685400380.575,-31.738,11.719,97.168,4.883,4581.472
1685400380.579,-24.414,176.758,123.535,9.277,4581.476
1685400380.583,2.441,188.965,119.629,20.508,4581.480
1685400380.587,3.906,3.418,62.988,26.855,4581.484
1685400380.591,-23.926,-255.371,-83.984,8.301,4581.488
1685400380.595,-27.832,-240.234,-52.734,-0.488,4581.492
1685400380.598,6.348,-51.270,49.805,16.602,4581.496
1685400380.602,16.113,-566.406,-136.719,14.160,4581.499
1685400380.606,-16.113,-445.801,-45.410,-13.184,4581.503
1685400380.610,-12.695,-119.141,-50.781,-9.766,4581.507
1685400380.614,26.367,-396.484,-154.785,18.066,4581.511
1685400380.614,46.387,-373.047,-60.547,24.414,4581.511
1685400380.618,30.762,30.273,114.746,10.742,4581.515
1685400380.622,2.930,111.816,89.355,8.301,4581.519
1685400380.626,13.184,-90.820,39.062,32.715,4581.523
1685400380.630,31.738,-214.355,10.254,40.039,4581.527
1685400380.634,18.555,-259.277,0.488,16.113,4581.531
1685400380.638,-16.113,-303.711,-51.270,-1.953,4581.535
1685400380.641,-25.879,-649.902,-254.883,11.719,4581.538
1685400380.645,-4.883,-944.824,-254.395,35.156,4581.542
1685400380.649,-5.371,-122.559,137.695,14.648,4581.546
1685400380.653,-34.180,221.680,104.980,-7.812,4581.550
1685400380.657,-41.504,-79.590,12.695,-0.977,4581.554
1685400380.662,-17.578,-27.344,111.816,19.043,4581.562
1685400380.666,-11.719,179.688,177.734,23.926,4581.566
1685400380.670,-26.855,164.062,78.125,9.277,4581.570
1685400380.674,-33.691,-298.340,-115.723,0.488,4581.574
1685400380.678,-19.043,-148.438,18.066,3.418,4581.578
1685400380.682,0.488,65.918,123.047,8.301,4581.582
1685400380.686,-10.742,-187.500,-28.809,-2.930,4581.586
1685400380.689,-34.668,-667.480,-212.402,-13.672,4581.590
1685400380.693,-28.809,-308.594,49.316,-12.207,4581.594
1685400380.697,-3.418,355.957,228.027,2.930,4581.598
1685400380.701,4.395,92.773,25.391,-9.766,4581.602
1685400380.705,-17.090,-145.996,-40.039,-27.344,4581.605
1685400380.704,-15.137,58.105,114.258,-20.996,4581.601
1685400380.708,18.066,260.742,183.105,-1.953,4581.605
1685400380.712,11.719,14.160,56.152,4.395,4581.609
1685400380.716,-32.227,-316.406,-97.168,-24.902,4581.613
1685400380.720,-34.180,-285.156,-106.934,-30.762,4581.616
1685400380.724,-12.695,-215.332,-33.203,-11.230,4581.620
1685400380.728,-10.742,-442.871,-85.449,-10.742,4581.624
1685400380.731,-30.762,-1000.000,-464.355,-20.020,4581.628
1685400380.735,-46.875,-697.754,-233.398,-28.320,4581.632
1685400380.739,-21.484,34.668,138.672,-19.043,4581.636
1685400380.743,-6.836,93.262,129.883,-12.207,4581.640
1685400380.747,-12.695,148.438,124.023,-25.879,4581.644
1685400380.751,-18.066,196.777,94.727,-30.762,4581.660
1685400380.755,-16.602,105.469,70.801,-24.414,4581.664
1685400380.759,0.977,24.902,87.891,-19.043,4581.668
1685400380.763,-4.883,212.402,178.711,-31.738,4581.672
1685400380.767,-22.461,152.832,78.125,-43.457,4581.676
1685400380.771,-14.160,-255.371,-129.395,-33.203,4581.679
1685400380.775,7.324,-699.707,-207.031,-15.137,4581.683
1685400380.778,0.488,-371.582,33.691,-24.902,4581.687
1685400380.782,-25.879,270.020,190.918,-40.039,4581.691
1685400380.786,-26.367,-147.461,-73.730,-25.391,4581.695
1685400380.790,-12.207,-438.965,-98.145,-11.230,4581.699
1685400380.794,-3.906,186.523,195.312,-17.578,4581.703
1685400380.794,-11.230,345.703,141.602,-25.391,4581.705
1685400380.798,-28.809,-78.125,-13.672,-23.926,4581.709
1685400380.802,-15.625,-146.484,2.930,-7.812,4581.713
1685400380.806,-2.441,236.816,161.133,-3.418,4581.717
1685400380.810,-1.953,140.625,110.352,-10.742,4581.721
1685400380.814,-10.254,-585.449,-262.207,-4.883,4581.725
1685400380.818,-18.555,-878.418,-339.844,6.348,4581.729
1685400380.821,-2.441,-200.684,48.340,8.789,4581.733
1685400380.825,-12.207,104.492,138.672,-7.324,4581.736
1685400380.829,-27.832,-588.379,-231.934,-13.184,4581.740
1685400380.833,-33.203,-659.668,-205.078,-6.836,4581.744
1685400380.837,-13.672,216.797,231.934,2.930,4581.748
1685400380.855,2.441,265.625,129.883,-0.977,4581.753
1685400380.859,-12.207,-62.988,38.574,-3.906,4581.757
1685400380.863,-15.625,-21.973,92.285,5.859,4581.761
1685400380.867,-2.441,221.191,150.391,13.672,4581.764
1685400380.871,15.625,198.730,130.859,16.113,4581.768
1685400380.875,-1.953,-305.664,-57.129,-4.395,4581.772
1685400380.879,-25.879,-313.965,-5.859,-24.902,4581.776
1685400380.882,-6.836,201.660,191.406,-18.066,4581.780
1685400380.886,31.250,112.793,86.426,13.184,4581.784
1685400380.890,32.227,-404.297,-40.039,16.602,4581.788
1685400380.894,-11.230,-307.129,-14.648,-7.324,4581.792
1685400380.898,-31.250,-47.363,80.078,-12.695,4581.796
1685400380.899,-14.160,-186.035,-1.465,-7.812,4581.796
1685400380.903,-6.348,-309.570,-95.215,-12.695,4581.800
1685400380.907,-26.855,51.270,105.469,-15.625,4581.804
1685400380.911,-31.738,105.469,85.938,-14.160,4581.808
1685400380.915,-8.789,-153.809,41.016,4.883,4581.812
1685400380.919,-13.672,-320.312,21.484,1.465,4581.816
1685400380.923,-30.273,-321.777,-18.066,-14.648,4581.819
1685400380.926,-20.020,-128.418,15.137,-10.254,4581.823
1685400380.930,-11.719,-479.004,-124.512,12.695,4581.827
1685400380.934,-3.418,-798.828,-125.000,20.020,4581.831
1685400380.938,-18.066,60.059,204.590,-7.324,4581.835
1685400380.942,-38.574,149.414,48.828,-14.160,4581.839
1685400380.947,-19.531,-102.539,23.926,6.836,4581.846
1685400380.951,1.465,-10.254,139.648,18.066,4581.850
1685400380.955,-4.395,129.883,167.969,1.465,4581.854
1685400380.959,-30.273,79.102,71.777,-22.461,4581.858
1685400380.963,-32.227,-382.324,-109.863,-13.672,4581.862
1685400380.967,-5.859,-416.016,-19.531,5.371,4581.866
1685400380.971,1.953,5.859,163.574,-6.348,4581.870
1685400380.974,-14.160,1.953,38.086,-31.738,4581.874
1685400380.978,-20.508,-674.805,-222.656,-30.762,4581.878
1685400380.982,-7.324,-275.879,77.148,-9.277,4581.881
1685400380.986,4.395,364.746,231.445,-2.930,4581.885
1685400380.990,-3.906,-7.324,18.555,-16.602,4581.889
1685400380.989,-23.438,-170.410,4.883,-19.043,4581.886
1685400380.993,-12.207,193.359,181.152,-6.348,4581.890
1685400380.997,3.906,397.949,220.703,-7.812,4581.894
1685400381.001,-16.113,26.367,86.914,-14.160,4581.898
1685400381.005,-40.039,-415.039,-117.188,-21.484,4581.902
1685400381.009,-36.133,-371.094,-104.492,-19.531,4581.906
1685400381.013,-17.090,-138.672,90.820,-12.695,4581.909
1685400381.016,-14.648,-419.922,-82.520,-20.020,4581.913
1685400381.020,-27.832,-1000.000,-488.281,-20.508,4581.917
1685400381.024,-21.973,-548.828,-151.855,-11.230,4581.921
1685400381.028,-0.977,206.055,180.664,-8.301,4581.925
1685400381.032,-0.977,149.902,160.156,-20.996,4581.929
1685400381.036,-18.066,7.812,66.895,-37.598,4581.933
1685400381.040,-27.832,-59.570,-12.695,-38.086,4581.937
1685400381.044,-15.137,58.105,105.957,-20.508,4581.941
1685400381.048,-11.719,89.355,132.324,-14.160,4581.945
1685400381.052,-39.062,145.020,120.117,-34.668,4581.949
1685400381.056,-48.828,-184.082,-82.520,-43.945,4581.953
1685400381.060,-36.133,-346.680,-123.047,-37.109,4581.957
1685400381.063,-28.320,-751.953,-248.535,-20.508,4581.960
1685400381.067,-29.297,-595.703,-123.047,-32.715,4581.964
1685400381.071,-42.969,209.961,167.480,-52.734,4581.968
1685400381.075,-41.504,-88.379,-12.207,-32.715,4581.972
1685400381.079,-18.555,-135.742,20.508,-17.090,4581.976
1685400381.079,-28.809,270.020,184.082,-34.668,4581.976
1685400381.083,-71.289,200.684,118.652,-46.387,4581.980
1685400381.087,-73.730,-177.246,-10.742,-43.457,4581.984
1685400381.091,-42.480,-98.145,53.711,-36.133,4581.988
1685400381.095,-36.621,52.734,103.516,-30.762,4581.992
1685400381.099,-59.570,-181.641,-4.883,-40.527,4581.996
1685400381.103,-67.871,-631.348,-264.160,-43.945,4582.000
1685400381.106,-47.363,-953.613,-300.781,-31.738,4582.003
1685400381.110,-28.320,-188.477,125.488,-32.715,4582.007
1685400381.114,-22.949,53.223,73.242,-28.809,4582.011
1685400381.118,-41.504,-509.766,-157.227,-36.133,4582.015
1685400381.122,-55.664,-277.344,36.621,-55.664,4582.019
1685400381.125,-41.504,348.145,237.305,-60.059,4582.050
1685400381.129,-36.621,240.234,105.957,-64.941,4582.054
1685400381.133,-41.992,-117.188,-0.977,-64.453,4582.057
1685400381.137,-47.363,16.602,116.699,-50.781,4582.061
1685400381.141,-26.855,266.113,166.016,-28.809,4582.065
1685400381.145,-30.273,-23.438,34.180,-22.461,4582.069
1685400381.149,-51.270,-669.922,-178.711,-6.348,4582.073
1685400381.152,-47.363,-393.066,-1.953,1.465,4582.077
1685400381.156,-14.160,279.785,203.613,21.484,4582.081
1685400381.160,17.090,105.469,71.289,43.457,4582.085
1685400381.164,4.395,-81.543,5.859,36.621,4582.089
1685400381.168,-2.930,-94.238,-2.441,40.039,4582.093
1685400381.170,21.973,-12.695,105.469,57.617,4582.095
1685400381.174,38.086,-153.320,-25.879,72.754,4582.098
1685400381.178,33.203,-407.715,-151.855,71.289,4582.102
1685400381.182,22.461,-14.160,81.055,65.918,4582.106
1685400381.186,28.320,-63.477,75.684,70.312,4582.110
1685400381.190,51.270,-547.363,-138.184,83.984,4582.114
1685400381.194,60.547,-838.867,-281.738,82.031,4582.118
1685400381.197,42.480,-192.871,46.387,58.594,4582.122
1685400381.201,47.363,132.324,100.586,70.312,4582.126
1685400381.205,65.430,-268.066,-2.930,85.938,4582.130
1685400381.209,53.223,-117.676,109.863,64.941,4582.134
1685400381.213,30.762,268.555,173.340,42.969,4582.138
1685400381.230,30.273,71.289,41.992,40.039,4582.128
1685400381.234,54.199,-120.605,51.758,62.012,4582.132
1685400381.238,58.594,-144.531,86.914,71.777,4582.136
1685400381.242,31.250,0.488,77.637,55.176,4582.140
1685400381.246,14.160,-27.344,19.531,50.293,4582.143
1685400381.250,25.879,-625.000,-163.574,73.730,4582.147
1685400381.254,23.926,-548.340,-59.082,78.125,4582.151
1685400381.257,10.742,27.832,159.668,53.223,4582.155
1685400381.261,2.441,-117.188,-10.254,41.016,4582.159
1685400381.265,12.207,-502.930,-113.281,44.922,4582.163
1685400381.269,29.785,-9.277,164.551,40.039,4582.167
1685400381.273,27.344,339.844,211.426,16.602,4582.171
1685400381.274,9.277,-155.273,-26.855,8.301,4582.171
1685400381.278,1.953,-353.516,-99.609,21.484,4582.175
1685400381.282,23.926,169.922,179.688,24.902,4582.179
1685400381.286,30.762,323.242,177.734,21.973,4582.183
1685400381.290,10.254,-280.273,-16.602,8.301,4582.187
1685400381.294,3.906,-594.238,-89.355,11.230,4582.191
1685400381.298,15.137,-306.641,8.789,25.391,4582.195
1685400381.301,21.973,-162.598,89.355,22.461,4582.198
1685400381.305,9.766,-523.926,-183.105,19.531,4582.202
1685400381.309,-6.348,-1000.000,-395.508,16.602,4582.206
1685400381.313,3.418,-307.617,38.086,13.672,4582.210
1685400381.317,22.949,265.137,172.363,19.043,4582.214
1685400381.327,0.000,26.367,87.891,1.465,4582.224
1685400381.331,-23.438,-11.230,85.938,-21.484,4582.228
1685400381.335,-15.625,147.461,118.652,-2.930,4582.232
1685400381.339,-0.977,184.082,158.203,20.996,4582.236
1685400381.343,1.953,38.086,135.742,16.113,4582.240
1685400381.347,-24.902,-187.988,33.691,-0.977,4582.244
1685400381.351,-23.926,-245.117,0.977,2.441,4582.248
1685400381.354,7.812,-25.391,121.094,12.695,4582.252
1685400381.358,18.066,-669.922,-175.781,13.184,4582.256
1685400381.362,-2.441,-619.141,-129.883,-13.184,4582.259
1685400381.366,-16.113,220.215,181.641,-26.855,4582.263
1685400381.370,-2.441,11.230,54.199,-1.465,4582.267
1685400381.364,22.461,-32.227,81.543,8.301,4582.261
1685400381.368,20.508,256.836,168.945,-2.930,4582.265
1685400381.372,-6.836,158.691,84.961,-18.555,4582.269
1685400381.376,-14.648,-93.262,45.410,-4.883,4582.273
1685400381.380,-19.043,-202.637,71.777,9.766,4582.276
1685400381.384,-15.137,-174.805,75.195,-3.906,4582.280
1685400381.388,-18.066,-216.309,-3.906,-5.859,4582.284
1685400381.391,-16.113,-600.586,-218.262,14.648,4582.288
1685400381.395,6.836,-933.105,-237.305,24.902,4582.292
1685400381.399,5.371,-177.734,121.582,5.371,4582.296
1685400381.403,-12.695,4.395,68.359,-0.977,4582.300
1685400381.407,-15.625,-459.473,-94.238,8.789,4582.304
1685400381.411,-2.930,-81.543,103.027,10.742,4582.308
1685400381.415,4.883,432.617,228.027,1.465,4582.312
1685400381.419,-8.301,167.480,69.824,-13.672,4582.316
1685400381.423,-20.020,-122.559,44.434,-9.277,4582.320
1685400381.427,-5.859,117.188,164.062,4.883,4582.324
1685400381.431,12.695,130.371,142.578,8.301,4582.327
1685400381.435,-0.488,-170.410,2.930,-6.836,4582.331
1685400381.438,-28.320,-663.574,-190.918,-18.066,4582.335
1685400381.442,-21.973,-321.777,40.527,-14.648,4582.339
1685400381.446,4.395,388.672,253.906,-8.789,4582.343
1685400381.450,1.465,155.762,74.707,-20.020,4582.347
1685400381.454,-21.484,-131.348,-36.621,-37.109,4582.351
1685400381.455,-25.879,-85.449,8.301,-23.926,4582.354
1685400381.459,-10.742,-84.961,62.500,1.465,4582.358
1685400381.463,-3.906,-340.332,-92.285,-3.418,4582.362
1685400381.467,-27.832,-437.500,-144.531,-15.137,4582.366
1685400381.471,-32.227,-275.879,-49.316,-7.812,4582.370
1685400381.475,-4.395,-205.078,-6.836,-2.441,4582.374
1685400381.479,15.137,-457.520,-105.469,6.348,4582.378
1685400381.482,-0.977,-973.145,-319.824,-11.719,4582.382
1685400381.486,-23.438,-293.945,34.668,-25.879,4582.385
1685400381.490,-2.930,173.340,103.516,4.395,4582.389
1685400381.494,19.531,33.691,92.285,13.672,4582.393
1685400381.498,4.883,147.461,163.086,-4.883,4582.397
1685400381.515,-9.277,203.125,131.348,-18.555,4582.412
1685400381.519,4.395,74.707,57.617,-8.301,4582.416
1685400381.523,22.949,-38.574,59.570,3.418,4582.420
1685400381.527,16.602,-49.805,123.535,0.000,4582.424
1685400381.531,-12.207,-13.672,68.848,-11.230,4582.428
1685400381.535,-24.414,-142.578,-29.297,-8.789,4582.432
1685400381.539,-12.695,-802.734,-308.105,6.836,4582.435
1685400381.542,-10.742,-665.527,-157.227,5.371,4582.439
1685400381.546,-31.738,148.438,194.336,-8.789,4582.443
1685400381.550,-30.273,-69.336,23.926,-16.113,4582.447
1685400381.554,-13.672,-167.969,16.113,-6.836,4582.451
1685400381.558,-5.371,249.023,191.406,-2.930,4582.455
1685400381.544,-19.531,258.301,154.297,-22.949,4582.470
1685400381.548,-30.762,-147.461,-37.598,-25.879,4582.474
1685400381.552,-22.461,-150.879,10.254,-12.207,4582.478
1685400381.556,-3.418,245.117,178.223,-8.789,4582.482
1685400381.560,-6.348,48.828,87.891,-15.625,4582.486
1685400381.564,-17.578,-623.535,-239.746,-11.230,4582.490
1685400381.568,-5.859,-846.680,-317.871,2.930,4582.494
1685400381.571,11.719,-271.973,61.035,5.371,4582.498
1685400381.575,24.414,211.426,211.426,1.465,4582.502
1685400381.579,3.906,-371.094,-154.785,-3.906,4582.505
1685400381.583,-10.254,-982.910,-342.773,-4.395,4582.509
1685400381.587,12.695,-138.672,116.699,3.906,4582.513
1685400381.605,12.207,290.039,163.086,-5.859,4582.515
1685400381.609,-14.648,-18.555,47.852,-21.484,4582.519
1685400381.613,-41.504,-59.570,70.801,-9.277,4582.523
1685400381.617,-34.668,183.594,145.508,7.812,4582.527
1685400381.621,-12.695,235.352,134.277,9.766,4582.531
1685400381.625,-26.855,-286.621,-78.125,-7.324,4582.535
1685400381.629,-40.039,-340.820,-31.250,-17.578,4582.539
1685400381.632,-21.484,131.836,158.691,-6.836,4582.543
1685400381.636,-1.465,-11.230,35.645,4.883,4582.546
1685400381.640,-10.742,-289.551,-42.969,3.906,4582.550
1685400381.644,-30.762,-42.969,87.402,-12.207,4582.554
1685400381.648,-25.391,202.148,166.992,-17.578,4582.558
1685400381.649,3.418,-93.262,-14.648,1.465,4582.546
1685400381.653,4.395,-792.480,-244.629,1.953,4582.550
1685400381.657,-24.902,-339.844,21.973,-11.719,4582.554
1685400381.661,-27.344,182.129,130.371,-9.766,4582.558
1685400381.665,-2.930,-336.914,-66.895,0.977,4582.562
1685400381.669,1.953,-589.844,-112.793,-3.906,4582.566
1685400381.673,-12.695,-288.574,15.137,-19.531,4582.570
1685400381.676,-20.508,-175.293,31.738,-21.973,4582.574
1685400381.680,6.836,-564.941,-149.414,-1.465,4582.577
1685400381.684,20.508,-709.473,-116.211,1.465,4582.581
1685400381.688,0.977,11.719,169.434,-18.555,4582.585
1685400381.692,-19.043,-31.738,-11.719,-17.578,4582.589
1685400381.696,-14.648,-653.809,-248.535,-8.301,4582.620
1685400381.700,-4.883,-446.289,-41.016,-5.859,4582.624
1685400381.704,-19.043,333.984,221.191,-26.855,4582.628
1685400381.708,-30.762,100.586,41.016,-31.738,4582.632
1685400381.712,-21.973,-143.555,8.789,-15.625,4582.636
1685400381.716,-3.418,-136.230,54.199,-8.301,4582.640
1685400381.720,-13.184,30.762,139.648,-9.277,4582.644
1685400381.723,-31.250,3.906,40.039,-13.672,4582.647
1685400381.727,-37.598,-664.062,-206.055,-11.230,4582.651
1685400381.731,-22.949,-256.836,74.707,2.930,4582.655
1685400381.735,-4.883,429.688,237.305,6.348,4582.659
1685400381.739,-9.766,50.781,13.672,-5.859,4582.663
1685400381.740,-21.973,-181.641,-53.711,-16.602,4582.640
1685400381.744,-13.184,-70.801,55.664,-11.230,4582.644
1685400381.748,4.883,113.281,155.273,-8.301,4582.647
1685400381.752,-13.184,-163.574,-21.484,-11.719,4582.651
1685400381.756,-35.156,-724.121,-276.855,-20.996,4582.655
1685400381.760,-31.250,-458.984,-119.141,-20.508,4582.659
1685400381.764,-3.906,-116.699,45.898,-6.348,4582.663
1685400381.767,4.395,-494.629,-150.879,-13.184,4582.667
1685400381.771,-17.578,-746.582,-229.980,-20.996,4582.671
1685400381.775,-19.043,40.527,141.113,-14.648,4582.675
1685400381.779,-3.906,248.047,124.512,-7.812,4582.679
1685400381.783,0.000,-101.562,-8.301,1.465,4582.683
1685400381.786,-11.719,-89.844,40.039,-9.277,4582.683
1685400381.790,-19.531,115.234,104.004,-9.277,4582.687
1685400381.794,-2.441,149.902,72.754,13.184,4582.691
1685400381.798,6.836,-333.984,-60.059,12.695,4582.695
1685400381.802,-23.438,-488.281,-33.203,-12.207,4582.699
1685400381.806,-32.715,-276.367,-40.527,-7.812,4582.703
1685400381.810,-13.672,-199.219,21.973,15.137,4582.707
1685400381.813,5.371,-670.410,-165.039,29.297,4582.711
1685400381.817,-3.906,-647.949,-159.668,7.324,4582.715
1685400381.821,-24.414,210.938,198.242,-19.531,4582.718
1685400381.825,-16.602,38.086,35.645,-0.977,4582.722
1685400381.829,-2.930,-29.297,55.176,2.441,4582.726
1685400381.830,-10.742,320.312,202.637,-17.090,4582.726
1685400381.834,-32.227,264.648,130.371,-29.785,4582.730
1685400381.838,-33.203,-111.328,0.977,-24.414,4582.734
1685400381.842,-15.625,-45.410,62.012,-10.742,4582.738
1685400381.846,-13.184,94.238,102.539,-13.672,4582.741
1685400381.850,-25.391,-249.512,-40.527,-22.461,4582.745
1685400381.854,-31.738,-629.395,-253.906,-17.578,4582.749
1685400381.857,-20.020,-1000.000,-474.121,-0.488,4582.753
1685400381.861,-14.648,-566.895,-113.281,-10.254,4582.757
1685400381.865,-38.574,171.387,147.949,-42.969,4582.761
1685400381.869,-52.734,-113.281,-79.590,-45.410,4582.765
1685400381.873,-37.598,7.324,33.691,-20.020,4582.769
1685400381.875,-19.043,370.117,185.059,-0.977,4582.800
1685400381.879,-23.438,70.312,27.344,-13.184,4582.804
1685400381.883,-38.574,-164.062,-0.977,-32.227,4582.808
1685400381.887,-36.133,42.480,98.145,-27.832,4582.812
1685400381.891,-7.812,245.117,136.719,-1.953,4582.816
1685400381.895,0.977,31.738,46.387,1.953,4582.820
1685400381.899,-29.785,-611.328,-166.504,-7.324,4582.823
1685400381.902,-45.410,-376.465,-7.812,-14.160,4582.827
1685400381.906,-19.043,285.156,203.613,-16.113,4582.831
1685400381.910,0.977,-30.762,25.879,-5.859,4582.835
1685400381.914,-23.926,-416.504,-81.543,-22.949,4582.839
1685400381.918,-34.668,-50.293,89.844,-36.133,4582.843
1685400381.919,-14.160,261.230,165.039,-15.625,4582.830
1685400381.923,3.906,71.289,79.102,-6.348,4582.834
1685400381.927,1.465,-43.945,39.062,-12.695,4582.838
1685400381.931,-27.832,136.230,109.375,-22.461,4582.842
1685400381.935,-26.367,31.250,86.914,-14.160,4582.846
1685400381.939,-8.789,-489.746,-144.043,6.836,4582.850
1685400381.943,-32.715,-935.547,-288.574,-0.977,4582.854
1685400381.946,-53.223,-283.691,37.598,-28.809,4582.858
1685400381.950,-35.156,189.941,128.906,-20.508,4582.862
1685400381.954,-13.184,-132.812,2.441,6.348,4582.866
1685400381.958,-16.602,-10.742,83.496,-6.348,4582.870
1685400381.962,-31.738,136.719,83.008,-23.438,4582.873
1685400381.979,-30.762,-186.035,-109.863,-25.391,4582.876
1685400381.983,-15.137,-532.227,-119.141,-17.578,4582.880
1685400381.987,-16.113,-260.742,76.660,-21.484,4582.884
1685400381.991,-31.738,229.980,135.254,-43.457,4582.888
1685400381.995,-36.133,-24.414,-23.926,-39.551,4582.892
1685400381.999,-23.438,-396.973,-74.707,-13.672,4582.896
1685400382.003,-6.348,-159.180,73.730,-6.836,4582.900
1685400382.006,-18.555,284.668,189.941,-25.391,4582.904
1685400382.010,-36.133,-86.426,-27.832,-29.785,4582.908
1685400382.014,-23.926,-601.074,-210.938,-10.254,4582.912
1685400382.018,-3.906,-77.148,85.938,-11.230,4582.915
1685400382.022,-11.719,359.863,208.496,-27.832,4582.919
1685400382.024,-35.645,-55.664,-27.344,-30.273,4582.921
1685400382.028,-35.156,-227.539,-80.566,-24.414,4582.925
1685400382.032,-6.836,-64.453,63.477,-4.883,4582.929
1685400382.036,-0.977,92.285,142.578,-4.883,4582.933
1685400382.040,-20.996,-262.207,-98.633,-15.137,4582.937
1685400382.044,-29.297,-940.430,-385.254,-16.113,4582.941
1685400382.048,-15.625,-569.824,-98.145,-11.230,4582.945
1685400382.051,-4.395,133.789,184.082,-10.742,4582.949
1685400382.055,-15.625,-299.805,-101.074,-24.414,4582.953
1685400382.059,-35.156,-751.465,-246.094,-26.367,4582.956
1685400382.063,-33.203,66.406,160.156,-22.949,4582.960
1685400382.067,-10.254,235.840,117.188,-13.672,4582.964
1685400382.071,-15.625,4.395,59.570,-22.949,4582.969
1685400382.075,-24.414,-3.418,94.238,-36.621,4582.973
1685400382.079,-17.578,138.184,115.723,-15.137,4582.977
1685400382.083,2.441,131.348,86.426,0.488,4582.981
1685400382.087,7.324,-76.660,41.992,-12.695,4582.984
1685400382.091,-20.996,-283.691,-61.035,-27.832,4582.988
1685400382.095,-26.855,-406.738,-203.125,-27.832,4582.992
1685400382.098,5.371,-290.039,-68.848,-10.254,4582.996
1685400382.102,14.160,-730.957,-241.699,-1.953,4583.000
1685400382.106,-13.672,-683.594,-204.102,-27.344,4583.004
1685400382.110,-22.461,90.820,135.742,-31.250,4583.008
1685400382.114,-0.977,31.250,39.551,-8.789,4583.012
1685400382.114,13.184,17.090,59.570,-2.441,4583.011
1685400382.118,-9.766,235.840,122.070,-8.789,4583.015
1685400382.122,-29.785,93.262,58.594,-18.555,4583.019
1685400382.126,-20.996,-123.047,43.457,-11.230,4583.022
1685400382.130,-4.395,-207.031,28.809,-4.883,4583.026
1685400382.134,-10.254,-178.223,38.574,-16.113,4583.030
1685400382.138,-28.320,-294.434,-68.359,-26.367,4583.034
1685400382.141,-20.508,-630.859,-267.090,-6.348,4583.038
1685400382.145,4.883,-1000.000,-445.801,12.695,4583.042
1685400382.149,4.883,-566.406,-119.141,0.000,4583.046
1685400382.153,-20.508,102.539,132.812,-17.090,4583.050
1685400382.157,-24.414,-106.934,-38.086,-18.066,4583.054
1685400382.160,-5.371,46.875,68.359,-14.160,4583.058
1685400382.164,4.395,400.879,221.191,-6.348,4583.062
1685400382.168,-11.230,205.566,64.941,-14.648,4583.066
1685400382.172,-23.926,-104.004,-8.301,-18.555,4583.070
1685400382.176,-10.254,29.297,95.703,6.348,4583.074
1685400382.180,4.883,50.293,83.984,13.672,4583.078
1685400382.184,0.000,-143.555,-20.020,-2.930,4583.082
1685400382.187,-12.207,-637.207,-209.961,-8.301,4583.085
1685400382.191,-7.324,-341.797,26.367,-0.488,4583.089
1685400382.195,20.996,329.102,225.586,7.324,4583.093
1685400382.199,15.625,-102.539,-33.203,4.395,4583.097
1685400382.203,-19.043,-524.414,-137.695,-15.137,4583.101
1685400382.205,-12.695,-30.762,102.051,-21.973,4583.104
1685400382.209,11.719,318.359,171.875,0.977,4583.108
1685400382.213,11.230,23.926,49.805,12.207,4583.112
1685400382.217,2.441,-135.742,8.789,1.953,4583.116
1685400382.221,1.953,-172.852,18.555,3.906,4583.119
1685400382.225,18.066,-189.941,62.988,23.438,4583.123
1685400382.229,28.320,-476.074,-114.746,25.879,4583.127
1685400382.232,7.324,-965.820,-358.887,13.184,4583.131
1685400382.236,-13.672,-325.684,9.277,-2.930,4583.135
1685400382.240,4.883,147.461,138.672,4.883,4583.139
1685400382.244,19.531,18.555,121.094,14.160,4583.143
1685400382.248,18.066,125.977,147.461,0.488,4583.147
1685400382.252,2.441,46.387,40.527,-10.254,4583.152
1685400382.256,2.441,-224.121,-34.180,-3.418,4583.156
1685400382.260,23.438,-218.262,43.945,-0.488,4583.160
1685400382.264,12.207,73.242,157.227,-7.324,4583.163
1685400382.268,-16.113,177.734,84.473,-14.648,4583.167
1685400382.272,-24.902,-131.836,-24.414,-12.695,4583.171
1685400382.276,4.395,-788.086,-249.512,2.930,4583.175
1685400382.279,6.348,-639.648,-129.883,-2.441,4583.179
1685400382.283,-19.043,184.082,180.664,-20.020,4583.183
1685400382.287,-31.250,-83.984,10.254,-25.879,4583.187
1685400382.291,-13.672,-187.012,11.719,-10.254,4583.191
1685400382.295,0.488,301.758,204.590,-6.836,4583.195
1685400382.294,-8.789,285.156,119.141,-26.367,4583.220
1685400382.298,-20.996,-233.887,-102.539,-27.344,4583.224
1685400382.302,-25.879,-200.195,0.977,-24.902,4583.228
1685400382.306,-4.395,62.500,121.094,-12.695,4583.232
1685400382.310,-1.465,-153.809,8.789,-16.113,4583.236
1685400382.314,-20.020,-554.199,-239.258,-20.020,4583.240
1685400382.318,-11.719,-1000.000,-500.488,-1.953,4583.244
1685400382.321,12.207,-625.000,-147.461,10.742,4583.247
1685400382.325,11.719,208.984,180.176,-2.930,4583.251
1685400382.329,-11.230,41.504,13.672,-15.137,4583.255
1685400382.333,-12.695,4.883,43.945,-19.531,4583.259
1685400382.337,10.742,382.324,214.844,2.930,4583.263
1685400382.354,13.184,341.797,134.277,10.742,4583.253
1685400382.358,-11.719,11.230,20.996,-18.555,4583.257
1685400382.362,-24.902,12.695,98.633,-20.996,4583.261
1685400382.366,10.254,273.438,183.594,0.977,4583.264
1685400382.370,28.320,204.590,121.094,-2.930,4583.268
1685400382.374,-0.488,-336.914,-100.098,-24.902,4583.272
1685400382.378,-25.879,-520.020,-220.703,-28.320,4583.276
1685400382.381,-19.531,-145.020,13.672,-2.930,4583.280
1685400382.385,10.742,24.414,81.543,20.020,4583.284
1685400382.389,-1.953,-365.723,-66.406,-1.465,4583.288
1685400382.393,-29.297,-218.750,37.109,-26.367,4583.292
1685400382.397,-17.578,190.918,156.738,-13.184,4583.296
1685400382.399,7.812,-36.133,13.672,4.395,4583.296
1685400382.403,12.207,-563.965,-182.129,4.395,4583.300
1685400382.407,-14.648,-191.895,23.438,-19.531,4583.304
1685400382.411,-19.043,191.406,124.512,-21.484,4583.308
1685400382.415,7.324,-243.652,-42.480,0.000,4583.312
1685400382.419,6.348,-550.781,-131.348,4.883,4583.316
1685400382.423,-19.531,-229.492,38.086,-24.414,4583.320
1685400382.426,-29.297,63.477,89.355,-31.250,4583.323
1685400382.430,-16.113,-380.371,-106.934,-0.488,4583.327
1685400382.434,-3.906,-966.797,-247.559,4.395,4583.331
1685400382.438,-16.113,-164.062,97.168,-19.531,4583.335
1685400382.442,-27.832,188.965,99.121,-29.297,4583.339
1685400382.446,-17.578,-122.070,22.461,-15.137,4583.343
1685400382.450,-6.348,113.770,158.691,-12.207,4583.347
1685400382.454,-13.184,384.277,189.453,-20.508,4583.351
1685400382.458,-28.320,94.238,40.527,-23.926,4583.355
1685400382.462,-31.250,-145.996,12.695,-25.879,4583.359
1685400382.466,-13.184,-137.207,70.801,-9.766,4583.363
1685400382.470,0.000,-45.410,104.004,-11.230,4583.366
1685400382.473,-19.043,-5.371,29.297,-31.738,4583.370
1685400382.477,-31.738,-637.207,-235.840,-26.367,4583.374
1685400382.481,-7.324,-333.984,20.508,-9.277,4583.378
1685400382.485,10.742,385.742,244.141,-5.859,4583.382
1685400382.489,1.465,-161.621,-79.102,-19.531,4583.386
1685400382.489,-3.418,-513.184,-180.664,-17.578,4583.386
1685400382.493,12.207,83.984,141.602,4.395,4583.390
1685400382.497,1.465,352.051,190.430,-8.789,4583.394
1685400382.501,-33.691,7.324,49.805,-33.203,4583.398
1685400382.505,-45.898,-348.145,-115.723,-34.668,4583.402
1685400382.509,-39.551,-317.871,-122.070,-27.832,4583.406
1685400382.513,-20.996,-87.402,71.289,-19.043,4583.409
1685400382.516,-19.531,-420.410,-120.605,-16.602,4583.413
1685400382.520,-46.387,-965.332,-355.957,-35.645,4583.417
1685400382.524,-52.246,-254.395,68.848,-40.527,4583.421
1685400382.528,-28.809,286.133,177.734,-19.043,4583.425
1685400382.532,-23.926,87.891,119.629,-9.766,4583.429
1685400382.537,-37.109,95.703,116.211,-19.043,4583.437
1685400382.541,-40.039,36.133,23.926,-27.832,4583.441
1685400382.545,-14.648,-135.742,7.324,-11.719,4583.445
1685400382.549,0.000,-197.754,15.625,-1.953,4583.448
1685400382.553,-16.602,-4.883,87.891,-24.414,4583.452
1685400382.557,-24.902,-75.195,-22.461,-34.180,4583.456
1685400382.561,-10.742,-278.809,-107.910,-17.578,4583.460
1685400382.564,12.207,-523.438,-73.242,2.441,4583.464
1685400382.568,7.324,-268.555,47.363,-11.230,4583.468
1685400382.572,-7.324,251.465,145.508,-18.555,4583.472
1685400382.576,-0.977,-73.730,-1.465,-2.441,4583.476
1685400382.580,18.555,-117.676,26.855,5.859,4583.480
1685400382.580,14.648,261.230,176.758,-4.883,4583.476
1685400382.584,-7.324,209.473,105.469,-24.414,4583.480
1685400382.588,-12.695,-149.902,-27.832,-15.625,4583.484
1685400382.592,10.254,-119.141,41.992,4.395,4583.488
1685400382.596,17.090,0.488,96.680,2.930,4583.492
1685400382.600,-5.371,-213.867,-15.625,-9.766,4583.496
1685400382.604,-10.254,-550.293,-230.469,0.000,4583.500
1685400382.607,9.277,-1000.000,-474.609,30.273,4583.503
1685400382.611,10.742,-605.957,-115.234,26.367,4583.507
1685400382.615,-6.836,148.926,152.344,2.930,4583.511
1685400382.619,-19.043,-46.387,-33.691,1.953,4583.515
1685400382.623,2.441,22.949,70.312,16.602,4583.519
1685400382.626,18.555,384.277,216.797,20.020,4583.535
1685400382.630,0.000,259.277,81.055,7.324,4583.539
1685400382.634,-20.996,-104.980,0.000,-7.812,4583.543
1685400382.638,-18.555,1.465,120.117,-1.953,4583.547
1685400382.642,8.301,263.672,164.062,8.301,4583.551
1685400382.646,8.789,41.504,59.082,-5.371,4583.555
1685400382.650,-6.836,-684.570,-207.031,-19.531,4583.559
1685400382.653,-18.066,-578.613,-89.844,-17.578,4583.563
1685400382.657,-1.465,238.770,222.168,-1.465,4583.567
1685400382.661,4.883,158.691,67.871,-2.930,4583.571
1685400382.665,-18.555,-353.027,-125.000,-20.508,4583.575
1685400382.669,-30.762,-137.695,40.527,-16.602,4583.578
1685400382.670,-17.090,229.980,170.410,-4.395,4583.596
1685400382.674,-2.441,44.434,45.410,-8.301,4583.599
1685400382.678,-15.137,-85.449,13.184,-22.949,4583.603
1685400382.682,-29.297,40.039,44.922,-32.715,4583.607
1685400382.686,-17.090,-120.117,-15.137,-20.996,4583.611
1685400382.690,3.906,-552.246,-181.641,0.977,4583.615
1685400382.694,-3.418,-930.176,-287.598,-4.883,4583.619
1685400382.697,-23.438,-290.527,43.945,-26.367,4583.623
1685400382.701,-11.230,158.203,89.355,-19.531,4583.627
1685400382.705,11.719,-293.945,-47.852,-1.465,4583.631
1685400382.709,1.953,-202.637,74.219,-7.324,4583.635
1685400382.713,-28.320,240.723,165.039,-26.855,4583.639
1685400382.730,-34.180,80.566,32.227,-28.320,4583.627
1685400382.734,-15.625,-155.273,-24.902,-7.324,4583.631
1685400382.738,-6.348,31.250,91.309,-0.488,4583.635
1685400382.742,-16.113,231.934,141.113,-14.648,4583.639
1685400382.746,-15.625,-13.672,8.789,-14.160,4583.643
1685400382.750,0.000,-419.434,-85.449,4.883,4583.647
1685400382.754,6.836,-262.695,49.805,5.859,4583.650
1685400382.757,-8.789,205.566,181.152,-11.230,4583.654
1685400382.761,-15.137,-34.180,-2.441,-13.672,4583.658
1685400382.765,-6.836,-501.465,-110.840,0.977,4583.662
1685400382.769,-0.977,-70.801,143.555,8.789,4583.666
1685400382.773,1.465,250.000,164.062,-3.418,4583.670
1685400382.790,-18.555,-321.777,-181.152,-20.508,4583.689
1685400382.794,-31.738,-901.855,-352.051,-23.438,4583.693
1685400382.798,-15.137,-259.277,75.195,-17.090,4583.697
1685400382.802,-9.277,353.027,199.219,-18.555,4583.701
1685400382.806,-25.391,-347.168,-128.418,-22.461,4583.705
1685400382.810,-33.691,-804.199,-270.020,-22.949,4583.709
1685400382.814,-18.555,-354.980,-43.945,-4.883,4583.713
1685400382.817,-7.324,193.359,183.105,4.883,4583.717
1685400382.821,-14.648,-289.062,-110.352,-8.789,4583.721
1685400382.825,-29.297,-803.223,-255.371,-21.484,4583.725
1685400382.829,-19.531,41.016,166.016,-16.602,4583.728
1685400382.833,2.930,308.105,157.227,6.348,4583.732
1685400382.836,-13.184,61.035,86.914,-6.348,4583.733
1685400382.840,-32.227,60.547,74.707,-27.344,4583.737
1685400382.844,-23.926,16.113,22.461,-17.578,4583.741
1685400382.848,-9.766,-129.883,22.949,-0.488,4583.745
1685400382.852,-9.766,-89.844,38.574,-11.719,4583.749
1685400382.856,-24.414,-247.559,-63.477,-35.645,4583.753
1685400382.860,-30.762,-222.168,-33.203,-24.414,4583.757
1685400382.863,-5.371,-55.176,42.969,-9.277,4583.761
1685400382.867,6.348,-163.574,31.250,-16.602,4583.765
1685400382.871,-24.902,10.742,74.707,-32.715,4583.769
1685400382.875,-32.227,168.457,104.492,-31.250,4583.773
1685400382.879,-10.254,-74.707,6.348,-4.395,4583.776
1685400382.864,3.418,-806.152,-284.668,16.113,4583.761
1685400382.868,-13.672,-458.008,-51.270,-6.836,4583.765
1685400382.872,-32.715,169.434,131.348,-24.414,4583.769
1685400382.876,-10.742,-72.266,19.043,-1.465,4583.773
1685400382.880,9.766,-223.633,19.043,9.766,4583.776
1685400382.884,-14.160,-156.738,62.988,-14.648,4583.780
1685400382.888,-31.738,-263.672,-62.012,-22.949,4583.784
1685400382.891,-20.020,-561.523,-138.672,-12.207,4583.788
1685400382.895,-11.230,-227.539,90.332,-6.348,4583.792
1685400382.899,-6.348,254.883,187.988,-10.254,4583.796
1685400382.903,-26.367,205.078,131.348,-24.902,4583.800
1685400382.907,-33.203,-419.434,-181.152,-23.438,4583.804
1685400382.911,-6.836,-1000.000,-404.785,-7.812,4583.809
1685400382.915,-0.488,-303.223,43.945,-11.230,4583.812
1685400382.919,-13.184,157.227,117.188,-22.949,4583.816
1685400382.923,-20.020,-124.512,7.812,-17.578,4583.820
1685400382.927,-9.766,94.238,139.160,-3.418,4583.824
1685400382.931,11.719,110.352,127.441,13.184,4583.828
1685400382.935,3.418,-71.777,26.855,2.930,4583.832
1685400382.938,-23.926,-630.859,-209.961,-8.789,4583.836
1685400382.942,-12.695,-447.266,-20.508,2.930,4583.840
1685400382.946,9.766,420.898,256.348,8.789,4583.844
1685400382.950,8.789,166.504,54.688,-2.441,4583.848
1685400382.954,-22.461,-383.789,-105.469,-23.926,4583.852
1685400382.954,-39.062,-22.461,90.332,-25.879,4583.851
1685400382.958,-8.789,363.770,208.984,-6.836,4583.855
1685400382.962,-1.953,121.094,77.637,-1.953,4583.859
1685400382.966,-12.207,21.973,53.223,-5.371,4583.863
1685400382.970,-1.953,-27.832,36.621,8.789,4583.867
1685400382.974,-7.812,-104.980,65.918,-0.488,4583.871
1685400382.978,-15.625,-387.207,-81.543,-13.672,4583.875
1685400382.981,-26.855,-941.895,-297.363,-18.066,4583.878
1685400382.985,-39.551,-270.508,63.965,-28.809,4583.882
1685400382.989,-21.484,268.555,157.715,-14.648,4583.886
1685400382.993,-9.766,-14.648,68.359,-6.836,4583.890
1685400382.997,-21.484,40.039,115.723,-21.973,4583.894
1685400383.001,-34.668,260.254,134.766,-24.414,4583.910
1685400383.005,-23.926,153.809,87.402,8.789,4583.914
1685400383.009,-0.488,-47.363,99.121,22.461,4583.918
1685400383.013,-7.812,98.145,172.363,-9.277,4583.922
1685400383.017,-27.344,172.363,104.980,-32.715,4583.926
1685400383.021,-25.879,-168.457,-45.898,-27.832,4583.929
1685400383.025,-10.254,-607.422,-100.098,-1.465,4583.933
1685400383.028,-10.742,-285.156,60.059,-4.883,4583.937
1685400383.032,-26.855,294.434,165.527,-30.762,4583.941
1685400383.036,-17.578,13.184,19.043,-21.484,4583.945
1685400383.040,5.371,-108.398,13.672,6.836,4583.949
1685400383.044,2.441,252.441,182.129,0.977,4583.953
1685400383.045,-17.090,296.387,159.180,-24.902,4583.954
1685400383.049,-24.414,-351.562,-174.805,-28.809,4583.958
1685400383.053,1.465,-570.312,-191.406,-14.160,4583.962
1685400383.057,17.578,163.574,183.105,-3.906,4583.966
1685400383.061,-1.465,77.148,84.961,-8.789,4583.970
1685400383.065,-20.996,-676.758,-273.926,-14.160,4583.974
1685400383.069,-20.508,-900.879,-316.895,-10.742,4583.978
1685400383.072,-1.953,-128.906,111.328,-18.066,4583.981
1685400383.076,4.883,371.582,196.777,-16.113,4583.985
1685400383.080,-18.555,-297.852,-77.148,-16.602,4583.989
1685400383.084,-33.203,-430.176,-39.062,-17.090,4583.993
1685400383.088,-9.766,247.070,201.172,-7.324,4583.997
1685400383.119,4.883,264.160,134.277,-8.789,4584.017
1685400383.123,-15.625,-62.988,-13.672,-13.184,4584.021
1685400383.127,-26.855,-96.680,-12.695,-8.789,4584.025
1685400383.131,-3.906,-94.238,36.621,2.930,4584.029
1685400383.135,5.859,-85.938,68.848,4.883,4584.033
1685400383.139,-11.230,-615.723,-232.910,-8.301,4584.037
1685400383.143,-30.273,-686.035,-224.609,-23.438,4584.041
1685400383.146,-22.461,94.238,154.297,-18.066,4584.045
1685400383.150,7.324,61.035,71.289,0.977,4584.049
1685400383.154,3.418,-126.953,-1.465,-6.348,4584.053
1685400383.158,-18.555,34.180,75.195,-18.555,4584.056
1685400383.162,-19.531,185.059,142.090,-11.719,4584.060
1685400383.149,10.742,-28.809,58.594,9.277,4584.046
1685400383.153,24.414,-160.645,18.555,8.789,4584.050
1685400383.157,-4.395,111.816,135.742,-13.184,4584.054
1685400383.161,-11.230,141.602,109.375,-7.324,4584.058
1685400383.165,1.465,-144.531,15.137,6.836,4584.062
1685400383.169,-1.953,-320.312,18.066,3.906,4584.066
1685400383.173,-29.785,-275.391,18.066,-16.113,4584.069
1685400383.176,-45.898,-344.238,-117.188,-25.879,4584.073
1685400383.180,-14.160,-669.434,-245.605,3.418,4584.077
1685400383.184,2.930,-550.781,-121.094,6.836,4584.081
1685400383.188,-26.367,78.613,125.488,-22.949,4584.085
1685400383.192,-41.016,171.387,116.699,-26.367,4584.089
1685400383.196,-21.484,-481.445,-190.430,-4.883,4584.105
1685400383.200,-3.906,-872.070,-267.578,20.020,4584.109
1685400383.204,-15.137,-35.156,107.422,0.000,4584.113
1685400383.208,-37.109,127.441,47.852,-25.879,4584.117
1685400383.212,-32.715,-158.203,-13.184,-15.625,4584.121
1685400383.216,-6.348,-184.082,64.453,0.977,4584.125
1685400383.220,-5.859,31.738,135.254,-8.301,4584.128
1685400383.223,-29.297,66.406,71.289,-24.414,4584.132
1685400383.227,-34.180,-686.035,-241.699,-24.414,4584.136
1685400383.231,-22.949,-464.355,-52.246,-15.625,4584.140
1685400383.235,-7.812,370.605,248.535,-6.836,4584.144
1685400383.239,-20.996,8.789,-2.930,-19.531,4584.148
1685400383.239,-46.387,-519.043,-172.363,-33.203,4584.136
1685400383.243,-24.414,-23.438,111.328,-10.742,4584.140
1685400383.247,3.418,354.004,201.172,7.324,4584.144
1685400383.251,-3.418,60.547,53.711,-12.695,4584.148
1685400383.255,-25.391,-301.270,-106.445,-25.879,4584.152
1685400383.259,-27.832,-344.727,-145.508,-17.090,4584.155
1685400383.263,6.836,-152.832,12.695,1.465,4584.159
1685400383.266,17.090,-468.262,-134.277,5.859,4584.163
1685400383.270,-15.625,-967.773,-353.027,-10.742,4584.167
1685400383.274,-24.414,-333.984,13.184,-16.113,4584.171
1685400383.278,2.441,296.875,196.289,0.000,4584.175
1685400383.282,13.184,-378.906,-130.859,12.695,4584.179
1685400383.286,-18.555,-660.156,-190.918,-2.930,4584.183
1685400383.290,-35.645,139.648,163.086,-13.184,4584.187
1685400383.294,-4.395,189.941,84.473,4.395,4584.191
1685400383.298,15.137,12.207,79.102,4.395,4584.195
1685400383.302,-2.441,93.262,131.348,-11.719,4584.199
1685400383.306,-21.484,-107.422,-41.504,-20.508,4584.203
1685400383.310,-16.113,-219.727,-63.965,-12.695,4584.207
1685400383.313,0.488,-503.906,-82.031,1.953,4584.211
1685400383.317,-14.648,-317.383,38.086,-10.254,4584.214
1685400383.321,-29.785,243.652,150.391,-25.879,4584.218
1685400383.325,-19.531,-23.438,3.906,-12.207,4584.222
1685400383.329,0.000,-58.594,46.875,-1.465,4584.226
1685400383.330,1.953,267.578,159.180,-7.324,4584.240
1685400383.334,-23.926,112.305,75.684,-29.297,4584.244
1685400383.338,-31.738,-459.961,-186.523,-27.832,4584.248
1685400383.342,0.000,-430.664,-131.836,-4.395,4584.251
1685400383.346,19.531,10.742,140.137,-6.348,4584.255
1685400383.350,-18.066,-132.812,29.297,-12.695,4584.259
1685400383.354,-39.551,-620.605,-277.832,-2.441,4584.263
1685400383.357,-9.277,-969.238,-321.289,19.531,4584.267
1685400383.361,7.324,-138.184,121.582,15.625,4584.271
1685400383.365,-7.812,366.211,167.969,0.977,4584.275
1685400383.369,-23.438,-54.199,-32.715,-9.277,4584.279
1685400383.373,-10.254,-5.371,29.785,-6.348,4584.283
1685400383.376,12.695,382.812,214.844,12.695,4584.285
1685400383.380,9.277,292.969,123.535,7.812,4584.289
1685400383.384,-8.301,-57.129,25.879,-11.719,4584.293
1685400383.388,-6.348,4.883,88.379,-3.418,4584.296
1685400383.392,13.672,37.598,58.594,9.766,4584.300
1685400383.396,20.996,-85.938,59.570,-4.395,4584.304
1685400383.400,5.859,-693.848,-249.023,-0.977,4584.308
1685400383.403,-14.160,-721.191,-221.191,6.348,4584.312
1685400383.407,7.812,178.223,214.355,16.113,4584.316
1685400383.411,22.949,106.934,67.383,16.602,4584.320
1685400383.415,-6.348,-173.340,-61.523,-3.418,4584.324
1685400383.419,-23.926,56.152,92.773,-18.555,4584.328
1685400383.419,-10.742,266.602,186.035,-15.137,4584.330
1685400383.423,5.371,78.125,65.918,3.906,4584.334
1685400383.427,-4.883,-59.570,23.926,-6.348,4584.338
1685400383.431,-21.973,83.984,92.773,-18.555,4584.342
1685400383.435,-14.160,-61.523,52.246,-5.371,4584.346
1685400383.439,11.719,-520.508,-135.254,11.230,4584.350
1685400383.443,3.418,-932.617,-311.035,13.184,4584.354
1685400383.446,-20.508,-561.523,-120.117,-0.977,4584.358
1685400383.450,-16.113,23.438,67.871,6.348,4584.362
1685400383.454,11.230,-369.629,-83.008,27.832,4584.365
1685400383.458,7.812,-507.324,-110.352,6.836,4584.369
1685400383.462,-21.484,167.480,129.883,-23.926,4584.373
1685400383.480,-29.785,127.441,61.035,-22.949,4584.377
1685400383.484,-7.324,-26.367,69.824,-8.301,4584.381
1685400383.488,18.555,168.457,167.969,1.953,4584.385
1685400383.492,5.371,271.484,115.723,-6.836,4584.389
1685400383.496,-10.254,-10.254,-12.207,-14.648,4584.393
1685400383.500,2.441,-392.578,-104.980,-6.348,4584.397
1685400383.504,2.441,-183.105,41.016,2.441,4584.401
1685400383.507,-12.695,270.508,185.059,-6.836,4584.405
1685400383.511,-28.320,-9.277,-1.953,-19.531,4584.408
1685400383.515,-19.531,-664.551,-203.613,-0.977,4584.412
1685400383.519,-3.906,-282.715,16.113,14.160,4584.416
1685400383.523,-14.648,366.211,231.934,-1.953,4584.420
1685400383.524,-27.832,-106.934,-54.199,-14.648,4584.421
1685400383.528,-22.461,-552.246,-212.891,-7.324,4584.425
1685400383.532,-3.906,0.977,111.328,-2.441,4584.429
1685400383.536,9.277,351.074,201.172,0.000,4584.433
1685400383.540,-10.254,-274.902,-82.031,-5.371,4584.437
1685400383.544,-23.926,-813.965,-298.828,-13.184,4584.440
1685400383.548,-5.371,-419.922,-96.680,-7.812,4584.444
1685400383.551,7.324,148.438,152.832,-4.883,4584.448
1685400383.555,-10.742,-311.523,-109.375,-8.789,4584.452
1685400383.559,-31.738,-814.453,-281.250,-15.625,4584.456
1685400383.563,-22.461,-1.953,127.930,-13.672,4584.460
1685400383.567,0.000,291.504,166.504,-5.859,4584.464
1685400383.571,-8.301,-156.250,-59.570,-17.578,4584.468
1685400383.575,-38.574,-261.719,-78.125,-27.344,4584.472
1685400383.579,-31.250,155.273,138.672,-21.973,4584.476
1685400383.583,-10.254,200.684,108.887,-13.672,4584.480
1685400383.587,-17.578,-136.719,6.348,-15.625,4584.484
1685400383.591,-33.203,-371.094,-78.613,-22.461,4584.488
1685400383.595,-37.598,-160.156,-2.441,-13.672,4584.492
1685400383.598,-11.719,114.258,94.727,4.883,4584.495
1685400383.602,5.371,-471.191,-121.094,0.488,4584.499
1685400383.606,-8.789,-369.141,2.930,-14.648,4584.503
1685400383.610,-18.066,219.238,141.113,-16.113,4584.507
1685400383.614,6.836,25.879,34.180,14.160,4584.511
1685400383.614,23.926,33.691,83.496,20.508,4584.511
1685400383.618,5.859,277.344,139.648,4.883,4584.515
1685400383.622,-6.836,67.383,19.531,1.953,4584.519
1685400383.626,-2.930,-451.660,-193.848,13.672,4584.523
1685400383.630,8.301,-560.059,-162.598,16.113,4584.527
1685400383.634,4.883,-237.793,52.246,-0.977,4584.531
1685400383.638,-10.254,-226.562,-26.367,-5.371,4584.535
1685400383.641,-10.742,-596.680,-244.629,3.906,4584.539
1685400383.645,15.625,-950.195,-288.086,31.250,4584.542
1685400383.649,11.230,-200.684,92.285,17.578,4584.546
1685400383.653,-18.066,209.473,114.746,-16.113,4584.550
1685400383.657,-16.113,-140.625,-99.609,-11.719,4584.554
1685400383.660,12.207,24.902,56.641,16.113,4584.558
1685400383.664,28.320,364.746,204.102,27.344,4584.562
1685400383.668,-0.977,183.594,29.785,7.324,4584.566
1685400383.672,-24.902,-112.305,-7.324,-12.207,4584.570
1685400383.676,-13.672,48.828,118.652,-2.930,4584.574
1685400383.680,-6.348,46.875,70.312,0.488,4584.578
1685400383.684,-17.090,-162.598,5.371,-20.020,4584.582
1685400383.687,-23.926,-769.043,-324.219,-10.742,4584.586
1685400383.691,-11.719,-683.594,-209.961,9.277,4584.590
1685400383.695,9.277,232.422,233.398,7.324,4584.593
1685400383.699,4.883,140.625,56.152,4.883,4584.597
1685400383.703,-15.137,-146.973,-57.617,-10.254,4584.601
1685400383.704,-20.020,95.703,116.211,-19.043,4584.601
1685400383.708,-1.953,333.984,166.992,4.395,4584.605
1685400383.712,3.906,62.500,19.531,0.000,4584.609
1685400383.716,-20.996,-115.234,-3.418,-31.738,4584.613
1685400383.720,-23.926,-136.719,-18.555,-24.902,4584.617
1685400383.724,-0.488,-198.730,4.395,-5.859,4584.620
1685400383.728,9.277,-454.590,-101.562,-4.883,4584.624
1685400383.731,-12.695,-1000.000,-392.578,-15.625,4584.628
1685400383.735,-36.621,-512.207,-68.848,-29.785,4584.632
1685400383.739,-22.949,183.105,153.809,-19.531,4584.636
1685400383.743,-2.930,-119.629,5.371,1.465,4584.640
1685400383.747,-9.277,-176.758,19.531,-11.230,4584.644
1685400383.751,-16.602,197.266,98.145,-29.297,4584.659
1685400383.755,-11.719,94.238,48.340,-17.578,4584.663
1685400383.759,-6.836,-8.301,57.129,-9.277,4584.667
1685400383.763,-4.883,180.664,151.855,-15.137,4584.671
1685400383.767,-19.531,129.395,51.758,-28.809,4584.675
1685400383.771,-25.879,-231.934,-137.207,-20.996,4584.679
1685400383.775,-4.395,-669.434,-191.406,7.812,4584.683
1685400383.778,-7.812,-360.352,24.902,-4.395,4584.687
1685400383.782,-28.809,277.832,166.992,-29.785,4584.690
1685400383.786,-33.691,-34.180,-41.016,-18.555,4584.694
1685400383.790,-14.160,-359.863,-98.633,0.000,4584.698
1685400383.794,4.395,16.602,106.445,-3.906,4584.702
1685400383.795,-8.789,357.422,178.223,-15.625,4584.705
1685400383.799,-17.090,-175.781,-128.906,-14.648,4584.709
1685400383.803,-7.324,-535.156,-204.102,-10.742,4584.713
1685400383.807,3.906,107.422,156.738,-15.137,4584.717
1685400383.811,1.953,112.305,101.074,-15.137,4584.721
1685400383.815,-17.578,-571.289,-248.047,-11.719,4584.725
1685400383.819,-13.672,-944.336,-358.398,0.488,4584.729
1685400383.822,16.113,-175.781,98.145,10.254,4584.733
1685400383.826,11.230,324.707,159.180,8.301,4584.737
1685400383.830,-19.531,-122.070,-64.453,-0.488,4584.740
1685400383.834,-21.973,-170.410,-1.953,-0.977,4584.744
1685400383.838,3.418,258.301,151.367,12.207,4584.748
1685400383.854,18.066,276.367,124.023,7.812,4584.751
1685400383.858,-5.859,-153.809,-36.133,-14.160,4584.755
1685400383.862,-20.508,-176.270,-14.160,-15.137,4584.759
1685400383.866,0.488,174.805,147.461,5.859,4584.763
1685400383.870,17.578,209.961,114.258,9.766,4584.766
1685400383.874,-8.789,-399.902,-147.461,-8.789,4584.770
1685400383.878,-42.969,-458.008,-116.699,-25.879,4584.774
1685400383.881,-35.645,141.113,138.672,-21.973,4584.778
1685400383.885,-7.812,162.598,87.891,-8.301,4584.782
1685400383.889,-5.371,-370.117,-126.465,-16.602,4584.786
1685400383.893,-28.809,-250.977,-48.828,-39.062,4584.790
1685400383.897,-20.508,244.141,158.203,-31.738,4584.794
1685400383.899,7.812,-29.785,-8.789,-6.836,4584.796
1685400383.903,4.395,-270.020,-89.844,-9.277,4584.800
1685400383.907,-24.902,40.527,75.195,-24.902,4584.804
1685400383.911,-26.367,-21.973,12.695,-20.508,4584.808
1685400383.915,7.812,-472.656,-154.297,7.324,4584.812
1685400383.919,13.672,-845.215,-285.645,15.137,4584.816
1685400383.923,-17.090,-530.762,-153.320,-12.695,4584.820
1685400383.926,-21.973,-70.801,1.953,-17.090,4584.823
1685400383.930,-4.883,-473.633,-152.832,9.277,4584.827
1685400383.934,5.371,-675.781,-159.668,21.973,4584.831
1685400383.938,-5.859,105.957,157.227,0.000,4584.835
1685400383.942,-30.762,102.051,38.086,-24.902,4584.839
1685400383.946,-28.809,-175.781,-58.594,-20.996,4584.843
1685400383.950,-1.953,46.387,63.477,-0.488,4584.847
1685400383.954,0.977,292.969,143.066,-0.488,4584.851
1685400383.958,-23.438,88.867,16.602,-13.672,4584.855
1685400383.962,-18.555,-154.785,-48.828,-3.906,4584.859
1685400383.966,-0.977,-176.270,31.738,11.230,4584.863
1685400383.970,3.418,-150.879,41.016,8.301,4584.866
1685400383.973,-20.996,-185.059,-55.664,-10.742,4584.870
1685400383.977,-32.715,-772.949,-369.141,-11.230,4584.874
1685400383.981,-9.766,-619.629,-191.895,4.883,4584.878
1685400383.985,0.488,315.918,225.586,0.000,4584.882
1685400383.989,-12.695,115.234,20.996,-13.672,4584.886
1685400383.990,-28.809,-225.586,-108.398,-11.230,4584.886
1685400383.994,-20.508,23.926,77.148,-1.465,4584.890
1685400383.998,-4.395,316.895,171.875,-1.465,4584.894
1685400384.002,0.488,-1.953,13.184,-5.859,4584.898
1685400384.006,-12.695,-401.367,-158.203,-16.113,4584.902
1685400384.010,-15.137,-334.961,-154.297,-10.742,4584.906
1685400384.014,1.953,-149.902,18.066,2.930,4584.910
1685400384.017,-0.488,-427.246,-134.766,-5.371,4584.914
1685400384.021,-31.738,-1000.000,-439.453,-13.184,4584.917
1685400384.025,-37.109,-416.992,-62.988,-11.230,4584.921
1685400384.029,-4.883,306.152,187.988,6.836,4584.925
1685400384.033,7.324,-71.289,27.344,11.719,4584.929
1685400384.035,-15.137,-209.473,-9.277,-10.742,4584.933
1685400384.039,-21.973,163.574,97.656,-4.395,4584.937
1685400384.043,-0.488,184.082,86.914,10.742,4584.941
1685400384.047,11.230,87.402,82.520,2.441,4584.945
1685400384.051,0.488,107.910,103.027,-4.883,4584.948
1685400384.055,-20.996,-188.965,-99.121,-13.184,4584.952
1685400384.059,-13.184,-351.562,-169.922,-12.695,4584.956
1685400384.062,10.254,-555.176,-125.488,5.859,4584.960
1685400384.066,-5.371,-306.152,32.715,-10.742,4584.964
1685400384.070,-27.832,231.445,125.977,-31.738,4584.968
1685400384.074,-20.508,-41.504,-15.625,-14.160,4584.972
1685400384.078,-1.953,-278.320,-46.387,-2.441,4584.976
1685400384.079,3.418,31.738,82.031,-6.348,4584.978
1685400384.083,-12.207,279.297,135.742,-18.066,4584.982
1685400384.087,-13.672,-202.148,-104.980,-11.230,4584.985
1685400384.091,0.977,-440.918,-162.109,8.301,4584.989
1685400384.095,6.836,-68.848,92.285,5.859,4584.993
1685400384.099,-1.953,-137.207,8.301,-9.766,4584.997
1685400384.103,-18.555,-583.008,-250.000,-22.461,4585.001
1685400384.106,-9.766,-979.004,-340.332,-2.930,4585.005
1685400384.110,-0.977,-246.582,54.199,1.465,4585.009
1685400384.114,-10.254,269.531,162.598,-19.531,4585.013
1685400384.118,-31.738,-65.430,-22.949,-23.438,4585.017
1685400384.122,-26.367,34.668,43.457,-13.184,4585.021
1685400384.139,1.953,350.586,180.664,-5.859,4585.036
1685400384.143,0.488,168.457,52.734,-9.277,4585.040
1685400384.147,-16.113,-213.379,-86.914,-12.695,4585.044
1685400384.151,-13.184,-43.945,47.363,-6.348,4585.048
1685400384.155,7.812,267.090,152.832,13.184,4585.052
1685400384.159,13.672,70.801,63.965,17.090,4585.056
1685400384.163,-15.137,-682.617,-260.254,-6.836,4585.060
1685400384.166,-29.297,-626.465,-169.434,-20.020,4585.064
1685400384.170,-10.254,258.301,226.074,-5.371,4585.067
1685400384.174,5.859,205.566,101.562,11.230,4585.071
1685400384.178,-7.324,-90.332,-31.738,-6.348,4585.075
1685400384.182,-22.461,39.551,45.898,-21.973,4585.079
1685400384.169,-7.324,237.305,143.066,-4.883,4585.081
1685400384.173,8.789,89.355,52.246,17.578,4585.084
1685400384.177,-12.207,-61.035,0.000,4.395,4585.088
1685400384.181,-36.133,56.152,47.852,-7.324,4585.092
1685400384.185,-15.137,-16.113,36.621,19.043,4585.096
1685400384.189,5.859,-463.379,-126.953,23.926,4585.100
1685400384.193,-1.465,-848.145,-286.621,6.836,4585.104
1685400384.196,-19.531,-551.758,-162.109,-1.953,4585.108
1685400384.200,-25.879,-92.285,-3.418,-4.883,4585.112
1685400384.204,-3.906,-411.133,-115.723,-2.441,4585.116
1685400384.208,5.859,-634.766,-158.203,-3.906,4585.120
1685400384.212,-12.695,114.258,129.395,-16.113,4585.124
1685400384.230,-22.949,92.285,11.230,-17.578,4585.127
1685400384.234,0.000,-102.051,44.922,-10.254,4585.131
1685400384.238,4.883,154.297,170.410,-5.859,4585.135
1685400384.242,-17.090,311.523,159.668,-19.531,4585.139
1685400384.246,-25.879,74.219,26.855,-27.832,4585.143
1685400384.250,-6.348,-290.527,-57.129,-3.906,4585.147
1685400384.254,17.578,-165.527,49.316,9.277,4585.151
1685400384.257,10.254,39.551,108.887,-10.742,4585.155
1685400384.261,-10.742,-67.383,-3.418,-21.484,4585.159
1685400384.265,-12.695,-679.199,-259.766,-4.883,4585.163
1685400384.269,-3.906,-398.438,-29.785,-5.859,4585.166
1685400384.273,5.371,356.934,214.844,-18.066,4585.170
1685400384.279,-11.230,16.602,-24.414,-12.207,4585.174
1685400384.283,-19.043,-198.242,-95.215,-4.883,4585.178
1685400384.287,1.953,199.219,147.949,0.977,4585.182
1685400384.291,4.883,331.055,158.691,2.930,4585.186
1685400384.295,-18.066,-225.098,-86.914,-3.906,4585.190
1685400384.299,-32.227,-557.617,-214.844,-7.812,4585.194
1685400384.303,-17.578,-326.660,-56.641,5.859,4585.197
1685400384.306,-6.348,10.742,129.883,7.324,4585.201
1685400384.310,-6.348,-332.031,-133.301,-2.930,4585.205
1685400384.314,-12.695,-1000.000,-459.473,-5.371,4585.209
1685400384.318,-1.953,-338.867,-39.062,-9.277,4585.213
1685400384.322,19.043,314.453,178.223,1.465,4585.217
1685400384.335,5.859,-132.812,-28.809,5.371,4585.233
1685400384.339,-12.695,-263.672,-40.527,-8.301,4585.237
1685400384.343,-1.953,168.457,106.445,-1.465,4585.241
1685400384.347,18.555,216.309,82.031,16.602,4585.244
1685400384.351,8.301,2.930,21.973,4.395,4585.248
1685400384.355,-18.555,-311.035,-100.586,-16.113,4585.252
1685400384.359,-20.996,-306.152,-104.004,-8.301,4585.256
1685400384.362,-0.488,13.672,53.223,11.719,4585.260
1685400384.366,18.555,-443.359,-100.098,16.602,4585.264
1685400384.370,5.859,-350.586,3.906,0.977,4585.268
1685400384.374,-13.184,210.938,137.207,-7.324,4585.272
1685400384.378,-5.859,-28.809,15.625,2.441,4585.276
1685400384.365,11.719,-230.469,10.254,7.324,4585.262
1685400384.369,8.789,42.969,98.633,4.883,4585.266
1685400384.373,-8.789,211.426,118.164,-4.883,4585.270
1685400384.377,10.254,-188.965,-79.102,20.020,4585.274
1685400384.381,24.414,-547.852,-162.598,29.297,4585.278
1685400384.385,-11.719,-291.504,30.273,-18.555,4585.282
1685400384.389,-26.855,-270.996,-116.211,-32.227,4585.285
1685400384.392,-31.250,-652.832,-298.340,-28.809,4585.289
1685400384.396,-24.902,-472.656,-111.816,-27.832,4585.293
1685400384.400,-14.160,191.406,162.598,-31.738,4585.297
1685400384.404,-39.062,230.469,97.168,-46.875,4585.301
1685400384.408,-54.199,-452.148,-208.008,-49.316,4585.305
1685400384.426,-30.273,-844.727,-239.258,-29.785,4585.323
1685400384.430,-19.043,-63.477,103.027,-24.902,4585.327
1685400384.434,-28.320,103.027,12.695,-35.645,4585.331
1685400384.438,-32.715,-214.844,-92.285,-32.715,4585.335
1685400384.442,-26.855,14.648,50.781,-24.902,4585.339
1685400384.446,-12.695,63.965,92.285,-19.531,4585.343
1685400384.450,-24.414,-148.438,-20.020,-32.715,4585.347
1685400384.453,-42.969,-708.008,-289.551,-39.062,4585.351
1685400384.457,-25.391,-494.141,-113.281,-19.043,4585.355
1685400384.461,-4.395,372.559,237.305,-7.324,4585.358
1685400384.465,-4.395,181.641,59.570,-17.578,4585.362
1685400384.469,-16.113,-159.180,-102.051,-30.762,4585.366
1685400384.469,-24.902,15.137,44.434,-26.367,4585.366
1685400384.473,-2.441,283.691,189.941,-13.672,4585.370
1685400384.477,16.113,94.238,53.711,-10.742,4585.374
1685400384.481,-12.695,-106.934,-21.973,-25.391,4585.378
1685400384.485,-24.414,-159.180,3.418,-16.602,4585.381
1685400384.489,0.000,-241.211,-6.348,8.301,4585.385
1685400384.493,6.836,-393.066,-31.738,3.418,4585.389
1685400384.496,-13.672,-500.000,-115.723,-15.137,4585.393
1685400384.500,-27.832,-103.516,14.160,-17.578,4585.397
1685400384.504,-7.324,201.660,149.902,-1.953,4585.401
1685400384.508,12.695,-280.273,-52.734,10.742,4585.405
1685400384.512,1.953,-1000.000,-408.691,3.418,4585.409
1685400384.501,-28.809,-561.523,-144.531,-25.391,4585.409
1685400384.505,-22.461,78.613,83.984,-19.531,4585.413
1685400384.509,8.301,-1.953,62.012,0.488,4585.417
1685400384.513,0.977,186.523,169.922,-12.207,4585.421
1685400384.517,-25.879,222.168,92.285,-27.344,4585.425
1685400384.521,-20.020,-231.934,-101.074,-18.066,4585.429
1685400384.525,10.742,-218.262,-21.973,3.906,4585.433
1685400384.528,14.160,53.223,44.922,6.836,4585.437
1685400384.532,-3.418,-34.180,15.625,-6.348,4585.440
1685400384.536,-20.996,-91.309,13.672,-11.230,4585.444
1685400384.540,-13.184,-752.441,-277.344,5.859,4585.448
1685400384.544,-9.277,-541.016,-98.145,3.906,4585.452
1685400384.544,-23.438,279.297,187.500,-19.531,4585.455
1685400384.548,-34.180,-95.215,-85.938,-23.926,4585.459
1685400384.552,-32.715,-158.203,-63.965,-20.020,4585.463
1685400384.556,-12.207,326.172,204.590,-21.484,4585.467
1685400384.560,-11.719,162.598,114.746,-23.438,4585.471
1685400384.564,-23.438,-558.105,-270.996,-19.043,4585.475
1685400384.568,-22.461,-959.473,-356.445,-8.301,4585.479
1685400384.571,-6.836,-166.992,104.980,-5.371,4585.483
1685400384.575,14.648,418.945,202.148,-2.930,4585.487
1685400384.579,-18.555,-11.230,-17.578,-26.855,4585.490
1685400384.583,-50.293,-262.695,-52.246,-47.363,4585.494
1685400384.587,-28.320,57.617,126.465,-32.715,4585.498
1685400384.604,-34.180,334.961,154.785,-37.109,4585.501
1685400384.608,-63.477,-162.598,-56.641,-61.035,4585.505
1685400384.612,-62.012,-321.777,-42.969,-59.570,4585.509
1685400384.616,-45.898,177.246,132.324,-41.504,4585.513
1685400384.620,-33.203,222.168,106.934,-34.668,4585.516
1685400384.624,-36.621,-269.043,-84.961,-41.992,4585.520
1685400384.628,-48.340,-413.574,-127.930,-42.969,4585.524
1685400384.631,-33.203,-56.641,48.340,-29.297,4585.528
1685400384.635,-17.090,45.410,61.523,-24.414,4585.532
1685400384.639,-19.531,-409.180,-130.859,-27.344,4585.536
1685400384.643,-36.621,-254.883,-4.395,-31.738,4585.540
1685400384.647,-28.809,199.219,148.438,-19.531,4585.544
