timestamps,TP9,AF7,AF8,TP10,Secondary Timestamp
1685506687.370,-8.789,-767.090,-82.520,-20.020,1414.279
1685506687.374,-42.969,15.625,218.262,-41.504,1414.282
1685506687.378,-39.062,-141.113,1.953,-37.109,1414.286
1685506687.382,1.465,-26.367,83.496,-15.137,1414.290
1685506687.386,17.090,341.797,119.141,-7.324,1414.294
1685506687.390,-28.320,23.438,-117.188,-21.484,1414.298
1685506687.394,-49.316,-663.574,-351.562,-13.184,1414.302
1685506687.397,-7.812,-680.664,-158.691,-2.441,1414.306
1685506687.401,21.973,204.102,233.887,-20.996,1414.310
1685506687.405,-17.578,248.047,52.246,-35.645,1414.314
1685506687.409,-42.969,-176.758,-124.512,-33.203,1414.318
1685506687.413,-8.789,-74.707,8.301,-13.672,1414.321
1685506687.415,20.508,-2.930,66.895,-1.465,1414.314
1685506687.419,-1.465,-169.922,-40.527,-2.930,1414.318
1685506687.423,-43.945,-401.367,-108.887,-13.184,1414.322
1685506687.427,-37.598,-447.754,-19.043,-16.602,1414.325
1685506687.431,6.836,-83.496,103.027,-8.789,1414.329
1685506687.435,7.324,2.930,77.637,-14.648,1414.333
1685506687.439,-46.387,-751.953,-313.965,-24.902,1414.337
1685506687.442,-43.945,-754.395,-175.781,-22.461,1414.341
1685506687.446,27.832,245.605,291.992,-11.230,1414.345
1685506687.450,29.785,131.348,32.227,-9.277,1414.349
1685506687.454,-34.180,-367.676,-124.512,-21.484,1414.353
1685506687.458,-53.711,-9.766,103.516,-32.715,1414.357
1685506687.460,-17.578,299.316,129.395,-17.578,1414.369
1685506687.464,14.648,130.859,9.766,-7.324,1414.373
1685506687.468,-14.648,-177.734,-93.750,-13.672,1414.377
1685506687.472,-50.781,-160.645,-39.062,-16.113,1414.381
1685506687.476,-18.555,155.762,86.914,-11.719,1414.385
1685506687.480,24.414,-284.668,-150.391,2.441,1414.389
1685506687.484,-6.836,-934.082,-311.035,-10.254,1414.393
1685506687.487,-41.016,-292.480,65.918,-36.133,1414.397
1685506687.491,-16.113,150.391,127.441,-28.320,1414.401
1685506687.495,20.996,23.438,85.449,-7.324,1414.405
1685506687.499,24.414,167.480,118.652,-11.230,1414.408
1685506687.503,-27.344,209.961,30.273,-32.227,1414.412
1685506687.519,-41.504,-5.859,-60.547,-28.809,1414.416
1685506687.523,13.672,-65.918,22.461,-11.230,1414.420
1685506687.527,33.203,172.363,111.328,-19.043,1414.424
1685506687.531,-14.648,-14.160,-65.918,-33.203,1414.427
1685506687.535,-35.156,-343.750,-171.387,-25.879,1414.431
1685506687.539,6.348,-765.625,-302.246,-2.441,1414.435
1685506687.543,31.738,-846.680,-150.879,5.371,1414.439
1685506687.546,2.441,-92.285,204.590,-16.113,1414.443
1685506687.550,-44.434,-65.918,10.254,-31.738,1414.447
1685506687.554,-36.133,-551.270,-81.055,-18.555,1414.451
1685506687.558,20.996,-21.484,209.473,-7.324,1414.455
1685506687.562,15.625,461.426,195.312,-13.184,1414.459
1685506687.564,-39.062,-16.113,-81.055,-24.902,1414.460
1685506687.568,-37.109,-214.355,-94.727,-23.926,1414.464
1685506687.572,18.066,161.133,123.047,-13.672,1414.468
1685506687.576,29.785,327.637,115.234,-16.602,1414.472
1685506687.580,-19.043,-60.547,-109.375,-32.715,1414.476
1685506687.584,-34.180,-513.184,-220.703,-31.738,1414.480
1685506687.588,-4.883,-151.367,20.996,-23.438,1414.484
1685506687.591,17.578,268.066,104.492,-26.367,1414.488
1685506687.595,-4.395,-400.391,-266.602,-26.367,1414.492
1685506687.599,-48.828,-895.020,-260.254,-27.344,1414.496
1685506687.603,-13.184,-63.965,216.797,-19.043,1414.500
1685506687.607,35.156,281.738,114.258,-15.625,1414.503
1685506687.609,-4.395,-48.828,-26.855,-31.250,1414.505
1685506687.613,-40.039,-41.992,60.059,-30.273,1414.509
1685506687.617,-22.461,141.602,90.820,-15.625,1414.513
1685506687.621,13.672,55.176,30.762,-8.301,1414.517
1685506687.625,11.230,-520.508,-158.203,-14.648,1414.521
1685506687.629,-34.668,-702.148,-145.020,-27.832,1414.525
1685506687.633,-34.180,-372.070,17.578,-29.297,1414.529
1685506687.636,20.020,-231.934,41.992,-15.625,1414.533
1685506687.640,13.184,-557.617,-66.895,-7.812,1414.537
1685506687.644,-39.551,-369.141,24.902,-21.484,1414.540
1685506687.648,-46.875,-6.836,80.566,-32.227,1414.544
1685506687.652,-9.277,-365.723,-43.945,-23.438,1414.548
1685506687.654,25.879,-336.426,-19.043,-10.742,1414.552
1685506687.658,0.000,176.270,149.902,-20.996,1414.556
1685506687.662,-41.992,181.152,61.035,-33.203,1414.560
1685506687.666,-17.090,-105.957,-40.527,-25.879,1414.564
1685506687.670,25.391,30.273,48.828,-14.648,1414.568
1685506687.674,-2.441,-45.410,-51.758,-21.484,1414.572
1685506687.678,-54.688,-274.414,-175.781,-32.715,1414.576
1685506687.681,-36.621,-648.926,-248.047,-20.020,1414.580
1685506687.685,13.672,-642.578,-88.379,-8.301,1414.584
1685506687.689,12.207,185.059,196.777,-15.625,1414.587
1685506687.693,-31.738,142.578,23.926,-23.438,1414.591
1685506687.697,-47.852,-164.551,-92.773,-25.391,1414.595
1685506687.700,-3.906,-2.441,25.391,-12.695,1414.598
1685506687.704,15.625,73.730,113.281,-16.602,1414.602
1685506687.708,-32.227,-27.832,-7.324,-34.668,1414.606
1685506687.712,-63.965,-600.586,-260.742,-37.598,1414.610
1685506687.716,-22.461,-530.273,-40.527,-21.973,1414.614
1685506687.720,11.719,-97.168,123.535,-14.160,1414.618
1685506687.724,-17.090,-209.961,0.488,-23.926,1414.622
1685506687.727,-45.410,-699.219,-193.359,-17.090,1414.626
1685506687.731,-20.996,-456.055,30.273,-15.625,1414.630
1685506687.735,21.973,380.371,268.555,-26.367,1414.634
1685506687.739,-4.883,77.148,-25.391,-34.668,1414.638
1685506687.743,-55.664,-205.566,-93.750,-42.480,1414.641
1685506687.745,-38.574,87.891,94.238,-33.203,1414.648
1685506687.749,4.883,289.062,107.422,-26.367,1414.652
1685506687.753,-0.977,81.543,-0.977,-35.156,1414.655
1685506687.757,-47.363,-298.828,-155.762,-44.922,1414.659
1685506687.761,-54.199,-250.977,-119.629,-46.875,1414.663
1685506687.765,5.371,-62.012,91.309,-23.438,1414.667
1685506687.769,20.508,-468.262,-129.883,-6.836,1414.671
1685506687.772,-35.156,-932.617,-314.941,-25.879,1414.675
1685506687.776,-53.711,-300.781,88.379,-38.574,1414.679
1685506687.780,-16.113,182.129,162.109,-22.949,1414.683
1685506687.784,17.090,70.312,94.238,-13.672,1414.687
1685506687.788,-6.348,123.535,109.863,-20.508,1414.691
1685506687.789,-51.270,135.254,31.250,-30.762,1414.699
1685506687.793,-35.156,19.043,-26.855,-26.367,1414.703
1685506687.797,21.973,-14.648,28.809,-9.766,1414.707
1685506687.801,15.625,-141.602,-39.062,-19.531,1414.711
1685506687.805,-46.387,-258.301,-146.973,-38.574,1414.715
1685506687.809,-45.410,-293.945,-89.355,-26.855,1414.719
1685506687.813,-0.977,-775.879,-272.949,-8.789,1414.723
1685506687.816,-6.836,-949.219,-184.082,-18.066,1414.726
1685506687.820,-47.363,-170.410,177.246,-38.086,1414.730
1685506687.824,-59.570,-37.598,52.246,-36.621,1414.734
1685506687.828,-9.766,-177.246,41.016,-18.555,1414.738
1685506687.832,14.160,273.438,187.988,-18.066,1414.742
1685506687.835,-30.273,326.660,50.781,-36.133,1414.744
1685506687.839,-67.383,-211.914,-163.086,-37.109,1414.748
1685506687.843,-30.762,-230.469,-29.785,-26.367,1414.752
1685506687.847,13.672,200.195,130.371,-19.531,1414.756
1685506687.851,-19.043,268.555,45.898,-30.273,1414.760
1685506687.855,-62.988,-428.711,-280.762,-37.598,1414.764
1685506687.859,-44.434,-669.922,-171.875,-20.996,1414.768
1685506687.862,2.930,108.398,174.805,-9.766,1414.772
1685506687.866,-6.836,223.633,57.617,-23.438,1414.776
1685506687.870,-50.293,-548.340,-304.688,-30.762,1414.779
1685506687.874,-47.852,-745.117,-198.730,-18.555,1414.783
1685506687.878,2.930,109.375,223.633,-17.090,1414.787
1685506687.894,14.648,220.703,61.035,-26.855,1414.805
1685506687.898,-38.086,-149.902,-96.680,-38.574,1414.808
1685506687.902,-51.758,-68.848,22.949,-32.227,1414.812
1685506687.906,-8.789,-58.594,39.551,-10.742,1414.816
1685506687.910,6.348,-139.648,20.996,-15.625,1414.820
1685506687.914,-26.367,-666.016,-295.410,-19.531,1414.824
1685506687.918,-46.875,-784.180,-210.938,-12.207,1414.828
1685506687.921,-11.230,111.328,267.578,-7.812,1414.832
1685506687.925,22.949,175.293,99.121,-14.648,1414.836
1685506687.929,-8.789,-114.746,-58.105,-35.645,1414.840
1685506687.933,-62.012,-6.836,12.207,-54.688,1414.844
1685506687.937,-46.387,-68.359,13.184,-45.898,1414.848
1685506687.939,-1.953,-345.215,-96.680,-24.902,1414.835
1685506687.943,-1.953,-331.543,-98.145,-23.926,1414.839
1685506687.947,-36.621,87.402,92.773,-31.250,1414.843
1685506687.951,-46.875,105.957,53.223,-32.715,1414.846
1685506687.955,0.488,-101.074,13.184,-19.043,1414.850
1685506687.959,6.348,-262.207,-13.672,-22.461,1414.854
1685506687.963,-44.434,-171.875,28.320,-36.621,1414.858
1685506687.966,-50.293,71.289,72.754,-32.227,1414.862
1685506687.970,-10.742,-407.715,-98.145,-14.160,1414.866
1685506687.974,21.973,-441.406,-14.648,-6.348,1414.870
1685506687.978,-10.742,188.965,130.371,-26.855,1414.874
1685506687.982,-46.387,63.477,-25.879,-31.738,1414.878
1685506687.985,-19.531,-396.973,-150.391,-11.230,1414.884
1685506687.989,21.484,-284.668,9.277,-9.766,1414.888
1685506687.993,5.371,12.695,105.957,-17.090,1414.892
1685506687.997,-47.363,-186.523,-53.223,-27.832,1414.896
1685506688.001,-48.828,-750.488,-281.738,-28.320,1414.900
1685506688.005,4.883,-782.715,-73.242,-7.324,1414.904
1685506688.009,13.672,-40.527,232.422,-11.719,1414.907
1685506688.012,-41.016,33.203,32.227,-30.762,1414.911
1685506688.016,-50.293,-663.574,-219.238,-14.160,1414.915
1685506688.020,-10.254,-294.434,99.609,-0.488,1414.919
1685506688.024,15.625,415.527,229.980,2.441,1414.923
1685506688.028,-21.484,28.320,-69.824,-5.371,1414.927
1685506688.030,-59.082,-187.012,-108.398,-14.648,1414.927
1685506688.034,-18.555,168.945,117.676,-3.418,1414.931
1685506688.038,20.020,346.191,104.004,-8.301,1414.935
1685506688.042,-5.859,-15.137,-70.312,-27.832,1414.939
1685506688.046,-41.016,-405.762,-196.289,-32.715,1414.943
1685506688.050,-28.320,-364.746,-113.770,-19.531,1414.947
1685506688.054,12.695,-180.664,87.402,-11.230,1414.951
1685506688.057,-3.418,-497.070,-120.605,-20.020,1414.955
1685506688.061,-67.383,-936.523,-311.035,-31.738,1414.958
1685506688.065,-60.059,-256.348,104.980,-26.367,1414.962
1685506688.069,-5.371,230.469,170.898,-15.625,1414.966
1685506688.073,-5.859,68.359,74.219,-27.832,1414.970
1685506688.089,-45.898,42.480,85.938,-46.875,1414.985
1685506688.093,-53.711,86.914,70.801,-52.246,1414.989
1685506688.097,2.441,59.082,40.039,-27.344,1414.993
1685506688.101,21.973,-159.668,-29.297,-12.695,1414.997
1685506688.105,-29.785,-248.535,-20.020,-27.832,1415.001
1685506688.109,-58.105,-338.867,-136.719,-34.180,1415.005
1685506688.113,-30.273,-382.324,-84.473,-16.602,1415.009
1685506688.116,-7.812,-733.887,-216.309,-1.465,1415.012
1685506688.120,-28.320,-960.938,-192.871,-14.160,1415.016
1685506688.124,-43.945,-169.434,190.918,-21.484,1415.020
1685506688.128,-34.668,-19.043,88.379,-17.578,1415.024
1685506688.132,1.953,-94.238,45.898,-14.160,1415.028
1685506688.120,4.883,274.414,132.324,-25.391,1415.018
1685506688.124,-49.805,236.328,54.199,-39.551,1415.022
1685506688.128,-46.387,-135.742,-65.918,-21.484,1415.026
1685506688.132,6.836,-100.586,11.230,-8.789,1415.029
1685506688.136,8.789,229.492,94.238,-27.344,1415.033
1685506688.140,-36.621,-90.820,-161.621,-47.852,1415.037
1685506688.144,-50.781,-615.234,-245.605,-43.945,1415.041
1685506688.147,-6.348,-349.121,47.363,-16.602,1415.045
1685506688.151,16.113,250.488,155.762,-4.395,1415.049
1685506688.155,-23.438,140.137,6.348,-19.531,1415.053
1685506688.159,-64.453,-626.953,-358.887,-26.367,1415.057
1685506688.163,-31.738,-824.219,-193.848,-12.695,1415.061
1685506688.165,20.508,66.895,272.461,-15.625,1415.063
1685506688.169,0.000,226.562,64.941,-28.320,1415.067
1685506688.173,-45.898,-159.668,-46.875,-26.855,1415.071
1685506688.177,-43.457,-259.766,19.043,-26.367,1415.075
1685506688.181,9.277,-105.957,51.758,-18.555,1415.079
1685506688.185,14.160,-6.836,72.754,-20.020,1415.083
1685506688.189,-42.969,-722.168,-322.754,-36.621,1415.087
1685506688.192,-53.223,-791.016,-187.988,-22.949,1415.091
1685506688.196,-4.395,158.203,292.480,-9.766,1415.095
1685506688.200,13.184,223.145,76.660,-15.137,1415.099
1685506688.204,-31.250,-51.758,-65.430,-28.809,1415.102
1685506688.208,-59.082,87.402,41.016,-34.668,1415.106
1685506688.212,-13.672,21.484,54.688,-16.602,1415.111
1685506688.216,13.184,-270.996,-74.219,-6.836,1415.115
1685506688.220,-26.855,-274.414,-108.887,-21.973,1415.119
1685506688.224,-58.594,30.762,50.293,-25.391,1415.123
1685506688.228,-28.809,177.246,110.352,-20.020,1415.127
1685506688.232,8.789,-283.203,-130.371,-20.508,1415.131
1685506688.236,-9.277,-915.039,-312.500,-23.926,1415.135
1685506688.239,-44.434,-309.082,76.172,-33.203,1415.138
1685506688.243,-24.902,116.699,110.352,-25.391,1415.142
1685506688.247,17.090,-51.270,63.477,-12.695,1415.146
1685506688.251,14.160,92.285,116.211,-17.578,1415.150
1685506688.255,-25.391,221.680,58.594,-20.996,1415.154
1685506688.284,-28.809,4.883,-52.246,-11.230,1415.181
1685506688.288,13.184,-153.809,-67.383,-0.977,1415.185
1685506688.292,23.926,-26.367,34.668,-3.906,1415.188
1685506688.296,-17.090,-190.918,-103.516,-16.113,1415.192
1685506688.300,-48.340,-347.168,-154.297,-19.531,1415.196
1685506688.304,-26.855,-715.820,-248.047,1.953,1415.200
1685506688.308,-1.953,-996.094,-161.133,9.277,1415.204
1685506688.311,-22.949,-199.707,193.359,-14.648,1415.208
1685506688.315,-54.199,29.785,86.914,-33.203,1415.212
1685506688.319,-31.738,-160.156,14.648,-38.086,1415.216
1685506688.323,22.461,245.117,158.203,-18.066,1415.220
1685506688.327,10.742,372.559,101.562,-22.949,1415.224
1685506688.314,-44.922,-97.656,-139.160,-38.086,1415.210
1685506688.318,-39.551,-238.281,-102.539,-33.203,1415.214
1685506688.322,14.160,203.613,134.766,-27.344,1415.218
1685506688.326,24.902,370.605,105.469,-34.180,1415.222
1685506688.330,-23.926,-101.074,-104.004,-51.270,1415.226
1685506688.334,-52.734,-541.504,-236.328,-44.434,1415.230
1685506688.338,-13.184,-301.270,1.465,-31.738,1415.234
1685506688.341,11.719,-101.074,90.332,-30.273,1415.238
1685506688.345,-32.715,-382.324,-105.469,-34.668,1415.241
1685506688.349,-74.219,-391.602,-10.742,-41.016,1415.245
1685506688.353,-30.762,42.480,139.160,-30.762,1415.249
1685506688.357,16.113,299.316,130.371,-11.719,1415.253
1685506688.389,-27.832,-382.324,-228.516,-24.414,1415.285
1685506688.393,-86.426,-830.566,-211.426,-45.898,1415.289
1685506688.397,-69.824,-71.289,206.055,-36.621,1415.293
1685506688.401,-9.277,103.027,117.676,-22.461,1415.297
1685506688.405,-14.648,-427.734,-75.684,-35.156,1415.301
1685506688.409,-67.383,-646.484,-58.105,-47.852,1415.304
1685506688.413,-56.152,-220.703,114.746,-37.109,1415.308
1685506688.416,-10.254,107.422,133.301,-23.926,1415.312
1685506688.420,-9.277,-618.164,-193.848,-28.320,1415.316
1685506688.424,-42.480,-684.082,-78.125,-46.875,1415.320
1685506688.428,-46.387,181.152,202.148,-33.203,1415.324
1685506688.432,-9.766,41.016,39.551,-14.648,1415.328
1685506688.422,7.812,-43.945,34.668,-17.090,1415.321
1685506688.426,-32.227,243.164,114.258,-30.273,1415.325
1685506688.430,-67.871,167.969,29.297,-40.039,1415.329
1685506688.434,-40.527,-110.840,-33.691,-32.227,1415.333
1685506688.438,1.465,-102.539,5.371,-33.691,1415.337
1685506688.442,-15.625,-83.008,-5.859,-50.781,1415.341
1685506688.446,-46.875,-277.832,-147.461,-60.059,1415.345
1685506688.449,-31.250,-505.859,-159.668,-39.062,1415.349
1685506688.453,15.625,-202.148,82.031,-23.926,1415.353
1685506688.457,7.812,300.293,157.227,-28.809,1415.357
1685506688.461,-49.805,15.137,-80.566,-35.645,1415.360
1685506688.465,-51.758,-441.895,-203.613,-30.273,1415.364
1685506688.464,6.348,-155.273,63.965,-14.160,1415.360
1685506688.468,14.160,275.879,153.809,-12.695,1415.364
1685506688.472,-36.133,146.973,-4.883,-33.203,1415.368
1685506688.476,-68.848,-650.879,-367.188,-38.574,1415.372
1685506688.480,-23.438,-765.137,-208.008,-18.066,1415.376
1685506688.484,20.996,-151.855,168.457,-13.184,1415.380
1685506688.488,-20.996,-265.137,6.348,-28.809,1415.384
1685506688.491,-59.570,-463.379,-23.438,-36.621,1415.388
1685506688.495,-22.461,-98.633,143.555,-19.531,1415.392
1685506688.499,24.414,364.746,209.473,-11.230,1415.396
1685506688.503,8.789,173.828,19.531,-17.578,1415.399
1685506688.507,-49.316,-776.367,-462.891,-20.020,1415.403
1685506688.497,-49.805,-865.234,-200.195,-20.508,1415.397
1685506688.501,7.812,-133.789,283.203,-10.742,1415.401
1685506688.505,17.090,-288.574,-15.625,-7.324,1415.404
1685506688.509,-28.809,-412.598,-102.051,-19.531,1415.408
1685506688.513,-43.457,58.105,104.980,-30.273,1415.412
1685506688.517,11.719,-38.574,50.781,-12.695,1415.416
1685506688.521,31.738,-345.703,3.906,-19.043,1415.420
1685506688.524,-20.996,-184.082,21.484,-51.270,1415.424
1685506688.528,-41.992,119.629,58.105,-45.898,1415.428
1685506688.532,-10.254,265.137,93.750,-21.973,1415.432
1685506688.536,13.672,-361.816,-180.176,-16.113,1415.436
1685506688.540,-16.113,-651.367,-191.406,-34.180,1415.440
1685506688.554,-54.688,101.562,137.695,-43.945,1415.450
1685506688.558,-37.598,97.656,28.320,-30.273,1415.454
1685506688.562,14.648,-14.648,3.906,-21.484,1415.458
1685506688.566,10.742,-53.711,32.715,-27.832,1415.462
1685506688.570,-47.363,-245.117,-81.543,-38.086,1415.466
1685506688.574,-48.828,-277.832,-133.301,-38.574,1415.470
1685506688.578,-10.254,-699.219,-258.789,-30.762,1415.474
1685506688.581,-0.977,-985.352,-192.383,-19.531,1415.478
1685506688.585,-34.668,-181.152,151.855,-29.785,1415.482
1685506688.589,-58.594,-13.184,48.340,-32.227,1415.486
1685506688.593,-15.137,-131.348,30.762,-12.695,1415.490
1685506688.597,20.996,343.750,199.219,-20.996,1415.493
1685506688.600,-13.672,397.461,77.148,-36.133,1415.501
1685506688.604,-48.828,-104.004,-144.043,-29.297,1415.505
1685506688.608,-31.250,-214.355,-60.059,-19.043,1415.509
1685506688.612,10.254,256.348,146.973,-11.230,1415.513
1685506688.616,-7.812,352.051,53.711,-24.902,1415.517
1685506688.620,-57.617,-344.727,-245.605,-37.598,1415.521
1685506688.624,-48.828,-719.238,-201.172,-30.273,1415.525
1685506688.627,0.000,-124.512,110.840,-24.414,1415.528
1685506688.631,7.324,344.727,161.133,-26.367,1415.532
1685506688.635,-43.457,-337.891,-253.906,-33.691,1415.536
1685506688.639,-31.738,-901.855,-259.766,-27.344,1415.540
1685506688.643,42.969,-23.926,225.586,-1.465,1415.544
1685506688.644,34.180,344.727,158.691,-9.766,1415.541
1685506688.648,-44.434,-12.207,-52.734,-51.270,1415.544
1685506688.652,-70.801,-53.223,-6.836,-57.617,1415.548
1685506688.656,-15.625,-52.246,64.453,-19.531,1415.552
1685506688.660,21.484,-105.957,52.734,-9.766,1415.556
1685506688.664,-27.344,-401.855,-102.051,-32.227,1415.560
1685506688.668,-62.988,-412.598,-59.082,-19.531,1415.564
1685506688.671,-28.809,52.246,129.883,-6.836,1415.568
1685506688.675,11.230,106.934,69.824,-4.395,1415.572
1685506688.679,-8.301,-672.363,-306.152,6.348,1415.576
1685506688.683,-67.871,-942.871,-176.270,1.465,1415.580
1685506688.687,-51.758,-86.426,263.184,1.953,1415.583
1685506688.689,15.625,66.406,81.055,14.648,1415.585
1685506688.693,14.160,-104.492,17.090,11.719,1415.589
1685506688.697,-27.832,132.812,111.816,7.324,1415.593
1685506688.701,-25.391,215.820,80.566,18.066,1415.597
1685506688.705,20.020,-119.141,-38.086,37.598,1415.601
1685506688.709,35.645,-474.121,-142.090,44.922,1415.605
1685506688.713,-2.930,-258.789,13.672,38.574,1415.609
1685506688.716,-18.555,108.398,122.070,37.598,1415.613
1685506688.720,12.695,-416.504,-152.832,49.316,1415.617
1685506688.724,42.480,-678.223,-125.000,55.176,1415.620
1685506688.728,17.578,120.117,164.062,36.133,1415.624
1685506688.732,-20.508,-27.344,-46.875,25.391,1415.628
1685506688.735,-2.930,-514.160,-165.039,39.551,1415.634
1685506688.739,46.387,-167.969,72.266,58.594,1415.638
1685506688.743,36.621,316.895,169.434,52.246,1415.642
1685506688.747,-33.203,-31.738,-86.426,37.598,1415.645
1685506688.751,-38.574,-681.152,-238.281,36.133,1415.649
1685506688.755,20.020,-589.844,-5.859,34.180,1415.653
1685506688.759,31.250,0.000,163.086,36.621,1415.657
1685506688.762,-13.184,27.832,3.906,33.691,1415.661
1685506688.766,-28.809,-647.949,-234.375,39.551,1415.665
1685506688.770,17.090,-329.590,78.613,41.992,1415.669
1685506688.774,39.551,387.207,245.605,24.902,1415.673
1685506688.778,-0.977,41.992,-64.453,9.277,1415.677
1685506688.782,-40.039,-235.352,-150.879,1.953,1415.682
1685506688.786,-7.812,62.012,95.703,7.324,1415.686
1685506688.790,32.715,40.039,53.223,11.719,1415.690
1685506688.794,4.395,-252.441,-59.570,0.488,1415.694
1685506688.798,-42.480,-235.352,-22.461,-5.371,1415.698
1685506688.802,-25.879,-256.836,-20.996,9.277,1415.702
1685506688.806,22.949,-208.008,65.918,8.301,1415.706
1685506688.809,5.859,-441.895,-118.652,-4.883,1415.710
1685506688.813,-50.781,-914.062,-298.828,-11.230,1415.714
1685506688.817,-51.758,-239.258,120.605,-17.578,1415.718
1685506688.821,1.953,230.957,171.875,-1.953,1415.721
1685506688.825,15.625,21.484,62.500,0.000,1415.725
1685506688.824,-35.156,7.324,67.383,-20.020,1415.720
1685506688.828,-50.781,123.047,70.312,-17.578,1415.724
1685506688.832,-13.672,126.953,35.156,-1.465,1415.728
1685506688.836,13.672,-134.277,-70.312,6.836,1415.732
1685506688.840,-18.066,-358.398,-73.242,-5.371,1415.736
1685506688.844,-57.129,-375.488,-128.906,-27.832,1415.740
1685506688.848,-20.020,-292.969,-10.254,-17.578,1415.744
1685506688.851,23.926,-675.293,-142.090,-3.906,1415.748
1685506688.855,-1.953,-989.258,-233.398,-17.578,1415.752
1685506688.859,-51.270,-223.145,161.621,-28.809,1415.755
1685506688.863,-41.504,8.301,114.258,-23.438,1415.759
1685506688.867,12.207,-18.555,71.777,-16.602,1415.763
1685506688.870,9.277,333.496,163.086,-17.090,1415.768
1685506688.874,-40.527,247.559,38.574,-19.043,1415.772
1685506688.878,-50.781,-165.527,-109.863,-23.926,1415.776
1685506688.882,-5.859,-75.195,18.555,-16.113,1415.780
1685506688.886,7.324,272.949,96.680,-19.043,1415.784
1685506688.890,-48.828,-27.344,-131.348,-37.598,1415.788
1685506688.894,-75.195,-622.559,-319.824,-40.527,1415.792
1685506688.897,-33.203,-828.125,-193.848,-22.461,1415.795
1685506688.901,9.766,-90.332,197.266,-12.695,1415.799
1685506688.905,-24.902,298.828,133.789,-31.738,1415.803
1685506688.909,-69.824,-308.594,-107.910,-49.805,1415.807
1685506688.913,-42.480,-344.727,40.039,-36.621,1415.811
1685506688.914,-3.906,286.133,200.684,-27.832,1415.824
1685506688.918,-21.484,238.281,27.832,-41.504,1415.828
1685506688.922,-67.871,-116.699,-93.750,-40.039,1415.832
1685506688.926,-64.941,-285.156,-20.996,-40.039,1415.836
1685506688.930,-9.766,-172.852,49.316,-21.484,1415.840
1685506688.934,3.906,-30.762,70.801,-17.578,1415.843
1685506688.938,-54.199,-691.895,-294.922,-41.992,1415.847
1685506688.941,-70.801,-803.223,-179.199,-38.574,1415.851
1685506688.945,-18.555,125.488,291.016,-27.344,1415.855
1685506688.949,5.371,107.422,47.852,-22.461,1415.859
1685506688.953,-33.691,-262.695,-93.750,-33.691,1415.863
1685506688.957,-55.664,11.719,93.750,-42.969,1415.867
1685506688.960,-14.648,277.344,156.250,-27.832,1415.869
1685506688.964,0.000,55.176,-28.320,-32.227,1415.873
1685506688.968,-42.480,-139.160,-119.141,-47.363,1415.877
1685506688.972,-68.848,118.164,54.688,-40.039,1415.881
1685506688.976,-33.691,209.473,68.359,-16.602,1415.885
1685506688.980,13.184,-340.332,-166.504,1.465,1415.889
1685506688.984,-11.230,-655.273,-197.754,-14.648,1415.893
1685506688.987,-65.430,-20.020,92.773,-35.645,1415.897
1685506688.991,-60.059,110.352,64.941,-23.926,1415.900
1685506688.995,-2.930,-128.906,-16.602,-11.230,1415.904
1685506688.999,9.277,-5.859,41.992,-20.508,1415.908
1685506689.003,-38.574,152.344,62.988,-31.738,1415.912
1685506689.019,-57.617,-154.297,-96.191,-32.227,1415.915
1685506689.023,-9.277,-463.867,-118.652,-12.207,1415.919
1685506689.027,31.738,-123.535,97.168,-6.348,1415.923
1685506689.031,-13.184,-33.203,11.230,-30.762,1415.927
1685506689.035,-52.246,-346.680,-141.602,-33.691,1415.931
1685506689.039,-18.555,-769.043,-231.934,-11.230,1415.935
1685506689.043,16.602,-612.305,-18.066,-1.953,1415.939
1685506689.046,-8.301,226.074,250.488,-20.508,1415.943
1685506689.050,-59.570,-12.695,-26.367,-29.785,1415.947
1685506689.054,-40.039,-467.285,-76.660,-17.578,1415.951
1685506689.058,11.230,-4.395,164.062,-3.906,1415.954
1685506689.062,-0.488,369.629,145.508,-16.113,1415.958
1685506689.065,-45.898,-81.055,-116.699,-39.062,1415.963
1685506689.069,-38.086,-252.441,-139.648,-28.320,1415.967
1685506689.073,9.277,99.121,96.191,-7.812,1415.971
1685506689.077,9.766,37.598,46.387,-14.160,1415.975
1685506689.081,-37.598,-471.191,-214.844,-33.691,1415.979
1685506689.085,-57.617,-810.059,-196.777,-29.297,1415.982
1685506689.089,-18.555,-268.555,137.207,-22.461,1415.986
1685506689.092,-0.488,281.738,193.359,-27.832,1415.990
1685506689.096,-35.156,-347.168,-165.039,-34.180,1415.994
1685506689.100,-68.359,-772.461,-215.820,-41.016,1415.998
1685506689.104,-33.203,42.480,180.664,-29.297,1416.002
1685506689.108,17.090,272.461,117.188,-14.648,1416.006
1685506689.109,-1.465,-69.824,-9.277,-25.879,1416.020
1685506689.113,-52.734,-176.758,17.578,-45.898,1416.024
1685506689.117,-38.086,71.289,82.520,-38.086,1416.028
1685506689.121,9.766,25.391,46.875,-18.555,1416.032
1685506689.125,-1.465,-485.352,-124.023,-29.297,1416.036
1685506689.129,-45.410,-614.258,-181.152,-44.922,1416.039
1685506689.133,-51.758,-430.176,-84.473,-41.016,1416.043
1685506689.136,-2.930,-285.156,62.988,-22.461,1416.047
1685506689.140,17.090,-660.645,-167.969,-11.230,1416.051
1685506689.144,-25.391,-985.840,-238.770,-18.066,1416.055
1685506689.148,-45.410,-192.871,178.223,-24.902,1416.059
1685506689.152,-4.883,81.055,145.508,-15.137,1416.063
1685506689.156,16.113,51.758,74.707,-11.230,1416.057
1685506689.160,-19.531,300.293,112.305,-25.391,1416.061
1685506689.164,-57.617,158.203,27.832,-40.527,1416.065
1685506689.168,-34.668,-118.164,-8.301,-33.203,1416.068
1685506689.172,14.160,-13.672,37.109,-19.043,1416.072
1685506689.176,5.371,-17.090,-7.812,-23.438,1416.076
1685506689.180,-29.297,-193.848,-143.555,-20.020,1416.080
1685506689.183,-44.434,-562.500,-268.066,-24.902,1416.084
1685506689.187,-22.949,-603.516,-55.176,-40.527,1416.088
1685506689.191,-1.953,151.855,207.031,-42.969,1416.092
1685506689.195,-28.320,293.457,75.684,-43.945,1416.096
1685506689.199,-38.086,-501.465,-274.414,-31.250,1416.100
1685506689.199,10.254,-729.492,-173.828,-9.766,1416.095
1685506689.203,38.086,183.594,244.141,-2.930,1416.099
1685506689.207,-14.160,188.477,23.438,-25.879,1416.103
1685506689.211,-56.641,-445.312,-199.219,-40.527,1416.107
1685506689.215,-16.602,-302.734,-9.277,-22.949,1416.111
1685506689.219,29.297,-43.457,99.609,-13.672,1416.115
1685506689.223,-6.348,-130.859,32.715,-37.598,1416.119
1685506689.226,-59.570,-718.750,-302.734,-50.293,1416.123
1685506689.230,-30.762,-738.770,-153.809,-29.297,1416.127
1685506689.234,27.344,262.695,279.785,-16.602,1416.131
1685506689.238,4.395,101.074,11.719,-25.879,1416.135
1685506689.242,-54.688,-305.176,-113.281,-43.457,1416.138
1685506689.245,-42.969,48.828,98.633,-31.738,1416.143
1685506689.249,1.953,381.836,188.965,-18.066,1416.147
1685506689.253,1.465,27.832,-61.523,-21.973,1416.151
1685506689.257,-46.387,-257.812,-155.762,-36.133,1416.155
1685506689.261,-56.152,28.809,23.926,-34.180,1416.159
1685506689.265,-3.906,-12.207,17.578,-18.066,1416.163
1685506689.269,19.043,-463.379,-166.504,-18.066,1416.166
1685506689.272,-20.996,-724.121,-227.539,-34.180,1416.170
1685506689.276,-59.082,-91.797,124.512,-44.922,1416.174
1685506689.280,-35.645,166.992,123.535,-29.785,1416.178
1685506689.284,6.836,30.762,57.617,-22.949,1416.182
1685506689.288,-17.090,64.941,64.453,-34.668,1416.186
1685506689.290,-61.035,93.262,38.086,-47.852,1416.189
1685506689.294,-43.457,-145.508,-24.902,-30.273,1416.193
1685506689.298,2.441,-389.648,-80.078,-20.996,1416.196
1685506689.302,-8.301,-358.887,11.230,-35.645,1416.200
1685506689.306,-50.293,-213.867,32.227,-41.504,1416.204
1685506689.310,-51.270,-263.672,-33.691,-37.109,1416.208
1685506689.314,-12.207,-801.758,-259.277,-14.648,1416.212
1685506689.317,7.324,-726.562,-99.609,-6.348,1416.216
1685506689.321,-34.180,127.930,246.582,-30.762,1416.220
1685506689.325,-64.941,-9.277,18.555,-35.645,1416.224
1685506689.329,-18.555,-184.570,18.066,-17.090,1416.228
1685506689.333,16.113,269.531,175.781,-16.113,1416.232
1685506689.335,-25.879,338.379,106.445,-38.086,1416.247
1685506689.339,-66.406,-97.656,-90.332,-43.945,1416.250
1685506689.343,-35.156,-172.852,-88.379,-34.668,1416.254
1685506689.347,0.000,32.227,28.809,-39.062,1416.258
1685506689.351,-19.043,-107.910,-54.199,-38.574,1416.262
1685506689.355,-62.988,-565.430,-287.598,-39.551,1416.266
1685506689.359,-58.594,-969.238,-288.086,-35.156,1416.270
1685506689.362,2.441,-239.746,160.156,-26.855,1416.274
1685506689.366,10.742,280.762,175.293,-40.039,1416.278
1685506689.370,-52.734,-91.797,-58.594,-52.734,1416.282
1685506689.374,-66.895,-149.414,2.930,-41.992,1416.286
1685506689.378,-9.277,215.332,165.039,-20.508,1416.289
1685506689.394,3.418,200.684,53.711,-17.578,1416.290
1685506689.398,-60.059,-136.719,-136.719,-31.738,1416.294
1685506689.402,-83.496,-103.516,-41.016,-41.504,1416.298
1685506689.406,-40.527,-132.812,26.367,-36.621,1416.302
1685506689.410,-16.602,-154.785,47.363,-38.086,1416.306
1685506689.414,-48.828,-596.680,-261.230,-38.574,1416.310
1685506689.418,-83.496,-922.363,-252.930,-30.762,1416.314
1685506689.421,-50.781,-155.273,229.980,-30.762,1416.318
1685506689.425,2.441,155.273,126.953,-18.555,1416.322
1685506689.429,-4.883,-369.141,-69.336,-18.555,1416.325
1685506689.433,-56.152,-273.926,52.734,-42.480,1416.329
1685506689.437,-48.828,141.113,124.512,-41.504,1416.333
1685506689.439,7.324,13.184,41.016,-14.648,1416.335
1685506689.443,5.859,-48.340,5.859,-22.461,1416.339
1685506689.447,-51.270,144.531,71.289,-46.387,1416.343
1685506689.451,-59.082,117.676,50.293,-37.598,1416.347
1685506689.455,0.000,-73.730,-16.113,-11.719,1416.351
1685506689.459,20.020,-275.879,-37.109,-10.742,1416.355
1685506689.463,-25.879,-221.191,32.715,-31.738,1416.359
1685506689.466,-50.781,60.547,96.191,-35.645,1416.363
1685506689.470,-18.066,-438.965,-160.645,-25.879,1416.367
1685506689.474,16.113,-756.836,-150.391,-26.367,1416.370
1685506689.478,-6.348,51.270,198.730,-37.109,1416.374
1685506689.482,-50.293,161.621,47.852,-39.551,1416.378
1685506689.484,-41.992,-441.406,-149.902,-24.902,1416.380
1685506689.488,12.695,-316.895,29.297,-9.766,1416.384
1685506689.492,14.160,275.391,185.547,-19.531,1416.388
1685506689.496,-40.039,-14.160,-77.148,-37.109,1416.392
1685506689.500,-45.898,-648.438,-262.207,-31.250,1416.396
1685506689.504,1.465,-633.789,-15.625,-16.602,1416.400
1685506689.508,6.836,-39.551,192.383,-25.391,1416.404
1685506689.511,-43.945,84.473,42.969,-38.086,1416.408
1685506689.515,-55.664,-610.352,-190.918,-28.320,1416.412
1685506689.519,-4.395,-329.590,83.496,-16.602,1416.416
1685506689.523,25.879,386.719,214.844,-13.184,1416.419
1685506689.527,-17.578,-41.504,-87.891,-28.809,1416.423
1685506689.560,-52.246,-414.551,-186.523,-37.598,1416.457
1685506689.564,-10.254,-84.961,68.848,-18.066,1416.461
1685506689.568,28.320,279.785,152.832,-8.789,1416.465
1685506689.572,-8.301,-72.266,-75.684,-24.414,1416.469
1685506689.576,-59.082,-410.645,-128.906,-36.621,1416.473
1685506689.580,-33.691,-274.902,-17.090,-22.461,1416.476
1685506689.584,16.602,-137.695,41.992,-8.789,1416.480
1685506689.587,4.395,-442.383,-129.395,-14.648,1416.484
1685506689.591,-44.434,-760.254,-201.172,-23.926,1416.488
1685506689.595,-40.039,-41.992,153.320,-23.926,1416.492
1685506689.599,8.301,286.621,160.156,-9.277,1416.496
1685506689.603,16.602,69.336,6.348,-9.277,1416.500
1685506689.575,-33.203,-2.441,1.953,-27.832,1416.474
1685506689.579,-49.316,20.020,52.246,-24.414,1416.477
1685506689.583,-5.859,-73.730,32.715,-2.930,1416.481
1685506689.587,16.602,-494.629,-79.590,-3.418,1416.485
1685506689.591,-7.812,-499.512,-32.227,-20.508,1416.489
1685506689.595,-41.504,-244.141,31.738,-24.414,1416.493
1685506689.599,-29.785,-412.109,-19.043,-16.602,1416.497
1685506689.602,7.812,-295.410,72.754,-17.090,1416.501
1685506689.606,-6.348,80.078,149.414,-31.250,1416.505
1685506689.610,-49.805,245.605,116.699,-48.340,1416.509
1685506689.614,-47.363,-66.406,-47.852,-37.598,1416.513
1685506689.618,0.977,-279.785,-81.543,-22.949,1416.516
1685506689.621,4.883,88.867,111.816,-31.250,1416.518
1685506689.625,-43.945,236.816,99.609,-38.574,1416.521
1685506689.629,-45.898,-228.027,-176.270,-27.832,1416.525
1685506689.633,-5.859,-863.770,-322.754,-13.672,1416.529
1685506689.637,4.395,-418.945,23.926,-20.996,1416.533
1685506689.641,-37.109,-88.379,87.402,-39.062,1416.537
1685506689.645,-69.824,-619.629,-150.879,-40.039,1416.541
1685506689.648,-35.645,-925.781,-187.500,-25.879,1416.545
1685506689.652,8.789,-100.586,197.754,-23.438,1416.549
1685506689.656,-12.207,311.523,153.320,-37.598,1416.553
1685506689.660,-57.129,-90.820,-45.898,-45.898,1416.557
1685506689.664,-29.297,-44.922,25.391,-34.180,1416.561
1685506689.679,14.160,313.477,160.156,-19.043,1416.575
1685506689.683,-0.977,206.543,20.996,-17.090,1416.579
1685506689.687,-46.875,-128.906,-132.812,-28.320,1416.583
1685506689.691,-42.969,-242.188,-81.055,-21.973,1416.587
1685506689.695,11.230,-123.535,11.719,-5.371,1416.591
1685506689.699,8.301,-37.109,51.270,-28.320,1416.595
1685506689.703,-43.945,-678.711,-298.340,-41.504,1416.599
1685506689.706,-55.664,-891.113,-209.473,-27.832,1416.603
1685506689.710,-18.555,20.508,296.387,-27.344,1416.607
1685506689.714,-6.348,192.871,97.168,-27.832,1416.610
1685506689.718,-48.340,-297.852,-77.148,-42.480,1416.614
1685506689.722,-61.523,-89.844,99.609,-49.316,1416.618
1685506689.711,-17.578,245.117,141.602,-31.738,1416.608
1685506689.715,18.066,78.125,8.301,-30.762,1416.612
1685506689.719,-15.625,-87.891,-44.922,-40.527,1416.616
1685506689.723,-57.129,73.730,58.105,-31.250,1416.620
1685506689.727,-36.621,125.977,34.180,-21.484,1416.624
1685506689.731,5.371,-300.781,-145.996,-18.555,1416.628
1685506689.735,-9.766,-501.953,-130.859,-34.180,1416.632
1685506689.738,-57.129,-145.508,52.246,-51.758,1416.636
1685506689.742,-49.316,104.492,96.680,-40.039,1416.640
1685506689.746,2.930,-443.848,-182.129,-13.672,1416.643
1685506689.750,14.160,-743.652,-170.898,-13.184,1416.647
1685506689.754,-30.273,1.953,166.504,-35.156,1416.651
1685506689.769,-50.293,43.945,25.879,-28.809,1416.665
1685506689.773,-9.766,-188.477,25.391,-14.160,1416.669
1685506689.777,14.160,20.508,144.043,-25.391,1416.673
1685506689.781,-20.020,-45.898,-31.250,-31.738,1416.677
1685506689.785,-51.270,-313.477,-171.875,-30.273,1416.681
1685506689.789,-35.645,-716.309,-281.738,-20.020,1416.685
1685506689.793,3.418,-883.789,-89.355,-9.277,1416.689
1685506689.796,-7.812,-76.660,255.859,-28.320,1416.693
1685506689.800,-53.711,-0.977,45.410,-45.898,1416.696
1685506689.804,-38.574,-181.152,19.043,-35.645,1416.700
1685506689.808,12.695,222.168,166.504,-26.367,1416.704
1685506689.812,4.395,375.488,112.305,-32.715,1416.708
1685506689.814,-54.199,-166.016,-192.871,-41.016,1416.710
1685506689.818,-67.383,-435.059,-211.426,-37.598,1416.714
1685506689.822,-14.648,125.488,148.438,-28.320,1416.718
1685506689.826,1.953,382.812,132.812,-34.668,1416.722
1685506689.830,-41.504,-124.023,-103.516,-43.945,1416.726
1685506689.834,-55.664,-646.973,-249.023,-40.527,1416.730
1685506689.838,-8.789,-267.090,7.324,-24.414,1416.734
1685506689.841,20.996,313.965,207.520,-20.020,1416.738
1685506689.845,-23.926,-274.902,-196.289,-27.832,1416.741
1685506689.849,-58.105,-815.918,-259.766,-28.809,1416.745
1685506689.853,-24.414,-4.883,180.176,-23.926,1416.749
1685506689.857,16.602,301.270,127.930,-19.043,1416.753
1685506689.859,-10.254,12.207,-43.457,-35.645,1416.756
1685506689.863,-56.641,-48.828,-10.254,-37.598,1416.760
1685506689.867,-39.062,35.645,49.805,-24.414,1416.764
1685506689.871,-1.465,-34.668,57.129,-16.602,1416.767
1685506689.875,-2.441,-583.496,-208.008,-8.789,1416.771
1685506689.879,-43.457,-922.852,-266.602,-24.902,1416.775
1685506689.883,-39.551,-356.934,120.117,-25.391,1416.779
1685506689.886,10.742,3.418,129.395,-7.324,1416.783
1685506689.890,17.578,-513.672,-88.379,-12.207,1416.787
1685506689.894,-20.020,-364.258,61.035,-33.203,1416.791
1685506689.898,-42.480,215.332,156.738,-37.109,1416.795
1685506689.902,-8.301,-5.859,11.719,-18.066,1416.799
1685506689.905,23.438,-43.457,21.484,-23.926,1416.803
1685506689.909,-5.371,207.520,80.566,-34.180,1416.807
1685506689.913,-36.133,138.184,14.648,-21.484,1416.811
1685506689.917,-29.785,-133.301,-44.922,-17.090,1416.814
1685506689.921,-7.324,-164.551,-39.551,-13.184,1416.818
1685506689.925,-21.973,-166.504,-117.188,-25.391,1416.822
1685506689.929,-62.988,-281.250,-141.602,-56.641,1416.826
1685506689.932,-54.199,-645.020,-251.953,-54.199,1416.830
1685506689.936,-2.441,-879.395,-176.758,-29.297,1416.834
1685506689.940,-1.953,-121.094,184.082,-37.598,1416.838
1685506689.944,-44.922,135.742,64.941,-41.016,1416.842
1685506689.948,-43.945,-148.926,-30.762,-20.020,1416.846
1685506689.949,-4.395,-25.879,59.570,-13.672,1416.845
1685506689.953,0.000,174.316,123.047,-20.996,1416.849
1685506689.957,-48.828,85.938,5.859,-38.086,1416.853
1685506689.961,-77.637,-364.746,-201.172,-44.922,1416.857
1685506689.965,-34.180,-315.430,-41.504,-26.855,1416.861
1685506689.969,-1.953,-88.379,66.895,-24.902,1416.865
1685506689.973,-26.855,-185.547,-9.277,-43.945,1416.869
1685506689.976,-58.594,-713.379,-300.293,-37.598,1416.873
1685506689.980,-44.434,-869.629,-174.316,-19.043,1416.877
1685506689.984,6.348,83.984,312.988,-17.090,1416.880
1685506689.988,-7.812,148.438,57.617,-30.762,1416.884
1685506689.992,-66.406,-410.645,-135.742,-50.781,1416.888
1685506689.996,-48.340,-90.820,136.719,-29.785,1416.893
1685506690.000,11.719,327.637,185.059,-8.789,1416.897
1685506690.004,12.207,101.074,-11.230,-9.766,1416.901
1685506690.008,-44.922,-66.406,-44.434,-10.254,1416.905
1685506690.012,-61.523,81.055,19.043,-17.090,1416.909
1685506690.016,-13.184,-40.527,-82.031,-14.648,1416.912
1685506690.020,5.859,-458.984,-235.840,-15.137,1416.916
1685506690.023,-45.898,-665.527,-187.012,-31.250,1416.920
1685506690.027,-56.641,-35.156,118.652,-22.461,1416.924
1685506690.031,-24.414,205.078,98.633,-17.578,1416.928
1685506690.035,-25.391,-103.027,-29.297,-50.293,1416.932
1685506690.039,-50.781,-184.082,-22.461,-74.219,1416.936
1685506690.069,-83.008,35.156,60.547,-84.961,1416.966
1685506690.073,-79.590,62.500,21.484,-93.262,1416.970
1685506690.077,-43.945,-267.578,-98.633,-84.473,1416.974
1685506690.081,-42.480,-411.621,-48.828,-76.172,1416.978
1685506690.085,-100.098,-212.402,15.625,-109.375,1416.982
1685506690.089,-127.930,-204.102,3.418,-125.000,1416.986
1685506690.093,-89.355,-737.305,-204.590,-101.074,1416.990
1685506690.096,-76.172,-772.461,-131.836,-116.211,1416.994
1685506690.100,-137.207,48.828,226.074,-158.691,1416.997
1685506690.104,-159.668,-18.555,30.273,-163.574,1417.001
1685506690.108,-102.051,-172.852,-20.996,-143.066,1417.005
1685506690.112,-69.824,219.238,135.254,-136.230,1417.009
1685506690.087,-112.305,250.977,43.945,-156.250,1416.993
1685506690.091,-156.738,-213.867,-163.086,-160.645,1416.997
1685506690.095,-128.906,-245.605,-80.566,-156.738,1417.001
1685506690.099,-85.449,226.074,138.184,-151.855,1417.005
1685506690.103,-102.051,285.156,11.719,-146.973,1417.009
1685506690.107,-151.855,-416.992,-270.020,-147.949,1417.013
1685506690.111,-132.812,-618.164,-103.516,-125.977,1417.017
1685506690.114,-72.266,107.910,180.176,-120.117,1417.021
1685506690.118,-68.359,370.605,114.258,-122.559,1417.024
1685506690.122,-99.609,-380.371,-255.859,-112.793,1417.028
1685506690.126,-109.863,-757.324,-231.445,-118.164,1417.032
1685506690.130,-75.195,50.781,172.363,-112.305,1417.036
1685506690.144,-43.457,335.938,130.371,-98.633,1417.041
1685506690.148,-69.336,-444.824,-267.090,-83.008,1417.044
1685506690.152,-83.984,-765.137,-224.609,-71.777,1417.048
1685506690.156,-41.016,-187.988,150.391,-70.801,1417.052
1685506690.160,3.906,-54.688,116.211,-50.293,1417.056
1685506690.164,-20.996,-579.102,-211.914,-44.434,1417.060
1685506690.168,-56.152,-947.754,-195.801,-42.969,1417.064
1685506690.171,-16.113,-171.387,227.539,-25.879,1417.068
1685506690.175,30.762,162.598,140.137,-18.066,1417.072
1685506690.179,9.277,-24.902,30.762,-22.949,1417.076
1685506690.183,-31.250,103.516,81.543,-18.555,1417.080
1685506690.187,-20.020,269.531,116.699,-6.348,1417.084
1685506690.220,23.926,98.633,17.090,-8.789,1417.117
1685506690.224,43.945,-12.695,-7.812,1.953,1417.121
1685506690.228,-5.371,204.102,78.125,-0.488,1417.125
1685506690.232,-25.391,182.129,33.203,-7.812,1417.129
1685506690.236,38.574,4.395,-6.836,8.789,1417.133
1685506690.240,54.199,-205.566,-28.809,9.766,1417.137
1685506690.244,4.395,-258.789,-25.879,-0.488,1417.141
1685506690.247,-16.113,-176.758,4.883,-2.930,1417.145
1685506690.251,23.926,-503.418,-135.254,11.230,1417.149
1685506690.255,70.801,-806.152,-90.332,34.180,1417.153
1685506690.259,52.734,-58.594,212.402,25.879,1417.156
1685506690.263,-7.812,184.570,58.594,8.301,1417.160
1685506690.234,7.812,-44.922,71.289,13.672,1417.130
1685506690.238,59.570,223.633,190.430,20.996,1417.134
1685506690.242,51.758,434.082,111.816,19.043,1417.138
1685506690.246,10.254,-46.387,-115.723,29.785,1417.142
1685506690.250,11.719,-440.918,-127.441,41.992,1417.146
1685506690.254,52.246,-271.973,62.500,41.992,1417.150
1685506690.258,56.152,91.797,152.832,37.109,1417.154
1685506690.261,10.254,104.004,20.020,4.883,1417.158
1685506690.265,-14.648,-343.262,-129.883,-2.930,1417.162
1685506690.269,39.551,-239.746,100.098,20.020,1417.166
1685506690.273,75.684,310.059,239.746,25.879,1417.169
1685506690.277,27.344,101.074,-60.059,19.043,1417.173
1685506690.279,-9.277,-392.578,-217.285,13.672,1417.177
1685506690.283,16.602,-47.363,108.887,22.461,1417.181
1685506690.287,56.152,355.957,216.797,27.832,1417.184
1685506690.291,21.973,18.066,-101.074,14.648,1417.188
1685506690.295,-33.691,-925.781,-497.559,2.441,1417.192
1685506690.299,-19.531,-886.230,-169.434,11.719,1417.196
1685506690.303,25.879,-146.484,224.121,19.531,1417.200
1685506690.306,8.301,-387.207,-63.965,4.395,1417.204
1685506690.310,-48.340,-736.816,-164.062,-5.371,1417.208
1685506690.314,-44.922,-28.809,186.523,-6.348,1417.212
1685506690.318,13.184,304.688,163.086,-5.859,1417.216
1685506690.322,33.691,0.977,-16.602,-0.488,1417.220
1685506690.324,-17.578,-136.230,-17.090,-3.418,1417.220
1685506690.328,-39.551,130.859,103.516,2.441,1417.224
1685506690.332,8.789,329.590,107.910,18.555,1417.228
1685506690.336,24.902,-362.793,-187.500,17.578,1417.232
1685506690.340,-18.555,-735.840,-208.008,0.000,1417.236
1685506690.344,-39.062,-252.441,61.035,-11.719,1417.240
1685506690.348,-11.719,-136.230,72.754,-5.371,1417.244
1685506690.351,25.879,-539.551,-74.707,2.441,1417.248
1685506690.355,2.930,-531.738,-34.668,-21.973,1417.252
1685506690.359,-49.805,175.293,159.668,-42.480,1417.256
1685506690.363,-51.758,-0.977,23.926,-27.344,1417.260
1685506690.367,-8.789,-5.371,58.105,-19.531,1417.263
1685506690.384,14.160,306.641,97.656,-10.254,1417.294
1685506690.388,-26.855,183.594,-34.180,-11.719,1417.298
1685506690.392,-56.641,-369.629,-240.234,-35.645,1417.302
1685506690.396,-14.648,-450.195,-142.090,-33.203,1417.306
1685506690.400,4.395,227.051,154.297,-24.414,1417.309
1685506690.404,-47.852,66.406,-57.617,-36.133,1417.313
1685506690.408,-72.266,-664.062,-333.496,-35.156,1417.317
1685506690.411,-21.973,-684.082,-157.715,-19.531,1417.321
1685506690.415,15.625,186.523,229.980,-12.207,1417.325
1685506690.419,-14.160,356.934,96.191,-18.555,1417.329
1685506690.423,-51.270,-80.078,-121.094,-26.855,1417.333
1685506690.427,-29.785,-111.328,3.418,-12.207,1417.337
1685506690.414,22.949,278.320,171.387,0.977,1417.324
1685506690.418,9.277,266.113,25.391,-14.648,1417.328
1685506690.422,-52.246,-83.008,-139.648,-26.367,1417.332
1685506690.426,-52.734,-272.461,-152.832,-22.461,1417.336
1685506690.430,-6.836,-246.582,-63.965,-16.113,1417.340
1685506690.434,-11.230,-93.750,49.805,-16.113,1417.344
1685506690.438,-65.430,-670.898,-272.949,-32.227,1417.348
1685506690.441,-68.359,-788.086,-194.336,-37.109,1417.351
1685506690.445,-11.230,108.887,244.141,-21.973,1417.355
1685506690.449,14.160,179.688,52.734,-17.090,1417.359
1685506690.453,-29.297,-584.961,-203.613,-30.273,1417.363
1685506690.457,-65.430,-437.012,26.367,-45.898,1417.367
1685506690.475,-30.273,261.230,217.285,-47.363,1417.372
1685506690.479,3.418,10.742,-22.949,-31.250,1417.376
1685506690.483,-13.672,-234.375,-125.000,-28.809,1417.380
1685506690.487,-47.852,62.988,60.547,-36.133,1417.384
1685506690.491,-33.691,188.477,73.242,-31.250,1417.388
1685506690.495,18.066,-350.586,-145.020,-9.766,1417.392
1685506690.499,11.230,-652.832,-175.293,-5.859,1417.396
1685506690.502,-33.691,-287.109,-3.418,-28.809,1417.399
1685506690.506,-29.297,-53.223,42.480,-21.484,1417.403
1685506690.510,20.508,-378.906,-81.055,-9.766,1417.407
1685506690.514,25.391,-479.980,-78.125,-8.789,1417.411
1685506690.518,-26.855,144.043,131.348,-30.273,1417.415
1685506690.519,-52.734,39.551,-4.883,-33.691,1417.415
1685506690.523,-12.207,-74.219,39.551,-11.230,1417.419
1685506690.527,10.742,189.941,147.461,-15.625,1417.423
1685506690.531,-24.902,84.473,-43.945,-20.020,1417.427
1685506690.535,-50.781,-371.094,-233.887,-17.090,1417.431
1685506690.539,-26.367,-563.965,-164.062,-16.113,1417.435
1685506690.543,8.301,-265.625,60.547,-24.902,1417.439
1685506690.546,-11.230,215.332,154.297,-40.039,1417.443
1685506690.550,-44.922,96.191,-22.461,-41.504,1417.447
1685506690.554,-28.809,-745.117,-378.906,-34.180,1417.451
1685506690.558,10.254,-780.762,-141.602,-19.531,1417.454
1685506690.562,0.488,196.777,288.086,-22.461,1417.458
1685506690.570,-36.621,19.531,-28.809,-37.598,1417.466
1685506690.574,-27.832,-316.895,-126.953,-24.902,1417.470
1685506690.578,10.254,124.023,146.484,-8.789,1417.474
1685506690.582,16.113,390.137,155.273,-8.789,1417.477
1685506690.586,-35.156,38.574,-65.918,-14.648,1417.481
1685506690.590,-56.641,-438.477,-201.172,-21.973,1417.485
1685506690.594,-6.836,-229.492,-18.066,-22.949,1417.489
1685506690.597,25.879,223.145,171.387,-27.832,1417.493
1685506690.601,-16.113,-276.367,-158.203,-31.250,1417.497
1685506690.605,-56.641,-762.207,-287.109,-41.992,1417.501
1685506690.609,-34.180,-2.441,165.527,-37.109,1417.505
1685506690.613,9.766,295.898,152.344,-30.762,1417.509
1685506690.609,-5.371,-134.277,-108.887,-41.992,1417.505
1685506690.613,-47.852,-294.434,-98.145,-44.434,1417.509
1685506690.617,-41.504,37.598,100.098,-33.691,1417.513
1685506690.621,5.371,64.941,92.285,-22.949,1417.517
1685506690.625,-0.488,-561.523,-242.188,-16.113,1417.521
1685506690.629,-55.176,-864.746,-272.949,-26.367,1417.525
1685506690.633,-56.641,-321.777,143.555,-23.438,1417.529
1685506690.636,-10.742,61.035,164.062,-13.672,1417.533
1685506690.640,-2.930,-431.152,-65.918,-27.832,1417.537
1685506690.644,-44.922,-406.738,24.414,-48.340,1417.541
1685506690.648,-62.988,173.828,144.043,-52.246,1417.545
1685506690.652,-27.832,-5.371,24.902,-31.738,1417.548
1685506690.655,7.324,-38.086,31.738,-32.227,1417.552
1685506690.659,-20.508,195.801,93.750,-44.922,1417.555
1685506690.663,-64.941,123.047,-9.277,-38.086,1417.559
1685506690.667,-43.457,-359.863,-206.543,-25.879,1417.563
1685506690.671,10.742,-447.754,-155.762,-22.949,1417.567
1685506690.675,-12.207,-192.871,-0.977,-40.527,1417.571
1685506690.679,-62.988,-117.188,48.340,-46.387,1417.575
1685506690.682,-53.223,-474.609,-133.789,-27.832,1417.579
1685506690.686,3.418,-685.547,-153.809,-16.602,1417.583
1685506690.690,20.020,158.691,210.449,-35.156,1417.587
1685506690.694,-30.762,206.543,57.129,-47.852,1417.591
1685506690.698,-45.410,-224.609,-142.578,-40.527,1417.595
1685506690.699,-6.348,-126.953,14.160,-32.227,1417.596
1685506690.703,5.859,249.023,155.762,-26.855,1417.600
1685506690.707,-45.410,154.785,-17.090,-42.969,1417.604
1685506690.711,-87.402,-401.367,-228.516,-52.246,1417.608
1685506690.715,-41.992,-371.094,-101.074,-34.668,1417.611
1685506690.719,1.465,-84.473,93.750,-33.203,1417.615
1685506690.723,-36.133,-196.777,18.555,-57.617,1417.619
1685506690.726,-69.824,-757.324,-350.586,-48.828,1417.623
1685506690.730,-49.316,-862.305,-145.996,-26.855,1417.627
1685506690.734,-5.371,22.949,280.762,-23.438,1417.631
1685506690.738,-5.371,86.914,47.852,-21.973,1417.635
1685506690.742,-52.734,-211.914,-62.012,-22.949,1417.639
1685506690.745,-60.059,23.926,88.379,-22.461,1417.643
1685506690.749,-4.883,263.184,157.227,-18.066,1417.647
1685506690.753,5.859,41.992,-17.578,-22.461,1417.651
1685506690.757,-36.133,-175.781,-112.793,-34.668,1417.655
1685506690.761,-47.363,-19.043,-0.977,-31.738,1417.659
1685506690.765,-6.836,-88.379,-4.883,-20.508,1417.663
1685506690.769,7.812,-501.465,-166.992,-19.043,1417.667
1685506690.772,-39.551,-703.125,-199.707,-41.504,1417.671
1685506690.776,-70.312,-366.211,59.570,-53.711,1417.674
1685506690.780,-36.621,-67.871,104.004,-37.598,1417.678
1685506690.784,2.441,-224.121,5.371,-27.832,1417.682
1685506690.788,-14.648,-228.516,39.062,-32.227,1417.686
1685506690.789,-58.105,87.402,68.359,-41.016,1417.699
1685506690.793,-47.852,-178.223,-36.621,-31.250,1417.703
1685506690.797,15.137,-109.375,69.824,-11.719,1417.707
1685506690.801,13.184,-82.031,62.500,-18.555,1417.711
1685506690.805,-37.598,-203.613,-35.156,-28.320,1417.714
1685506690.809,-30.273,-202.637,-66.406,-14.160,1417.718
1685506690.813,17.090,-732.422,-248.535,5.371,1417.722
1685506690.816,22.949,-732.910,-85.449,4.883,1417.726
1685506690.820,-22.949,109.863,223.145,-14.160,1417.730
1685506690.824,-47.852,47.852,41.504,-20.020,1417.734
1685506690.828,-6.836,-222.656,-48.828,-6.348,1417.738
1685506690.832,22.949,24.414,83.496,-5.371,1417.742
1685506690.837,-12.207,321.777,155.273,-23.438,1417.737
1685506690.841,-46.875,-100.098,-154.297,-21.973,1417.741
1685506690.845,-18.066,-470.703,-218.750,-5.371,1417.745
1685506690.849,27.832,161.133,164.062,-4.883,1417.748
1685506690.853,11.230,416.016,106.445,-21.973,1417.752
1685506690.857,-41.016,-411.621,-300.781,-25.879,1417.756
1685506690.861,-32.227,-708.496,-205.078,-6.836,1417.760
1685506690.864,25.879,149.414,208.496,4.395,1417.764
1685506690.868,33.203,342.773,85.449,0.977,1417.768
1685506690.872,-24.902,-137.695,-94.727,-13.672,1417.772
1685506690.876,-35.645,-187.500,-13.672,-22.461,1417.776
1685506690.880,8.301,257.812,152.344,-16.113,1417.780
1685506690.895,3.418,285.156,64.453,-17.090,1417.794
1685506690.899,-50.781,-203.125,-202.637,-24.414,1417.798
1685506690.903,-74.707,-298.340,-113.770,-35.645,1417.802
1685506690.907,-20.508,-104.492,52.734,-29.785,1417.805
1685506690.911,16.602,-86.426,65.918,-22.949,1417.809
1685506690.915,-24.902,-559.082,-227.051,-32.715,1417.813
1685506690.919,-67.871,-1000.000,-340.332,-25.879,1417.817
1685506690.922,-41.504,-232.910,168.457,-15.137,1417.821
1685506690.926,16.602,231.445,199.707,-5.859,1417.825
1685506690.930,7.324,67.383,85.449,-21.973,1417.829
1685506690.934,-49.316,71.289,74.219,-47.852,1417.833
1685506690.938,-43.457,149.414,86.914,-37.109,1417.837
1685506690.939,9.766,77.637,34.180,-20.996,1417.836
1685506690.943,12.695,3.418,-7.812,-19.043,1417.840
1685506690.947,-30.762,156.250,52.246,-32.227,1417.844
1685506690.951,-46.387,89.844,2.930,-34.668,1417.848
1685506690.955,-4.883,-278.320,-156.250,-12.695,1417.851
1685506690.959,21.973,-517.578,-153.320,-4.395,1417.855
1685506690.963,-12.207,-194.824,52.734,-20.020,1417.859
1685506690.966,-41.504,129.395,107.910,-31.250,1417.863
1685506690.970,-17.578,-376.465,-146.973,-12.695,1417.867
1685506690.974,14.648,-881.836,-204.590,-3.906,1417.871
1685506690.978,2.930,-142.090,146.973,-27.832,1417.875
1685506690.982,-41.992,87.402,59.570,-36.621,1417.879
1685506690.984,-28.320,-194.824,26.855,-24.414,1417.880
1685506690.988,12.695,23.438,135.742,-12.695,1417.884
1685506690.992,-9.277,279.785,111.816,-20.020,1417.888
1685506690.996,-55.664,-52.246,-113.281,-37.598,1417.892
1685506691.000,-55.176,-643.555,-248.047,-28.809,1417.896
1685506691.004,-6.836,-551.758,18.066,-12.695,1417.900
1685506691.008,-0.488,-165.039,106.445,-20.020,1417.904
1685506691.011,-47.363,-193.359,18.066,-34.180,1417.908
1685506691.015,-60.059,-790.039,-268.555,-26.367,1417.912
1685506691.019,-13.184,-656.738,-90.332,-19.043,1417.916
1685506691.023,18.066,283.203,279.785,-23.438,1417.919
1685506691.027,-25.879,62.012,-4.883,-33.691,1417.923
1685506691.030,-62.012,-226.074,-92.773,-34.180,1417.928
1685506691.034,-19.043,125.977,111.328,-18.066,1417.932
1685506691.038,27.344,379.395,138.184,-11.230,1417.936
1685506691.042,-1.953,44.434,-72.754,-23.926,1417.939
1685506691.046,-62.988,-264.648,-151.855,-37.598,1417.943
1685506691.050,-67.383,-247.559,-129.395,-30.273,1417.947
1685506691.054,-14.160,-130.859,-7.812,-28.320,1417.951
1685506691.057,-12.207,-417.480,-134.277,-37.109,1417.955
1685506691.061,-62.500,-746.094,-221.680,-48.828,1417.959
1685506691.065,-71.777,-322.754,115.234,-40.527,1417.963
1685506691.069,-12.207,19.043,125.000,-22.461,1417.967
1685506691.073,10.254,-197.754,-14.648,-27.832,1417.971
1685506691.074,-48.828,-319.336,-7.812,-37.109,1417.971
1685506691.078,-58.105,57.617,107.910,-40.527,1417.974
1685506691.082,0.977,133.789,61.523,-31.250,1417.978
1685506691.086,22.461,-57.129,-2.930,-26.855,1417.982
1685506691.090,-15.137,-212.891,-24.414,-41.016,1417.986
1685506691.094,-52.734,-307.617,-144.531,-37.109,1417.990
1685506691.098,-42.969,-283.691,-53.223,-21.484,1417.994
1685506691.101,-10.254,-657.715,-165.527,-13.672,1417.998
1685506691.105,-17.578,-743.652,-150.391,-23.438,1418.002
1685506691.109,-46.875,72.754,201.660,-38.086,1418.006
1685506691.113,-32.227,49.805,62.988,-33.691,1418.010
1685506691.117,5.859,-169.434,0.488,-13.184,1418.013
1685506691.121,0.488,19.043,84.473,-14.648,1418.019
1685506691.125,-39.551,268.066,125.977,-36.133,1418.023
1685506691.129,-46.387,-164.062,-126.953,-38.574,1418.027
1685506691.133,-6.348,-444.824,-170.898,-19.043,1418.031
1685506691.137,6.348,137.207,129.883,-10.742,1418.035
1685506691.141,-48.340,39.551,-29.297,-31.250,1418.039
1685506691.145,-84.473,-657.715,-333.008,-28.320,1418.043
1685506691.148,-31.738,-682.617,-139.160,-10.742,1418.047
1685506691.152,20.996,119.629,214.355,-15.625,1418.051
1685506691.156,-18.066,263.672,84.961,-37.109,1418.054
1685506691.160,-62.500,-104.980,-67.871,-39.551,1418.058
1685506691.164,-23.438,-75.195,29.785,-17.090,1418.062
1685506691.165,31.250,313.477,172.363,-4.883,1418.075
1685506691.169,1.953,265.137,29.785,-24.414,1418.079
1685506691.173,-47.852,-305.664,-205.078,-47.363,1418.083
1685506691.177,-31.738,-513.672,-160.156,-40.527,1418.086
1685506691.181,20.508,-142.578,49.316,-11.719,1418.090
1685506691.185,25.391,-35.645,73.242,-12.695,1418.094
1685506691.189,-34.668,-672.852,-292.969,-32.227,1418.098
1685506691.192,-65.430,-924.805,-188.965,-29.297,1418.102
1685506691.196,-15.625,-42.969,296.387,-25.879,1418.106
1685506691.200,3.418,210.449,136.719,-32.715,1418.110
1685506691.204,-46.387,-104.004,-20.020,-34.668,1418.114
1685506691.208,-69.824,6.348,94.727,-32.227,1418.118
1685506691.210,-34.668,176.758,105.957,-23.438,1418.119
1685506691.214,9.766,-18.066,-17.578,-10.254,1418.123
1685506691.218,-9.277,-113.770,-22.461,-18.555,1418.127
1685506691.222,-59.082,58.594,41.992,-39.551,1418.131
1685506691.226,-39.551,93.750,79.590,-35.645,1418.135
1685506691.230,13.672,-331.055,-81.055,-19.043,1418.139
1685506691.234,-4.883,-782.227,-199.219,-21.484,1418.143
1685506691.237,-53.711,-319.336,60.547,-34.668,1418.147
1685506691.241,-47.363,137.695,147.949,-40.527,1418.151
1685506691.245,1.465,-372.070,-79.102,-31.738,1418.155
1685506691.249,14.648,-501.465,-77.637,-35.156,1418.158
1685506691.253,-29.297,140.625,135.742,-48.340,1418.162
1685506691.269,-46.875,38.086,28.320,-35.645,1418.165
1685506691.273,-7.812,-134.277,35.645,-21.973,1418.169
1685506691.277,16.602,107.422,141.113,-19.531,1418.173
1685506691.281,-9.766,-7.324,-20.996,-25.391,1418.177
1685506691.285,-48.828,-311.523,-164.551,-33.691,1418.181
1685506691.289,-35.156,-731.445,-265.137,-27.832,1418.185
1685506691.293,-3.418,-694.336,-93.750,-24.902,1418.189
1685506691.296,-29.297,-6.836,197.266,-31.250,1418.193
1685506691.300,-66.406,-196.777,3.418,-26.855,1418.197
1685506691.304,-34.668,-548.340,-27.832,-16.602,1418.201
1685506691.308,21.973,-102.051,161.133,-15.137,1418.205
1685506691.312,8.789,362.305,172.852,-18.066,1418.208
1685506691.314,-46.387,-66.895,-84.961,-24.902,1418.210
1685506691.318,-50.781,-264.648,-101.562,-27.832,1418.214
1685506691.322,-1.465,143.066,129.395,-21.484,1418.218
1685506691.326,5.371,360.352,139.160,-23.438,1418.222
1685506691.330,-41.992,-36.621,-73.242,-30.762,1418.226
1685506691.334,-63.477,-553.711,-251.953,-31.250,1418.230
1685506691.338,-24.414,-300.293,-3.906,-22.949,1418.234
1685506691.341,14.160,259.766,206.543,-25.879,1418.238
1685506691.345,-23.438,-270.020,-186.523,-32.715,1418.242
1685506691.349,-67.383,-837.891,-300.293,-36.621,1418.246
1685506691.353,-40.527,-309.082,148.926,-43.945,1418.250
1685506691.357,9.766,148.438,167.969,-38.086,1418.253
1685506691.359,-8.301,-207.520,-62.012,-38.574,1418.270
1685506691.363,-71.289,-361.328,-2.441,-48.828,1418.273
1685506691.367,-57.617,83.496,146.973,-38.574,1418.277
1685506691.371,2.441,25.391,75.684,-18.066,1418.281
1685506691.375,-4.395,-458.008,-94.727,-18.066,1418.285
1685506691.379,-58.105,-655.273,-56.152,-29.297,1418.289
1685506691.383,-54.688,-266.113,100.098,-31.250,1418.293
1685506691.386,-5.371,26.855,115.234,-28.320,1418.297
1685506691.390,4.883,-448.242,-56.641,-27.344,1418.301
1685506691.394,-33.691,-380.859,43.945,-33.691,1418.305
1685506691.398,-57.129,172.852,160.156,-38.086,1418.309
1685506691.402,-20.508,-17.090,37.598,-28.809,1418.313
1685506691.406,5.859,-214.355,-23.926,-24.902,1418.315
1685506691.410,-20.020,-81.543,29.785,-27.344,1418.319
1685506691.414,-49.805,129.883,110.840,-28.809,1418.323
1685506691.418,-28.320,-189.453,-70.801,-20.020,1418.326
1685506691.422,14.648,-465.332,-174.316,-4.883,1418.330
1685506691.426,6.836,-208.496,19.531,-12.207,1418.334
1685506691.430,-46.387,-224.121,-25.879,-28.320,1418.338
1685506691.433,-41.016,-636.230,-187.500,-26.367,1418.342
1685506691.437,1.953,-502.441,-17.090,-20.508,1418.346
1685506691.441,0.488,196.777,185.547,-31.738,1418.350
1685506691.445,-42.480,202.148,36.621,-49.316,1418.354
1685506691.449,-62.012,-486.816,-185.547,-48.828,1418.358
1685506691.449,-16.113,-511.230,-37.598,-36.621,1418.346
1685506691.453,2.930,299.316,216.797,-36.133,1418.350
1685506691.457,-34.180,172.852,11.719,-42.480,1418.353
1685506691.461,-54.199,-394.531,-179.199,-39.062,1418.357
1685506691.465,-26.367,-470.703,-55.176,-30.273,1418.361
1685506691.469,17.090,-223.145,75.684,-15.137,1418.365
1685506691.473,-5.859,-188.477,33.691,-22.949,1418.369
1685506691.476,-63.965,-732.422,-257.812,-41.992,1418.373
1685506691.480,-41.016,-678.711,-100.098,-27.344,1418.377
1685506691.484,21.484,263.672,291.016,-13.184,1418.381
1685506691.488,4.883,202.148,41.992,-27.832,1418.385
1685506691.492,-41.504,-448.242,-153.809,-33.203,1418.389
1685506691.495,-30.273,-212.891,79.102,-19.531,1418.393
1685506691.499,14.160,333.008,200.684,-15.137,1418.396
1685506691.503,17.578,116.211,1.465,-17.578,1418.400
1685506691.507,-27.344,-112.305,-96.191,-29.785,1418.404
1685506691.511,-35.645,-5.371,-15.625,-22.461,1418.408
1685506691.515,2.930,-78.613,25.391,-6.348,1418.412
1685506691.519,17.578,-409.180,-105.957,-6.836,1418.416
1685506691.522,-23.438,-906.738,-291.016,-20.020,1418.420
1685506691.526,-51.270,-344.238,91.309,-32.715,1418.424
1685506691.530,-19.531,217.285,170.410,-19.043,1418.428
1685506691.534,15.625,61.035,94.727,-6.348,1418.432
1685506691.538,-8.789,114.746,114.258,-16.602,1418.436
1685506691.539,-59.082,192.383,49.316,-41.504,1418.449
1685506691.543,-52.246,75.195,20.508,-39.062,1418.453
1685506691.547,1.465,-7.324,41.504,-20.020,1418.457
1685506691.551,-0.488,-104.980,23.926,-19.531,1418.461
1685506691.555,-62.988,-192.383,-51.758,-31.738,1418.465
1685506691.559,-71.289,-206.543,-61.035,-32.715,1418.469
1685506691.563,-5.371,-715.820,-232.422,-10.254,1418.473
1685506691.566,8.789,-747.070,-96.680,-3.906,1418.477
1685506691.570,-40.039,-149.414,159.668,-22.949,1418.480
1685506691.574,-57.617,-323.242,-10.742,-23.438,1418.484
1685506691.578,-12.695,-392.090,61.035,-14.648,1418.488
1685506691.582,20.508,116.699,199.707,-14.648,1418.492
1685506691.585,-13.184,333.496,114.258,-24.902,1418.495
1685506691.589,-58.105,-84.473,-86.914,-27.344,1418.498
1685506691.593,-31.738,-161.133,-65.918,-16.113,1418.502
1685506691.597,16.602,256.348,143.555,-10.742,1418.506
1685506691.601,-2.441,376.953,92.285,-17.090,1418.510
1685506691.605,-51.270,-352.539,-251.953,-35.645,1418.514
1685506691.609,-35.645,-777.344,-207.520,-29.785,1418.518
1685506691.612,17.090,15.137,197.266,-20.996,1418.522
1685506691.616,8.301,393.555,137.695,-26.855,1418.526
1685506691.620,-48.340,-280.762,-155.273,-33.203,1418.530
1685506691.624,-56.152,-579.590,-112.305,-23.926,1418.534
1685506691.628,-0.488,-105.957,150.391,-1.953,1418.538
1685506691.644,11.719,111.328,95.215,-7.812,1418.540
1685506691.648,-40.039,-315.918,-94.727,-30.273,1418.544
1685506691.652,-59.082,-418.457,-11.719,-36.621,1418.548
1685506691.656,-11.719,-137.695,92.285,-23.926,1418.552
1685506691.660,16.602,-78.125,125.488,-20.020,1418.556
1685506691.664,-29.297,-590.820,-210.938,-38.086,1418.560
1685506691.668,-75.195,-809.570,-195.312,-44.434,1418.564
1685506691.671,-41.016,25.879,245.605,-31.738,1418.568
1685506691.675,2.930,192.383,116.211,-21.484,1418.572
1685506691.679,-17.090,-338.379,-81.055,-22.949,1418.575
1685506691.683,-50.781,-250.000,33.203,-27.832,1418.579
1685506691.687,-50.293,182.129,149.902,-29.297,1418.583
1685506691.689,-7.324,48.340,59.082,-12.207,1418.585
1685506691.693,14.648,-208.984,-31.738,-16.113,1418.589
1685506691.697,-33.691,-158.203,-6.836,-41.504,1418.593
1685506691.701,-58.594,134.277,118.652,-55.664,1418.597
1685506691.705,-16.602,-97.168,-47.852,-40.527,1418.601
1685506691.709,5.371,-581.543,-208.008,-28.809,1418.605
1685506691.713,-34.668,-261.230,43.945,-44.434,1418.609
1685506691.716,-62.012,11.719,83.496,-42.969,1418.613
1685506691.720,-27.344,-530.762,-173.828,-21.973,1418.617
1685506691.724,11.230,-726.074,-101.562,-13.184,1418.620
1685506691.728,-14.160,10.254,204.102,-33.203,1418.624
1685506691.732,-59.570,116.699,68.359,-50.293,1418.628
1685506691.734,-31.738,-157.715,-14.648,-36.133,1418.659
1685506691.738,20.020,65.430,103.027,-30.273,1418.663
1685506691.742,3.418,302.734,95.215,-43.457,1418.667
1685506691.746,-42.480,-62.988,-119.141,-51.270,1418.671
1685506691.750,-47.852,-738.281,-336.914,-46.875,1418.675
1685506691.754,-7.812,-802.734,-131.836,-32.227,1418.679
1685506691.758,5.859,-138.184,224.609,-32.715,1418.683
1685506691.761,-32.715,40.039,59.570,-41.992,1418.687
1685506691.765,-50.293,-574.707,-181.641,-28.809,1418.691
1685506691.769,-11.230,-327.148,92.773,-21.973,1418.695
1685506691.773,16.602,430.176,252.930,-26.367,1418.698
1685506691.777,-19.043,96.191,4.883,-27.832,1418.702
1685506691.779,-56.641,-252.441,-106.445,-30.273,1418.677
1685506691.783,-20.508,31.250,83.984,-16.602,1418.681
1685506691.787,22.949,296.387,138.672,-3.418,1418.684
1685506691.791,-3.418,31.250,-42.969,-16.113,1418.688
1685506691.795,-47.363,-219.238,-97.656,-27.832,1418.692
1685506691.799,-30.273,-255.371,-116.699,-14.160,1418.696
1685506691.803,20.508,-209.473,-15.625,-8.789,1418.700
1685506691.806,4.395,-448.730,-117.676,-20.996,1418.704
1685506691.810,-39.062,-686.035,-204.102,-31.738,1418.708
1685506691.814,-33.203,-85.449,119.629,-30.762,1418.712
1685506691.818,12.695,266.113,165.039,-20.020,1418.716
1685506691.822,22.461,-370.117,-157.227,-12.695,1418.720
1685506691.824,-39.551,-755.859,-222.168,-32.227,1418.720
1685506691.828,-67.383,-71.777,121.094,-48.340,1418.724
1685506691.832,-25.879,229.980,145.996,-25.879,1418.728
1685506691.836,0.000,-415.039,-168.457,-12.695,1418.732
1685506691.840,-33.203,-778.320,-230.469,-31.250,1418.736
1685506691.844,-59.082,-320.801,69.336,-37.598,1418.740
1685506691.848,-37.598,-207.520,99.609,-26.367,1418.744
1685506691.851,-10.254,-645.996,-90.332,-22.949,1418.748
1685506691.855,-24.414,-582.031,-33.203,-30.273,1418.751
1685506691.859,-65.918,-63.477,128.906,-43.457,1418.755
1685506691.863,-57.617,-310.059,-6.836,-38.574,1418.759
1685506691.867,-4.883,-312.988,52.246,-25.879,1418.763
1685506691.871,5.859,139.648,179.688,-29.297,1418.767
1685506691.875,-44.922,282.227,108.887,-47.363,1418.771
1685506691.879,-57.129,-119.629,-75.684,-44.434,1418.775
1685506691.883,0.488,-72.754,16.113,-18.066,1418.779
1685506691.887,15.625,294.434,114.258,-14.160,1418.783
1685506691.891,-29.297,20.020,-98.633,-30.762,1418.787
1685506691.895,-53.711,-644.043,-335.938,-34.668,1418.791
1685506691.898,-12.695,-704.590,-168.457,-25.879,1418.795
1685506691.902,9.277,181.152,240.723,-29.785,1418.799
1685506691.906,-22.461,357.910,105.469,-36.133,1418.802
1685506691.910,-56.641,-93.750,-90.332,-33.203,1418.806
1685506691.914,-40.527,-160.156,-41.992,-23.926,1418.810
1685506691.945,16.602,6.836,116.699,-18.555,1418.844
1685506691.949,16.113,144.043,86.426,-21.973,1418.848
1685506691.953,-48.340,-290.039,-151.855,-22.949,1418.852
1685506691.957,-46.387,-555.176,-48.828,-20.996,1418.856
1685506691.961,14.160,-166.992,86.914,-15.625,1418.860
1685506691.965,18.555,8.301,101.562,-18.066,1418.864
1685506691.969,-33.691,-631.836,-222.656,-27.832,1418.868
1685506691.972,-52.246,-801.758,-171.387,-28.320,1418.872
1685506691.976,-4.883,113.281,259.766,-19.043,1418.876
1685506691.980,7.812,218.750,96.191,-16.602,1418.880
1685506691.984,-27.344,-25.391,12.695,-31.250,1418.883
1685506691.988,-47.852,105.469,86.914,-36.133,1418.887
1685506691.960,-15.137,285.645,114.746,-28.809,1418.871
1685506691.964,21.973,130.371,17.578,-23.926,1418.875
1685506691.968,-10.254,-293.457,-182.617,-37.598,1418.879
1685506691.972,-51.758,-174.805,-42.969,-37.598,1418.883
1685506691.976,-38.574,110.840,93.262,-23.438,1418.887
1685506691.980,1.465,-314.453,-108.398,-14.160,1418.891
1685506691.984,6.348,-482.422,-112.305,-11.230,1418.894
1685506691.987,-38.086,-20.996,82.520,-25.879,1418.898
1685506691.991,-46.387,118.164,74.707,-36.621,1418.902
1685506691.995,3.418,-202.637,-26.367,-22.461,1418.906
1685506691.999,16.113,-152.344,45.898,-15.625,1418.910
1685506692.003,-38.574,118.652,78.613,-30.273,1418.914
1685506692.034,-55.664,71.289,54.688,-32.227,1418.931
1685506692.038,-5.859,-479.492,-197.266,-11.719,1418.935
1685506692.042,5.371,-756.348,-152.832,-7.324,1418.939
1685506692.046,-28.320,-229.980,140.137,-23.926,1418.943
1685506692.050,-44.434,-270.508,40.039,-25.879,1418.946
1685506692.054,-13.184,-707.031,-161.621,-13.672,1418.950
1685506692.058,20.996,-815.918,-109.863,-10.742,1418.954
1685506692.061,-12.695,-45.898,244.141,-35.156,1418.958
1685506692.065,-65.918,89.844,65.918,-52.246,1418.962
1685506692.069,-49.316,-499.512,-97.656,-41.016,1418.966
1685506692.073,3.418,-107.910,137.207,-28.809,1418.970
1685506692.077,9.277,471.680,208.008,-29.785,1418.974
1685506692.064,-37.598,7.812,-112.793,-36.133,1418.961
1685506692.068,-47.363,-268.066,-177.246,-26.855,1418.965
1685506692.072,-5.859,136.719,125.977,-10.254,1418.968
1685506692.076,8.301,369.141,141.602,-11.230,1418.972
1685506692.080,-30.273,-15.137,-116.699,-24.414,1418.976
1685506692.084,-55.176,-530.273,-259.766,-38.086,1418.980
1685506692.088,-19.531,-200.195,22.461,-33.691,1418.984
1685506692.091,15.625,121.094,91.797,-19.531,1418.988
1685506692.095,-12.207,-399.414,-117.188,-27.832,1418.992
1685506692.099,-58.105,-431.152,-21.484,-46.875,1418.996
1685506692.103,-35.156,78.125,127.441,-34.180,1419.000
1685506692.107,13.672,299.316,147.949,-24.902,1419.004
1685506692.124,-13.672,-358.398,-207.031,-33.691,1419.020
1685506692.128,-54.199,-884.277,-239.258,-37.598,1419.024
1685506692.132,-30.762,-149.414,184.570,-35.645,1419.028
1685506692.136,7.324,106.934,135.742,-22.949,1419.032
1685506692.140,-1.465,-463.867,-73.730,-21.484,1419.036
1685506692.144,-52.246,-659.668,-45.410,-39.551,1419.040
1685506692.148,-53.223,-242.676,138.184,-37.109,1419.044
1685506692.151,-6.836,57.129,112.793,-21.973,1419.048
1685506692.155,-0.488,-401.855,-65.918,-23.926,1419.051
1685506692.159,-49.316,-421.387,14.648,-37.598,1419.055
1685506692.163,-74.707,-102.539,53.711,-46.387,1419.059
1685506692.167,-26.367,-289.551,-27.344,-40.527,1419.063
1685506692.154,8.789,-253.418,20.020,-33.691,1419.050
1685506692.158,-26.855,99.121,117.676,-46.387,1419.054
1685506692.162,-60.547,185.059,72.266,-43.945,1419.058
1685506692.166,-30.273,-88.867,-14.648,-27.832,1419.062
1685506692.170,13.672,-39.551,-0.488,-18.555,1419.066
1685506692.174,-9.277,-40.527,11.230,-14.160,1419.070
1685506692.178,-48.828,-108.887,19.043,-24.902,1419.074
1685506692.181,-31.738,-350.098,-72.754,-25.879,1419.078
1685506692.185,20.020,-283.203,11.230,-13.672,1419.082
1685506692.189,37.598,264.648,151.367,-15.625,1419.085
1685506692.193,-18.066,257.324,55.664,-33.691,1419.089
1685506692.197,-41.504,-420.898,-266.113,-29.297,1419.093
1685506692.200,6.836,-766.113,-237.305,-10.254,1419.099
1685506692.204,37.109,-62.988,178.223,-3.418,1419.103
1685506692.208,-10.254,198.242,110.840,-11.719,1419.106
1685506692.212,-60.059,-576.660,-299.316,-20.020,1419.110
1685506692.216,-26.367,-753.418,-187.500,-8.789,1419.114
1685506692.220,20.508,-112.793,167.480,-3.418,1419.118
1685506692.224,-2.930,-64.941,64.941,-11.230,1419.122
1685506692.227,-52.734,-579.102,-128.418,-16.113,1419.126
1685506692.231,-27.344,-395.020,52.246,-16.113,1419.130
1685506692.235,26.855,370.117,242.676,-12.207,1419.134
1685506692.239,10.254,168.945,19.531,-19.043,1419.138
1685506692.243,-40.527,-121.094,-69.824,-26.855,1419.142
1685506692.245,-41.992,62.500,62.012,-26.367,1419.142
1685506692.249,1.953,328.613,151.367,-18.066,1419.146
1685506692.253,0.488,100.586,-29.297,-17.090,1419.150
1685506692.257,-46.875,-383.301,-249.023,-30.762,1419.154
1685506692.261,-58.594,-230.957,-68.359,-27.344,1419.158
1685506692.265,-15.137,-74.219,70.312,-19.043,1419.162
1685506692.269,13.672,-415.527,-113.281,-10.742,1419.166
1685506692.272,-26.855,-911.621,-305.176,-14.160,1419.170
1685506692.276,-59.570,-360.840,74.219,-28.809,1419.174
1685506692.280,-17.090,213.867,184.570,-22.461,1419.177
1685506692.284,23.926,48.828,89.355,-10.254,1419.181
1685506692.288,-4.883,58.594,88.867,-18.066,1419.185
1685506692.304,-52.734,95.215,35.156,-30.762,1419.230
1685506692.308,-32.715,15.137,11.719,-22.949,1419.233
1685506692.312,13.184,7.812,86.914,-10.742,1419.237
1685506692.316,-3.418,-95.703,71.289,-27.832,1419.241
1685506692.320,-53.711,-193.848,-63.965,-37.598,1419.245
1685506692.324,-51.270,-240.234,-91.309,-28.320,1419.249
1685506692.328,1.465,-687.988,-223.145,-11.230,1419.253
1685506692.331,19.043,-990.723,-217.285,-1.953,1419.257
1685506692.335,-12.207,-202.148,159.668,-14.648,1419.261
1685506692.339,-43.945,59.570,94.727,-28.809,1419.265
1685506692.343,-6.836,-129.883,31.250,-13.672,1419.269
1685506692.347,25.391,294.922,186.523,-8.789,1419.273
1685506692.351,-23.926,400.879,120.605,-31.250,1419.249
1685506692.355,-66.895,-39.062,-129.883,-34.180,1419.253
1685506692.359,-39.551,-190.918,-164.551,-20.508,1419.256
1685506692.363,4.883,190.918,110.352,-18.066,1419.260
1685506692.367,-6.836,332.520,94.238,-32.227,1419.264
1685506692.371,-53.223,-358.398,-264.160,-35.645,1419.268
1685506692.375,-52.734,-639.160,-174.805,-24.902,1419.272
1685506692.378,-1.953,92.285,159.668,-16.602,1419.276
1685506692.382,4.883,166.992,49.805,-15.625,1419.280
1685506692.386,-40.527,-539.551,-257.324,-22.949,1419.284
1685506692.390,-41.992,-629.883,-153.320,-33.203,1419.288
1685506692.394,0.977,149.902,207.031,-36.133,1419.292
1685506692.394,10.254,295.410,91.309,-26.855,1419.290
1685506692.398,-38.574,-245.605,-123.047,-35.156,1419.294
1685506692.402,-61.523,-294.922,-22.949,-45.410,1419.298
1685506692.406,-3.906,-122.070,54.199,-9.277,1419.302
1685506692.410,26.855,-108.887,81.543,-1.953,1419.306
1685506692.414,-27.832,-477.539,-179.688,-27.344,1419.310
1685506692.418,-69.336,-1000.000,-442.383,-20.020,1419.314
1685506692.421,-32.715,-595.703,12.695,-13.184,1419.318
1685506692.425,12.207,106.445,240.234,-11.719,1419.322
1685506692.429,-7.324,73.242,111.816,-24.414,1419.326
1685506692.433,-51.758,91.797,87.402,-38.086,1419.329
1685506692.437,-43.457,-38.574,37.109,-25.391,1419.333
