timestamps,TP9,AF7,AF8,TP10,Secondary Timestamp
1686016970.182,-39.551,-239.258,-104.492,-32.227,118734.604
1686016970.186,-33.691,-505.859,-150.391,-21.484,118734.607
1686016970.190,-23.438,-648.438,-52.734,-19.043,118734.611
1686016970.194,-28.809,47.363,198.730,-41.504,118734.615
1686016970.198,-27.344,135.742,111.328,-43.457,118734.619
1686016970.202,-17.578,-382.324,-14.648,-19.043,118734.623
1686016970.205,-16.602,-175.293,112.305,-8.301,118734.627
1686016970.209,-30.273,330.566,192.383,-24.902,118734.631
1686016970.213,-42.480,60.547,15.625,-41.016,118734.635
1686016970.217,-32.227,-637.207,-178.711,-20.508,118734.639
1686016970.221,-24.902,-95.215,117.188,-8.789,118734.643
1686016970.225,-22.949,416.016,203.125,-25.879,118734.647
1686016970.228,-16.113,5.859,-64.453,-25.391,118734.650
1686016970.232,-22.461,-627.441,-177.734,-29.785,118734.654
1686016970.235,-20.996,-225.098,110.352,-13.184,118734.658
1686016970.239,-20.996,311.035,187.988,-9.766,118734.662
1686016970.243,-26.855,-92.285,-32.715,-25.879,118734.665
1686016970.247,-36.621,-278.320,-2.930,-36.621,118734.669
1686016970.251,-31.250,95.703,106.934,-25.391,118734.673
1686016970.255,-23.926,289.062,169.434,-21.973,118734.677
1686016970.257,-31.250,-389.160,-195.312,-33.691,118734.678
1686016970.261,-30.273,-996.094,-386.230,-38.574,118734.682
1686016970.265,-18.555,-149.902,155.762,-30.762,118734.686
1686016970.269,-16.602,267.090,219.727,-18.555,118734.690
1686016970.273,-19.531,-225.586,-43.945,-23.926,118734.694
1686016970.277,-20.508,-376.953,-48.340,-30.273,118734.698
1686016970.280,-21.973,-142.578,104.980,-27.344,118734.702
1686016970.284,-17.090,135.742,159.180,-19.043,118734.706
1686016970.288,-14.160,-587.402,-196.289,-18.555,118734.709
1686016970.292,-21.973,-469.238,25.879,-35.645,118734.713
1686016970.296,-23.438,261.230,221.680,-36.621,118734.717
1686016970.300,-7.812,216.309,121.582,-19.043,118734.721
1686016970.302,0.488,149.902,172.363,-14.648,118734.723
1686016970.306,-21.484,228.027,120.605,-38.574,118734.727
1686016970.310,-27.832,203.125,69.336,-50.781,118734.731
1686016970.314,-9.766,79.102,46.387,-25.391,118734.735
1686016970.318,-17.090,106.445,138.672,-20.996,118734.739
1686016970.322,-36.621,-86.426,-9.277,-37.598,118734.742
1686016970.325,-38.086,-214.355,-96.680,-45.410,118734.746
1686016970.329,-24.414,-335.449,-105.469,-29.297,118734.750
1686016970.333,-7.324,-851.074,-222.656,2.930,118734.754
1686016970.337,-5.371,-174.316,130.371,-3.418,118734.758
1686016970.341,-16.602,252.441,180.664,-19.043,118734.762
1686016970.345,-13.184,-227.539,-56.641,-5.859,118734.766
1686016970.347,-4.883,-258.301,31.250,10.254,118734.782
1686016970.351,-13.184,194.336,211.914,1.953,118734.786
1686016970.355,-24.902,272.949,107.422,-20.508,118734.790
1686016970.359,-24.414,-481.445,-240.234,-17.578,118734.794
1686016970.363,-10.254,-305.176,21.973,-0.977,118734.798
1686016970.367,-3.418,115.723,191.406,4.883,118734.802
1686016970.370,-2.441,-137.207,8.789,-2.441,118734.806
1686016970.374,-4.395,-642.090,-202.148,-9.277,118734.810
1686016970.378,-21.484,-335.938,25.391,-4.395,118734.814
1686016970.382,-20.020,217.773,226.074,-2.441,118734.817
1686016970.386,-17.578,66.895,62.988,-12.695,118734.821
1686016970.390,-30.273,-336.426,-22.461,-23.926,118734.825
1686016970.407,-27.344,28.809,145.996,-19.531,118734.828
1686016970.411,-20.508,395.508,167.969,-2.441,118734.832
1686016970.415,-29.785,191.406,37.598,-3.906,118734.836
1686016970.419,-44.922,51.758,43.945,-22.461,118734.840
1686016970.423,-44.922,191.895,108.398,-27.832,118734.844
1686016970.427,-38.086,76.660,41.992,-14.160,118734.848
1686016970.430,-38.086,-208.008,-11.230,-17.578,118734.851
1686016970.434,-33.203,-171.875,37.109,-40.039,118734.855
1686016970.438,-32.715,9.766,25.879,-36.621,118734.859
1686016970.442,-23.438,267.578,131.836,-17.090,118734.863
1686016970.446,-24.414,-79.102,-45.410,-7.324,118734.867
1686016970.450,-36.621,-467.773,-118.652,-19.531,118734.871
1686016970.438,-41.504,-268.555,38.574,-30.273,118734.861
1686016970.442,-34.180,-117.676,77.637,-9.277,118734.865
1686016970.446,-26.855,-498.047,-134.277,7.324,118734.869
1686016970.450,-36.133,-663.086,-83.008,-13.672,118734.873
1686016970.454,-46.875,39.062,191.895,-42.480,118734.877
1686016970.458,-33.203,-113.770,47.852,-30.762,118734.881
1686016970.461,-23.438,-416.016,6.348,-15.625,118734.885
1686016970.465,-33.203,104.492,152.344,-29.297,118734.889
1686016970.469,-44.434,360.840,157.715,-33.203,118734.893
1686016970.473,-47.852,101.562,41.504,-33.203,118734.897
1686016970.477,-33.691,-628.906,-184.570,-22.949,118734.900
1686016970.481,-31.738,-187.012,73.730,-14.648,118734.904
1686016970.497,-41.504,394.043,198.730,-31.738,118734.932
1686016970.501,-43.457,-8.301,-59.570,-37.109,118734.936
1686016970.505,-39.062,-231.934,-80.078,-24.414,118734.940
1686016970.509,-36.621,162.109,131.836,-28.320,118734.944
1686016970.513,-46.875,424.805,147.461,-42.480,118734.948
1686016970.517,-52.734,-172.363,-192.871,-45.898,118734.952
1686016970.520,-52.246,-907.715,-343.262,-28.809,118734.956
1686016970.524,-50.781,-137.695,156.250,-14.648,118734.960
1686016970.528,-56.152,458.496,239.258,-24.414,118734.964
1686016970.532,-67.871,-19.043,-43.945,-34.180,118734.968
1686016970.536,-59.570,78.613,71.289,-25.391,118734.972
1686016970.540,-44.922,289.551,161.133,-12.695,118734.975
1686016970.542,-46.387,51.758,16.602,-13.672,118734.963
1686016970.546,-50.293,-447.754,-230.957,-23.438,118734.967
1686016970.550,-50.293,-343.262,-0.977,-31.250,118734.971
1686016970.554,-39.062,361.328,246.582,-17.090,118734.975
1686016970.558,-29.785,297.852,91.309,-7.812,118734.979
1686016970.562,-34.180,-308.105,-124.023,-20.020,118734.983
1686016970.565,-32.227,-448.730,-164.551,-20.996,118734.987
1686016970.569,-31.250,29.297,102.539,-8.789,118734.991
1686016970.573,-32.227,225.586,143.066,-0.977,118734.995
1686016970.577,-37.598,-637.695,-251.465,-10.254,118734.999
1686016970.581,-50.293,-435.547,-39.062,-27.344,118735.002
1686016970.585,-45.410,321.289,242.188,-22.461,118735.006
1686016970.587,-31.250,137.207,53.711,-8.789,118735.008
1686016970.591,-35.645,-471.680,-112.793,-21.973,118735.012
1686016970.595,-35.645,-78.125,109.863,-35.645,118735.016
1686016970.599,-26.367,339.355,166.504,-19.531,118735.020
1686016970.603,-21.484,78.125,25.391,-5.371,118735.024
1686016970.607,-28.320,-211.914,0.977,-12.695,118735.027
1686016970.610,-41.016,-208.496,19.043,-26.367,118735.031
1686016970.614,-46.387,-15.625,69.824,-32.715,118735.035
1686016970.618,-41.016,-267.578,-31.250,-17.090,118735.039
1686016970.622,-34.668,-849.121,-234.863,-7.812,118735.043
1686016970.626,-36.621,-166.016,102.539,-25.391,118735.047
1686016970.630,-35.156,169.922,145.996,-24.414,118735.051
1686016970.632,-30.762,-406.250,-74.707,-13.184,118735.054
1686016970.636,-24.902,-109.863,122.559,-11.230,118735.058
1686016970.640,-30.273,295.410,214.355,-20.020,118735.062
1686016970.644,-49.316,176.270,64.453,-37.598,118735.066
1686016970.648,-38.574,-229.980,-101.562,-41.504,118735.070
1686016970.652,-24.902,-227.539,-4.395,-27.832,118735.074
1686016970.655,-28.320,18.555,125.000,-27.832,118735.078
1686016970.659,-41.992,30.273,48.340,-45.410,118735.081
1686016970.663,-58.105,-655.273,-247.559,-39.551,118735.085
1686016970.667,-57.129,-355.469,24.414,-22.949,118735.089
1686016970.671,-48.828,217.285,219.238,-28.320,118735.093
1686016970.675,-49.805,11.719,23.438,-43.457,118735.097
1686016970.680,-50.781,-209.961,-21.484,-39.062,118735.104
1686016970.684,-30.762,152.832,152.832,-15.625,118735.108
1686016970.688,-27.832,416.992,175.293,-14.648,118735.112
1686016970.692,-52.246,49.805,-74.707,-38.574,118735.116
1686016970.696,-56.152,-319.336,-114.258,-48.340,118735.120
1686016970.700,-49.805,-227.051,51.270,-40.527,118735.124
1686016970.703,-41.016,63.477,138.184,-29.297,118735.128
1686016970.707,-45.410,-146.973,-53.711,-39.062,118735.132
1686016970.711,-46.387,-585.449,-114.746,-52.734,118735.136
1686016970.715,-33.203,39.062,185.059,-46.387,118735.140
1686016970.719,-28.320,398.438,193.359,-25.391,118735.143
1686016970.723,-28.320,1.465,-26.367,-26.367,118735.147
1686016970.737,-38.574,-320.312,-153.320,-45.410,118735.158
1686016970.741,-44.434,-223.633,-38.086,-45.898,118735.162
1686016970.745,-36.133,58.105,121.094,-27.832,118735.166
1686016970.749,-40.527,-126.465,-41.016,-29.785,118735.170
1686016970.753,-41.504,-79.590,-3.418,-44.434,118735.173
1686016970.757,-40.039,-54.199,-4.883,-42.969,118735.177
1686016970.760,-37.109,-181.641,-15.137,-30.273,118735.181
1686016970.764,-31.738,-637.695,-197.266,-27.344,118735.185
1686016970.768,-41.504,-1000.000,-293.457,-33.691,118735.189
1686016970.772,-53.711,-217.773,100.586,-42.480,118735.193
1686016970.776,-43.945,215.332,203.613,-30.762,118735.197
1686016970.780,-30.273,134.277,194.824,-17.578,118735.201
1686016970.767,-31.738,348.145,171.875,-26.367,118735.188
1686016970.771,-41.016,364.746,101.074,-38.086,118735.192
1686016970.775,-44.922,21.484,-40.039,-30.762,118735.196
1686016970.779,-34.668,-122.070,-41.504,-17.578,118735.200
1686016970.783,-37.109,210.449,118.164,-20.020,118735.204
1686016970.787,-52.734,83.008,-69.336,-38.086,118735.208
1686016970.790,-46.875,-406.250,-229.980,-39.551,118735.211
1686016970.794,-41.992,-682.617,-110.352,-24.902,118735.215
1686016970.798,-47.852,66.895,198.730,-23.926,118735.219
1686016970.802,-51.758,434.082,169.434,-24.902,118735.223
1686016970.806,-57.617,-259.277,-165.039,-35.156,118735.227
1686016970.810,-48.828,-645.996,-107.422,-32.715,118735.231
1686016970.812,-31.738,-193.848,160.645,-28.320,118735.247
1686016970.816,-28.320,170.410,148.926,-41.504,118735.250
1686016970.820,-41.992,-355.469,-138.184,-45.898,118735.254
1686016970.824,-50.781,-299.316,24.902,-33.691,118735.258
1686016970.828,-39.551,359.863,231.445,-24.902,118735.262
1686016970.832,-32.227,71.289,64.941,-30.273,118735.266
1686016970.835,-39.551,-698.730,-237.793,-34.668,118735.270
1686016970.839,-48.340,-604.004,-90.332,-35.645,118735.274
1686016970.843,-45.898,236.816,284.668,-24.902,118735.278
1686016970.847,-41.504,290.527,127.441,-26.367,118735.282
1686016970.851,-43.945,-84.961,-8.789,-46.875,118735.286
1686016970.855,-43.945,138.184,116.211,-49.805,118735.289
1686016970.857,-33.203,372.559,159.668,-37.109,118735.308
1686016970.861,-29.785,266.113,78.613,-39.551,118735.311
1686016970.865,-41.016,88.379,43.945,-56.152,118735.315
1686016970.869,-45.898,122.070,63.477,-67.383,118735.319
1686016970.873,-37.598,285.645,119.141,-53.223,118735.323
1686016970.877,-31.250,-106.445,-17.090,-33.691,118735.327
1686016970.880,-47.852,-495.605,-56.152,-41.992,118735.331
1686016970.884,-51.270,-30.762,85.938,-50.293,118735.335
1686016970.888,-39.551,-1.953,27.344,-48.340,118735.339
1686016970.892,-33.203,-296.387,-9.766,-33.691,118735.343
1686016970.896,-32.715,-223.145,37.598,-33.203,118735.347
1686016970.900,-47.363,101.074,128.906,-53.711,118735.351
1686016970.917,-47.363,-122.070,-22.949,-47.363,118735.338
1686016970.921,-31.250,-455.078,-106.934,-26.367,118735.342
1686016970.925,-37.109,-199.707,118.164,-27.344,118735.346
1686016970.929,-42.480,307.617,196.777,-46.387,118735.350
1686016970.933,-34.180,192.383,56.641,-51.270,118735.354
1686016970.937,-33.203,-357.422,-84.473,-28.809,118735.358
1686016970.940,-35.645,-189.453,44.434,-25.879,118735.362
1686016970.944,-43.945,320.801,168.945,-54.199,118735.365
1686016970.948,-52.734,46.387,-8.789,-62.012,118735.369
1686016970.952,-48.340,-345.703,-44.922,-44.922,118735.373
1686016970.956,-32.227,8.789,120.605,-30.273,118735.377
1686016970.960,-41.016,147.461,109.375,-44.434,118735.381
1686016970.962,-52.734,-44.434,-41.992,-54.199,118735.383
1686016970.966,-46.875,-740.234,-282.227,-37.109,118735.387
1686016970.970,-42.480,-246.094,99.121,-31.738,118735.391
1686016970.974,-37.598,414.062,242.188,-40.039,118735.395
1686016970.978,-41.992,52.734,-32.227,-48.828,118735.399
1686016970.982,-49.805,-309.082,-114.746,-52.246,118735.403
1686016970.985,-47.852,-114.746,68.359,-41.016,118735.407
1686016970.989,-44.922,328.125,195.312,-34.180,118735.411
1686016970.993,-51.758,-152.832,-94.727,-49.805,118735.415
1686016970.997,-56.152,-639.648,-119.629,-55.176,118735.418
1686016971.001,-40.039,82.520,215.332,-39.062,118735.422
1686016971.005,-25.391,360.840,174.805,-30.273,118735.426
1686016971.008,-29.785,-334.961,-153.320,-39.062,118735.431
1686016971.012,-43.457,-571.777,-118.164,-47.852,118735.435
1686016971.016,-47.852,31.738,213.379,-39.551,118735.439
1686016971.020,-43.457,364.258,203.613,-25.879,118735.443
1686016971.024,-46.387,-231.934,-180.664,-33.691,118735.447
1686016971.028,-49.316,-537.598,-214.844,-43.457,118735.451
1686016971.031,-44.922,-124.512,88.379,-36.621,118735.455
1686016971.035,-34.180,195.312,157.227,-32.227,118735.459
1686016971.039,-28.809,-489.746,-177.734,-25.879,118735.463
1686016971.043,-36.621,-323.242,27.832,-32.715,118735.467
1686016971.047,-36.133,282.227,195.801,-34.180,118735.471
1686016971.051,-28.320,145.996,86.914,-27.832,118735.474
1686016971.052,-21.973,165.527,171.875,-31.738,118735.473
1686016971.056,-24.902,232.422,65.918,-45.410,118735.477
1686016971.060,-34.668,95.215,-20.020,-46.387,118735.481
1686016971.064,-34.180,-41.016,18.555,-31.250,118735.485
1686016971.068,-20.020,-150.879,11.230,-20.996,118735.489
1686016971.072,-24.902,-233.887,8.301,-24.902,118735.493
1686016971.075,-53.711,-151.367,54.199,-42.969,118735.496
1686016971.079,-52.246,-210.938,-42.480,-44.922,118735.500
1686016971.083,-28.320,-835.938,-246.094,-19.531,118735.504
1686016971.087,-26.367,-187.500,125.488,-22.949,118735.508
1686016971.091,-44.434,317.871,195.801,-43.457,118735.512
1686016971.095,-57.129,-173.828,-73.242,-36.621,118735.516
1686016971.097,-45.410,-225.586,25.879,-16.113,118735.518
1686016971.101,-52.246,220.703,212.402,-24.902,118735.522
1686016971.105,-56.152,307.129,92.773,-39.551,118735.526
1686016971.109,-49.316,-414.062,-240.723,-37.109,118735.530
1686016971.113,-47.363,-274.902,6.836,-27.832,118735.534
1686016971.117,-40.527,95.215,161.621,-28.320,118735.538
1686016971.120,-41.992,-183.594,-1.465,-41.992,118735.542
1686016971.124,-40.039,-812.012,-276.855,-40.039,118735.546
1686016971.128,-31.250,-672.363,-68.848,-23.438,118735.550
1686016971.132,-26.855,293.457,288.574,-26.855,118735.554
1686016971.136,-33.203,256.348,92.773,-44.434,118735.557
1686016971.140,-40.527,-66.895,-2.441,-57.129,118735.561
1686016971.142,-33.691,186.035,133.301,-47.363,118735.563
1686016971.146,-29.785,394.531,179.688,-36.133,118735.567
1686016971.150,-39.062,180.664,23.438,-38.086,118735.571
1686016971.154,-52.246,-39.551,-69.824,-41.504,118735.574
1686016971.158,-48.340,58.594,48.340,-32.715,118735.578
1686016971.162,-35.156,62.012,88.867,-10.254,118735.582
1686016971.165,-31.250,-273.926,-35.156,-5.371,118735.586
1686016971.169,-38.574,-630.371,-101.074,-16.113,118735.590
1686016971.173,-51.270,-107.910,107.910,-28.809,118735.594
1686016971.177,-44.434,84.961,108.398,-10.742,118735.598
1686016971.181,-38.574,-224.609,14.160,8.301,118735.602
1686016971.185,-52.734,-186.523,38.574,-6.836,118735.606
1686016971.187,-56.641,-152.344,0.977,-20.508,118735.653
1686016971.191,-49.316,-46.387,60.547,-12.695,118735.657
1686016971.195,-44.922,-315.430,-36.621,3.418,118735.661
1686016971.199,-47.852,-253.418,67.383,-8.789,118735.665
1686016971.203,-54.688,237.793,179.688,-36.621,118735.669
1686016971.207,-50.781,-64.453,5.371,-29.785,118735.673
1686016971.210,-41.504,-691.406,-158.203,-3.418,118735.676
1686016971.214,-42.480,-257.324,92.773,-11.719,118735.680
1686016971.218,-49.316,359.375,213.379,-36.133,118735.684
1686016971.222,-48.340,146.973,52.734,-31.738,118735.688
1686016971.226,-32.715,47.363,63.965,-9.277,118735.692
1686016971.230,-28.809,139.648,105.469,-10.254,118735.696
1686016971.235,-57.129,62.500,51.270,-38.086,118735.662
1686016971.239,-51.758,-97.168,-26.855,-26.855,118735.666
1686016971.243,-26.855,-323.730,-18.555,5.859,118735.669
1686016971.247,-47.852,113.770,169.434,-14.648,118735.673
1686016971.251,-70.801,364.258,144.043,-42.969,118735.677
1686016971.255,-67.383,-227.539,-171.387,-30.762,118735.681
1686016971.258,-60.059,-576.172,-102.539,8.301,118735.685
1686016971.262,-46.387,123.535,206.055,41.504,118735.689
1686016971.266,-51.758,236.328,103.516,38.574,118735.693
1686016971.270,-66.895,-207.031,-85.938,30.273,118735.697
1686016971.274,-56.641,-98.145,26.367,54.688,118735.701
1686016971.278,-46.387,238.770,179.199,79.590,118735.705
1686016971.293,-42.480,19.531,71.289,85.449,118735.716
1686016971.297,-38.086,-429.688,-172.363,80.078,118735.720
1686016971.301,-33.691,-437.012,-79.102,81.055,118735.724
1686016971.305,-21.484,66.406,193.359,110.352,118735.728
1686016971.309,-9.277,342.773,208.496,121.094,118735.732
1686016971.313,-5.371,-499.512,-276.855,116.699,118735.736
1686016971.316,-10.254,-1000.000,-416.992,123.535,118735.740
1686016971.320,-10.254,-260.254,193.359,126.465,118735.744
1686016971.324,1.465,270.996,269.043,128.418,118735.748
1686016971.328,1.953,62.500,86.914,114.746,118735.752
1686016971.332,-8.301,165.527,121.094,100.098,118735.755
1686016971.336,-2.441,295.898,135.742,106.934,118735.759
1686016971.337,-0.488,188.477,89.355,115.234,118735.759
1686016971.341,-18.066,83.496,87.402,99.121,118735.763
1686016971.345,-20.508,194.824,108.398,78.613,118735.767
1686016971.349,-18.555,260.742,101.074,80.078,118735.771
1686016971.353,-17.090,65.918,18.066,97.656,118735.774
1686016971.357,-13.184,-194.824,-78.613,103.027,118735.778
1686016971.360,-23.926,-280.762,-155.273,79.102,118735.782
1686016971.364,-26.367,-43.945,-18.555,67.871,118735.786
1686016971.368,-20.020,-171.387,-50.293,83.008,118735.790
1686016971.372,-26.367,-860.840,-249.512,84.961,118735.794
1686016971.376,-33.691,-181.641,114.258,60.059,118735.798
1686016971.380,-37.109,246.094,166.016,43.945,118735.802
1686016971.382,-29.297,-385.254,-82.031,49.316,118735.803
1686016971.386,-18.555,-154.297,99.609,45.410,118735.807
1686016971.390,-19.531,358.887,223.145,21.484,118735.811
1686016971.394,-26.367,201.660,75.195,10.254,118735.815
1686016971.398,-26.367,-227.539,-78.613,20.996,118735.819
1686016971.402,-14.648,-235.352,32.227,35.156,118735.823
1686016971.405,-13.184,0.488,128.906,31.738,118735.826
1686016971.409,-20.020,-33.203,4.395,9.277,118735.830
1686016971.413,-24.902,-812.012,-312.012,10.742,118735.834
1686016971.417,-24.902,-643.555,-49.805,29.785,118735.838
1686016971.421,-20.508,310.059,274.414,24.902,118735.842
1686016971.425,-22.461,172.363,42.969,7.324,118735.846
1686016971.442,-31.738,-139.160,-24.902,3.906,118735.863
1686016971.446,-32.715,211.914,163.574,10.254,118735.867
1686016971.450,-30.273,421.875,187.500,20.020,118735.871
1686016971.454,-35.645,139.160,17.090,8.301,118735.875
1686016971.458,-45.410,-104.980,-78.125,-12.695,118735.879
1686016971.462,-40.039,-186.523,-86.914,-0.977,118735.883
1686016971.465,-33.203,-67.383,57.129,12.695,118735.887
1686016971.469,-34.668,-246.582,-27.344,10.742,118735.891
1686016971.473,-37.598,-614.746,-99.121,1.953,118735.895
1686016971.477,-35.645,-100.098,143.066,-4.395,118735.898
1686016971.481,-25.391,78.125,142.578,-1.465,118735.902
1686016971.485,-29.297,-270.020,-14.160,-7.812,118735.906
1686016971.472,-34.668,-356.445,-20.508,-26.367,118735.893
1686016971.476,-45.410,27.832,153.320,-35.645,118735.897
1686016971.480,-45.410,40.039,97.656,-15.625,118735.901
1686016971.484,-42.480,-452.148,-127.441,-5.859,118735.905
1686016971.488,-56.152,-417.480,38.574,-28.809,118735.909
1686016971.492,-54.199,-89.844,141.113,-37.109,118735.913
1686016971.495,-39.551,-204.102,51.758,-11.719,118735.916
1686016971.499,-28.809,-330.566,31.250,-0.488,118735.920
1686016971.503,-29.297,66.406,130.371,-16.113,118735.924
1686016971.507,-32.227,344.238,154.297,-34.668,118735.928
1686016971.511,-22.949,99.609,23.926,-20.996,118735.932
1686016971.515,-20.020,-590.332,-172.852,-5.859,118735.936
1686016971.518,-26.367,-368.652,36.621,-15.137,118735.947
1686016971.522,-29.785,73.242,154.297,-33.203,118735.951
1686016971.526,-31.250,-72.266,17.090,-31.738,118735.955
1686016971.530,-23.438,-162.109,35.156,-14.160,118735.959
1686016971.534,-20.508,212.402,169.434,-12.695,118735.963
1686016971.538,-30.273,117.676,74.707,-26.367,118735.966
1686016971.541,-39.062,-404.297,-154.297,-36.621,118735.970
1686016971.545,-32.227,-614.746,-75.195,-25.391,118735.974
1686016971.549,-22.461,171.387,225.586,-27.832,118735.978
1686016971.553,-25.879,357.910,131.348,-49.316,118735.982
1686016971.557,-34.668,-101.562,-45.898,-55.176,118735.986
1686016971.561,-34.180,-23.926,49.316,-41.504,118735.990
1686016971.577,-34.180,30.762,116.699,-35.645,118735.998
1686016971.581,-55.176,195.312,124.023,-50.781,118736.002
1686016971.585,-56.641,-327.637,-184.082,-56.152,118736.005
1686016971.589,-49.316,-581.543,-81.543,-51.270,118736.009
1686016971.593,-47.852,166.992,248.047,-46.387,118736.013
1686016971.597,-50.781,114.746,87.891,-56.641,118736.017
1686016971.600,-58.105,-751.953,-290.527,-64.453,118736.021
1686016971.604,-58.594,-739.746,-124.023,-58.594,118736.025
1686016971.608,-42.969,246.582,295.410,-43.945,118736.029
1686016971.612,-39.062,354.004,161.133,-40.527,118736.033
1686016971.616,-50.293,20.996,17.578,-59.082,118736.037
1686016971.620,-47.852,169.434,106.934,-63.477,118736.041
1686016971.607,-40.527,313.477,155.273,-49.316,118736.043
1686016971.611,-41.504,204.590,63.477,-42.969,118736.047
1686016971.615,-55.664,20.020,-20.508,-59.082,118736.051
1686016971.619,-62.012,136.230,78.613,-63.477,118736.054
1686016971.623,-42.969,232.422,118.164,-37.109,118736.058
1686016971.627,-36.133,-51.758,10.742,-28.320,118736.062
1686016971.630,-44.434,-298.828,-39.062,-40.039,118736.066
1686016971.634,-58.105,-219.238,-1.465,-60.547,118736.070
1686016971.638,-49.805,203.613,145.508,-53.711,118736.074
1686016971.642,-30.273,-81.543,-14.160,-28.809,118736.078
1686016971.646,-38.086,-822.754,-278.320,-35.156,118736.082
1686016971.650,-37.109,-296.387,59.570,-52.246,118736.086
1686016971.667,-31.250,-84.473,117.188,-39.062,118736.088
1686016971.671,-28.320,-451.660,-29.297,-16.113,118736.092
1686016971.675,-26.855,-230.957,148.438,-21.484,118736.096
1686016971.679,-35.156,260.742,215.332,-41.504,118736.100
1686016971.683,-33.203,208.008,87.891,-40.527,118736.103
1686016971.687,-20.996,-265.625,-60.059,-18.555,118736.107
1686016971.690,-24.902,-69.824,91.309,-7.812,118736.111
1686016971.694,-34.668,322.754,162.109,-16.602,118736.115
1686016971.698,-41.992,-95.215,-104.492,-22.461,118736.119
1686016971.702,-35.156,-814.453,-301.758,-8.301,118736.123
1686016971.706,-32.715,-315.430,115.723,-7.324,118736.127
1686016971.710,-32.715,394.531,270.996,-16.113,118736.131
1686016971.712,-26.367,73.730,-1.465,-25.391,118736.133
1686016971.716,-23.926,-117.188,-11.719,-19.531,118736.137
1686016971.720,-18.066,231.934,173.828,-3.906,118736.141
1686016971.724,-18.066,396.484,178.223,-10.254,118736.145
1686016971.728,-24.902,50.293,-60.547,-26.855,118736.149
1686016971.732,-31.250,-403.809,-169.922,-33.691,118736.153
1686016971.735,-27.344,-197.266,44.922,-20.996,118736.157
1686016971.739,-21.973,306.641,188.477,-12.695,118736.161
1686016971.743,-32.227,-139.160,-112.305,-24.902,118736.165
1686016971.747,-37.598,-627.930,-131.348,-29.297,118736.169
1686016971.751,-28.809,-36.133,174.316,-9.766,118736.173
1686016971.755,-22.949,95.703,143.555,-1.953,118736.176
1686016971.757,-34.180,-489.746,-157.227,-15.137,118736.178
1686016971.761,-41.016,-701.172,-137.695,-20.996,118736.182
1686016971.765,-35.156,58.105,236.328,-22.949,118736.185
1686016971.769,-32.715,314.941,188.965,-8.301,118736.189
1686016971.773,-34.668,-1.953,26.367,-5.859,118736.193
1686016971.777,-39.062,-255.371,-18.066,-20.508,118736.197
1686016971.780,-43.457,-100.098,102.539,-20.996,118736.201
1686016971.784,-28.809,166.504,137.207,-3.418,118736.205
1686016971.788,-29.297,-552.734,-187.988,2.930,118736.209
1686016971.792,-44.922,-360.352,21.973,-13.672,118736.213
1686016971.796,-41.504,277.832,191.895,-16.602,118736.217
1686016971.800,-22.949,153.320,98.145,1.953,118736.221
1686016971.803,-21.484,105.957,165.039,10.254,118736.227
1686016971.807,-29.785,45.898,51.270,1.953,118736.231
1686016971.811,-32.227,-51.758,-16.113,-4.395,118736.235
1686016971.815,-39.062,-51.758,20.996,0.488,118736.239
1686016971.819,-34.180,-153.809,30.762,11.230,118736.243
1686016971.823,-31.250,-223.633,7.324,1.953,118736.247
1686016971.826,-50.781,-124.512,33.203,-19.043,118736.251
1686016971.830,-51.758,-172.363,12.207,-10.742,118736.255
1686016971.834,-39.551,-521.484,-21.973,6.348,118736.259
1686016971.838,-36.133,100.586,174.316,6.348,118736.263
1686016971.842,-40.527,301.270,130.859,-0.488,118736.267
1686016971.846,-38.086,-161.621,-43.945,9.277,118736.270
1686016971.862,-28.809,-227.051,14.160,20.996,118736.284
1686016971.866,-23.926,146.484,172.363,13.672,118736.288
1686016971.870,-33.691,211.914,72.754,-8.301,118736.291
1686016971.874,-39.062,-494.629,-273.438,-16.602,118736.295
1686016971.878,-30.762,-563.477,-62.988,-7.812,118736.299
1686016971.882,-31.250,-122.070,149.414,-8.789,118736.303
1686016971.885,-40.527,-129.883,37.109,-19.531,118736.307
1686016971.889,-37.109,-767.578,-239.746,-11.719,118736.311
1686016971.893,-29.785,-744.629,-102.051,9.277,118736.315
1686016971.897,-29.297,230.957,281.738,12.207,118736.319
1686016971.901,-30.762,239.746,107.422,-4.395,118736.323
1686016971.905,-35.645,-101.562,-4.395,-24.902,118736.327
1686016971.892,-30.762,162.598,144.043,-24.414,118736.313
1686016971.896,-27.832,348.145,165.527,-6.836,118736.317
1686016971.900,-28.809,102.539,39.062,-12.695,118736.321
1686016971.904,-35.645,1.465,33.691,-26.367,118736.325
1686016971.908,-43.457,168.945,98.145,-23.438,118736.329
1686016971.912,-34.668,16.602,53.711,-15.625,118736.333
1686016971.915,-37.109,-244.141,-32.227,-19.531,118736.336
1686016971.919,-50.293,-195.801,-22.949,-34.668,118736.340
1686016971.923,-55.176,87.891,96.680,-41.016,118736.344
1686016971.927,-48.340,359.375,171.387,-21.973,118736.348
1686016971.931,-43.457,-51.270,-88.379,-3.418,118736.352
1686016971.935,-45.410,-895.508,-357.422,-6.836,118736.356
1686016971.937,-51.758,-536.621,-1.465,-27.344,118736.387
1686016971.941,-45.410,113.770,213.379,-20.996,118736.391
1686016971.945,-35.645,-218.750,-22.461,3.418,118736.395
1686016971.949,-42.480,-247.070,54.199,-8.301,118736.399
1686016971.953,-56.641,217.773,186.035,-33.691,118736.403
1686016971.957,-47.852,-11.230,42.969,-19.531,118736.406
1686016971.960,-31.738,-619.629,-149.902,14.648,118736.410
1686016971.964,-32.715,-283.203,93.262,0.977,118736.414
1686016971.968,-33.691,312.012,198.242,-22.461,118736.418
1686016971.972,-29.785,-78.613,-20.508,-13.672,118736.422
1686016971.976,-22.461,-448.242,-38.086,4.395,118736.426
1686016971.980,-23.926,91.797,134.766,-0.977,118736.430
1686016971.982,-32.715,349.609,128.418,-23.438,118736.417
1686016971.986,-35.156,0.000,-56.641,-31.738,118736.421
1686016971.990,-32.715,-59.570,-12.695,-25.879,118736.425
1686016971.994,-34.180,263.184,160.645,-25.879,118736.429
1686016971.998,-40.527,343.262,105.469,-37.598,118736.433
1686016972.002,-44.434,-251.465,-205.078,-38.086,118736.437
1686016972.005,-37.598,-615.234,-136.719,-14.648,118736.441
1686016972.009,-32.715,106.934,218.750,-1.953,118736.445
1686016972.013,-39.551,368.164,145.020,-11.230,118736.449
1686016972.017,-46.387,-152.344,-119.141,-26.367,118736.453
1686016972.021,-42.480,-191.895,-7.324,-27.344,118736.456
1686016972.025,-35.156,47.852,121.582,-17.578,118736.460
1686016972.042,-32.715,-53.711,47.363,-21.484,118736.477
1686016972.046,-37.598,-560.059,-233.887,-32.227,118736.481
1686016972.050,-40.527,-845.703,-223.633,-34.180,118736.485
1686016972.054,-37.109,20.508,232.910,-20.020,118736.489
1686016972.058,-32.715,262.695,160.156,-10.254,118736.493
1686016972.062,-35.156,-372.559,-159.180,-19.043,118736.497
1686016972.065,-36.621,-352.539,-82.520,-19.531,118736.501
1686016972.069,-29.785,249.023,206.543,-4.883,118736.505
1686016972.073,-25.879,229.980,111.328,-3.418,118736.509
1686016972.077,-30.762,-616.699,-244.629,-5.859,118736.513
1686016972.081,-36.621,-285.645,-6.836,-19.531,118736.516
1686016972.085,-26.367,294.922,201.172,-25.879,118736.520
1686016972.087,-7.324,145.508,64.941,-8.789,118736.508
1686016972.091,-16.113,37.109,44.434,-17.090,118736.512
1686016972.095,-29.785,-109.863,-46.875,-42.480,118736.516
1686016972.099,-28.809,-88.379,-34.180,-39.551,118736.520
1686016972.103,-22.461,-75.684,9.277,-18.066,118736.523
1686016972.107,-20.996,-482.910,-82.031,-18.066,118736.527
1686016972.110,-25.391,-290.527,69.824,-35.156,118736.531
1686016972.114,-26.367,137.695,155.273,-40.039,118736.535
1686016972.118,-22.461,-227.051,-25.879,-24.902,118736.539
1686016972.122,-25.879,-545.898,-29.785,-10.254,118736.543
1686016972.126,-32.715,68.848,177.734,-19.531,118736.547
1686016972.130,-40.039,152.832,76.660,-31.738,118736.551
1686016972.132,-34.180,-525.879,-169.922,-18.555,118736.554
1686016972.136,-29.785,-647.949,-47.363,-4.395,118736.557
1686016972.140,-40.527,115.234,221.680,-19.043,118736.561
1686016972.144,-45.898,183.594,110.352,-39.551,118736.565
1686016972.148,-41.992,-235.352,-32.715,-29.785,118736.569
1686016972.152,-29.785,-174.316,57.617,-11.230,118736.573
1686016972.155,-26.855,-111.328,90.332,-25.391,118736.577
1686016972.159,-36.133,-231.445,-40.039,-36.621,118736.581
1686016972.163,-29.297,-815.918,-292.969,-21.484,118736.585
1686016972.167,-22.949,-690.918,-62.988,-7.324,118736.589
1686016972.171,-29.785,253.906,278.809,-13.672,118736.593
1686016972.175,-40.039,212.891,104.004,-32.227,118736.597
1686016972.177,-41.504,-58.105,12.207,-38.086,118736.598
1686016972.181,-27.344,223.633,151.855,-20.996,118736.602
1686016972.185,-21.484,373.047,155.273,-14.648,118736.606
1686016972.189,-23.438,142.090,0.000,-16.113,118736.610
1686016972.193,-22.461,-47.852,-57.617,-14.648,118736.614
1686016972.197,-31.738,-127.441,-24.414,-24.902,118736.617
1686016972.200,-34.180,-64.941,101.562,-30.762,118736.621
1686016972.204,-49.316,-222.168,-43.457,-41.504,118736.625
1686016972.208,-56.641,-870.117,-302.246,-33.203,118736.629
1686016972.212,-43.945,-287.109,100.586,-17.090,118736.633
1686016972.216,-44.922,380.859,275.391,-10.254,118736.637
1686016972.220,-42.969,7.324,1.465,-19.531,118736.641
1686016972.237,-51.270,-255.859,-74.707,-38.086,118736.658
1686016972.241,-56.152,62.500,145.508,-41.016,118736.662
1686016972.245,-44.434,309.570,160.156,-21.973,118736.666
1686016972.249,-47.363,-251.953,-151.367,-11.719,118736.670
1686016972.253,-58.105,-349.121,-42.969,-40.039,118736.674
1686016972.257,-54.688,-71.289,52.734,-48.828,118736.678
1686016972.260,-42.969,-153.809,29.785,-28.320,118736.681
1686016972.264,-32.715,-573.242,-130.859,-18.555,118736.685
1686016972.268,-38.574,-311.523,37.598,-32.227,118736.689
1686016972.272,-49.316,245.117,178.711,-51.758,118736.693
1686016972.276,-39.551,-128.906,-20.996,-43.457,118736.697
1686016972.280,-32.715,-414.551,-0.488,-15.625,118736.701
1686016972.267,-32.227,137.695,171.387,-29.785,118736.688
1686016972.271,-38.086,342.773,124.023,-55.664,118736.692
1686016972.275,-37.598,-3.906,-32.227,-46.387,118736.696
1686016972.279,-28.320,12.695,40.039,-21.973,118736.699
1686016972.283,-23.926,265.625,135.742,-17.090,118736.703
1686016972.287,-31.738,-26.855,-118.164,-39.551,118736.707
1686016972.290,-37.109,-387.207,-176.270,-47.363,118736.711
1686016972.294,-24.902,-232.422,61.523,-30.273,118736.715
1686016972.298,-24.902,215.820,165.039,-29.785,118736.719
1686016972.302,-37.598,335.449,125.977,-53.223,118736.723
1686016972.306,-33.203,-239.258,-152.832,-52.734,118736.727
1686016972.310,-26.855,-705.078,-137.695,-33.691,118736.731
1686016972.313,-25.879,-331.055,126.953,-28.320,118736.736
1686016972.317,-25.391,-101.074,90.332,-38.574,118736.740
1686016972.321,-36.621,-606.934,-172.363,-49.316,118736.744
1686016972.325,-44.922,-677.246,-76.172,-42.969,118736.748
1686016972.329,-32.715,168.945,274.902,-34.180,118736.752
1686016972.333,-32.227,41.992,97.656,-44.922,118736.756
1686016972.336,-49.316,-708.008,-205.078,-67.871,118736.760
1686016972.340,-45.410,-393.066,54.688,-65.430,118736.764
1686016972.344,-37.109,355.469,267.578,-52.246,118736.768
1686016972.348,-39.551,243.164,81.543,-58.105,118736.771
1686016972.352,-40.527,-85.938,-6.348,-69.824,118736.775
1686016972.356,-34.668,106.445,100.586,-67.871,118736.779
1686016972.357,-19.531,296.875,144.531,-50.293,118736.792
1686016972.361,-19.531,177.734,49.316,-43.457,118736.796
1686016972.365,-32.715,-57.617,-47.852,-59.570,118736.800
1686016972.369,-35.645,-198.730,-72.266,-65.918,118736.804
1686016972.373,-27.832,65.918,130.859,-47.363,118736.808
1686016972.377,-18.066,-61.523,61.523,-30.762,118736.812
1686016972.380,-27.832,-839.844,-303.711,-29.785,118736.816
1686016972.384,-39.551,-362.793,12.695,-44.922,118736.820
1686016972.388,-34.668,249.512,216.797,-42.969,118736.824
1686016972.392,-32.227,37.109,20.508,-33.691,118736.828
1686016972.396,-38.086,108.398,106.445,-47.363,118736.832
1686016972.400,-52.734,120.605,80.078,-60.059,118736.835
1686016972.417,-52.734,-231.934,-133.789,-47.363,118736.838
1686016972.421,-31.250,-487.793,-140.137,-19.043,118736.842
1686016972.425,-28.320,-301.758,89.844,-18.066,118736.846
1686016972.429,-37.109,209.961,186.523,-49.805,118736.850
1686016972.433,-46.875,79.590,57.129,-66.406,118736.853
1686016972.437,-41.992,-416.016,-114.746,-40.039,118736.857
1686016972.440,-28.320,-342.285,-5.371,-19.531,118736.861
1686016972.444,-41.016,-7.812,151.367,-38.086,118736.865
1686016972.448,-52.734,61.523,33.203,-45.410,118736.869
1686016972.452,-42.480,-680.664,-232.910,-17.090,118736.873
1686016972.456,-32.227,-452.637,73.730,3.418,118736.877
1686016972.460,-28.320,328.125,251.465,-2.930,118736.881
1686016972.462,-28.809,95.215,23.438,-15.137,118736.883
1686016972.466,-33.691,-72.754,16.602,-10.254,118736.887
1686016972.470,-30.273,224.121,149.902,6.348,118736.891
1686016972.474,-27.344,350.098,158.203,8.301,118736.895
1686016972.478,-24.902,55.176,-48.340,-2.441,118736.899
1686016972.482,-29.297,-352.539,-128.906,-3.418,118736.903
1686016972.485,-28.809,-114.258,86.426,8.301,118736.907
1686016972.489,-24.902,316.895,177.734,8.789,118736.911
1686016972.493,-34.668,-157.227,-115.723,2.441,118736.915
1686016972.497,-43.457,-918.457,-344.727,-3.906,118736.918
1686016972.501,-35.645,-232.910,101.562,0.000,118736.922
1686016972.505,-20.020,348.633,235.840,13.672,118736.926
1686016972.507,-22.949,-276.367,-83.984,-4.395,118736.928
1686016972.511,-25.391,-338.867,13.672,-12.695,118736.932
1686016972.515,-13.184,212.891,201.172,6.348,118736.936
1686016972.519,-9.277,283.691,160.156,13.184,118736.940
1686016972.523,-13.184,-135.254,-81.055,0.977,118736.944
1686016972.527,-23.438,-416.992,-224.609,-16.602,118736.948
1686016972.530,-29.785,-257.324,-48.340,-17.090,118736.951
1686016972.534,-23.438,58.105,116.699,3.418,118736.955
1686016972.538,-22.949,-534.180,-173.340,11.230,118736.959
1686016972.542,-30.273,-380.371,12.695,-14.160,118736.963
1686016972.546,-42.969,212.891,183.105,-21.484,118736.967
1686016972.550,-41.504,-130.371,15.137,0.977,118736.971
1686016972.555,-32.227,-366.211,22.949,2.930,118736.979
1686016972.559,-38.574,75.684,134.277,-26.855,118736.983
1686016972.563,-38.574,227.051,101.562,-42.480,118736.987
1686016972.567,-27.832,-26.367,20.996,-27.832,118736.991
1686016972.571,-17.090,14.160,112.305,-15.625,118736.995
1686016972.575,-19.043,-111.816,19.043,-20.020,118736.999
1686016972.578,-33.203,-120.117,1.465,-32.227,118737.003
1686016972.582,-32.227,-197.266,-48.828,-19.043,118737.007
1686016972.586,-23.438,-609.863,-96.680,-0.488,118737.011
1686016972.590,-30.273,6.348,166.504,-18.555,118737.014
1686016972.594,-41.016,264.160,140.625,-32.715,118737.018
1686016972.598,-41.504,-204.102,-66.406,-20.020,118737.022
1686016972.597,-32.227,-253.418,0.488,-0.488,118737.021
1686016972.601,-32.715,32.227,148.926,-4.395,118737.025
1686016972.605,-35.645,-130.859,-3.906,-17.578,118737.029
1686016972.609,-37.109,-469.238,-166.992,-20.996,118737.033
1686016972.613,-39.062,-110.352,71.777,-16.113,118737.036
1686016972.617,-34.668,29.785,124.512,-7.324,118737.040
1686016972.620,-39.551,-249.023,25.391,-20.996,118737.044
1686016972.624,-46.875,-761.230,-241.211,-26.367,118737.048
1686016972.628,-37.109,-1000.000,-280.762,-5.859,118737.052
1686016972.632,-23.926,-106.445,213.867,0.000,118737.056
1686016972.636,-26.855,246.582,205.078,-11.230,118737.060
1686016972.640,-36.133,-74.707,86.426,-29.297,118737.064
1686016972.641,-31.250,177.734,174.805,-29.297,118737.063
1686016972.645,-20.508,358.887,174.316,-15.137,118737.067
1686016972.649,-24.414,188.477,33.691,-29.297,118737.070
1686016972.653,-38.574,-17.578,-41.504,-52.246,118737.074
1686016972.657,-36.621,-161.621,-30.273,-50.293,118737.078
1686016972.661,-23.438,-116.699,48.340,-35.156,118737.082
1686016972.664,-22.461,-213.867,10.254,-32.715,118737.086
1686016972.668,-37.109,-837.402,-270.508,-46.387,118737.090
1686016972.672,-40.527,-338.379,27.344,-62.500,118737.094
1686016972.676,-28.320,301.758,230.469,-55.176,118737.098
1686016972.680,-25.879,125.000,64.941,-40.039,118737.102
1686016972.684,-36.133,67.871,76.660,-52.734,118737.106
1686016972.686,-40.527,-114.746,13.184,-65.918,118737.121
1686016972.690,-36.133,-3.906,60.547,-50.293,118737.124
1686016972.694,-33.203,-229.980,-41.016,-46.387,118737.128
1686016972.698,-38.574,-270.020,41.504,-57.129,118737.132
1686016972.702,-40.039,185.059,151.855,-63.965,118737.136
1686016972.706,-38.086,-61.523,-17.578,-60.059,118737.140
1686016972.709,-39.062,-690.918,-196.777,-34.180,118737.144
1686016972.713,-37.109,-510.742,13.184,-34.180,118737.148
1686016972.717,-37.109,238.770,224.609,-51.758,118737.152
1686016972.721,-32.715,99.121,47.363,-45.410,118737.156
1686016972.725,-16.602,-439.453,-51.270,-21.973,118737.160
1686016972.729,-15.625,6.836,149.414,-25.391,118737.164
1686016972.731,-30.273,352.539,176.758,-48.340,118737.167
1686016972.735,-45.898,60.059,1.953,-55.176,118737.171
1686016972.739,-35.156,-23.926,-12.695,-29.785,118737.175
1686016972.743,-23.926,270.020,146.484,-14.160,118737.179
1686016972.747,-28.809,340.820,115.723,-32.715,118737.183
1686016972.751,-34.668,-247.559,-204.590,-41.504,118737.187
1686016972.754,-28.320,-587.891,-109.375,-21.484,118737.190
1686016972.758,-20.020,113.770,209.473,-0.977,118737.194
1686016972.762,-31.250,383.789,124.512,-17.578,118737.198
1686016972.766,-38.574,-270.996,-172.852,-35.645,118737.202
1686016972.770,-29.297,-525.879,-103.516,-16.602,118737.206
1686016972.774,-18.066,62.012,182.617,0.488,118737.210
1686016972.796,-19.043,9.766,52.734,-2.930,118737.215
1686016972.800,-27.832,-487.793,-166.016,-24.902,118737.219
1686016972.804,-31.738,-404.297,18.555,-31.250,118737.223
1686016972.808,-28.320,225.098,223.633,-12.207,118737.227
1686016972.812,-25.391,271.484,116.211,-5.859,118737.231
1686016972.816,-32.227,-334.473,-155.273,-27.832,118737.235
1686016972.819,-33.203,-369.141,-107.422,-39.062,118737.239
1686016972.823,-24.902,253.906,188.477,-26.367,118737.243
1686016972.827,-21.973,288.086,108.887,-14.648,118737.246
1686016972.831,-20.996,-530.273,-221.191,-25.879,118737.250
1686016972.835,-21.973,-285.645,5.859,-45.898,118737.254
1686016972.839,-18.555,194.336,152.344,-41.504,118737.258
1686016972.836,-16.602,-158.203,-8.301,-26.367,118737.257
1686016972.840,-22.949,-380.371,0.488,-26.367,118737.261
1686016972.844,-28.809,15.137,114.746,-44.922,118737.265
1686016972.848,-34.180,243.652,124.023,-43.945,118737.269
1686016972.852,-24.902,87.402,51.270,-27.832,118737.273
1686016972.856,-15.625,-183.105,-44.434,-34.180,118737.277
1686016972.859,-21.484,-225.586,-13.184,-53.711,118737.281
1686016972.863,-29.297,135.742,152.344,-58.594,118737.285
1686016972.867,-23.438,-108.398,-16.113,-42.480,118737.288
1686016972.871,-23.438,-571.289,-75.195,-29.297,118737.292
1686016972.875,-25.391,55.176,172.852,-43.945,118737.296
1686016972.879,-26.855,196.777,92.773,-61.523,118737.300
1686016972.882,-26.855,-448.242,-121.094,-50.293,118737.302
1686016972.886,-18.555,-341.797,74.219,-35.645,118737.306
1686016972.890,-15.137,98.145,192.383,-44.434,118737.310
1686016972.894,-22.949,-136.719,-0.977,-50.293,118737.314
1686016972.898,-15.625,-508.301,-164.062,-39.062,118737.318
1686016972.902,-6.348,-423.828,-14.160,-33.691,118737.322
1686016972.905,-14.648,40.039,195.312,-44.434,118737.326
1686016972.909,-23.438,113.770,79.590,-59.082,118737.330
1686016972.913,-20.508,-622.070,-217.773,-55.664,118737.334
1686016972.917,-16.113,-305.664,70.312,-38.086,118737.338
1686016972.921,-18.555,433.105,259.277,-49.316,118737.342
1686016972.925,-22.461,143.066,15.137,-67.383,118737.345
1686016972.942,-29.785,-124.023,-23.926,-68.359,118737.364
1686016972.946,-26.855,168.457,134.277,-51.758,118737.367
1686016972.950,-19.043,352.539,157.715,-37.598,118737.371
1686016972.954,-30.273,138.184,20.508,-43.945,118737.375
1686016972.958,-37.109,-92.285,-79.590,-59.082,118737.379
1686016972.962,-28.320,-193.848,-69.824,-49.805,118737.383
1686016972.965,-12.207,-130.371,72.754,-31.250,118737.387
1686016972.969,-19.043,-284.668,-20.996,-39.551,118737.391
1686016972.973,-31.250,-878.906,-304.688,-50.781,118737.395
1686016972.977,-27.344,-359.863,62.988,-45.898,118737.399
1686016972.981,-25.391,342.773,274.902,-33.691,118737.403
1686016972.985,-31.250,23.438,7.324,-33.203,118737.406
1686016972.972,-37.598,-297.852,-97.168,-44.434,118737.393
1686016972.976,-40.039,41.992,125.000,-42.969,118737.397
1686016972.980,-31.738,256.836,155.762,-20.996,118737.401
1686016972.984,-28.809,-297.852,-109.863,-14.648,118737.405
1686016972.988,-37.598,-346.680,1.953,-42.969,118737.409
1686016972.992,-43.945,-137.207,40.527,-53.223,118737.413
1686016972.995,-41.504,-263.184,-3.418,-31.250,118737.416
1686016972.999,-42.480,-443.359,-20.996,-29.785,118737.420
1686016973.003,-50.293,-271.973,40.039,-49.316,118737.424
1686016973.007,-52.246,208.496,162.109,-54.199,118737.428
1686016973.011,-44.922,171.387,90.820,-46.387,118737.432
1686016973.015,-32.715,-703.613,-222.656,-25.879,118737.436
1686016973.017,-26.367,-566.406,-47.852,-29.785,118737.438
1686016973.021,-25.391,207.031,192.383,-45.410,118737.442
1686016973.025,-19.531,65.430,63.477,-37.109,118737.446
1686016973.029,-8.301,44.434,139.160,-18.555,118737.450
1686016973.033,-5.859,237.793,139.648,-19.043,118737.454
1686016973.037,-20.020,21.484,-53.711,-38.086,118737.458
1686016973.040,-18.555,-432.129,-211.426,-38.086,118737.461
1686016973.044,-8.301,-658.691,-117.188,-20.020,118737.465
1686016973.048,-8.301,117.676,198.730,-14.648,118737.469
1686016973.052,-19.531,366.211,128.418,-31.738,118737.473
1686016973.056,-33.691,-178.711,-85.449,-43.457,118737.477
1686016973.060,-25.879,-146.973,41.504,-27.344,118737.481
1686016973.062,-8.789,15.137,129.395,-10.742,118737.497
1686016973.066,-7.324,145.508,125.977,-19.531,118737.500
1686016973.070,-28.320,-388.672,-208.008,-35.156,118737.504
1686016973.074,-30.762,-570.312,-116.699,-34.668,118737.508
1686016973.078,-14.648,250.977,258.789,-23.438,118737.512
1686016973.082,-19.043,97.168,52.246,-23.438,118737.516
1686016973.085,-29.785,-717.773,-244.141,-24.902,118737.520
1686016973.089,-22.461,-455.078,0.000,-14.160,118737.524
1686016973.093,-4.883,327.637,263.184,6.836,118737.528
1686016973.097,-15.137,278.809,108.887,5.371,118737.532
1686016973.101,-33.691,-33.203,6.836,-19.043,118737.536
1686016973.105,-38.086,92.773,103.516,-26.367,118737.540
1686016973.108,-37.598,219.238,126.465,-8.301,118737.541
1686016973.112,-37.598,-88.867,7.324,9.277,118737.545
1686016973.116,-48.828,-381.348,-24.902,3.418,118737.549
1686016973.120,-48.828,-15.137,109.375,-7.324,118737.553
1686016973.124,-32.227,265.137,168.457,14.160,118737.557
1686016973.128,-30.762,-181.641,-14.648,35.156,118737.561
1686016973.131,-49.316,-593.262,-84.961,20.996,118737.565
1686016973.135,-60.059,-11.719,137.207,-0.488,118737.569
1686016973.139,-48.340,293.945,146.484,0.977,118737.573
1686016973.143,-28.809,-24.414,-6.348,11.719,118737.577
1686016973.147,-30.762,-14.648,60.547,-1.953,118737.580
1686016973.151,-42.480,104.004,71.777,-23.926,118737.584
1686016973.178,-35.645,-145.020,-92.285,-27.832,118737.598
1686016973.182,-28.320,-465.332,-132.324,-18.555,118737.602
1686016973.186,-28.809,-371.094,70.312,-9.277,118737.606
1686016973.190,-35.645,-65.918,119.629,-25.879,118737.609
1686016973.194,-44.434,-150.879,54.688,-41.016,118737.613
1686016973.198,-39.551,-686.035,-190.430,-18.066,118737.617
1686016973.201,-37.109,-724.121,-107.422,-1.953,118737.621
1686016973.205,-42.480,183.105,250.000,-25.391,118737.625
1686016973.209,-45.410,169.434,105.957,-37.598,118737.629
1686016973.213,-33.203,-441.895,-81.543,-18.066,118737.633
1686016973.217,-14.648,37.598,140.137,-2.441,118737.637
1686016973.221,-35.156,445.801,217.285,-27.344,118737.641
1686016973.212,-56.641,61.035,-35.156,-57.129,118737.647
1686016973.216,-45.410,-92.773,-44.922,-43.945,118737.651
1686016973.220,-26.367,245.605,163.574,-16.602,118737.655
1686016973.224,-19.531,394.043,144.043,-19.043,118737.659
1686016973.228,-33.203,45.410,-68.848,-45.898,118737.663
1686016973.232,-41.504,-400.879,-189.941,-53.711,118737.666
1686016973.235,-33.203,-341.309,0.488,-42.480,118737.670
1686016973.239,-30.762,16.113,185.059,-49.805,118737.674
1686016973.243,-38.574,-157.715,-73.242,-66.895,118737.678
1686016973.247,-46.387,-901.855,-334.961,-62.500,118737.682
1686016973.251,-38.086,-294.434,104.980,-49.316,118737.686
1686016973.255,-24.414,319.336,250.000,-38.574,118737.690
1686016973.257,-32.227,-198.242,-41.016,-52.246,118737.678
1686016973.261,-38.574,-145.508,48.340,-69.336,118737.682
1686016973.265,-32.715,250.488,197.266,-57.617,118737.686
1686016973.269,-18.555,286.133,157.715,-37.598,118737.690
1686016973.273,-15.137,-280.273,-170.898,-43.945,118737.694
1686016973.277,-33.203,-645.508,-200.195,-63.965,118737.697
1686016973.280,-35.645,-136.230,136.230,-68.848,118737.701
1686016973.284,-25.391,213.867,151.367,-53.223,118737.705
1686016973.288,-21.484,-549.805,-185.547,-37.109,118737.709
1686016973.292,-34.180,-543.945,0.977,-57.129,118737.713
1686016973.296,-44.922,269.531,253.418,-64.941,118737.717
1686016973.300,-34.180,152.832,65.918,-41.016,118737.721
1686016973.302,-23.926,-520.508,-111.328,-28.809,118737.723
1686016973.306,-33.203,-110.352,97.656,-41.016,118737.727
1686016973.310,-34.668,304.199,145.996,-40.039,118737.731
1686016973.314,-17.578,106.934,54.688,-12.695,118737.735
1686016973.318,-15.625,120.605,164.551,2.441,118737.739
1686016973.322,-20.996,-77.148,-16.113,-12.695,118737.742
1686016973.325,-24.902,-126.465,-92.285,-27.832,118737.746
1686016973.329,-22.949,-219.727,-54.199,-23.438,118737.750
1686016973.333,-21.484,-586.426,-55.176,-7.324,118737.754
1686016973.337,-33.203,72.266,187.988,-14.648,118737.758
1686016973.341,-34.180,281.738,104.980,-33.203,118737.762
1686016973.345,-21.973,-249.023,-105.957,-28.320,118737.766
1686016973.347,-3.906,-333.496,19.043,-3.906,118737.768
1686016973.351,-5.371,71.777,206.055,-2.930,118737.772
1686016973.355,-19.531,263.184,118.652,-24.902,118737.775
1686016973.359,-20.996,-437.012,-251.465,-22.461,118737.779
1686016973.363,-17.090,-506.348,-84.473,-12.207,118737.783
1686016973.367,-13.184,15.137,178.711,-19.043,118737.787
1686016973.370,-19.043,-130.371,41.992,-37.598,118737.791
1686016973.374,-32.715,-688.477,-188.965,-41.504,118737.795
1686016973.378,-34.668,-452.148,44.434,-19.531,118737.799
1686016973.382,-30.273,383.789,304.199,1.465,118737.803
1686016973.386,-33.691,312.500,105.957,-9.766,118737.807
1686016973.390,-36.133,-40.527,-6.348,-30.273,118737.811
1686016973.395,-22.949,148.926,113.281,-20.508,118737.820
1686016973.399,-6.836,280.762,149.902,-3.418,118737.824
1686016973.403,-14.648,-94.238,-50.293,-9.766,118737.828
1686016973.407,-40.039,-360.840,-62.988,-36.621,118737.832
1686016973.411,-42.969,11.719,109.375,-39.062,118737.835
1686016973.415,-34.180,104.004,107.910,-12.695,118737.839
1686016973.418,-28.809,-322.754,-49.805,-7.812,118737.843
1686016973.422,-33.691,-666.504,-128.418,-25.391,118737.847
1686016973.426,-36.133,-66.406,136.719,-33.691,118737.851
1686016973.430,-19.531,301.758,171.875,-14.160,118737.855
1686016973.434,-14.648,79.102,37.598,-7.324,118737.859
1686016973.438,-31.250,-26.855,30.273,-24.414,118737.863
1686016973.437,-37.598,-121.582,36.621,-38.086,118737.872
1686016973.441,-31.250,70.801,124.512,-29.297,118737.876
1686016973.445,-24.902,-176.758,-33.203,-13.184,118737.880
1686016973.449,-28.320,-209.961,9.277,-26.367,118737.884
1686016973.453,-40.527,22.461,52.246,-52.246,118737.888
1686016973.457,-37.598,-144.531,1.953,-47.363,118737.892
1686016973.460,-24.414,-614.258,-212.402,-22.949,118737.896
1686016973.464,-16.602,-1000.000,-318.848,-14.648,118737.900
1686016973.468,-17.578,-207.520,123.535,-31.738,118737.904
1686016973.472,-19.043,168.945,187.500,-34.668,118737.908
1686016973.476,-19.043,13.184,136.719,-20.020,118737.911
1686016973.480,-18.066,317.383,196.289,-18.066,118737.915
1686016973.482,-23.438,352.051,126.953,-36.133,118737.918
1686016973.486,-34.180,28.809,-10.254,-43.945,118737.922
1686016973.490,-31.738,-26.367,-0.488,-39.551,118737.926
1686016973.494,-16.602,298.340,166.992,-34.668,118737.930
1686016973.498,-26.367,360.352,107.910,-41.016,118737.934
1686016973.502,-42.480,-150.391,-187.500,-54.688,118737.938
1686016973.505,-39.062,-587.402,-149.902,-46.875,118737.942
1686016973.509,-31.250,-235.840,107.422,-30.762,118737.945
1686016973.513,-27.344,245.117,169.922,-34.180,118737.949
1686016973.517,-32.715,-165.039,-82.520,-47.852,118737.953
1686016973.521,-42.969,-604.004,-86.914,-38.086,118737.957
1686016973.525,-33.203,22.461,211.914,-21.973,118737.961
1686016973.542,-23.438,89.844,104.492,-27.344,118737.963
1686016973.546,-26.855,-411.621,-94.727,-45.410,118737.967
1686016973.550,-32.227,-387.207,42.480,-48.828,118737.971
1686016973.554,-29.297,240.723,247.070,-37.598,118737.975
1686016973.558,-30.273,351.074,154.785,-29.297,118737.979
1686016973.562,-32.715,-288.574,-143.555,-47.852,118737.983
1686016973.565,-40.527,-375.000,-75.195,-66.895,118737.987
1686016973.569,-35.645,214.355,182.617,-61.523,118737.990
1686016973.573,-21.973,265.625,111.816,-41.992,118737.994
1686016973.577,-18.066,-586.426,-240.234,-34.180,118737.998
1686016973.581,-24.902,-460.449,-89.844,-55.176,118738.002
1686016973.585,-29.297,250.000,208.496,-56.641,118738.006
1686016973.587,-17.578,141.602,74.707,-36.133,118738.008
1686016973.591,-12.695,-341.309,-29.785,-35.645,118738.012
1686016973.595,-27.344,-110.352,129.883,-52.246,118738.016
1686016973.599,-28.809,217.285,150.879,-50.781,118738.020
1686016973.603,-23.926,55.176,41.016,-23.926,118738.024
1686016973.607,-21.973,-220.215,-43.457,-19.531,118738.028
1686016973.610,-31.738,-217.773,23.438,-41.504,118738.032
1686016973.614,-41.504,150.391,136.719,-45.898,118738.036
1686016973.618,-29.785,-84.961,-37.598,-22.949,118738.040
1686016973.622,-20.508,-572.266,-62.500,-13.672,118738.044
1686016973.626,-27.832,29.297,166.992,-33.203,118738.047
1686016973.630,-34.668,143.066,25.879,-47.852,118738.051
1686016973.633,-29.297,-470.215,-142.578,-37.109,118738.056
1686016973.637,-23.926,-492.676,-14.648,-20.020,118738.060
1686016973.641,-29.297,170.410,194.336,-32.715,118738.064
1686016973.645,-32.715,240.723,107.910,-45.898,118738.068
1686016973.649,-22.461,-414.062,-185.059,-31.738,118738.072
1686016973.653,-11.719,-479.980,-38.086,-17.090,118738.076
1686016973.656,-22.461,24.414,174.316,-23.926,118738.080
1686016973.660,-33.691,173.340,104.492,-36.133,118738.084
1686016973.664,-29.785,-626.953,-229.004,-32.715,118738.088
1686016973.668,-14.160,-544.434,-55.176,-13.672,118738.091
1686016973.672,-8.789,329.590,256.836,-20.508,118738.095
1686016973.676,-22.461,208.008,82.031,-55.176,118738.099
1686016973.677,-27.832,-94.238,-13.672,-59.570,118738.098
1686016973.681,-14.160,198.730,132.324,-28.320,118738.102
1686016973.685,-14.648,231.934,123.047,-22.461,118738.106
1686016973.689,-28.809,-98.633,-1.953,-42.969,118738.110
1686016973.693,-36.133,-86.426,0.977,-46.387,118738.114
1686016973.697,-21.484,-154.297,14.648,-29.785,118738.118
1686016973.700,-10.742,7.812,147.949,-7.324,118738.122
1686016973.704,-21.484,-41.504,29.785,-16.602,118738.126
1686016973.708,-31.250,-837.402,-306.152,-31.738,118738.129
1686016973.712,-35.645,-306.641,71.289,-29.785,118738.133
1686016973.716,-22.461,395.020,272.461,-13.184,118738.137
1686016973.720,-18.066,15.625,-6.348,-14.160,118738.141
1686016973.722,-25.879,-288.574,-40.527,-32.715,118738.157
1686016973.726,-30.273,-9.766,136.719,-41.016,118738.161
1686016973.730,-30.762,306.641,165.527,-34.668,118738.165
1686016973.734,-38.086,-179.199,-77.148,-34.668,118738.169
1686016973.738,-49.316,-339.355,0.000,-52.246,118738.173
1686016973.742,-41.992,-79.590,93.750,-45.410,118738.177
1686016973.745,-30.762,-135.254,61.523,-26.367,118738.181
1686016973.749,-24.902,-665.039,-185.059,-21.973,118738.185
1686016973.753,-33.691,-696.777,-95.215,-34.180,118738.188
1686016973.757,-40.527,111.328,208.008,-46.387,118738.192
1686016973.761,-30.273,172.852,140.625,-31.738,118738.196
1686016973.765,-16.602,47.852,136.719,-10.742,118738.200
1686016973.767,-15.625,300.293,165.527,-20.508,118738.188
1686016973.771,-20.996,311.523,100.586,-34.668,118738.192
1686016973.775,-21.973,-9.277,-28.809,-20.020,118738.196
1686016973.779,-22.461,2.930,59.082,-8.301,118738.199
1686016973.783,-24.902,226.562,125.977,-22.461,118738.203
1686016973.787,-34.668,-42.480,-110.352,-41.016,118738.207
1686016973.790,-39.062,-416.016,-205.078,-32.227,118738.211
1686016973.794,-27.832,-569.336,-52.246,-11.719,118738.215
1686016973.798,-19.043,-230.957,118.164,-2.441,118738.219
1686016973.802,-21.484,159.668,166.016,-14.648,118738.223
1686016973.806,-27.344,-174.805,-51.758,-20.508,118738.227
1686016973.810,-23.926,-625.977,-77.148,1.465,118738.231
1686016973.812,-20.020,-177.734,187.988,9.766,118738.247
1686016973.816,-28.809,227.539,195.312,-2.441,118738.251
1686016973.820,-30.762,-283.203,-82.520,-6.348,118738.255
1686016973.824,-19.043,-334.473,56.152,8.789,118738.258
1686016973.828,-17.578,332.520,263.184,22.461,118738.262
1686016973.832,-25.879,63.965,43.457,12.207,118738.266
1686016973.835,-35.645,-655.762,-241.211,6.348,118738.270
1686016973.839,-38.086,-431.152,3.906,18.066,118738.274
1686016973.843,-30.273,328.125,266.113,31.250,118738.278
1686016973.847,-33.203,289.551,103.027,24.902,118738.282
1686016973.851,-40.527,-223.633,-67.871,-0.977,118738.286
1686016973.855,-40.527,-111.328,57.617,-6.348,118738.290
1686016973.857,-32.227,324.707,201.172,7.812,118738.292
1686016973.861,-25.879,186.523,50.293,12.207,118738.296
1686016973.865,-30.762,-339.844,-69.824,5.371,118738.300
1686016973.869,-42.969,-49.805,96.191,-12.695,118738.304
1686016973.873,-35.645,286.621,150.879,-6.348,118738.308
1686016973.877,-28.320,-150.391,-6.348,11.230,118738.312
1686016973.880,-41.504,-523.438,-46.875,-1.465,118738.316
1686016973.884,-41.504,-45.410,107.422,-25.391,118738.320
1686016973.888,-39.551,203.613,130.371,-23.926,118738.324
1686016973.892,-31.250,7.812,53.711,-4.395,118738.328
1686016973.896,-24.902,70.312,116.211,-5.859,118738.331
1686016973.900,-44.922,107.910,79.590,-34.668,118738.335
1686016973.903,-55.176,-173.340,-94.238,-38.574,118738.352
1686016973.907,-42.969,-553.711,-185.547,-7.812,118738.356
1686016973.911,-41.016,-644.043,-49.316,-11.719,118738.360
1686016973.915,-44.922,120.605,215.332,-50.781,118738.364
1686016973.919,-39.062,234.375,122.070,-62.988,118738.368
1686016973.923,-37.109,-326.660,-101.562,-44.434,118738.372
1686016973.926,-31.738,-236.816,21.973,-27.832,118738.376
1686016973.930,-35.156,263.184,179.688,-35.645,118738.380
1686016973.934,-45.410,157.715,30.762,-50.293,118738.384
1686016973.938,-38.086,-611.816,-230.957,-39.062,118738.388
1686016973.942,-23.438,-240.723,59.082,-15.625,118738.392
1686016973.946,-28.809,400.391,219.238,-28.809,118738.395
1686016973.962,-41.992,85.449,-36.133,-44.922,118738.398
1686016973.966,-44.922,-111.328,-43.457,-34.668,118738.401
1686016973.970,-26.855,193.848,148.438,-4.395,118738.405
1686016973.974,-14.648,206.543,96.680,4.395,118738.409
1686016973.978,-19.043,-262.695,-163.574,-20.996,118738.413
1686016973.982,-17.090,-705.566,-158.203,-21.973,118738.417
1686016973.985,-14.648,-250.488,167.969,-4.883,118738.421
1686016973.989,-14.648,271.484,181.641,-6.348,118738.425
1686016973.993,-24.902,-66.406,-15.137,-22.461,118738.429
1686016973.997,-35.645,-208.984,68.848,-26.367,118738.433
1686016974.001,-33.691,147.461,166.016,-12.695,118738.437
1686016974.005,-33.691,249.512,146.484,-11.719,118738.441
1686016974.007,-27.832,-393.555,-190.430,-18.066,118738.428
1686016974.011,-24.414,-963.867,-338.867,-22.949,118738.432
1686016974.015,-22.461,-299.316,135.254,-26.367,118738.436
1686016974.019,-8.301,270.020,240.234,-16.113,118738.440
1686016974.023,-12.207,-46.875,26.367,-24.414,118738.444
1686016974.027,-25.879,-314.941,-17.578,-38.086,118738.448
1686016974.030,-25.879,-248.047,57.129,-34.668,118738.452
1686016974.034,-21.484,-121.582,84.961,-23.926,118738.455
1686016974.038,-17.090,-532.715,-131.836,-22.461,118738.459
1686016974.042,-25.391,-337.402,29.297,-42.480,118738.463
1686016974.046,-37.109,241.699,203.613,-50.781,118738.467
1686016974.050,-32.715,172.363,99.609,-31.250,118738.471
1686016974.052,-27.344,-605.469,-187.012,-20.996,118738.473
1686016974.056,-35.645,-384.277,29.297,-36.133,118738.477
1686016974.060,-36.621,242.676,185.547,-48.828,118738.481
1686016974.064,-22.461,50.781,55.176,-31.738,118738.485
1686016974.068,-13.672,81.543,169.434,-12.695,118738.489
1686016974.072,-28.809,8.301,59.082,-30.273,118738.493
1686016974.075,-36.621,-155.273,-72.754,-47.852,118738.496
1686016974.079,-29.297,-280.762,-104.980,-42.969,118738.500
1686016974.083,-27.832,-636.230,-75.195,-25.879,118738.504
1686016974.087,-27.344,-200.195,105.957,-33.691,118738.508
1686016974.091,-34.668,323.242,169.434,-55.664,118738.512
1686016974.095,-43.945,-155.273,-61.035,-53.223,118738.516
1686016974.098,-40.039,-566.406,-80.078,-29.785,118738.522
1686016974.102,-34.668,121.582,207.031,-31.250,118738.526
1686016974.106,-41.992,344.238,141.113,-52.246,118738.530
1686016974.110,-42.480,-283.691,-138.672,-39.551,118738.534
1686016974.114,-31.250,-158.691,30.273,-18.555,118738.537
1686016974.118,-28.809,59.082,153.320,-17.578,118738.541
1686016974.121,-31.738,-172.363,15.625,-33.203,118738.545
1686016974.125,-39.062,-631.836,-209.961,-40.039,118738.549
1686016974.129,-29.785,-365.723,37.598,-28.320,118738.553
1686016974.133,-14.160,408.691,280.762,-20.508,118738.557
1686016974.137,-25.879,221.680,39.062,-29.297,118738.561
1686016974.141,-36.621,-268.555,-101.562,-42.480,118738.565
1686016974.142,-36.133,-6.836,97.656,-41.016,118738.563
1686016974.146,-23.926,410.156,208.008,-23.926,118738.567
1686016974.150,-23.926,136.719,-9.766,-28.320,118738.571
1686016974.154,-30.762,-287.598,-92.285,-44.922,118738.575
1686016974.158,-23.926,-26.855,66.895,-47.363,118738.579
1686016974.162,-9.766,54.688,118.164,-29.785,118738.582
1686016974.165,-6.348,-230.469,12.207,-21.973,118738.586
1686016974.169,-20.508,-817.871,-298.828,-38.086,118738.590
1686016974.173,-33.203,-395.996,19.043,-47.363,118738.594
1686016974.177,-30.273,246.582,251.465,-32.715,118738.598
1686016974.181,-23.926,120.117,80.566,-21.973,118738.602
1686016974.185,-26.367,19.043,55.664,-36.621,118738.606
1686016974.188,-31.250,-154.785,-9.766,-53.711,118738.611
1686016974.192,-23.438,57.129,105.469,-41.016,118738.615
1686016974.196,-15.625,-315.918,-63.965,-13.672,118738.619
1686016974.200,-19.043,-644.531,-88.379,-18.066,118738.623
1686016974.204,-25.879,92.285,208.984,-40.527,118738.627
1686016974.208,-23.926,-4.395,68.359,-32.715,118738.631
1686016974.211,-13.672,-647.461,-147.461,-9.766,118738.635
1686016974.215,-10.742,-353.027,86.426,-13.672,118738.639
1686016974.219,-13.672,177.246,208.496,-41.504,118738.643
1686016974.223,-21.484,111.816,76.172,-52.734,118738.647
1686016974.227,-23.926,-23.438,54.688,-42.969,118738.651
1686016974.231,-18.555,229.004,159.668,-34.668,118738.654
1686016974.232,-14.648,356.445,151.367,-37.598,118738.667
1686016974.236,-16.113,71.777,-16.113,-37.598,118738.671
1686016974.240,-15.625,-23.926,-21.973,-25.391,118738.675
1686016974.244,-11.230,279.785,143.555,-15.137,118738.679
1686016974.248,-21.973,214.355,67.871,-30.273,118738.683
1686016974.252,-30.762,-300.781,-198.242,-37.598,118738.687
1686016974.255,-24.902,-873.535,-336.914,-16.602,118738.691
1686016974.259,-15.137,-243.164,105.957,-9.277,118738.695
1686016974.263,-8.301,340.820,212.891,-20.996,118738.699
1686016974.267,-21.484,-42.480,-41.992,-42.969,118738.702
1686016974.271,-36.133,30.762,84.473,-43.457,118738.706
1686016974.275,-19.043,229.492,159.180,-15.137,118738.710
1686016974.292,-13.184,20.996,62.988,-15.625,118738.713
1686016974.296,-33.203,-426.270,-141.113,-36.133,118738.717
1686016974.300,-40.039,-428.711,-63.965,-39.551,118738.721
1686016974.304,-30.273,203.125,210.449,-27.832,118738.725
1686016974.308,-18.555,316.895,157.715,-12.695,118738.729
1686016974.312,-25.879,-279.785,-164.062,-22.949,118738.733
1686016974.315,-41.992,-431.641,-132.812,-44.434,118738.736
1686016974.319,-22.949,-87.891,136.230,-30.273,118738.740
1686016974.323,-9.277,119.629,113.281,-7.812,118738.744
1686016974.327,-18.555,-518.555,-206.543,-16.113,118738.748
1686016974.331,-28.320,-482.910,-2.441,-30.762,118738.752
1686016974.335,-21.973,221.680,212.402,-22.461,118738.756
1686016974.337,-15.137,133.789,68.359,-10.254,118738.758
1686016974.341,-26.855,-329.590,-13.184,-19.531,118738.762
1686016974.345,-39.551,-36.133,108.398,-41.016,118738.766
1686016974.349,-34.668,246.582,128.418,-29.297,118738.770
1686016974.353,-20.508,72.266,39.062,-5.371,118738.774
1686016974.357,-19.043,-206.543,9.277,0.000,118738.778
1686016974.360,-27.344,-179.199,59.082,-18.555,118738.782
1686016974.364,-30.762,161.133,130.371,-30.762,118738.785
1686016974.368,-16.113,-81.543,-22.949,-5.371,118738.789
1686016974.372,-7.324,-672.363,-93.750,6.836,118738.793
1686016974.376,-19.531,-234.863,125.000,-16.602,118738.797
1686016974.380,-25.879,167.480,130.371,-23.438,118738.801
1686016974.382,-18.555,-402.832,-77.637,-12.207,118738.804
1686016974.386,-12.207,-511.230,-26.855,7.324,118738.807
1686016974.390,-19.043,128.906,188.477,-5.859,118738.811
1686016974.394,-33.691,201.660,104.492,-38.086,118738.815
1686016974.398,-32.227,-402.344,-131.348,-26.367,118738.819
1686016974.402,-16.113,-550.781,-29.785,1.465,118738.823
1686016974.405,-18.555,-45.898,161.133,-5.859,118738.827
1686016974.409,-20.508,116.211,95.703,-20.508,118738.831
1686016974.413,-20.020,-558.105,-184.570,-12.207,118738.835
1686016974.417,-21.973,-334.961,63.477,7.324,118738.839
1686016974.421,-16.113,427.246,266.602,17.578,118738.843
1686016974.425,-20.996,160.645,20.996,1.953,118738.846
1686016974.427,-30.273,-292.480,-67.871,-11.719,118738.848
1686016974.431,-20.508,20.020,134.277,7.812,118738.852
1686016974.435,-15.625,306.152,203.125,18.555,118738.855
1686016974.439,-23.438,18.555,-28.809,4.395,118738.859
1686016974.443,-29.785,-442.871,-115.723,-13.672,118738.863
1686016974.447,-31.738,-319.824,56.641,-3.418,118738.867
1686016974.450,-29.785,32.715,132.812,9.277,118738.871
1686016974.454,-30.273,-71.777,-25.391,0.488,118738.875
1686016974.458,-36.621,-667.480,-161.621,-15.137,118738.879
1686016974.462,-26.855,-186.523,110.352,-13.184,118738.883
1686016974.466,-15.625,334.961,187.500,6.348,118738.887
1686016974.470,-21.973,27.832,11.719,2.930,118738.891
1686016974.472,-36.133,-270.508,-37.109,-13.184,118738.894
1686016974.476,-43.457,9.277,116.699,-17.090,118738.898
1686016974.480,-35.645,245.117,158.691,3.418,118738.902
1686016974.484,-28.320,-381.836,-136.719,9.766,118738.905
1686016974.488,-35.645,-699.707,-134.277,-15.137,118738.909
1686016974.492,-40.039,-259.766,107.910,-23.438,118738.913
1686016974.495,-24.414,-165.527,79.102,-0.488,118738.917
1686016974.499,-16.602,-568.359,-121.094,24.414,118738.921
1686016974.503,-24.414,-344.727,73.242,1.953,118738.925
1686016974.507,-32.227,270.020,222.168,-29.785,118738.929
1686016974.511,-35.645,176.758,84.961,-11.719,118738.933
1686016974.515,-33.691,50.293,74.707,10.742,118738.937
1686016974.517,-37.109,244.141,140.137,3.906,118738.938
1686016974.521,-36.621,298.340,107.910,-12.695,118738.942
1686016974.525,-18.555,59.570,-25.879,1.465,118738.946
1686016974.529,-12.207,9.277,-3.418,13.672,118738.950
1686016974.533,-27.344,173.340,85.938,0.488,118738.954
1686016974.537,-39.062,-79.590,-93.750,-9.766,118738.957
1686016974.540,-36.621,-475.098,-228.027,-13.672,118738.961
1686016974.544,-30.762,-878.418,-271.484,2.441,118738.965
1686016974.548,-25.879,-217.773,108.398,10.742,118738.969
1686016974.552,-25.391,271.484,169.434,-5.859,118738.973
1686016974.556,-27.832,-72.266,-36.133,-16.113,118738.977
1686016974.560,-15.625,-41.016,79.102,6.836,118738.981
1686016974.562,-14.160,-9.277,101.562,18.555,118738.997
1686016974.566,-21.973,104.492,84.473,-2.441,118739.000
1686016974.570,-26.855,-348.633,-130.371,-11.230,118739.004
1686016974.574,-24.902,-400.391,27.344,-9.766,118739.008
1686016974.578,-10.742,285.156,250.000,14.648,118739.012
1686016974.582,-13.184,43.457,32.715,15.625,118739.016
1686016974.585,-27.832,-674.316,-261.230,-18.066,118739.020
1686016974.589,-27.832,-554.688,-78.613,-20.020,118739.024
1686016974.593,-20.996,-4.883,200.195,-3.418,118739.028
1686016974.597,-19.531,97.168,127.930,-8.789,118739.032
1686016974.601,-26.367,-407.227,-127.441,-21.484,118739.036
1686016974.605,-30.762,-180.176,37.109,-27.344,118739.040
1686016974.607,-20.020,262.207,186.035,-12.207,118739.042
1686016974.611,-13.184,145.996,66.406,-3.418,118739.046
1686016974.615,-24.902,-35.156,-10.254,-19.043,118739.050
1686016974.619,-33.203,68.848,83.008,-33.691,118739.054
1686016974.623,-31.250,232.422,135.254,-20.020,118739.058
1686016974.627,-29.297,-186.523,-98.145,-0.488,118739.062
1686016974.630,-28.320,-555.664,-91.309,-5.371,118739.066
1686016974.634,-38.086,-59.082,129.883,-23.438,118739.070
1686016974.638,-41.504,115.723,122.070,-11.230,118739.074
1686016974.642,-23.926,-30.273,28.320,19.531,118739.078
1686016974.646,-18.555,-140.625,37.109,23.926,118739.082
1686016974.650,-33.691,-175.293,41.992,5.371,118739.085
1686016974.667,-38.574,-176.758,-7.324,-3.906,118739.088
1686016974.671,-26.367,-434.082,-98.145,12.207,118739.092
1686016974.675,-22.949,-679.199,-63.965,23.926,118739.096
1686016974.679,-32.715,7.812,206.055,0.977,118739.100
1686016974.683,-33.203,222.168,145.508,-7.324,118739.103
1686016974.687,-21.484,-316.406,-52.246,18.066,118739.107
1686016974.690,-12.207,-188.477,62.988,47.852,118739.111
1686016974.694,-22.461,267.090,181.152,31.738,118739.115
1686016974.698,-39.062,73.730,31.738,-3.418,118739.119
1686016974.702,-35.645,-623.047,-210.449,4.883,118739.123
1686016974.706,-26.855,-195.801,72.754,20.508,118739.127
1686016974.710,-28.809,393.066,228.516,12.207,118739.131
1686016974.712,-40.527,30.273,-56.152,-4.883,118739.133
1686016974.716,-38.574,-281.250,-110.352,2.930,118739.136
1686016974.720,-29.785,62.012,111.328,28.320,118739.140
1686016974.724,-32.715,351.562,159.668,24.414,118739.144
1686016974.728,-45.410,-3.418,-41.992,1.953,118739.148
1686016974.732,-43.457,-568.359,-164.551,0.488,118739.152
1686016974.735,-25.391,-336.426,50.781,14.648,118739.156
1686016974.739,-20.996,277.344,207.031,16.113,118739.160
1686016974.743,-26.367,-37.109,-74.707,6.348,118739.164
1686016974.747,-32.227,-689.941,-162.109,3.418,118739.168
1686016974.751,-28.809,-82.031,162.109,13.672,118739.172
1686016974.755,-21.973,298.340,176.758,26.367,118739.176
1686016974.802,-24.902,-336.914,-68.359,9.277,118739.223
1686016974.806,-39.062,-509.277,-76.660,-15.625,118739.227
1686016974.810,-27.832,103.027,172.363,-3.906,118739.231
1686016974.814,-14.160,216.309,176.758,5.859,118739.235
1686016974.818,-22.949,-381.348,-124.023,-11.719,118739.239
1686016974.822,-29.297,-637.207,-199.219,-18.555,118739.243
1686016974.825,-27.832,-200.684,98.633,-19.043,118739.247
1686016974.829,-15.137,127.930,155.273,1.953,118739.251
1686016974.833,-5.859,-513.672,-161.133,23.438,118739.254
1686016974.837,-20.996,-441.406,15.625,-3.418,118739.258
1686016974.841,-22.461,211.914,222.656,-15.137,118739.262
1686016974.845,-11.230,131.836,81.055,-2.441,118739.266
1686016974.807,-13.184,-12.207,26.367,-1.465,118739.252
1686016974.811,-20.508,130.371,100.586,-3.906,118739.256
1686016974.815,-28.809,196.777,91.797,-14.160,118739.260
1686016974.819,-20.996,77.637,45.410,-8.789,118739.264
1686016974.823,-7.324,36.621,108.887,5.859,118739.268
1686016974.827,-13.672,-120.605,-28.809,-7.324,118739.272
1686016974.830,-26.367,-293.945,-173.340,-25.391,118739.275
1686016974.834,-26.367,-322.266,-43.945,-18.555,118739.279
1686016974.838,-20.508,-158.203,155.273,-5.371,118739.283
1686016974.842,-26.367,172.363,160.156,-9.766,118739.287
1686016974.846,-35.156,196.289,83.008,-29.297,118739.291
1686016974.850,-30.273,-272.461,-90.820,-32.715,118739.295
1686016974.847,-19.043,-428.711,-29.785,-13.672,118739.282
1686016974.851,-20.020,109.375,189.453,-11.230,118739.286
1686016974.855,-23.926,-88.867,-39.551,-30.273,118739.290
1686016974.859,-21.484,-603.516,-267.578,-34.180,118739.294
1686016974.863,-11.230,-212.891,55.664,-6.836,118739.298
1686016974.867,-12.207,-14.648,131.836,3.906,118739.302
1686016974.870,-25.879,-212.891,38.086,-24.902,118739.306
1686016974.874,-35.156,-630.371,-240.723,-38.086,118739.310
1686016974.878,-26.367,-1000.000,-386.230,-9.277,118739.314
1686016974.882,-18.555,-586.426,62.988,4.395,118739.317
1686016974.886,-26.367,94.727,241.211,-16.602,118739.321
1686016974.890,-35.645,-205.566,65.918,-44.434,118739.325
1686016974.892,-30.762,8.789,143.555,-37.598,118739.313
1686016974.896,-20.508,435.547,245.605,-13.184,118739.317
1686016974.900,-19.043,184.082,55.664,-3.418,118739.321
1686016974.904,-22.949,-666.504,-272.949,-9.766,118739.325
1686016974.908,-24.414,-266.602,23.926,-19.043,118739.328
1686016974.912,-19.043,141.113,173.828,-3.418,118739.332
1686016974.915,-11.230,-202.148,3.418,-3.906,118739.336
1686016974.919,-21.973,-322.266,-7.812,-20.020,118739.340
1686016974.923,-27.832,55.176,118.652,-21.973,118739.344
1686016974.927,-15.137,357.910,181.641,-2.441,118739.348
1686016974.931,-3.906,-5.371,-24.902,9.766,118739.352
1686016974.935,-14.160,-500.977,-139.160,-14.160,118739.356
1686016974.938,-22.949,-371.582,8.789,-32.715,118739.361
1686016974.942,-19.531,-105.469,83.984,-19.531,118739.365
1686016974.946,-14.160,-352.539,-64.941,-3.906,118739.369
1686016974.950,-20.508,-622.070,-62.500,-21.973,118739.373
1686016974.954,-38.086,51.758,196.777,-54.199,118739.377
1686016974.958,-26.367,64.453,71.777,-47.852,118739.381
1686016974.961,-17.090,-563.477,-135.254,-19.531,118739.385
1686016974.965,-24.414,-319.824,96.191,-21.973,118739.389
1686016974.969,-30.762,283.691,188.477,-41.016,118739.393
1686016974.973,-32.715,163.574,39.062,-40.527,118739.397
1686016974.977,-17.578,-41.016,37.109,-13.672,118739.400
1686016974.981,-16.113,263.184,145.508,-11.719,118739.404
1686016974.983,-26.855,388.184,130.371,-40.527,118739.433
1686016974.987,-27.832,43.457,-60.547,-43.457,118739.437
1686016974.991,-22.949,-218.750,-105.469,-28.809,118739.441
1686016974.995,-16.113,146.973,138.184,-30.762,118739.444
1686016974.999,-27.344,356.934,145.996,-52.246,118739.448
1686016975.003,-40.039,-168.945,-189.941,-64.453,118739.452
1686016975.006,-35.645,-870.605,-350.586,-45.898,118739.456
1686016975.010,-26.367,-260.742,114.746,-33.691,118739.460
1686016975.014,-32.227,360.840,236.328,-47.852,118739.464
1686016975.018,-36.133,7.812,2.441,-68.359,118739.468
1686016975.022,-32.227,-19.043,68.359,-63.477,118739.472
1686016975.026,-20.996,183.594,138.672,-38.574,118739.476
1686016975.042,-19.043,61.035,63.965,-36.621,118739.463
1686016975.046,-36.133,-370.117,-126.465,-56.641,118739.467
1686016975.050,-38.086,-398.438,-61.035,-58.594,118739.471
1686016975.054,-20.508,210.449,189.941,-33.203,118739.475
1686016975.058,-9.277,183.594,94.727,-20.996,118739.479
1686016975.062,-14.160,-517.578,-199.707,-37.598,118739.483
1686016975.065,-20.996,-582.031,-63.965,-44.434,118739.487
1686016975.069,-18.555,100.098,204.590,-36.133,118739.491
1686016975.073,-14.648,36.621,83.496,-23.438,118739.495
1686016975.077,-20.508,-395.020,-30.273,-31.738,118739.499
1686016975.081,-30.762,-66.406,84.473,-42.480,118739.502
1686016975.085,-23.438,321.777,176.758,-32.715,118739.506
1686016975.117,-11.230,167.969,80.566,-7.812,118739.538
1686016975.121,-19.531,-554.199,-184.082,-14.160,118739.542
1686016975.125,-33.691,-226.074,21.484,-49.805,118739.546
1686016975.129,-33.203,245.117,160.645,-45.898,118739.550
1686016975.133,-22.461,74.219,38.574,-18.555,118739.554
1686016975.137,-23.926,-185.547,-38.086,-18.066,118739.558
1686016975.140,-35.156,-221.191,-6.836,-42.480,118739.562
1686016975.144,-34.668,-116.211,19.043,-48.828,118739.566
1686016975.148,-22.949,-300.293,-85.449,-21.484,118739.569
1686016975.152,-10.742,-846.680,-210.938,-1.465,118739.573
1686016975.156,-21.973,-289.062,80.566,-17.090,118739.577
1686016975.160,-29.785,163.574,146.484,-24.902,118739.581
1686016975.132,-20.508,-347.656,-8.789,-2.930,118739.553
1686016975.136,-12.207,-186.523,135.742,12.207,118739.557
1686016975.140,-20.508,319.336,199.219,-3.906,118739.561
1686016975.144,-27.832,213.867,79.102,-18.555,118739.565
1686016975.148,-19.531,-270.020,-185.547,-4.395,118739.569
1686016975.152,-16.113,-333.008,-117.676,7.324,118739.572
1686016975.155,-20.020,20.020,144.531,-3.418,118739.576
1686016975.159,-33.691,117.188,80.078,-23.926,118739.580
1686016975.163,-29.297,-303.223,-107.422,-19.043,118739.584
1686016975.167,-18.555,-133.789,56.152,2.930,118739.588
1686016975.171,-13.184,147.461,145.996,9.766,118739.592
1686016975.175,-19.043,24.414,18.066,-7.812,118739.596
1686016975.177,-29.297,-372.559,-51.758,-15.625,118739.598
1686016975.181,-23.438,-58.594,124.512,-0.977,118739.602
1686016975.185,-12.207,300.293,170.898,9.766,118739.606
1686016975.189,-14.160,31.250,-9.766,1.465,118739.610
1686016975.193,-25.391,-796.875,-370.605,0.977,118739.614
1686016975.197,-23.438,-760.254,-120.605,3.418,118739.618
1686016975.200,-16.113,-24.414,250.488,4.883,118739.621
1686016975.204,-25.391,-88.867,5.371,-9.277,118739.625
1686016975.208,-32.227,-677.734,-159.668,-23.438,118739.629
1686016975.212,-26.367,-94.238,165.527,-16.113,118739.633
1686016975.216,-17.090,416.016,234.863,0.000,118739.637
1686016975.220,-15.625,37.598,9.766,1.953,118739.641
1686016975.223,-23.926,-274.414,-88.379,-21.973,118739.646
1686016975.227,-23.438,-242.676,15.625,-24.414,118739.650
1686016975.231,-18.555,140.137,185.059,-1.953,118739.654
1686016975.235,-25.391,-224.609,-80.566,0.977,118739.658
1686016975.239,-30.762,-718.750,-150.879,-8.301,118739.662
1686016975.243,-25.391,-295.898,152.344,-17.090,118739.666
1686016975.246,-15.625,-86.426,109.375,-9.277,118739.670
1686016975.250,-9.766,-447.754,-86.914,4.395,118739.674
1686016975.254,-19.531,-307.129,89.844,-13.184,118739.678
1686016975.258,-29.785,237.793,187.500,-30.273,118739.682
1686016975.262,-21.973,169.922,100.098,-14.160,118739.686
1686016975.266,-18.555,23.438,74.707,-1.953,118739.689
