timestamps,TP9,AF7,AF8,TP10,Secondary Timestamp
1686714424.059,-113.281,-270.020,-83.496,-129.395,503.954
1686714424.063,32.715,144.043,144.043,84.473,503.958
1686714424.067,66.406,372.559,181.152,89.844,503.962
1686714424.071,-83.496,-25.879,-20.508,-133.301,503.966
1686714424.075,-121.582,-293.945,-89.355,-162.598,503.970
1686714424.079,12.207,-195.312,78.125,56.641,503.974
1686714424.083,68.848,-99.121,107.422,113.281,503.977
1686714424.086,-30.762,-492.188,-187.012,-72.266,503.981
1686714424.090,-130.371,-781.250,-264.160,-193.848,503.985
1686714424.094,-45.410,-34.668,134.766,-35.645,503.989
1686714424.098,71.289,223.145,108.887,130.371,503.993
1686714424.102,1.953,-435.547,-124.023,0.488,503.997
1686714424.104,-124.023,-499.023,-72.266,-181.641,503.999
1686714424.108,-73.730,127.441,123.535,-82.520,504.003
1686714424.112,61.035,215.332,113.770,125.977,504.007
1686714424.116,43.945,-22.949,94.238,58.594,504.011
1686714424.120,-87.891,-82.520,67.871,-159.180,504.015
1686714424.124,-107.422,-229.492,-20.508,-131.348,504.019
1686714424.128,21.973,-243.652,67.871,85.938,504.023
1686714424.131,62.988,-620.605,-220.703,117.188,504.027
1686714424.135,-63.477,-857.910,-352.539,-103.027,504.031
1686714424.139,-124.512,-87.891,73.730,-195.801,504.035
1686714424.143,-14.160,83.008,83.984,10.254,504.038
1686714424.147,67.871,-37.598,79.102,118.652,504.042
1686714424.180,-20.508,135.742,113.281,-64.453,504.078
1686714424.184,-130.859,-29.297,8.789,-189.453,504.082
1686714424.188,-62.500,-421.387,-124.512,-31.250,504.085
1686714424.192,61.523,-417.480,-60.547,129.883,504.089
1686714424.196,17.578,-4.883,92.285,-2.441,504.093
1686714424.200,-112.793,-167.969,-16.602,-188.965,504.097
1686714424.204,-99.609,-688.965,-234.863,-102.051,504.101
1686714424.207,34.180,-703.125,-170.410,99.609,504.105
1686714424.211,33.691,22.949,141.602,41.504,504.109
1686714424.215,-95.215,186.523,73.242,-160.156,504.113
1686714424.219,-116.699,-237.305,-28.320,-145.996,504.117
1686714424.223,16.602,-96.191,103.027,60.547,504.121
1686714424.194,71.777,294.434,187.988,104.492,504.102
1686714424.198,-59.570,138.184,34.180,-98.145,504.106
1686714424.202,-140.137,-199.219,-58.105,-186.035,504.110
1686714424.206,-32.715,-145.508,35.156,4.395,504.114
1686714424.210,60.059,-118.164,73.730,128.906,504.118
1686714424.214,-26.855,-308.594,-17.090,-44.434,504.122
1686714424.218,-149.902,-632.812,-160.156,-188.965,504.126
1686714424.221,-92.285,-502.441,-23.438,-57.617,504.130
1686714424.225,57.617,160.645,187.988,119.629,504.134
1686714424.229,37.109,120.605,60.547,33.691,504.137
1686714424.233,-105.469,-332.520,-60.059,-166.016,504.141
1686714424.237,-106.445,-99.609,101.562,-124.512,504.145
1686714424.239,32.715,291.992,177.734,92.285,504.149
1686714424.243,52.246,85.449,40.039,85.938,504.152
1686714424.247,-89.355,-797.852,-392.090,-121.094,504.156
1686714424.251,-142.578,-891.602,-347.168,-161.621,504.160
1686714424.255,-9.766,1.953,153.809,33.203,504.164
1686714424.259,64.453,-213.867,-64.453,116.699,504.168
1686714424.263,-51.270,-794.922,-300.293,-75.195,504.172
1686714424.266,-137.695,-316.406,18.555,-197.754,504.176
1686714424.270,-42.969,288.086,190.430,-24.902,504.180
1686714424.274,61.035,-176.270,-60.547,133.301,504.184
1686714424.278,-17.578,-634.277,-200.684,-30.762,504.188
1686714424.282,-132.324,-26.855,92.773,-214.355,504.192
1686714424.299,-69.824,160.645,127.441,-80.078,504.194
1686714424.303,60.547,27.344,136.719,113.281,504.198
1686714424.307,31.738,64.453,117.188,23.438,504.202
1686714424.311,-101.562,67.383,43.945,-180.664,504.206
1686714424.315,-97.168,0.488,62.012,-122.559,504.210
1686714424.319,29.785,-228.027,-2.930,106.445,504.214
1686714424.323,55.664,-362.305,-36.621,100.586,504.218
1686714424.326,-71.289,-244.141,10.254,-131.348,504.221
1686714424.330,-124.512,-100.586,61.035,-184.570,504.225
1686714424.334,-10.254,-651.367,-215.332,46.387,504.229
1686714424.338,47.852,-879.883,-268.555,130.859,504.233
1686714424.342,-52.734,-35.156,124.023,-81.055,504.237
1686714424.344,-134.277,-14.648,21.484,-187.988,504.239
1686714424.348,-42.969,-166.992,-26.855,-19.043,504.243
1686714424.352,73.242,232.422,160.645,133.789,504.247
1686714424.356,0.000,342.285,156.250,-7.812,504.251
1686714424.360,-130.371,-78.613,-52.734,-191.406,504.255
1686714424.364,-92.285,-500.977,-156.738,-76.660,504.259
1686714424.368,42.969,-207.520,65.430,118.164,504.263
1686714424.371,35.156,259.766,187.988,37.598,504.266
1686714424.375,-97.656,-324.707,-167.480,-158.691,504.270
1686714424.379,-126.465,-761.230,-247.559,-125.977,504.274
1686714424.383,-5.859,-15.625,131.348,70.312,504.278
1686714424.387,44.922,61.523,29.785,96.191,504.282
1686714424.390,-60.547,-448.730,-104.492,-98.633,504.286
1686714424.394,-122.559,-391.113,14.160,-175.781,504.290
1686714424.398,-5.371,159.668,180.176,16.113,504.294
1686714424.402,87.402,234.863,125.977,123.047,504.298
1686714424.406,-17.090,-361.328,-90.332,-49.805,504.302
1686714424.410,-130.859,-628.418,-107.422,-178.711,504.306
1686714424.414,-49.805,-382.324,-20.020,-21.484,504.310
1686714424.417,77.637,-208.984,73.730,147.949,504.314
1686714424.421,28.320,-638.672,-247.559,27.832,504.318
1686714424.425,-96.191,-848.145,-360.840,-167.969,504.321
1686714424.429,-67.383,-22.461,121.582,-101.074,504.325
1686714424.433,60.547,122.070,111.328,112.793,504.329
1686714424.435,54.688,-60.547,31.738,73.242,504.331
1686714424.439,-76.172,67.871,91.309,-142.090,504.335
1686714424.443,-104.980,-62.012,37.598,-137.695,504.339
1686714424.447,20.020,-323.242,-58.105,88.379,504.342
1686714424.451,78.125,-289.551,-38.574,127.441,504.346
1686714424.455,-36.133,-278.809,-39.551,-91.797,504.350
1686714424.459,-117.676,-235.352,20.020,-178.711,504.354
1686714424.462,-19.531,-278.809,-60.547,16.602,504.358
1686714424.466,62.988,-828.613,-288.574,142.578,504.362
1686714424.470,-29.785,-272.461,58.594,-52.734,504.366
1686714424.474,-123.535,221.680,155.273,-206.055,504.370
1686714424.478,-61.523,-91.309,34.668,-55.664,504.374
1686714424.479,61.523,53.711,102.539,127.441,504.374
1686714424.483,30.762,322.266,172.852,15.625,504.378
1686714424.487,-112.793,125.977,75.195,-196.777,504.382
1686714424.491,-84.473,-81.543,37.598,-107.910,504.386
1686714424.495,59.082,-37.598,49.316,123.047,504.390
1686714424.499,50.781,-105.957,9.277,76.660,504.394
1686714424.503,-84.961,-294.922,-48.828,-151.367,504.398
1686714424.506,-119.141,-744.141,-349.121,-159.180,504.402
1686714424.510,-3.906,-988.770,-359.863,58.105,504.405
1686714424.514,57.129,-205.566,95.215,102.051,504.409
1686714424.518,-42.480,65.430,56.152,-86.426,504.413
1686714424.522,-135.742,-237.305,-57.617,-193.359,504.417
1686714424.525,-47.852,75.684,123.047,-22.949,504.420
1686714424.529,59.082,349.121,178.223,123.535,504.424
1686714424.533,-9.766,-44.922,-42.480,-25.879,504.428
1686714424.537,-121.094,-269.043,-87.402,-187.012,504.432
1686714424.541,-60.547,48.340,92.285,-65.918,504.436
1686714424.545,62.500,-27.344,77.148,123.535,504.440
1686714424.549,24.414,-506.348,-163.574,43.457,504.444
1686714424.552,-115.723,-888.672,-359.863,-158.203,504.448
1686714424.556,-104.004,-290.527,38.086,-120.605,504.452
1686714424.560,47.852,342.773,231.445,104.004,504.456
1686714424.564,71.777,-173.828,-31.738,113.281,504.459
1686714424.568,-60.547,-519.043,-112.793,-105.469,504.463
1686714424.569,-109.863,1.953,96.680,-170.410,504.478
1686714424.573,14.160,163.574,129.883,40.527,504.482
1686714424.577,81.055,8.301,107.910,125.000,504.486
1686714424.581,-32.227,7.324,116.699,-77.637,504.490
1686714424.585,-130.859,5.371,38.086,-193.359,504.493
1686714424.589,-43.945,-161.133,10.254,-19.043,504.497
1686714424.593,58.594,-611.816,-151.855,145.020,504.501
1686714424.596,-14.648,-783.691,-213.379,-4.883,504.505
1686714424.600,-125.977,-164.062,37.109,-190.918,504.509
1686714424.604,-84.961,43.457,74.707,-73.730,504.513
1686714424.608,38.086,-648.438,-177.246,131.348,504.517
1686714424.612,28.320,-560.059,-98.145,52.734,504.521
1686714424.614,-95.703,204.590,163.574,-174.316,504.524
1686714424.618,-108.398,-41.016,2.441,-131.348,504.528
1686714424.622,24.414,-178.711,-19.043,89.844,504.532
1686714424.626,66.895,194.824,147.949,85.449,504.536
1686714424.630,-55.664,239.746,144.043,-129.883,504.540
1686714424.634,-117.188,-415.527,-156.250,-182.617,504.543
1686714424.638,-11.230,-667.480,-216.309,25.391,504.547
1686714424.641,65.430,50.293,137.695,110.840,504.551
1686714424.645,-24.902,204.102,94.727,-83.008,504.555
1686714424.649,-127.441,-309.082,-76.660,-212.402,504.559
1686714424.653,-57.617,-291.016,27.832,-61.035,504.563
1686714424.657,63.477,227.051,157.227,101.074,504.567
1686714424.674,9.766,31.250,28.320,-20.508,504.569
1686714424.678,-112.305,-585.449,-149.414,-197.754,504.573
1686714424.682,-77.637,-403.320,-6.348,-105.469,504.577
1686714424.686,40.527,221.680,189.453,83.496,504.581
1686714424.690,23.438,157.227,104.492,31.250,504.585
1686714424.694,-114.746,-414.551,-139.648,-164.551,504.589
1686714424.698,-136.230,-620.117,-160.156,-156.738,504.593
1686714424.701,-9.277,-301.758,17.578,64.453,504.597
1686714424.705,32.715,25.391,116.211,105.957,504.600
1686714424.709,-86.914,-597.656,-272.461,-83.984,504.604
1686714424.713,-159.668,-796.387,-308.594,-162.598,504.608
1686714424.717,-41.504,94.727,185.547,8.789,504.612
1686714424.719,54.688,75.195,75.684,140.137,504.614
1686714424.723,-18.066,-171.875,-37.109,-7.812,504.618
1686714424.727,-107.910,-23.438,51.758,-148.438,504.622
1686714424.731,-36.621,-122.559,46.387,-0.488,504.626
1686714424.735,87.891,-368.652,-83.496,187.500,504.630
1686714424.739,47.852,-665.039,-220.703,79.590,504.634
1686714424.743,-86.426,-425.293,-35.645,-129.395,504.638
1686714424.746,-68.848,85.449,162.109,-63.477,504.642
1686714424.750,73.730,-283.203,-84.961,173.828,504.646
1686714424.754,87.402,-683.105,-187.500,154.297,504.650
1686714424.758,-43.457,-72.754,119.629,-92.285,504.653
1686714424.762,-85.938,116.699,89.355,-116.699,504.657
1686714424.779,40.527,-100.098,74.219,106.445,504.675
1686714424.783,102.051,13.672,103.027,166.992,504.679
1686714424.787,-13.184,154.297,109.863,-40.527,504.683
1686714424.791,-94.238,4.395,54.688,-139.648,504.687
1686714424.795,-0.488,-193.359,24.414,39.062,504.691
1686714424.799,86.426,-300.293,38.086,165.527,504.695
1686714424.803,6.836,-375.000,-91.309,13.672,504.699
1686714424.806,-103.516,-430.664,-164.551,-145.996,504.702
1686714424.810,-56.152,-763.672,-317.383,-19.531,504.706
1686714424.814,65.918,-968.750,-343.262,165.527,504.710
1686714424.818,42.969,-266.113,45.898,57.617,504.714
1686714424.822,-81.543,-170.898,-27.832,-147.461,504.718
1686714424.809,-81.055,-291.992,-58.594,-103.516,504.705
1686714424.813,58.105,189.453,170.898,112.305,504.709
1686714424.817,81.055,341.309,156.738,114.258,504.713
1686714424.821,-49.805,-124.023,-59.570,-98.633,504.717
1686714424.825,-100.098,-312.988,-108.887,-141.602,504.720
1686714424.829,16.602,-140.625,49.805,72.754,504.724
1686714424.833,89.355,-157.715,54.199,153.320,504.728
1686714424.836,-10.254,-500.977,-160.645,-32.227,504.732
1686714424.840,-104.004,-715.332,-213.867,-136.719,504.736
1686714424.844,-19.043,-140.625,71.777,10.254,504.740
1686714424.848,94.727,344.727,218.262,155.762,504.744
1686714424.852,26.367,-265.137,-139.648,38.574,504.748
1686714424.854,-105.469,-966.309,-409.180,-146.973,504.750
1686714424.858,-67.383,-213.379,59.082,-78.125,504.753
1686714424.862,71.289,275.879,174.316,115.234,504.757
1686714424.866,56.641,39.062,66.895,57.617,504.761
1686714424.870,-82.031,-59.570,36.621,-154.297,504.765
1686714424.874,-99.609,-243.652,-31.738,-137.695,504.769
1686714424.878,26.855,-180.664,54.199,77.148,504.773
1686714424.881,62.988,-569.336,-201.172,122.559,504.777
1686714424.885,-60.059,-869.629,-344.238,-89.355,504.781
1686714424.889,-104.980,-62.012,85.449,-180.664,504.785
1686714424.893,17.578,97.656,86.914,30.273,504.789
1686714424.897,82.031,-157.715,25.391,139.160,504.793
1686714424.899,-20.996,65.430,104.492,-54.688,504.794
1686714424.903,-106.934,228.516,131.836,-186.035,504.798
1686714424.907,-38.574,-71.289,11.230,-14.648,504.802
1686714424.911,65.918,-183.105,-14.648,147.461,504.806
1686714424.915,19.043,150.391,137.695,10.742,504.810
1686714424.919,-106.934,-73.242,18.066,-180.176,504.814
1686714424.923,-82.520,-584.473,-210.449,-87.891,504.817
1686714424.926,47.363,-687.988,-167.969,123.047,504.821
1686714424.930,49.805,-49.805,126.465,60.059,504.825
1686714424.934,-76.660,178.711,90.820,-156.738,504.829
1686714424.938,-100.098,-170.898,-25.879,-145.508,504.833
1686714424.942,24.414,-53.711,68.359,75.195,504.837
1686714424.945,68.359,288.086,166.016,106.934,504.841
1686714424.949,-41.992,10.742,10.742,-106.445,504.845
1686714424.953,-114.746,-575.684,-140.137,-187.500,504.849
1686714424.957,-16.602,-303.223,37.598,-7.324,504.853
1686714424.961,77.148,209.961,134.277,110.840,504.857
1686714424.965,-13.672,-156.738,-36.621,-47.852,504.861
1686714424.969,-130.859,-821.289,-386.719,-174.805,504.865
1686714424.972,-78.125,-752.930,-244.629,-41.992,504.869
1686714424.976,54.199,104.004,188.965,114.258,504.873
1686714424.980,28.320,149.902,23.438,17.578,504.877
1686714424.984,-104.980,-424.316,-165.527,-179.688,504.880
1686714424.988,-95.215,-227.539,23.926,-132.812,504.884
1686714424.989,26.367,317.871,216.797,74.707,504.899
1686714424.993,39.062,106.445,40.039,68.359,504.903
1686714424.997,-86.426,-210.938,-73.730,-142.090,504.906
1686714425.001,-121.582,-96.191,35.156,-171.387,504.910
1686714425.005,0.488,-110.352,71.777,47.852,504.914
1686714425.009,59.570,-416.992,-111.816,122.559,504.918
1686714425.013,-51.758,-916.016,-382.324,-73.730,504.922
1686714425.016,-135.254,-442.871,-31.738,-208.008,504.926
1686714425.020,-28.320,139.648,166.504,-28.320,504.930
1686714425.024,71.289,-58.594,53.711,136.230,504.934
1686714425.028,-13.184,-94.238,41.016,-22.949,504.938
1686714425.032,-127.441,98.633,79.590,-188.965,504.942
1686714425.049,-73.730,75.684,73.242,-65.918,504.958
1686714425.053,45.898,-102.051,78.613,120.605,504.962
1686714425.057,27.832,-40.527,80.078,33.691,504.966
1686714425.061,-86.914,83.496,80.566,-171.387,504.970
1686714425.065,-97.168,5.371,48.340,-128.418,504.974
1686714425.069,24.902,-334.961,-67.871,99.609,504.977
1686714425.073,45.898,-497.070,-64.453,88.379,504.981
1686714425.076,-85.938,-439.453,-96.680,-142.578,504.985
1686714425.080,-127.441,-386.230,-115.723,-178.223,504.989
1686714425.084,-6.348,-705.078,-251.953,41.504,504.993
1686714425.088,49.805,-914.551,-315.918,125.977,504.997
1686714425.092,-43.457,-181.152,55.664,-83.008,505.001
1686714425.098,-117.188,-113.770,-10.254,-201.660,504.992
1686714425.102,-42.480,-225.098,-44.434,-35.156,504.996
1686714425.106,58.105,211.914,169.922,111.816,505.000
1686714425.110,-1.465,251.953,129.883,-20.508,505.004
1686714425.114,-114.746,-150.391,-69.824,-183.594,505.008
1686714425.118,-73.730,-490.234,-140.137,-72.266,505.012
1686714425.122,50.293,-223.633,55.176,122.070,505.015
1686714425.125,32.715,187.988,173.340,47.852,505.019
1686714425.129,-106.934,-390.137,-153.320,-154.785,505.023
1686714425.133,-124.023,-847.168,-323.242,-125.000,505.027
1686714425.137,9.766,-85.449,100.098,77.148,505.031
1686714425.141,55.176,315.918,204.590,88.379,505.035
1686714425.154,-56.641,-422.363,-203.613,-100.098,505.049
1686714425.158,-117.188,-793.457,-288.086,-147.461,505.053
1686714425.162,-11.719,8.301,140.137,29.785,505.057
1686714425.166,74.707,244.141,120.605,135.742,505.061
1686714425.170,-4.883,-95.703,-15.137,-40.039,505.065
1686714425.174,-100.098,-394.531,-93.262,-176.270,505.069
1686714425.178,-42.969,-385.254,-30.762,-31.738,505.073
1686714425.181,68.359,-152.344,71.777,128.418,505.077
1686714425.185,18.066,-585.449,-214.844,17.578,505.080
1686714425.189,-113.770,-639.160,-203.125,-175.781,505.084
1686714425.193,-83.496,113.281,147.949,-94.727,505.088
1686714425.197,44.922,163.086,99.609,116.211,505.092
1686714425.184,35.645,-617.676,-215.820,82.520,505.123
1686714425.188,-88.379,-552.734,-131.348,-144.531,505.126
1686714425.192,-94.727,191.895,176.758,-158.691,505.130
1686714425.196,34.668,47.363,59.082,74.219,505.134
1686714425.200,77.637,-112.793,21.484,121.582,505.138
1686714425.204,-49.316,-221.680,-35.645,-85.938,505.142
1686714425.208,-114.746,-203.613,-18.555,-162.598,505.146
1686714425.211,-6.836,-223.145,-33.691,31.738,505.150
1686714425.215,68.848,-270.996,-73.730,146.484,505.154
1686714425.219,-17.090,90.820,87.891,-38.574,505.158
1686714425.223,-99.609,147.461,98.145,-190.430,505.162
1686714425.227,-30.762,-500.488,-174.805,-30.762,505.166
1686714425.233,65.918,-676.270,-172.363,144.043,505.129
1686714425.237,21.484,76.660,164.062,10.742,505.133
1686714425.241,-99.609,-112.793,-63.965,-178.711,505.137
1686714425.245,-84.961,-582.520,-165.039,-102.051,505.141
1686714425.249,44.922,-250.000,61.523,104.492,505.145
1686714425.253,60.547,-31.738,62.988,86.426,505.149
1686714425.257,-62.500,-428.223,-131.348,-121.094,505.153
1686714425.260,-112.305,-772.461,-233.398,-138.184,505.157
1686714425.264,0.977,-355.469,20.020,54.199,505.160
1686714425.268,61.035,317.383,211.914,95.215,505.164
1686714425.272,-46.875,75.195,4.395,-96.680,505.168
1686714425.276,-123.047,-394.043,-79.102,-181.641,505.172
1686714425.289,-27.344,-72.266,120.117,-5.371,505.184
1686714425.293,68.848,370.605,211.426,127.930,505.188
1686714425.297,-1.953,-39.551,-27.344,-15.137,505.192
1686714425.301,-113.281,-478.516,-172.852,-182.129,505.196
1686714425.305,-72.754,-98.633,54.688,-63.477,505.200
1686714425.309,48.340,-36.133,68.359,128.906,505.204
1686714425.313,19.531,-446.289,-122.070,40.527,505.208
1686714425.316,-120.605,-992.188,-500.977,-149.414,505.211
1686714425.320,-119.629,-940.430,-353.027,-106.934,505.215
1686714425.324,25.879,-113.770,117.676,88.379,505.219
1686714425.328,60.059,97.656,116.211,86.914,505.223
1686714425.332,-68.848,-73.242,60.547,-141.113,505.227
1686714425.319,-125.000,139.648,125.977,-188.965,505.243
1686714425.323,0.488,235.840,136.719,46.387,505.247
1686714425.327,81.543,38.574,113.770,140.137,505.251
1686714425.331,-21.484,18.555,89.844,-63.965,505.255
1686714425.335,-100.586,96.680,71.777,-170.898,505.259
1686714425.339,-16.113,-143.555,26.367,8.789,505.263
1686714425.343,66.895,-303.711,18.066,142.578,505.266
1686714425.346,-2.930,-365.234,-4.883,-10.742,505.270
1686714425.350,-115.723,-348.633,-9.766,-191.406,505.274
1686714425.354,-70.801,-45.410,99.121,-79.590,505.278
1686714425.358,56.152,-525.391,-154.785,139.160,505.282
1686714425.362,23.926,-1000.000,-321.777,70.801,505.286
1686714425.364,-102.051,-244.141,45.898,-163.574,505.274
1686714425.368,-94.727,-0.977,59.570,-131.836,505.278
1686714425.372,35.156,-95.703,31.738,94.238,505.281
1686714425.376,65.430,278.809,169.922,103.516,505.285
1686714425.380,-57.617,233.398,110.840,-109.863,505.289
1686714425.384,-113.281,-440.430,-171.387,-150.879,505.293
1686714425.388,-6.836,-629.395,-157.715,41.504,505.297
1686714425.391,69.824,68.848,151.367,118.652,505.301
1686714425.395,-4.395,275.391,139.160,-54.688,505.305
1686714425.399,-95.703,-294.922,-41.504,-169.922,505.309
1686714425.403,-35.645,-501.465,-14.160,-15.137,505.313
1686714425.407,72.754,105.957,156.250,135.742,505.317
1686714425.424,22.461,328.125,166.504,8.789,505.319
1686714425.428,-100.098,-431.641,-138.672,-160.645,505.323
1686714425.432,-77.148,-646.484,-165.039,-70.801,505.327
1686714425.436,50.781,187.500,189.941,125.488,505.331
1686714425.440,55.176,261.719,98.633,83.008,505.335
1686714425.444,-77.148,-330.566,-116.699,-120.605,505.339
1686714425.448,-88.867,-547.363,-79.590,-88.867,505.343
1686714425.451,42.480,-305.664,64.941,120.117,505.347
1686714425.455,72.266,-135.742,80.078,114.746,505.351
1686714425.459,-45.410,-655.273,-268.066,-78.125,505.355
1686714425.463,-119.629,-769.531,-268.555,-152.344,505.358
1686714425.467,-14.160,134.766,198.730,10.742,505.362
1686714425.469,80.078,85.938,60.547,136.719,505.364
1686714425.473,-5.371,-290.527,-55.176,-26.855,505.368
1686714425.477,-104.492,-77.637,65.430,-178.711,505.372
1686714425.481,-34.180,194.336,137.207,-37.109,505.376
1686714425.485,62.988,-1.953,49.316,121.094,505.380
1686714425.489,1.465,-488.770,-143.555,4.395,505.384
1686714425.493,-123.047,-357.422,-19.043,-189.941,505.388
1686714425.496,-104.492,126.465,160.645,-127.441,505.392
1686714425.500,25.879,-146.973,-57.617,92.285,505.396
1686714425.504,34.668,-682.129,-193.359,67.383,505.399
1686714425.508,-93.262,-153.320,79.590,-164.551,505.403
1686714425.512,-126.465,118.652,94.727,-174.316,505.407
1686714425.514,-10.742,-83.008,81.543,52.734,505.410
1686714425.518,36.621,19.043,134.766,108.398,505.414
1686714425.522,-72.754,126.953,109.863,-94.238,505.417
1686714425.526,-145.020,-181.152,2.441,-186.035,505.421
1686714425.530,-53.711,-537.598,-62.500,-4.395,505.425
1686714425.534,43.457,-485.352,-10.254,129.395,505.429
1686714425.538,-29.297,-365.234,-31.738,-38.574,505.433
1686714425.541,-143.066,-430.664,-86.426,-202.148,505.437
1686714425.545,-88.379,-782.715,-295.410,-56.152,505.441
1686714425.549,30.762,-759.277,-193.848,117.676,505.445
1686714425.553,9.277,81.543,182.129,1.465,505.449
1686714425.557,-105.469,34.180,7.324,-183.594,505.453
1686714425.559,-104.492,-252.441,-41.504,-118.164,505.454
1686714425.563,21.484,149.414,175.781,90.820,505.458
1686714425.567,46.387,373.047,202.148,89.844,505.462
1686714425.571,-87.891,-48.828,-24.414,-131.836,505.466
1686714425.575,-120.605,-321.777,-98.145,-157.715,505.470
1686714425.579,19.531,-171.875,70.801,61.523,505.474
1686714425.583,62.988,-104.004,116.699,110.840,505.478
1686714425.586,-40.527,-455.078,-153.320,-84.961,505.482
1686714425.590,-128.906,-932.617,-355.957,-193.848,505.485
1686714425.594,-48.828,-264.160,71.777,-32.227,505.489
1686714425.598,62.500,348.633,220.215,112.793,505.493
1686714425.602,-8.301,-25.879,20.996,-25.879,505.497
1686714425.604,-125.977,-190.430,20.996,-200.195,505.499
1686714425.608,-73.730,143.066,156.250,-88.379,505.503
1686714425.612,55.176,223.145,119.629,105.469,505.507
1686714425.616,33.203,-48.828,93.750,36.621,505.511
1686714425.620,-92.285,-114.746,71.289,-163.086,505.515
1686714425.624,-94.238,-206.055,11.230,-125.488,505.519
1686714425.628,32.715,-228.516,89.355,83.008,505.523
1686714425.631,57.617,-578.613,-188.477,103.516,505.527
1686714425.635,-67.383,-988.281,-406.250,-102.539,505.531
1686714425.639,-116.699,-375.000,21.973,-181.641,505.535
1686714425.643,-6.836,14.648,107.422,22.461,505.538
1686714425.647,62.500,-173.340,47.852,118.652,505.542
1686714425.649,-26.855,-63.477,87.891,-79.590,505.545
1686714425.653,-114.746,129.395,104.492,-205.566,505.549
1686714425.657,-40.527,-29.297,52.734,-33.691,505.553
1686714425.661,59.082,-407.715,-18.555,133.301,505.557
1686714425.665,0.000,-146.973,80.078,-17.578,505.561
1686714425.669,-119.141,-199.219,-54.688,-203.125,505.565
1686714425.673,-91.309,-617.188,-208.984,-105.957,505.569
1686714425.676,28.809,-634.766,-77.637,90.820,505.572
1686714425.680,24.902,-15.625,161.621,25.879,505.576
1686714425.684,-83.008,192.383,99.121,-180.176,505.580
1686714425.688,-101.562,-255.371,-19.043,-153.320,505.584
1686714425.692,14.160,-330.078,38.574,69.336,505.588
1686714425.695,54.199,125.488,193.848,99.121,505.591
1686714425.699,-60.059,220.215,130.371,-104.980,505.595
1686714425.703,-126.953,-400.391,-67.871,-174.316,505.599
1686714425.707,-25.879,-348.633,62.988,3.906,505.603
1686714425.711,61.035,210.449,158.203,111.816,505.607
1686714425.715,-25.879,-104.004,6.836,-44.922,505.610
1686714425.719,-123.047,-765.625,-295.410,-166.504,505.614
1686714425.722,-56.152,-744.141,-235.352,-33.691,505.618
1686714425.726,69.824,116.699,206.055,114.258,505.622
1686714425.730,43.945,158.203,78.613,12.695,505.626
1686714425.734,-75.195,-284.180,-16.113,-174.316,505.630
1686714425.738,-63.477,-81.055,123.535,-108.887,505.634
1686714425.754,55.664,308.594,186.035,90.332,505.662
1686714425.758,58.594,22.949,54.688,71.289,505.666
1686714425.762,-76.172,-394.531,-62.012,-129.883,505.670
1686714425.766,-120.117,-72.266,83.008,-159.180,505.674
1686714425.770,4.883,249.023,189.941,45.898,505.678
1686714425.774,60.547,-252.930,-61.523,122.559,505.682
1686714425.778,-54.199,-907.715,-315.430,-76.172,505.686
1686714425.781,-125.000,-391.602,20.020,-197.754,505.690
1686714425.785,-25.391,169.922,175.293,-11.719,505.694
1686714425.789,62.500,-5.859,67.871,127.441,505.698
1686714425.793,-2.930,-160.156,41.992,-28.320,505.701
1686714425.797,-93.262,2.441,88.379,-189.453,505.705
1686714425.799,-46.387,82.520,125.000,-61.523,505.694
1686714425.803,52.734,-71.289,104.492,135.254,505.698
1686714425.807,20.020,-35.645,94.238,47.363,505.702
1686714425.811,-97.168,-0.977,66.895,-154.297,505.706
1686714425.815,-96.191,-221.680,8.789,-114.746,505.710
1686714425.819,27.344,-631.348,-143.066,101.074,505.714
1686714425.823,41.992,-748.047,-172.852,90.332,505.718
1686714425.826,-81.055,-294.434,55.176,-138.672,505.721
1686714425.830,-119.141,-138.184,36.133,-173.828,505.725
1686714425.834,-11.230,-544.922,-103.027,34.180,505.729
1686714425.838,41.016,-318.359,48.340,98.633,505.733
1686714425.842,-51.758,181.641,161.621,-94.238,505.737
1686714425.844,-127.930,-131.348,-32.227,-189.941,505.740
1686714425.848,-49.805,-684.082,-205.078,-3.418,505.744
1686714425.852,49.316,-284.668,58.105,134.277,505.748
1686714425.856,-1.465,238.770,172.852,-19.531,505.752
1686714425.860,-111.328,-172.852,-50.293,-183.105,505.756
1686714425.864,-76.660,-520.996,-134.766,-65.430,505.760
1686714425.868,55.176,-336.426,17.090,124.512,505.764
1686714425.871,41.016,-178.223,63.965,42.969,505.767
1686714425.875,-93.750,-566.406,-196.777,-146.973,505.771
1686714425.879,-104.492,-942.871,-354.004,-100.098,505.775
1686714425.883,27.344,-250.488,66.895,88.867,505.779
1686714425.887,60.547,217.773,139.160,100.098,505.783
1686714425.889,-56.641,-127.930,-27.344,-104.980,505.784
1686714425.893,-111.328,-171.875,27.832,-168.457,505.788
1686714425.897,-3.906,191.895,157.227,33.203,505.792
1686714425.901,68.359,227.051,134.766,125.488,505.796
1686714425.905,-30.273,-178.711,-56.152,-63.477,505.800
1686714425.909,-120.605,-457.520,-174.805,-184.570,505.804
1686714425.913,-41.992,-351.562,-17.578,-21.484,505.808
1686714425.916,65.430,-117.676,138.672,131.836,505.812
1686714425.920,2.930,-562.012,-228.516,9.277,505.815
1686714425.924,-127.930,-1000.000,-398.438,-166.016,505.819
1686714425.928,-100.586,-176.758,122.070,-96.191,505.823
1686714425.932,30.273,216.797,163.574,103.516,505.827
1686714425.934,24.902,-75.684,56.152,57.129,505.830
1686714425.938,-95.703,-24.902,67.871,-159.180,505.834
1686714425.942,-107.422,168.457,141.113,-146.973,505.838
1686714425.946,19.531,24.902,70.312,83.984,505.842
1686714425.950,58.594,-231.445,-36.133,117.676,505.846
1686714425.954,-61.523,-229.004,5.371,-104.980,505.850
1686714425.958,-129.883,-348.633,-57.617,-181.641,505.854
1686714425.961,-26.855,-483.398,-145.020,20.508,505.858
1686714425.965,54.199,-617.676,-94.238,133.301,505.861
1686714425.969,-31.250,-86.914,148.926,-59.570,505.865
1686714425.973,-120.605,154.297,99.121,-205.566,505.869
1686714425.977,-50.781,-187.500,39.551,-51.270,505.873
1686714425.980,58.594,-173.340,86.426,115.234,505.880
1686714425.984,8.301,227.051,185.059,-0.977,505.883
1686714425.988,-105.957,172.852,101.562,-183.105,505.887
1686714425.992,-87.891,-379.395,-47.363,-105.469,505.891
1686714425.996,27.344,-280.762,79.590,93.750,505.895
1686714426.000,34.180,-64.453,72.754,56.152,505.899
1686714426.004,-93.750,-297.363,-13.672,-151.855,505.903
1686714426.007,-118.164,-725.098,-259.766,-139.160,505.907
1686714426.011,-0.488,-816.895,-216.309,70.801,505.911
1686714426.015,52.734,38.574,189.941,94.727,505.915
1686714426.019,-56.641,125.488,51.758,-104.492,505.919
1686714426.023,-137.207,-191.406,-33.691,-194.824,505.923
1686714426.024,-38.574,98.633,134.766,-20.020,505.920
1686714426.028,58.105,389.160,192.871,115.723,505.924
1686714426.032,-12.695,-38.086,-28.320,-32.227,505.927
1686714426.036,-118.164,-412.109,-129.395,-186.035,505.931
1686714426.040,-59.082,9.277,121.094,-59.082,505.935
1686714426.044,64.941,63.477,145.020,139.648,505.939
1686714426.048,35.156,-466.309,-165.527,52.246,505.943
1686714426.051,-106.934,-913.086,-354.004,-161.621,505.947
1686714426.055,-101.562,-309.082,49.805,-122.070,505.951
1686714426.059,40.039,296.875,205.566,90.332,505.955
1686714426.063,51.758,-41.992,42.480,79.102,505.959
1686714426.067,-76.172,-288.574,-18.555,-137.695,505.963
1686714426.069,-113.770,41.992,118.652,-182.129,505.978
1686714426.073,-1.953,205.566,173.340,26.367,505.981
1686714426.077,60.059,19.531,125.488,108.398,505.985
1686714426.081,-29.785,-37.598,95.215,-84.961,505.989
1686714426.085,-112.793,-3.906,71.777,-186.523,505.993
1686714426.089,-31.738,-107.422,90.820,-12.207,505.997
1686714426.093,68.359,-581.055,-153.320,144.531,506.001
1686714426.096,-4.395,-907.715,-314.453,-7.812,506.005
1686714426.100,-116.211,-413.574,-7.812,-205.078,506.009
1686714426.104,-68.848,-75.684,81.055,-90.332,506.013
1686714426.108,47.852,-452.637,-58.105,110.840,506.017
1686714426.112,31.250,-318.848,22.461,24.902,506.020
1686714426.114,-83.496,165.527,144.531,-182.617,506.039
1686714426.118,-92.773,-103.027,9.277,-130.371,506.043
1686714426.122,18.555,-386.230,-39.062,87.402,506.047
1686714426.126,43.945,9.766,144.043,70.312,506.050
1686714426.130,-64.941,226.074,135.742,-141.113,506.054
1686714426.134,-114.746,-384.766,-141.113,-157.227,506.058
1686714426.138,-9.277,-623.535,-163.574,53.711,506.062
1686714426.141,58.594,-150.391,79.102,125.977,506.066
1686714426.145,-32.715,16.602,98.145,-73.730,506.070
1686714426.149,-117.676,-409.668,-126.953,-190.430,506.074
1686714426.153,-46.387,-642.578,-175.781,-18.066,506.078
1686714426.157,57.129,108.398,163.086,122.070,506.082
1686714426.174,1.953,187.012,98.145,-7.324,506.069
1686714426.178,-120.605,-206.055,-34.668,-182.617,506.073
1686714426.182,-95.215,-162.109,36.133,-92.773,506.077
1686714426.186,33.203,238.281,185.059,99.121,506.081
1686714426.190,24.414,177.246,101.562,41.016,506.085
1686714426.194,-107.422,-392.090,-118.652,-160.156,506.089
1686714426.198,-120.117,-591.309,-136.230,-146.973,506.093
1686714426.201,2.930,-272.461,48.828,61.523,506.096
1686714426.205,41.992,-38.086,83.984,89.355,506.100
1686714426.209,-63.965,-300.293,-61.523,-112.793,506.104
1686714426.213,-127.441,-488.281,-51.758,-186.523,506.108
1686714426.217,-28.320,-70.801,102.051,1.953,506.112
1686714426.219,56.152,144.531,137.695,111.816,506.114
1686714426.223,-27.832,-684.082,-308.105,-39.551,506.118
1686714426.227,-129.883,-892.578,-370.117,-180.664,506.122
1686714426.231,-64.941,-1.953,127.930,-66.406,506.126
1686714426.235,38.574,113.770,102.051,105.469,506.130
1686714426.239,-9.766,-386.230,-102.051,-0.977,506.134
1686714426.243,-121.582,-380.859,-53.223,-192.871,506.137
1686714426.246,-101.074,65.918,153.320,-122.559,506.141
1686714426.250,28.809,-206.543,-68.848,102.539,506.145
1686714426.254,24.414,-677.734,-198.242,66.406,506.149
1686714426.258,-102.051,-147.949,107.422,-165.527,506.153
1686714426.262,-124.023,99.121,103.516,-168.945,506.157
1686714426.264,-7.812,-197.754,49.316,55.664,506.160
1686714426.268,42.969,-196.289,80.078,113.281,506.164
1686714426.272,-62.012,63.477,111.328,-107.910,506.168
1686714426.276,-125.488,33.203,38.574,-195.312,506.171
1686714426.280,-36.133,-403.320,-66.406,-1.465,506.175
1686714426.284,31.250,-533.691,-11.719,104.980,506.179
1686714426.288,-50.781,-340.332,15.625,-62.012,506.183
1686714426.291,-138.672,-328.613,-25.391,-206.055,506.187
1686714426.295,-76.660,-719.727,-229.492,-58.105,506.191
1686714426.299,39.062,-799.316,-188.477,124.023,506.195
1686714426.303,8.789,16.602,145.508,0.000,506.199
1686714426.307,-112.793,17.090,8.789,-196.777,506.203
1686714426.309,-103.027,-213.867,-18.555,-127.441,506.204
1686714426.313,30.273,172.363,154.297,84.961,506.208
1686714426.317,52.734,342.285,160.645,62.988,506.212
1686714426.321,-75.684,-228.516,-89.355,-149.902,506.216
1686714426.325,-116.211,-621.094,-164.551,-161.133,506.220
1686714426.329,-4.883,-335.449,29.297,43.457,506.224
1686714426.333,44.922,3.418,138.184,93.750,506.228
1686714426.336,-52.246,-306.152,-83.008,-88.867,506.232
1686714426.340,-135.254,-798.828,-329.590,-195.801,506.236
1686714426.344,-47.363,-84.473,100.098,-43.945,506.240
1686714426.348,55.176,324.707,196.777,98.633,506.243
1686714426.352,-20.508,-94.727,-12.207,-46.875,506.247
1686714426.354,-128.906,-230.957,4.883,-210.449,506.249
1686714426.358,-78.613,134.766,145.508,-91.797,506.253
1686714426.362,46.387,247.070,142.090,105.957,506.257
1686714426.366,21.973,0.000,87.891,24.414,506.261
1686714426.370,-111.816,-133.301,66.406,-194.336,506.265
1686714426.374,-115.723,-253.906,10.254,-142.090,506.269
1686714426.378,7.812,-223.145,89.844,82.031,506.273
1686714426.381,25.391,-568.359,-203.125,87.891,506.277
1686714426.385,-95.703,-1000.000,-449.707,-121.582,506.280
1686714426.389,-130.859,-363.770,-10.742,-187.500,506.284
1686714426.393,-10.742,51.270,102.539,16.602,506.288
1686714426.397,52.246,-38.574,63.477,104.980,506.292
1686714426.399,-51.758,103.516,103.516,-94.238,506.294
1686714426.403,-136.230,172.852,101.074,-214.844,506.298
1686714426.407,-55.176,-42.969,41.016,-41.504,506.302
1686714426.411,41.992,-85.938,73.242,118.164,506.306
1686714426.415,-22.461,94.238,54.199,-31.250,506.310
1686714426.419,-138.184,-180.176,-56.641,-208.984,506.314
1686714426.423,-101.074,-540.039,-158.203,-105.957,506.318
1686714426.426,20.508,-662.109,-176.758,89.355,506.322
1686714426.430,5.859,-316.406,16.113,17.090,506.326
1686714426.434,-118.164,-84.473,42.969,-196.777,506.329
1686714426.438,-130.859,-438.965,-111.328,-165.039,506.333
1686714426.442,-2.441,-435.059,-61.035,49.805,506.337
1686714426.444,37.598,231.445,173.340,63.965,506.339
1686714426.448,-75.684,134.766,74.219,-139.648,506.343
1686714426.452,-133.789,-224.121,-23.926,-204.590,506.347
1686714426.456,-33.203,-57.129,81.055,-2.930,506.351
1686714426.460,44.922,257.812,186.035,107.422,506.355
1686714426.464,-39.062,-89.844,-7.812,-70.801,506.359
1686714426.468,-133.301,-771.484,-368.652,-192.383,506.363
1686714426.471,-68.359,-789.062,-234.375,-44.922,506.367
1686714426.475,48.828,44.922,181.641,104.980,506.371
1686714426.479,11.230,171.387,39.062,2.441,506.374
1686714426.483,-115.723,-450.195,-171.875,-176.758,506.378
1686714426.487,-98.145,-562.500,-97.656,-105.469,506.382
1686714426.490,26.855,45.410,150.879,94.727,506.398
1686714426.494,26.367,120.117,77.148,55.664,506.402
1686714426.498,-101.562,-419.922,-98.633,-158.691,506.406
1686714426.502,-127.930,-210.938,61.035,-171.875,506.410
1686714426.506,-2.930,221.680,184.082,47.363,506.413
1686714426.510,41.016,-205.566,-49.316,107.422,506.417
1686714426.514,-73.242,-770.508,-268.555,-100.098,506.421
1686714426.517,-136.719,-278.320,27.832,-205.566,506.425
1686714426.521,-37.598,168.945,165.527,-21.973,506.429
1686714426.525,41.016,4.883,68.848,96.191,506.433
1686714426.529,-35.645,-109.863,29.785,-70.312,506.437
1686714426.533,-127.930,11.719,64.941,-216.309,506.441
1686714426.535,-74.707,58.594,80.078,-82.520,506.444
1686714426.539,36.621,-175.781,-9.277,101.562,506.448
1686714426.543,4.883,-266.602,-6.348,1.465,506.452
1686714426.547,-113.281,-23.438,87.891,-199.707,506.456
1686714426.551,-107.422,102.051,118.652,-140.137,506.460
1686714426.555,10.742,-471.191,-199.219,98.633,506.464
1686714426.559,19.043,-859.863,-330.078,71.777,506.467
1686714426.562,-102.539,-425.293,-55.176,-177.246,506.471
1686714426.566,-134.766,-171.875,-12.695,-192.871,506.475
1686714426.570,-15.137,-545.410,-142.578,43.457,506.479
1686714426.574,35.645,-462.891,-54.199,100.586,506.483
1686714426.578,-73.730,181.152,156.738,-111.328,506.487
1686714426.594,-142.090,-58.594,0.488,-203.613,506.489
1686714426.598,-50.781,-209.473,-52.246,-25.879,506.493
1686714426.602,45.898,168.457,144.531,119.141,506.497
1686714426.606,-22.461,228.027,166.504,-35.645,506.501
1686714426.610,-134.277,-330.566,-148.926,-206.543,506.505
1686714426.614,-101.074,-827.148,-319.336,-77.148,506.509
1686714426.618,15.625,-333.496,24.414,101.074,506.513
1686714426.621,6.348,272.461,173.340,5.859,506.517
1686714426.625,-121.582,-340.332,-187.500,-182.129,506.521
1686714426.629,-131.836,-713.379,-245.605,-132.812,506.524
1686714426.633,0.000,100.586,169.434,67.871,506.528
1686714426.637,32.715,261.719,140.625,62.500,506.532
1686714426.639,-89.355,-222.656,-49.316,-152.832,506.536
1686714426.643,-131.836,-296.387,-24.414,-201.172,506.540
1686714426.647,-11.230,110.352,127.441,4.395,506.544
1686714426.651,45.898,217.285,129.395,94.238,506.548
1686714426.655,-59.570,-119.141,-32.715,-102.539,506.551
1686714426.659,-128.906,-432.617,-167.969,-193.359,506.555
1686714426.663,-38.574,-430.664,-81.543,-8.789,506.559
1686714426.666,51.758,-246.582,50.293,105.957,506.563
1686714426.670,-1.465,-623.535,-278.320,-10.254,506.567
1686714426.674,-122.559,-1000.000,-441.406,-179.199,506.571
1686714426.678,-83.984,-292.969,43.457,-111.816,506.575
1686714426.682,49.805,106.934,101.562,93.262,506.579
1686714426.684,34.668,-116.699,9.766,38.574,506.580
1686714426.688,-91.309,-31.738,45.410,-176.758,506.584
1686714426.692,-101.074,158.691,121.582,-155.762,506.588
1686714426.696,22.949,42.969,73.730,71.777,506.592
1686714426.700,57.617,-170.410,-1.953,102.539,506.596
1686714426.704,-58.594,-270.996,-35.645,-106.934,506.599
1686714426.708,-121.582,-334.961,-95.703,-168.945,506.603
1686714426.711,-18.066,-475.098,-165.039,35.156,506.607
1686714426.715,57.617,-633.301,-179.199,137.207,506.611
1686714426.719,-29.297,-314.941,-25.879,-49.805,506.615
1686714426.723,-111.816,-21.484,53.711,-175.781,506.619
1686714426.727,-38.086,-285.156,-16.602,-15.137,506.623
1686714426.731,58.105,-283.203,-19.531,148.926,506.629
1686714426.735,10.742,216.797,123.047,9.766,506.633
1686714426.739,-100.586,20.996,30.762,-182.617,506.636
1686714426.743,-79.590,-202.148,-16.602,-97.656,506.640
1686714426.747,49.316,-24.902,55.176,112.793,506.644
1686714426.751,52.734,-91.797,31.250,84.961,506.648
1686714426.755,-84.961,-347.656,-75.684,-128.418,506.652
1686714426.758,-114.258,-760.254,-322.266,-121.094,506.656
1686714426.762,7.324,-794.434,-238.770,93.750,506.660
1686714426.766,65.918,62.500,160.645,112.305,506.664
1686714426.770,-39.551,103.027,19.531,-85.449,506.668
1686714426.774,-114.258,-280.762,-91.797,-163.086,506.672
1686714426.775,-20.020,-178.711,89.355,16.113,506.674
1686714426.779,68.359,226.562,182.617,131.348,506.678
1686714426.783,-8.301,37.109,-10.742,-39.551,506.682
1686714426.787,-114.746,-408.203,-111.328,-186.035,506.685
1686714426.791,-57.129,-62.500,61.523,-44.922,506.689
1686714426.795,57.129,40.527,107.422,132.812,506.693
1686714426.799,18.066,-383.301,-128.906,31.250,506.697
1686714426.802,-111.816,-913.086,-391.602,-159.668,506.701
1686714426.806,-105.957,-427.734,-18.066,-118.652,506.705
1686714426.810,24.414,268.555,179.688,80.566,506.709
1686714426.814,37.109,38.574,51.270,71.289,506.713
1686714426.818,-89.355,-128.418,17.090,-145.020,506.717
1686714426.819,-124.512,73.730,83.496,-172.363,506.727
1686714426.823,-0.977,202.148,138.184,56.641,506.731
1686714426.827,56.641,-123.047,-8.789,126.953,506.735
1686714426.831,-48.828,-265.625,-47.363,-89.844,506.739
1686714426.835,-120.605,-58.594,23.438,-190.430,506.743
1686714426.839,-26.367,-157.715,49.316,-4.883,506.747
1686714426.843,65.430,-582.031,-160.156,137.207,506.751
1686714426.846,-15.625,-1000.000,-442.871,-13.672,506.755
1686714426.850,-125.000,-440.918,-72.266,-210.449,506.759
1686714426.854,-64.941,43.945,91.797,-90.332,506.763
1686714426.858,64.453,-5.859,83.496,114.746,506.766
1686714426.862,39.551,126.953,131.836,23.438,506.770
1686714426.879,-87.402,129.395,68.359,-186.035,506.774
1686714426.883,-95.215,-103.516,-6.348,-140.137,506.778
1686714426.887,26.855,-153.809,19.043,79.590,506.782
1686714426.891,53.711,145.508,106.445,72.266,506.786
1686714426.895,-60.547,114.258,66.406,-143.555,506.790
1686714426.899,-112.793,-425.781,-183.105,-163.574,506.794
1686714426.903,-17.090,-769.043,-250.977,50.781,506.798
1686714426.906,50.293,-232.910,78.613,110.352,506.802
1686714426.910,-32.715,208.496,151.367,-84.961,506.805
1686714426.914,-125.488,-379.883,-156.738,-182.617,506.809
1686714426.918,-58.594,-704.590,-235.840,-13.184,506.813
1686714426.922,47.852,-4.883,135.254,117.676,506.817
1686714426.924,-4.883,197.754,131.836,-15.625,506.819
1686714426.928,-120.605,-266.113,-80.566,-172.852,506.823
1686714426.932,-85.938,-278.809,-15.625,-69.824,506.827
1686714426.936,46.875,241.699,193.359,117.188,506.831
1686714426.940,45.410,179.199,54.688,52.246,506.835
1686714426.944,-76.660,-397.949,-185.059,-149.414,506.839
1686714426.948,-86.914,-603.516,-113.770,-120.605,506.843
1686714426.951,36.621,-333.008,-0.488,90.332,506.846
1686714426.955,67.871,-174.316,62.012,100.586,506.850
1686714426.959,-51.270,-644.531,-285.645,-95.215,506.854
1686714426.963,-119.141,-1000.000,-431.152,-154.785,506.858
1686714426.967,-7.812,-202.148,89.355,13.184,506.862
1686714426.969,79.102,155.762,98.633,125.977,506.864
1686714426.973,-13.672,-95.703,-43.945,-51.758,506.868
1686714426.977,-104.004,25.879,68.848,-199.219,506.872
1686714426.981,-33.691,237.793,147.461,-51.758,506.876
1686714426.985,61.523,93.262,50.781,115.723,506.880
1686714426.989,0.977,-346.191,-132.812,1.465,506.884
1686714426.993,-119.141,-378.418,-125.000,-188.965,506.888
1686714426.996,-95.703,35.645,92.285,-109.375,506.892
1686714427.000,28.809,-163.086,-53.711,112.305,506.896
1686714427.004,26.855,-673.828,-255.371,66.895,506.900
1686714427.008,-103.027,-445.801,-103.027,-169.922,506.903
1686714427.012,-123.535,-117.676,28.320,-167.969,506.907
1686714427.014,0.000,-285.645,4.395,58.105,506.909
1686714427.018,38.574,-336.426,-20.508,91.309,506.913
1686714427.022,-73.242,115.723,105.957,-122.070,506.917
1686714427.026,-130.371,27.832,23.926,-184.082,506.921
1686714427.030,-22.949,-128.906,40.039,28.320,506.925
1686714427.034,61.523,-240.234,48.828,145.996,506.929
1686714427.038,-12.207,-315.430,-27.344,-25.879,506.933
1686714427.041,-104.004,-329.102,-75.684,-170.410,506.937
1686714427.045,-53.223,-720.703,-279.785,-27.344,506.941
1686714427.049,48.828,-804.688,-223.145,143.555,506.945
1686714427.053,7.812,-12.695,123.535,-0.488,506.949
1686714427.057,-104.004,25.879,17.090,-175.781,506.952
1686714427.060,-80.566,-348.633,-109.375,-85.938,506.955
1686714427.064,36.621,-140.137,65.918,94.727,506.959
1686714427.068,40.039,260.742,202.148,58.594,506.963
1686714427.072,-79.590,-67.383,-30.273,-147.949,506.967
1686714427.076,-110.840,-532.715,-159.180,-151.367,506.971
1686714427.080,15.137,-315.918,20.996,58.105,506.975
1686714427.084,73.730,-122.559,71.289,109.863,506.979
1686714427.087,-37.598,-451.172,-168.945,-90.332,506.983
1686714427.091,-122.070,-759.766,-313.965,-188.477,506.986
1686714427.095,-31.738,-92.285,68.359,-19.043,506.990
1686714427.099,70.312,312.012,167.480,120.117,506.994
1686714427.103,-3.418,-53.711,13.184,-28.809,506.998
1686714427.104,-125.977,-174.805,12.207,-192.871,506.999
1686714427.108,-78.125,150.879,145.996,-80.078,507.003
1686714427.112,52.734,242.188,124.512,108.887,507.007
1686714427.116,24.902,-209.473,-52.246,25.391,507.011
1686714427.120,-105.957,-366.211,-66.406,-182.617,507.015
1686714427.124,-110.352,-296.387,-61.035,-134.277,507.019
1686714427.128,17.090,-242.676,41.992,71.777,507.023
1686714427.131,42.969,-559.082,-190.430,76.172,507.027
1686714427.135,-81.055,-999.023,-401.367,-120.605,507.030
1686714427.139,-127.441,-300.293,41.992,-170.410,507.034
1686714427.143,-17.090,121.582,101.562,23.926,507.038
1686714427.147,44.434,-12.695,60.059,97.168,507.042
1686714427.164,-61.523,50.781,83.984,-100.098,507.059
1686714427.168,-145.508,149.902,94.238,-211.426,507.063
1686714427.172,-61.035,13.184,41.016,-24.414,507.067
1686714427.176,34.180,-60.059,4.883,127.930,507.071
1686714427.180,-20.508,150.391,68.848,-22.461,507.075
1686714427.184,-126.465,-147.949,-57.617,-200.684,507.079
1686714427.188,-88.379,-542.480,-211.426,-94.238,507.083
1686714427.191,30.762,-880.859,-303.711,109.863,507.086
1686714427.195,15.625,-380.859,10.254,14.648,507.090
1686714427.199,-97.656,144.531,113.770,-201.660,507.094
1686714427.203,-105.957,-210.449,-31.738,-144.531,507.098
1686714427.207,15.137,-62.988,100.586,67.383,507.102
1686714427.194,52.246,319.824,194.824,65.918,507.102
1686714427.198,-66.406,167.969,90.820,-139.648,507.106
1686714427.202,-127.930,-207.031,-70.312,-194.336,507.110
1686714427.206,-13.672,-65.430,39.551,11.230,507.114
1686714427.210,68.359,261.230,149.902,131.348,507.118
1686714427.214,-26.367,-142.578,-84.473,-42.480,507.122
1686714427.218,-125.488,-679.688,-243.652,-183.105,507.126
1686714427.221,-51.270,-458.984,-40.039,-38.574,507.130
1686714427.225,58.105,-16.113,91.797,118.164,507.134
1686714427.229,7.812,-132.324,25.391,-4.395,507.137
1686714427.233,-106.934,-687.500,-298.340,-160.645,507.141
1686714427.237,-87.402,-979.004,-382.324,-81.543,507.145
1686714427.239,33.203,-152.344,106.445,90.820,507.149
1686714427.243,35.156,107.422,62.988,65.430,507.153
1686714427.247,-83.008,-199.707,-62.500,-144.531,507.157
1686714427.251,-107.910,21.484,87.402,-148.438,507.161
1686714427.255,17.090,338.379,207.031,62.988,507.165
1686714427.259,62.988,-126.465,-48.340,104.492,507.169
1686714427.263,-55.664,-711.426,-314.453,-91.797,507.172
1686714427.266,-118.164,-186.523,14.648,-177.734,507.176
1686714427.270,-9.766,270.508,185.059,12.207,507.180
1686714427.274,74.707,-16.602,8.789,137.207,507.184
1686714427.278,-6.348,-239.746,-56.152,-33.203,507.188
1686714427.282,-112.305,-233.398,-39.062,-174.316,507.192
1686714427.286,-48.828,-36.621,61.035,-29.785,507.194
1686714427.290,66.895,-223.145,-12.695,149.414,507.198
1686714427.294,26.367,-401.367,-69.336,33.691,507.202
1686714427.298,-88.867,19.531,87.891,-172.363,507.206
1686714427.302,-65.918,46.875,52.246,-98.633,507.209
1686714427.306,55.664,-206.055,-27.344,103.027,507.213
1686714427.310,52.734,-391.602,-66.406,78.613,507.217
1686714427.313,-77.637,-383.301,-108.887,-127.441,507.221
1686714427.317,-102.539,-210.449,-31.250,-145.996,507.225
1686714427.321,28.320,-615.234,-216.797,89.355,507.229
1686714427.325,73.242,-758.789,-222.168,148.438,507.233
1686714427.329,-32.715,-77.148,80.566,-83.496,507.237
1686714427.345,-100.098,-75.195,-20.508,-176.270,507.253
1686714427.349,-13.672,-322.754,-52.734,22.461,507.257
1686714427.353,71.777,-130.371,61.035,145.508,507.261
1686714427.357,5.371,189.941,122.070,-29.297,507.265
1686714427.361,-104.004,-132.324,-80.566,-188.477,507.269
1686714427.365,-62.988,-761.230,-294.922,-48.340,507.273
1686714427.369,54.688,-373.047,-11.230,118.652,507.277
1686714427.372,26.855,263.184,165.039,9.277,507.281
1686714427.376,-100.586,-284.180,-161.621,-173.828,507.285
1686714427.380,-104.492,-668.945,-239.746,-123.047,507.289
1686714427.384,21.973,54.199,136.719,66.895,507.292
1686714427.388,49.805,250.000,106.445,61.035,507.296
1686714427.389,-64.453,-167.480,-55.176,-139.160,507.289
1686714427.393,-111.816,-217.285,0.977,-171.387,507.293
1686714427.397,-1.465,182.129,146.484,31.738,507.297
1686714427.401,70.801,219.238,90.332,111.816,507.301
1686714427.405,-27.832,-325.195,-127.930,-63.477,507.305
1686714427.409,-112.305,-617.676,-205.566,-172.363,507.309
1686714427.413,-33.203,-347.656,-34.180,-5.859,507.313
1686714427.416,62.500,-167.969,41.016,142.090,507.317
1686714427.420,-9.766,-571.777,-183.105,3.906,507.321
1686714427.424,-118.164,-528.320,-84.961,-178.711,507.325
1686714427.428,-68.359,102.051,122.559,-91.309,507.328
1686714427.432,62.012,241.699,117.676,103.516,507.332
1686714427.434,45.410,-556.152,-244.629,71.289,507.330
1686714427.438,-87.402,-823.242,-279.297,-141.113,507.334
1686714427.442,-94.238,18.555,145.020,-135.742,507.338
1686714427.446,35.156,79.102,60.547,95.703,507.342
1686714427.450,60.547,-120.605,-48.340,101.562,507.345
1686714427.454,-54.199,-282.715,-130.371,-100.586,507.349
1686714427.458,-97.168,-405.762,-120.117,-150.879,507.353
1686714427.461,-0.977,-442.871,-120.605,40.039,507.357
1686714427.465,57.617,-838.867,-278.809,138.184,507.361
1686714427.469,-23.926,-402.832,-28.809,-69.824,507.365
1686714427.473,-103.027,90.332,70.801,-195.312,507.369
1686714427.477,-37.598,-147.949,22.949,-21.484,507.373
1686714427.479,68.359,6.348,96.191,132.812,507.375
1686714427.483,18.555,259.766,110.352,-0.488,507.378
1686714427.487,-101.562,58.105,33.691,-187.012,507.382
1686714427.491,-73.730,-183.105,-29.785,-89.844,507.386
1686714427.495,55.664,-14.648,58.594,106.934,507.390
1686714427.499,50.781,-81.543,39.062,53.711,507.394
1686714427.503,-80.566,-327.148,-46.875,-152.344,507.398
1686714427.506,-112.793,-719.727,-293.945,-131.348,507.402
1686714427.510,3.418,-820.312,-295.410,77.637,507.406
1686714427.514,52.246,-158.203,59.570,100.098,507.410
1686714427.518,-50.781,-189.453,-44.922,-93.262,507.414
1686714427.522,-114.746,-493.164,-140.625,-174.805,507.417
1686714427.524,-12.695,-78.125,90.332,7.324,507.433
1686714427.528,68.848,398.926,201.172,123.047,507.437
1686714427.532,-8.789,32.227,-17.578,-32.715,507.441
1686714427.536,-100.098,-255.371,-71.289,-169.434,507.445
1686714427.540,-41.992,18.066,89.355,-33.691,507.449
1686714427.544,73.242,20.020,93.262,149.902,507.453
1686714427.548,32.227,-460.938,-196.289,52.246,507.457
1686714427.551,-94.727,-809.082,-351.562,-154.785,507.461
1686714427.555,-81.543,-182.129,63.477,-107.910,507.465
1686714427.559,53.711,305.176,155.273,103.516,507.468
1686714427.563,68.848,34.180,24.902,88.867,507.472
1686714427.567,-57.129,-192.383,-9.277,-117.676,507.476
1686714427.570,-90.332,-208.496,6.348,-142.090,507.466
1686714427.574,34.180,108.887,100.098,69.336,507.470
1686714427.578,83.496,-178.223,-18.066,134.277,507.474
1686714427.582,-28.320,-430.176,-27.832,-74.219,507.478
1686714427.586,-95.215,-20.020,68.848,-175.293,507.482
1686714427.590,-15.137,-156.250,-0.488,23.438,507.485
1686714427.594,66.895,-455.078,-80.078,152.344,507.489
1686714427.597,-3.906,-439.941,-75.684,-20.996,507.493
1686714427.601,-109.375,-94.727,29.785,-181.152,507.497
1686714427.605,-57.129,110.840,85.938,-58.105,507.501
1686714427.609,61.523,-540.039,-210.449,137.207,507.505
1686714427.613,27.344,-744.141,-223.633,41.504,507.509
1686714427.614,-93.750,47.852,124.023,-179.199,507.524
1686714427.618,-80.566,-8.789,9.766,-120.117,507.528
1686714427.622,48.340,-312.500,-70.312,102.051,507.532
1686714427.626,55.664,-111.328,62.988,85.449,507.536
1686714427.630,-76.172,81.055,94.727,-130.859,507.540
1686714427.634,-120.117,-342.773,-163.574,-147.461,507.543
1686714427.638,-7.812,-940.430,-383.301,81.543,507.547
1686714427.641,56.152,-412.598,-22.461,135.742,507.551
1686714427.645,-35.645,230.469,143.066,-77.637,507.555
1686714427.649,-112.793,-170.410,-69.824,-190.430,507.559
1686714427.653,-30.762,-129.395,49.316,-27.832,507.563
1686714427.657,67.383,250.000,160.156,113.770,507.567
1686714427.674,-10.254,166.992,76.660,-42.969,507.569
1686714427.678,-125.000,-199.707,-43.945,-210.449,507.573
1686714427.682,-73.730,-163.574,14.648,-85.449,507.577
1686714427.686,52.734,229.004,167.480,119.141,507.581
1686714427.690,34.668,177.734,75.195,57.129,507.585
1686714427.694,-90.332,-429.199,-162.598,-149.902,507.589
1686714427.698,-93.262,-646.973,-162.598,-127.930,507.593
1686714427.701,36.133,-323.730,-15.625,88.379,507.596
1686714427.705,66.406,-199.707,29.297,97.656,507.600
1686714427.709,-61.523,-652.832,-298.828,-102.539,507.604
1686714427.713,-123.535,-970.703,-386.230,-149.414,507.608
1686714427.717,-9.277,-134.277,106.445,26.367,507.612
1686714427.719,63.477,176.270,84.473,121.094,507.614
1686714427.723,-32.227,-145.508,-46.875,-60.059,507.618
1686714427.727,-123.535,-51.758,56.152,-199.707,507.622
1686714427.731,-43.945,203.613,141.602,-31.250,507.626
1686714427.735,65.918,121.094,73.730,139.160,507.630
1686714427.739,10.254,-387.695,-157.715,8.301,507.634
1686714427.743,-109.375,-348.145,-92.285,-182.129,507.637
1686714427.746,-82.520,-57.617,64.941,-94.238,507.641
1686714427.750,41.504,-373.047,-137.695,115.234,507.645
1686714427.754,28.809,-860.840,-315.918,71.289,507.649
1686714427.758,-86.426,-434.082,-57.129,-149.902,507.653
1686714427.762,-96.680,-29.297,32.227,-138.672,507.657
1686714427.764,27.832,-109.863,54.199,87.891,507.659
1686714427.768,71.777,57.617,128.418,113.770,507.663
1686714427.772,-39.062,198.242,96.680,-101.562,507.667
1686714427.776,-94.727,103.516,72.754,-170.410,507.671
1686714427.780,6.348,-61.035,62.012,36.133,507.675
1686714427.784,82.031,-179.199,20.020,145.508,507.679
1686714427.788,-1.953,-311.523,-103.516,-40.039,507.682
1686714427.791,-96.680,-370.605,-159.180,-168.945,507.686
1686714427.795,-40.039,-716.309,-282.227,-4.883,507.690
1686714427.799,55.664,-799.316,-279.297,146.973,507.694
1686714427.803,10.742,-202.148,14.160,21.973,507.698
1686714427.807,-98.145,-264.160,-83.984,-152.832,507.702
1686714427.809,-74.707,-439.941,-118.652,-86.914,507.704
1686714427.813,46.875,9.277,101.074,110.352,507.708
1686714427.817,54.199,357.422,175.293,72.754,507.712
1686714427.821,-67.383,-17.578,-13.672,-135.254,507.716
1686714427.825,-100.098,-235.352,-84.473,-141.113,507.720
1686714427.829,13.672,-144.531,18.555,74.219,507.724
1686714427.833,64.941,67.871,127.930,123.047,507.728
1686714427.836,-33.203,-191.406,-103.027,-76.660,507.732
1686714427.840,-107.422,-768.555,-342.773,-159.668,507.735
1686714427.844,-18.555,-88.867,107.422,14.160,507.739
1686714427.848,75.684,382.812,202.637,135.254,507.743
1686714427.852,2.930,13.184,23.438,-28.809,507.747
1686714427.870,-99.609,-244.629,-30.762,-178.711,507.768
1686714427.874,-47.852,-179.688,30.273,-42.969,507.772
1686714427.878,59.570,138.184,146.484,134.766,507.776
1686714427.882,24.902,-235.840,9.766,36.621,507.779
1686714427.886,-86.426,-508.789,-91.797,-142.090,507.783
1686714427.890,-73.730,-307.617,-80.566,-81.543,507.787
1686714427.894,40.039,-211.914,49.805,99.609,507.791
1686714427.897,53.711,-573.730,-195.312,101.562,507.795
1686714427.901,-76.172,-908.691,-388.184,-116.699,507.799
1686714427.905,-115.723,-183.594,26.855,-183.105,507.803
1686714427.909,2.930,86.426,63.965,32.715,507.807
1686714427.913,64.453,-34.668,49.805,106.934,507.811
1686714427.899,-27.344,44.434,92.285,-95.703,507.795
1686714427.903,-109.375,98.633,69.824,-196.289,507.799
1686714427.907,-29.297,-16.602,20.508,-20.508,507.803
1686714427.911,66.895,-258.789,-48.340,127.441,507.806
1686714427.915,-10.254,-196.289,-1.953,-22.949,507.810
1686714427.919,-122.559,-237.305,-87.402,-187.988,507.814
1686714427.923,-66.895,-516.602,-192.871,-63.477,507.818
1686714427.926,53.223,-507.324,-99.121,132.812,507.822
1686714427.930,33.691,-31.250,75.195,49.805,507.826
1686714427.934,-87.402,162.109,125.977,-152.344,507.830
1686714427.938,-97.656,-373.047,-129.883,-104.980,507.834
1686714427.942,20.996,-916.016,-324.707,117.188,507.838
1686714427.944,46.875,-263.672,69.336,96.680,507.853
1686714427.948,-58.594,115.723,87.402,-128.906,507.857
1686714427.952,-100.586,-246.582,-80.078,-166.992,507.861
1686714427.956,-1.465,-66.895,44.434,37.109,507.865
1686714427.960,66.406,223.145,98.633,121.582,507.868
1686714427.964,-22.461,-146.484,-70.312,-63.965,507.872
1686714427.968,-115.723,-723.145,-351.074,-174.805,507.876
1686714427.971,-46.387,-794.434,-275.391,-22.461,507.880
1686714427.975,56.641,-243.164,70.801,118.652,507.884
1686714427.979,11.230,53.223,58.594,-12.207,507.888
1686714427.983,-101.074,-616.211,-333.496,-174.316,507.892
1686714427.987,-77.148,-674.805,-223.145,-84.961,507.896
1686714427.989,45.898,270.996,222.656,99.121,507.913
1686714427.993,44.922,196.777,75.195,54.688,507.917
1686714427.997,-68.359,-193.359,-79.590,-153.809,507.920
1686714428.001,-83.496,-48.340,19.531,-143.555,507.924
1686714428.005,37.109,280.273,155.273,66.895,507.928
1686714428.009,62.988,-115.723,-47.363,106.445,507.932
1686714428.013,-59.082,-651.855,-246.582,-93.262,507.936
1686714428.016,-111.816,-176.270,-6.348,-177.734,507.940
1686714428.020,-10.254,105.469,113.281,13.184,507.944
1686714428.024,63.965,-403.809,-159.668,130.859,507.948
1686714428.028,-16.113,-643.066,-247.070,-48.340,507.952
1686714428.032,-113.281,-75.684,81.055,-204.590,507.956
1686714428.049,-52.734,148.926,115.723,-44.922,507.944
1686714428.053,62.988,-37.598,51.758,130.859,507.948
1686714428.057,20.020,-26.367,61.035,8.789,507.952
1686714428.061,-96.191,89.844,70.801,-180.176,507.956
1686714428.065,-73.242,46.875,52.246,-99.121,507.960
1686714428.069,41.992,-279.785,-27.832,115.234,507.964
1686714428.073,37.109,-479.492,-111.328,75.195,507.968
1686714428.076,-83.008,-393.066,-121.582,-148.926,507.972
1686714428.080,-111.328,-201.660,-41.504,-157.715,507.976
1686714428.084,6.836,-505.859,-121.582,67.383,507.980
1686714428.088,47.363,-387.695,0.488,105.957,507.983
1686714428.092,-64.941,-131.348,2.930,-106.934,507.987
1686714428.094,-129.883,-342.285,-134.277,-194.336,507.990
1686714428.098,-35.156,-770.996,-310.547,6.348,507.994
1686714428.102,53.711,-655.273,-182.129,128.906,507.997
1686714428.106,-24.902,142.578,158.203,-63.965,508.001
1686714428.110,-125.977,-63.477,-20.020,-192.871,508.005
1686714428.114,-64.941,-416.992,-120.605,-36.133,508.009
1686714428.118,49.316,-150.879,54.688,130.859,508.013
1686714428.121,20.996,281.738,171.875,20.996,508.017
1686714428.125,-103.027,-239.746,-135.742,-166.992,508.021
1686714428.129,-101.562,-759.277,-292.969,-98.633,508.025
1686714428.133,27.832,-24.902,126.953,98.145,508.029
1686714428.137,49.805,315.430,166.504,88.379,508.033
1686714428.141,-69.336,-120.117,-41.992,-119.141,508.038
1686714428.145,-110.352,-349.609,-75.684,-154.297,508.042
1686714428.149,0.977,-105.957,50.781,49.805,508.046
1686714428.153,60.059,173.340,140.137,120.117,508.050
1686714428.157,-42.480,-362.305,-83.984,-72.266,508.053
1686714428.161,-116.211,-743.652,-215.332,-164.551,508.057
1686714428.165,-24.414,-382.324,-45.410,4.883,508.061
1686714428.168,77.148,-138.184,88.867,139.160,508.065
1686714428.172,4.395,-596.680,-258.789,5.371,508.069
1686714428.176,-113.770,-866.211,-369.629,-160.156,508.073
1686714428.180,-59.082,-162.598,55.664,-67.871,508.077
1686714428.184,66.895,-66.895,53.223,126.953,508.081
1686714428.184,42.480,-120.605,40.039,44.922,508.079
1686714428.188,-82.520,98.633,88.867,-167.480,508.083
1686714428.192,-80.078,243.164,115.234,-125.488,508.087
1686714428.196,50.781,135.254,85.449,101.562,508.091
1686714428.200,75.195,-215.332,-4.883,111.328,508.095
1686714428.204,-49.805,-347.656,-63.965,-107.910,508.099
1686714428.208,-98.633,-277.344,-14.648,-152.832,508.103
1686714428.211,13.672,-319.336,-83.984,49.316,508.107
1686714428.215,70.312,-800.781,-280.273,143.066,508.110
1686714428.219,-33.691,-395.020,1.953,-64.453,508.114
1686714428.223,-109.863,187.500,123.047,-196.777,508.118
1686714428.227,-30.273,-101.074,3.418,-13.184,508.122
1686714428.229,58.105,-34.668,98.633,137.695,508.125
1686714428.233,-2.930,198.242,134.277,-15.625,508.129
1686714428.237,-113.281,45.898,59.082,-189.453,508.133
1686714428.241,-79.102,-115.234,20.020,-75.684,508.137
1686714428.245,43.457,9.277,48.828,119.629,508.141
1686714428.249,37.598,-102.051,24.902,61.035,508.145
1686714428.253,-78.613,-355.957,-64.941,-135.742,508.149
1686714428.256,-98.145,-677.734,-302.734,-109.375,508.153
1686714428.260,15.137,-1000.000,-400.391,113.281,508.156
1686714428.264,58.105,-269.043,36.133,104.980,508.160
1686714428.268,-51.270,130.859,84.473,-112.305,508.164
1686714428.272,-108.887,-207.520,-32.227,-166.504,508.168
1686714428.274,-3.906,113.770,133.789,20.508,508.170
1686714428.278,70.312,415.527,192.871,120.117,508.174
1686714428.282,-19.043,112.305,17.578,-53.223,508.178
1686714428.286,-120.605,-228.516,-93.750,-185.547,508.182
1686714428.290,-57.129,8.301,95.215,-35.645,508.186
1686714428.294,55.176,79.590,121.094,132.324,508.190
1686714428.298,17.090,-361.328,-126.953,17.578,508.194
1686714428.301,-96.680,-742.676,-286.133,-168.945,508.197
1686714428.305,-77.637,-211.426,21.973,-107.910,508.201
1686714428.309,56.152,156.250,133.301,103.516,508.205
1686714428.313,55.176,-458.496,-148.438,78.125,508.209
1686714428.317,-78.125,-595.703,-178.223,-139.160,508.213
1686714428.319,-104.492,20.020,94.727,-149.902,508.215
1686714428.323,20.508,194.824,119.141,72.266,508.219
1686714428.327,71.289,-46.387,24.902,112.305,508.222
1686714428.331,-42.480,-68.848,59.570,-96.191,508.226
1686714428.335,-113.281,11.230,34.668,-163.574,508.230
1686714428.339,-20.996,-137.695,25.391,32.227,508.234
1686714428.343,68.359,-615.723,-210.449,172.363,508.238
1686714428.346,-12.207,-848.145,-364.746,-3.906,508.242
1686714428.350,-118.164,-156.250,51.758,-192.383,508.246
1686714428.354,-59.570,66.406,89.844,-41.992,508.250
1686714428.358,49.805,-63.477,63.965,148.438,508.254
1686714428.362,17.090,4.883,62.012,24.902,508.258
1686714428.365,-103.516,-114.258,8.789,-167.969,508.272
1686714428.369,-86.914,-176.270,0.977,-91.797,508.276
1686714428.373,41.016,-285.645,-17.578,112.793,508.280
1686714428.377,60.059,-21.484,126.465,89.844,508.284
1686714428.381,-51.270,156.738,100.098,-124.023,508.288
1686714428.385,-86.426,-377.441,-208.008,-145.020,508.292
1686714428.389,18.555,-785.156,-272.949,67.871,508.296
1686714428.392,62.500,-161.133,96.191,117.676,508.300
1686714428.396,-38.574,205.566,111.328,-83.008,508.304
1686714428.400,-121.094,-254.883,-78.125,-182.617,508.307
1686714428.404,-33.691,-186.523,28.320,-8.301,508.311
1686714428.408,59.082,270.996,197.754,125.977,508.315
1686714428.424,-11.230,202.637,108.887,-27.832,508.319
1686714428.428,-112.793,-191.895,-58.594,-181.641,508.323
1686714428.432,-67.383,-354.004,-60.059,-57.129,508.327
1686714428.436,55.176,-62.988,90.332,130.859,508.331
1686714428.440,24.414,154.785,115.723,28.809,508.335
1686714428.444,-110.352,-518.555,-299.316,-165.527,508.339
1686714428.448,-111.816,-928.223,-380.371,-108.887,508.342
1686714428.451,11.719,-354.492,35.645,83.008,508.346
1686714428.455,44.922,57.129,93.262,72.266,508.350
1686714428.459,-75.195,-528.320,-251.465,-129.395,508.354
1686714428.463,-127.441,-601.074,-176.758,-172.852,508.358
1686714428.467,-3.906,178.223,181.152,26.367,508.362
1686714428.469,65.918,132.812,62.012,116.211,508.378
1686714428.473,-32.227,-143.066,-20.020,-77.148,508.382
1686714428.477,-114.258,-66.406,62.500,-199.219,508.385
1686714428.481,-32.227,166.992,150.879,-28.320,508.389
1686714428.485,47.852,-0.977,53.711,112.793,508.393
1686714428.489,-21.484,-436.035,-180.664,-30.273,508.397
1686714428.493,-123.047,-545.410,-241.211,-187.500,508.401
1686714428.496,-90.820,-225.586,8.301,-94.238,508.405
1686714428.500,38.574,-184.082,-18.066,109.375,508.409
1686714428.504,19.043,-855.469,-332.520,56.641,508.413
1686714428.508,-101.074,-447.754,1.465,-163.086,508.417
1686714428.512,-101.074,129.395,125.977,-134.766,508.421
1686714428.514,24.902,-31.738,59.570,87.402,508.410
1686714428.518,60.547,-0.977,99.121,105.957,508.414
1686714428.522,-51.270,95.215,76.172,-101.562,508.417
1686714428.526,-109.375,23.926,58.105,-165.039,508.421
1686714428.530,-13.672,-101.074,61.523,28.320,508.425
1686714428.534,59.082,-232.910,37.598,134.277,508.429
1686714428.538,-23.926,-384.277,-78.613,-42.480,508.433
1686714428.541,-117.676,-438.965,-147.949,-180.176,508.437
1686714428.545,-58.594,-756.836,-298.828,-17.090,508.441
1686714428.549,49.805,-596.680,-152.344,137.695,508.445
1686714428.553,9.766,141.602,146.484,-1.465,508.449
1686714428.557,-109.863,62.500,46.387,-184.082,508.453
1686714428.559,-81.543,-721.191,-268.555,-78.613,508.454
1686714428.563,38.086,-629.395,-154.297,127.441,508.458
1686714428.567,42.480,280.762,210.938,68.848,508.462
1686714428.571,-69.336,9.277,-25.391,-141.602,508.466
1686714428.575,-96.680,-496.582,-138.184,-125.977,508.470
1686714428.579,18.555,-329.102,7.812,96.191,508.473
1686714428.583,62.012,51.758,128.906,112.793,508.477
1686714428.586,-39.551,-182.617,-91.309,-92.773,508.481
1686714428.590,-113.281,-739.746,-314.941,-168.457,508.485
1686714428.594,-16.602,-132.812,66.406,14.160,508.489
1686714428.598,73.730,183.594,116.211,138.672,508.493
1686714428.602,-8.789,-476.074,-147.949,-28.320,508.497
1686714428.604,-110.352,-504.395,-122.559,-190.430,508.499
1686714428.608,-55.664,106.445,117.676,-58.105,508.503
1686714428.612,53.711,278.809,131.348,124.512,508.507
1686714428.616,23.926,-300.781,-48.340,41.504,508.511
1686714428.620,-93.750,-477.051,-65.430,-162.109,508.515
1686714428.624,-81.055,-209.473,6.836,-99.121,508.519
1686714428.628,41.504,-200.195,63.477,117.676,508.523
1686714428.631,49.316,-576.660,-209.473,89.844,508.527
1686714428.635,-79.590,-910.645,-375.977,-129.883,508.530
1686714428.639,-122.559,-149.414,68.359,-175.293,508.534
1686714428.643,-1.465,204.102,134.766,42.480,508.538
1686714428.647,56.641,69.824,82.520,111.328,508.542
1686714428.650,-41.504,30.762,40.039,-90.820,508.553
1686714428.654,-119.629,-119.629,6.348,-189.941,508.557
1686714428.658,-36.621,-141.113,36.133,-6.348,508.561
1686714428.662,49.316,-206.543,40.527,128.418,508.564
1686714428.666,-29.297,-80.078,37.109,-41.016,508.568
1686714428.670,-131.836,-233.887,-104.004,-203.125,508.572
1686714428.674,-67.383,-521.484,-178.223,-70.801,508.576
1686714428.677,43.945,-654.297,-189.453,118.652,508.580
1686714428.681,20.996,-135.254,59.082,22.461,508.584
1686714428.685,-76.660,155.273,88.379,-175.781,508.588
1686714428.689,-85.938,-255.371,-36.133,-125.488,508.592
1686714428.693,25.879,-119.141,85.938,79.590,508.596
1686714428.694,46.387,258.301,173.828,68.359,508.602
1686714428.698,-71.289,112.793,75.684,-140.625,508.606
1686714428.702,-114.258,-204.102,-33.691,-181.641,508.610
1686714428.706,-7.812,-252.441,14.648,28.809,508.614
1686714428.710,49.805,-59.082,97.168,112.305,508.618
1686714428.714,-50.781,-201.660,-14.648,-84.961,508.622
1686714428.718,-130.859,-696.777,-339.844,-177.734,508.626
1686714428.721,-48.828,-1000.000,-502.930,8.301,508.629
1686714428.725,53.711,-382.324,-15.625,129.395,508.633
1686714428.729,0.977,128.418,107.422,-28.809,508.637
1686714428.733,-105.469,-212.891,-65.430,-196.289,508.641
1686714428.737,-77.148,-27.344,77.637,-88.379,508.645
1686714428.739,34.180,292.969,166.992,111.816,508.649
1686714428.743,28.320,99.609,34.668,46.875,508.653
1686714428.747,-88.379,-221.191,-73.730,-159.180,508.657
1686714428.751,-93.262,-23.926,63.965,-140.625,508.660
1686714428.755,33.691,256.348,158.203,74.219,508.664
1686714428.759,62.012,-175.293,-46.875,106.445,508.668
1686714428.763,-62.500,-828.125,-311.035,-96.680,508.672
1686714428.766,-115.234,-513.672,-71.289,-172.363,508.676
1686714428.770,1.465,199.707,216.309,10.254,508.680
1686714428.774,77.148,-116.699,-74.707,126.465,508.684
1686714428.778,-26.855,-672.852,-260.254,-46.387,508.688
1686714428.782,-129.883,-127.930,76.172,-201.172,508.692
1686714428.799,-50.293,176.270,113.281,-40.039,508.698
1686714428.803,66.895,-12.695,63.965,128.418,508.702
1686714428.807,20.996,-63.477,37.109,-3.906,508.706
1686714428.811,-93.750,5.371,21.973,-184.570,508.710
1686714428.815,-64.453,28.809,60.059,-89.355,508.714
1686714428.819,50.293,-201.660,-25.879,107.422,508.718
1686714428.823,47.852,-416.504,-61.035,57.617,508.722
1686714428.826,-74.707,-437.500,-114.746,-144.531,508.725
1686714428.830,-107.910,-420.410,-124.512,-144.043,508.729
1686714428.834,7.812,-680.664,-221.680,83.008,508.733
1686714428.838,48.828,-954.102,-304.199,120.605,508.737
1686714428.842,-58.105,-234.863,62.012,-119.629,508.741
1686714428.844,-117.188,-91.797,8.789,-191.895,508.739
1686714428.848,-18.066,-237.793,-24.902,8.789,508.743
1686714428.852,65.918,164.062,151.367,116.699,508.747
1686714428.856,-20.020,234.863,108.887,-54.199,508.751
1686714428.860,-118.164,-94.727,-49.316,-182.617,508.755
1686714428.864,-50.781,-467.773,-137.695,-25.391,508.759
1686714428.868,65.430,-216.797,48.340,143.555,508.762
1686714428.871,28.809,256.348,176.270,22.461,508.766
1686714428.875,-94.727,-251.953,-149.902,-155.762,508.770
1686714428.879,-83.496,-768.066,-322.266,-75.684,508.774
1686714428.883,45.410,-46.387,98.145,111.816,508.778
1686714428.887,55.664,112.793,104.980,81.543,508.782
1686714428.889,-64.941,-590.820,-215.820,-119.141,508.784
1686714428.893,-93.750,-566.895,-160.645,-137.695,508.788
1686714428.897,20.996,172.363,148.438,64.941,508.792
1686714428.901,74.707,280.762,138.672,131.348,508.796
1686714428.905,-31.738,-172.363,-62.500,-69.824,508.800
1686714428.909,-119.141,-483.398,-195.801,-173.340,508.804
1686714428.913,-26.367,-330.078,-29.785,11.719,508.808
1686714428.916,78.125,-125.000,99.121,142.090,508.812
1686714428.920,1.465,-592.285,-235.352,-14.160,508.816
1686714428.924,-109.863,-889.160,-365.234,-172.852,508.820
1686714428.928,-51.758,-56.152,110.352,-71.289,508.823
1686714428.932,77.637,248.047,137.207,121.582,508.827
1686714428.936,39.551,17.090,25.391,36.621,508.833
1686714428.940,-87.891,-97.656,-20.996,-163.086,508.837
1686714428.944,-72.266,-120.117,33.691,-101.562,508.841
1686714428.948,50.781,-41.016,54.688,110.840,508.845
1686714428.952,67.383,-293.945,-37.109,99.609,508.849
1686714428.956,-55.664,-458.984,-96.680,-110.840,508.853
1686714428.960,-102.051,-246.582,-14.160,-148.926,508.857
1686714428.963,17.090,-162.109,-6.836,59.570,508.861
1686714428.967,81.055,-610.840,-223.145,154.785,508.864
1686714428.971,-13.672,-228.516,41.504,-54.688,508.868
1686714428.975,-85.938,100.586,93.750,-168.945,508.872
1686714428.979,-11.719,-167.969,3.418,10.742,508.876
1686714428.979,83.984,-63.965,79.102,145.996,508.874
1686714428.983,27.344,189.453,129.883,0.977,508.878
1686714428.987,-94.238,42.969,51.270,-160.645,508.882
1686714428.991,-68.848,-184.570,-32.227,-59.082,508.886
1686714428.995,54.199,-198.242,3.418,139.648,508.890
1686714428.999,48.340,-267.578,-27.832,64.453,508.894
1686714429.003,-74.707,-395.020,-108.398,-156.738,508.898
1686714429.006,-81.055,-696.777,-305.176,-107.422,508.902
1686714429.010,31.738,-1000.000,-409.180,123.535,508.906
1686714429.014,54.688,-323.242,26.367,103.027,508.909
1686714429.018,-43.945,96.680,68.359,-111.816,508.913
1686714429.022,-93.262,-226.074,-49.805,-145.996,508.917
1686714429.024,13.672,103.516,158.691,41.992,508.919
1686714429.028,83.984,366.211,190.918,126.465,508.923
1686714429.032,-17.578,10.742,-13.184,-52.734,508.927
1686714429.036,-106.934,-229.980,-70.312,-182.129,508.931
1686714429.040,-30.762,60.547,82.031,-28.320,508.935
1686714429.044,64.453,42.480,73.730,143.555,508.939
1686714429.048,7.324,-359.375,-94.727,27.832,508.942
1686714429.051,-116.211,-923.340,-414.551,-150.879,508.946
1686714429.055,-85.449,-461.426,-92.773,-78.125,508.950
1686714429.059,58.105,338.867,210.449,119.629,508.954
1686714429.063,57.617,42.480,1.953,74.219,508.958
1686714429.067,-74.219,-188.477,-14.648,-137.207,508.962
1686714429.069,-96.191,82.520,93.262,-133.789,508.964
1686714429.073,24.414,227.051,129.883,74.707,508.968
1686714429.077,57.129,-4.883,62.500,112.793,508.972
1686714429.081,-52.246,-115.723,11.230,-94.238,508.976
1686714429.085,-109.375,-31.738,35.645,-173.340,508.980
1686714429.089,-13.672,-137.695,53.223,16.602,508.984
1686714429.093,62.988,-630.859,-225.098,145.508,508.988
1686714429.096,-28.320,-822.754,-343.262,-28.320,508.992
1686714429.100,-125.000,-156.250,20.996,-197.754,508.996
1686714429.104,-60.547,7.324,39.062,-49.805,509.000
1686714429.108,47.852,-456.543,-66.406,133.301,509.004
1686714429.112,7.812,-295.898,23.438,16.113,509.007
