timestamps,TP9,AF7,AF8,TP10,Secondary Timestamp
1686623481.095,-53.711,-188.965,5.371,-116.699,2858.993
1686623481.099,13.672,-45.898,51.758,20.508,2858.997
1686623481.103,52.734,313.477,33.203,105.957,2859.001
1686623481.107,-8.301,143.066,-1.465,-18.066,2859.005
1686623481.111,-60.547,-294.922,5.859,-127.441,2859.009
1686623481.115,-1.953,-477.051,22.461,-19.043,2859.013
1686623481.118,64.453,-152.832,46.875,97.168,2859.017
1686623481.122,8.301,126.953,9.766,23.438,2859.020
1686623481.126,-70.801,-501.465,-41.504,-100.586,2859.024
1686623481.130,-27.832,-562.500,58.105,-62.500,2859.028
1686623481.134,55.176,189.453,73.730,68.848,2859.032
1686623481.138,28.809,236.328,-13.672,57.129,2859.036
1686623481.140,-58.105,-637.207,-53.711,-90.820,2859.037
1686623481.144,-47.363,-912.109,91.797,-108.887,2859.041
1686623481.148,44.922,-294.434,107.910,46.387,2859.044
1686623481.152,58.594,-17.090,7.812,87.402,2859.048
1686623481.156,-22.949,-689.453,-8.789,-51.758,2859.052
1686623481.160,-53.223,-875.977,31.738,-122.559,2859.056
1686623481.163,25.879,-187.500,78.125,0.977,2859.060
1686623481.167,69.824,61.035,20.996,92.773,2859.064
1686623481.171,-13.184,-745.117,6.348,-6.348,2859.068
1686623481.175,-67.383,-474.609,77.637,-121.582,2859.072
1686623481.179,-3.906,180.176,32.715,-35.156,2859.076
1686623481.183,51.758,-39.551,17.090,104.980,2859.080
1686623481.185,9.766,-79.102,39.551,39.551,2859.082
1686623481.189,-56.641,61.523,19.043,-109.863,2859.086
1686623481.193,-26.855,101.562,17.578,-70.801,2859.089
1686623481.197,46.387,-25.879,21.973,75.195,2859.093
1686623481.201,25.879,-19.531,40.527,63.965,2859.097
1686623481.205,-64.941,-195.312,9.766,-87.891,2859.101
1686623481.208,-72.266,-344.238,-1.465,-117.676,2859.105
1686623481.212,13.184,-459.473,-6.348,35.156,2859.109
1686623481.216,39.062,-565.918,57.129,92.285,2859.113
1686623481.220,-29.297,20.020,37.109,-52.246,2859.117
1686623481.224,-72.266,42.480,2.930,-135.742,2859.121
1686623481.228,-4.395,-237.305,35.156,-17.578,2859.125
1686623481.246,45.410,148.438,25.391,84.961,2859.146
1686623481.250,-15.625,193.359,2.930,-13.184,2859.150
1686623481.254,-70.801,-366.211,-11.230,-130.859,2859.153
1686623481.258,-20.508,-884.277,15.137,-53.711,2859.157
1686623481.262,47.363,-439.453,95.703,78.613,2859.161
1686623481.266,5.371,-30.273,22.461,30.273,2859.165
1686623481.269,-89.355,-471.680,-11.719,-114.746,2859.169
1686623481.273,-70.312,-858.398,37.109,-92.773,2859.173
1686623481.277,32.715,-187.988,70.801,59.082,2859.177
1686623481.281,25.391,387.207,9.277,61.523,2859.181
1686623481.285,-68.848,-33.203,-30.273,-86.426,2859.185
1686623481.289,-71.289,-274.414,38.086,-128.906,2859.189
1686623481.306,12.207,121.582,49.805,11.719,2859.203
1686623481.310,32.227,335.449,-10.742,88.379,2859.207
1686623481.314,-38.086,-65.918,-9.277,-39.062,2859.211
1686623481.318,-78.613,-275.879,22.949,-143.066,2859.215
1686623481.322,-12.207,-126.465,18.066,-32.227,2859.219
1686623481.326,41.504,-167.969,19.531,81.055,2859.223
1686623481.329,-12.207,-445.801,2.930,-1.465,2859.226
1686623481.333,-72.754,-392.578,26.855,-134.277,2859.230
1686623481.337,-31.250,-21.973,44.434,-81.543,2859.234
1686623481.341,50.781,233.887,23.438,69.824,2859.238
1686623481.345,23.438,-401.367,-64.453,47.852,2859.242
1686623481.349,-62.012,-913.574,43.457,-97.168,2859.246
1686623481.320,-40.039,-177.246,83.984,-103.516,2859.230
1686623481.324,42.969,3.418,9.766,40.527,2859.234
1686623481.328,37.109,-416.504,38.086,71.289,2859.238
1686623481.332,-49.316,-197.754,43.945,-74.707,2859.242
1686623481.336,-65.430,36.621,17.578,-129.395,2859.246
1686623481.340,10.254,-249.512,25.879,14.648,2859.250
1686623481.343,30.762,-467.773,98.145,93.750,2859.254
1686623481.347,-26.367,-315.918,54.199,-23.926,2859.258
1686623481.351,-65.918,-67.383,11.719,-131.348,2859.262
1686623481.355,0.488,-74.707,15.137,-34.180,2859.266
1686623481.359,63.477,-156.250,39.551,85.938,2859.269
1686623481.363,13.184,66.406,24.414,14.160,2859.273
1686623481.366,-57.129,83.496,10.254,-114.258,2859.275
1686623481.370,-35.156,-238.281,7.812,-65.918,2859.279
1686623481.374,29.785,-923.340,22.461,83.496,2859.283
1686623481.378,20.020,-604.492,93.750,68.848,2859.287
1686623481.382,-48.340,9.277,71.777,-89.355,2859.291
1686623481.386,-51.758,-406.738,8.789,-105.469,2859.295
1686623481.389,37.598,-543.457,48.828,44.434,2859.299
1686623481.393,55.664,105.469,48.828,86.426,2859.303
1686623481.397,-22.949,204.590,-14.648,-54.199,2859.306
1686623481.401,-59.570,-541.016,-40.039,-120.605,2859.310
1686623481.405,10.254,-419.922,65.430,13.184,2859.314
1686623481.409,58.105,320.312,53.223,106.445,2859.318
1686623481.425,4.883,222.656,-26.367,1.953,2859.321
1686623481.429,-56.152,-626.953,-22.461,-104.980,2859.325
1686623481.433,-3.906,-621.582,62.500,-15.625,2859.329
1686623481.437,75.195,208.984,63.965,111.816,2859.333
1686623481.441,29.785,224.609,-15.625,52.734,2859.337
1686623481.445,-48.828,-795.410,-5.371,-81.055,2859.341
1686623481.448,-11.230,-734.375,120.605,-51.270,2859.345
1686623481.452,73.730,250.488,75.195,82.520,2859.349
1686623481.456,47.363,234.375,-26.367,79.102,2859.353
1686623481.460,-39.062,-187.500,24.902,-61.035,2859.357
1686623481.464,-40.039,-31.738,45.410,-89.355,2859.361
1686623481.468,35.645,245.605,10.742,54.688,2859.364
1686623481.470,60.547,2.441,13.672,104.492,2859.367
1686623481.474,-9.766,-320.312,43.945,-24.414,2859.371
1686623481.478,-52.734,-52.734,33.203,-107.422,2859.374
1686623481.482,24.902,178.223,23.438,1.465,2859.378
1686623481.486,71.289,7.324,7.324,108.887,2859.382
1686623481.490,10.254,-323.242,3.906,21.484,2859.386
1686623481.493,-43.457,-413.574,15.625,-104.492,2859.390
1686623481.497,9.766,3.418,14.160,-35.645,2859.394
1686623481.501,76.172,-258.301,-15.137,111.328,2859.398
1686623481.505,34.180,-608.887,58.105,74.707,2859.402
1686623481.509,-34.668,-23.926,43.945,-77.637,2859.406
1686623481.513,-15.137,23.438,15.625,-64.453,2859.410
1686623481.515,57.617,-98.145,48.828,84.961,2859.412
1686623481.519,57.617,81.055,12.207,99.609,2859.416
1686623481.523,-13.672,-213.379,18.555,-54.199,2859.420
1686623481.527,-19.043,-482.422,30.273,-106.445,2859.424
1686623481.531,47.363,-801.758,31.738,41.016,2859.427
1686623481.535,54.199,-675.293,71.777,106.445,2859.431
1686623481.538,-12.695,-180.176,39.551,-14.160,2859.435
1686623481.542,-47.852,-229.004,-4.395,-103.027,2859.439
1686623481.546,10.254,-784.180,35.645,0.000,2859.443
1686623481.550,74.707,-172.852,70.312,119.141,2859.447
1686623481.554,37.109,379.395,10.254,42.969,2859.451
1686623481.558,-32.227,-142.090,-13.184,-93.750,2859.455
1686623481.560,9.277,-211.426,40.039,-40.039,2859.457
1686623481.564,84.961,292.969,48.340,106.934,2859.461
1686623481.568,50.781,344.727,1.953,77.148,2859.464
1686623481.572,-30.762,-115.234,1.465,-64.941,2859.468
1686623481.576,-13.184,-224.121,30.273,-67.871,2859.472
1686623481.580,70.801,-103.027,31.738,66.406,2859.476
1686623481.583,73.730,-90.820,8.301,86.426,2859.480
1686623481.587,-20.996,-499.512,-41.504,-51.270,2859.484
1686623481.591,-52.246,-920.410,33.203,-100.098,2859.488
1686623481.595,39.062,-133.789,75.195,29.785,2859.492
1686623481.599,72.754,344.727,5.371,104.980,2859.496
1686623481.603,2.441,-140.137,-11.719,-8.789,2859.500
1686623481.605,-46.875,-126.953,20.020,-108.887,2859.502
1686623481.609,13.184,109.375,18.555,-13.184,2859.506
1686623481.613,89.844,-146.973,2.930,124.512,2859.510
1686623481.617,63.965,-662.598,5.371,75.195,2859.514
1686623481.621,-15.625,-399.414,26.367,-75.195,2859.517
1686623481.625,-14.648,-84.473,39.062,-65.430,2859.521
1686623481.628,52.246,-196.777,31.250,78.613,2859.525
1686623481.632,36.133,-753.418,-10.742,67.383,2859.529
1686623481.636,-35.645,-666.016,44.922,-72.754,2859.533
1686623481.640,-35.645,78.125,61.035,-83.008,2859.537
1686623481.644,36.133,89.844,5.859,65.918,2859.541
1686623481.648,50.781,-162.109,55.176,122.559,2859.545
1686623481.650,-23.438,37.109,44.922,-18.555,2859.546
1686623481.654,-51.270,82.520,24.414,-93.750,2859.550
1686623481.658,27.344,-65.430,31.738,43.945,2859.554
1686623481.662,78.613,122.070,44.922,138.184,2859.558
1686623481.666,17.090,169.922,20.020,28.320,2859.562
1686623481.670,-35.645,-253.906,19.043,-72.754,2859.566
1686623481.673,16.602,-609.863,18.555,8.301,2859.570
1686623481.677,95.703,-524.414,87.402,149.902,2859.574
1686623481.681,77.637,175.781,57.129,111.328,2859.578
1686623481.685,-9.766,159.668,-9.277,-39.062,2859.581
1686623481.689,6.348,-386.230,-0.977,-18.066,2859.585
1686623481.693,104.980,-105.957,51.270,142.090,2859.589
1686623481.695,103.027,391.602,43.945,146.973,2859.605
1686623481.699,10.742,100.098,-32.227,-5.859,2859.609
1686623481.703,-8.301,-800.781,-9.766,-27.832,2859.613
1686623481.707,74.219,-526.855,131.836,106.445,2859.617
1686623481.711,103.027,357.422,64.941,157.715,2859.621
1686623481.715,28.320,-70.801,-21.484,46.875,2859.625
1686623481.718,-7.812,-848.145,30.273,-40.039,2859.629
1686623481.722,64.941,-300.781,82.520,59.570,2859.633
1686623481.726,116.699,411.133,40.039,165.527,2859.637
1686623481.730,56.641,178.711,-16.602,60.059,2859.641
1686623481.734,-11.719,-138.184,23.926,-75.684,2859.644
1686623481.738,29.785,67.383,52.734,5.371,2859.648
1686623481.743,99.121,305.664,16.602,150.391,2859.643
1686623481.747,70.312,-49.805,11.719,106.934,2859.647
1686623481.751,-5.859,-411.133,47.852,-45.898,2859.651
1686623481.755,7.324,-24.414,49.316,-37.109,2859.655
1686623481.759,83.984,340.332,37.598,110.840,2859.658
1686623481.763,81.055,-191.406,-5.859,125.488,2859.662
1686623481.766,14.648,-568.359,22.461,-13.184,2859.666
1686623481.770,4.395,-76.172,59.570,-55.176,2859.670
1686623481.774,70.801,204.102,32.227,78.613,2859.674
1686623481.778,94.238,-214.844,-26.367,145.996,2859.678
1686623481.782,26.855,-298.828,18.555,17.090,2859.682
1686623481.786,-14.648,72.754,44.434,-78.125,2859.686
1686623481.800,47.363,128.906,26.855,32.715,2859.697
1686623481.804,97.168,-136.230,41.016,147.461,2859.701
1686623481.808,44.922,-247.070,38.086,62.500,2859.705
1686623481.812,-17.578,-142.090,42.969,-84.961,2859.709
1686623481.816,28.320,-305.176,32.227,-6.836,2859.713
1686623481.820,88.379,-843.262,-7.812,160.645,2859.717
1686623481.823,52.734,-997.559,49.805,125.488,2859.721
1686623481.827,-3.418,-279.297,43.945,-41.016,2859.724
1686623481.831,7.812,-67.383,15.625,-41.504,2859.728
1686623481.835,86.426,-20.996,62.500,117.188,2859.732
1686623481.839,96.191,332.031,28.809,134.766,2859.736
1686623481.843,3.418,273.926,4.395,-25.391,2859.740
1686623481.845,-29.785,-105.469,6.348,-88.867,2859.742
1686623481.849,42.969,-53.223,46.875,48.340,2859.746
1686623481.853,80.566,333.008,36.621,136.719,2859.749
1686623481.857,28.809,267.578,1.953,19.043,2859.753
1686623481.861,-19.531,-224.121,0.977,-83.496,2859.757
1686623481.865,26.855,-472.168,24.414,27.344,2859.761
1686623481.868,87.891,-233.887,30.273,148.926,2859.765
1686623481.872,46.875,-110.840,17.090,66.406,2859.769
1686623481.876,-27.832,-562.500,-35.156,-70.312,2859.773
1686623481.880,0.977,-886.230,61.523,-22.461,2859.777
1686623481.884,88.379,12.207,81.543,115.723,2859.781
1686623481.888,71.777,320.312,-7.812,108.887,2859.785
1686623481.890,-13.672,-168.457,6.348,-33.203,2859.787
1686623481.894,-17.090,-207.031,15.625,-63.965,2859.791
1686623481.898,72.754,-72.266,50.293,89.844,2859.795
1686623481.902,95.703,62.012,26.855,139.160,2859.798
1686623481.906,17.578,-602.051,-7.324,-12.207,2859.802
1686623481.910,-7.812,-738.281,28.320,-75.684,2859.806
1686623481.913,66.406,-63.965,69.336,54.199,2859.810
1686623481.917,101.562,176.270,10.254,143.066,2859.814
1686623481.921,29.785,-699.707,-5.371,42.480,2859.818
1686623481.925,-32.227,-600.586,72.266,-76.172,2859.822
1686623481.929,28.809,225.098,35.645,1.465,2859.826
1686623481.933,100.586,133.789,-12.207,146.973,2859.830
1686623481.935,53.223,-216.797,34.668,86.914,2859.832
1686623481.939,-20.020,-18.555,41.504,-68.359,2859.836
1686623481.943,-0.488,150.391,11.719,-34.180,2859.839
1686623481.947,76.660,73.730,20.020,133.789,2859.843
1686623481.951,75.684,122.559,23.926,133.789,2859.847
1686623481.955,-6.348,-189.941,-1.465,-27.832,2859.851
1686623481.958,-13.672,-352.051,22.461,-62.988,2859.855
1686623481.962,71.289,-396.484,19.043,83.984,2859.859
1686623481.966,89.844,-476.562,70.312,141.602,2859.863
1686623481.970,15.137,104.004,51.758,4.395,2859.867
1686623481.974,-28.320,91.309,-20.996,-75.195,2859.871
1686623481.978,37.598,-359.863,-4.883,50.781,2859.875
1686623481.981,92.773,64.941,30.762,155.273,2859.877
1686623481.985,29.297,291.504,-9.277,49.316,2859.881
1686623481.989,-35.156,-281.250,-17.578,-93.262,2859.885
1686623481.993,13.672,-779.297,19.043,-15.625,2859.889
1686623481.997,99.609,-250.488,73.242,144.531,2859.893
1686623482.001,75.195,112.305,26.367,100.098,2859.897
1686623482.004,-8.301,-335.938,-1.953,-55.176,2859.901
1686623482.008,6.348,-806.641,27.832,-31.738,2859.905
1686623482.012,89.355,-207.031,61.523,130.859,2859.909
1686623482.016,92.285,468.262,21.484,141.113,2859.912
1686623482.020,4.395,89.355,-17.578,-15.137,2859.916
1686623482.024,-16.113,-181.641,37.598,-54.688,2859.920
1686623482.027,64.453,211.914,52.246,86.426,2859.928
1686623482.031,97.656,399.414,-0.488,149.902,2859.932
1686623482.035,32.715,-157.227,-4.395,31.250,2859.936
1686623482.039,-17.578,-429.199,53.223,-69.336,2859.940
1686623482.043,46.875,38.086,36.621,38.574,2859.944
1686623482.047,104.004,85.449,-11.719,165.527,2859.948
1686623482.050,51.758,-476.074,-32.715,83.984,2859.951
1686623482.054,-14.648,-812.988,75.684,-53.711,2859.955
1686623482.058,22.949,-104.980,86.914,-4.883,2859.959
1686623482.062,100.098,305.664,4.883,146.973,2859.963
1686623482.066,78.613,-41.992,-15.137,118.652,2859.967
1686623482.070,-7.324,-122.559,33.203,-45.898,2859.971
1686623482.070,-6.836,175.781,44.434,-53.711,2859.981
1686623482.074,78.613,173.828,-5.371,100.586,2859.985
1686623482.078,89.355,-416.504,-10.254,135.254,2859.989
1686623482.082,17.090,-207.031,13.184,-19.531,2859.993
1686623482.086,-3.906,-12.207,11.230,-81.055,2859.997
1686623482.090,61.035,-234.863,6.836,69.824,2860.000
1686623482.093,91.309,-794.434,0.000,166.016,2860.004
1686623482.097,35.156,-708.496,111.816,44.434,2860.008
1686623482.101,-8.301,23.926,63.477,-80.078,2860.012
1686623482.105,45.898,44.922,-7.324,11.719,2860.016
1686623482.109,110.840,94.238,45.410,157.227,2860.020
1686623482.113,67.871,305.176,18.555,81.055,2860.024
1686623482.132,-6.836,176.758,-4.883,-79.590,2860.029
1686623482.136,22.461,-105.957,30.273,-20.508,2860.033
1686623482.140,99.121,21.973,54.688,142.090,2860.037
1686623482.144,83.008,297.852,21.973,124.512,2860.040
1686623482.148,12.207,145.996,0.000,-33.203,2860.044
1686623482.152,8.789,-414.551,1.465,-49.316,2860.048
1686623482.155,84.961,-511.719,55.176,118.652,2860.052
1686623482.159,98.633,-65.430,54.688,170.410,2860.056
1686623482.163,12.695,130.371,18.066,17.090,2860.060
1686623482.167,-17.090,-463.867,-24.902,-57.129,2860.064
1686623482.171,61.523,-578.125,73.242,70.801,2860.068
1686623482.175,106.934,242.188,46.875,164.062,2860.072
1686623482.176,43.945,271.484,-12.695,59.570,2860.075
1686623482.180,-20.020,-357.422,17.090,-62.012,2860.079
1686623482.184,29.297,-390.137,41.992,14.160,2860.083
1686623482.188,102.539,243.164,29.297,155.273,2860.087
1686623482.192,63.477,169.434,-10.742,104.492,2860.091
1686623482.196,-5.859,-620.605,43.945,-49.316,2860.095
1686623482.199,24.902,-442.871,68.359,-26.855,2860.099
1686623482.203,109.375,312.988,26.855,136.719,2860.103
1686623482.207,99.121,249.023,-20.996,136.719,2860.107
1686623482.211,6.348,-811.035,-25.391,-25.391,2860.111
1686623482.215,-3.418,-790.527,121.582,-62.988,2860.114
1686623482.219,77.637,188.477,81.543,85.938,2860.118
1686623482.220,101.562,250.488,-22.461,160.645,2860.117
1686623482.224,29.297,-46.387,11.719,20.996,2860.121
1686623482.228,-9.766,32.715,28.320,-75.195,2860.124
1686623482.232,55.664,229.980,18.555,42.969,2860.128
1686623482.236,102.051,145.508,3.418,155.762,2860.132
1686623482.240,53.223,-143.066,19.043,79.102,2860.136
1686623482.243,-3.906,-330.078,21.973,-48.340,2860.140
1686623482.247,39.062,-18.555,32.227,5.371,2860.144
1686623482.251,101.074,-181.641,-1.953,153.320,2860.148
1686623482.255,62.988,-484.863,57.129,107.910,2860.152
1686623482.259,-11.230,49.805,37.598,-57.129,2860.156
1686623482.263,9.766,54.199,-18.066,-38.086,2860.160
1686623482.265,81.543,-271.973,2.441,131.348,2860.162
1686623482.269,88.867,-25.391,5.859,144.043,2860.166
1686623482.273,17.578,-81.543,5.859,-11.719,2860.169
1686623482.277,-10.742,-194.824,6.836,-63.965,2860.173
1686623482.281,58.105,-573.242,12.207,88.379,2860.177
1686623482.285,88.379,-517.090,45.410,154.785,2860.181
1686623482.288,30.762,-7.812,22.461,23.926,2860.185
1686623482.292,-21.484,-93.750,-15.137,-72.266,2860.189
1686623482.296,31.738,-738.281,31.738,34.180,2860.193
1686623482.300,102.539,-138.184,64.941,152.832,2860.197
1686623482.304,67.383,476.562,13.184,80.566,2860.201
1686623482.308,1.953,43.457,-7.812,-53.223,2860.205
1686623482.310,36.133,-6.348,38.086,-2.930,2860.207
1686623482.314,114.746,390.137,41.992,152.344,2860.211
1686623482.318,86.914,370.605,-2.441,124.023,2860.215
1686623482.322,0.000,-220.703,20.020,-19.531,2860.219
1686623482.326,3.906,-364.746,76.172,-20.996,2860.223
1686623482.330,86.426,-63.965,66.406,125.488,2860.226
1686623482.333,99.121,-11.719,17.578,159.668,2860.230
1686623482.337,19.531,-452.148,-20.020,1.465,2860.234
1686623482.341,-12.695,-640.137,85.449,-73.730,2860.238
1686623482.345,55.664,146.973,84.961,65.430,2860.242
1686623482.349,90.332,422.852,12.207,161.621,2860.246
1686623482.353,21.484,-56.641,-8.301,46.387,2860.250
1686623482.355,-28.320,-70.312,29.297,-68.848,2860.252
1686623482.359,33.691,217.773,46.387,25.879,2860.256
1686623482.363,95.703,28.320,5.859,166.992,2860.260
1686623482.367,50.781,-550.293,0.977,107.910,2860.263
1686623482.371,-14.160,-387.695,26.855,-41.504,2860.267
1686623482.375,20.508,-95.215,37.109,-6.836,2860.271
1686623482.378,88.867,-156.738,7.324,134.766,2860.275
1686623482.382,74.219,-725.098,-1.953,141.113,2860.279
1686623482.386,3.418,-573.730,83.008,-6.836,2860.283
1686623482.390,3.906,123.535,47.363,-47.363,2860.287
1686623482.394,82.520,172.852,8.301,104.492,2860.291
1686623482.398,99.121,239.746,33.691,152.832,2860.295
1686623482.416,21.973,301.270,22.949,9.766,2860.328
1686623482.420,-11.230,199.219,18.066,-62.012,2860.331
1686623482.424,63.477,11.719,21.484,71.289,2860.335
1686623482.428,116.699,174.805,41.504,186.523,2860.339
1686623482.432,59.570,324.707,18.555,83.008,2860.343
1686623482.436,-3.906,-67.871,0.488,-42.480,2860.347
1686623482.439,45.898,-513.184,24.902,34.180,2860.351
1686623482.443,124.512,-552.246,101.074,174.805,2860.355
1686623482.447,99.609,-104.492,68.359,131.348,2860.359
1686623482.451,22.949,77.148,-5.859,-35.156,2860.363
1686623482.455,37.598,-377.441,-17.090,-5.371,2860.367
1686623482.459,114.258,-201.660,63.965,167.480,2860.371
1686623482.445,100.098,412.598,48.828,158.203,2860.356
1686623482.449,20.508,185.059,0.488,5.371,2860.360
1686623482.453,11.719,-403.320,63.965,-15.625,2860.364
1686623482.457,94.727,-31.250,71.777,133.301,2860.368
1686623482.461,125.000,442.383,16.113,192.383,2860.372
1686623482.465,46.387,-171.387,-8.301,58.105,2860.376
1686623482.468,-0.488,-773.438,53.711,-47.852,2860.379
1686623482.472,72.266,-151.855,86.426,62.012,2860.383
1686623482.476,125.000,499.023,27.832,177.734,2860.387
1686623482.480,62.988,133.301,-30.762,88.867,2860.391
1686623482.484,-5.859,-802.246,3.906,-37.598,2860.395
1686623482.488,40.527,-443.848,89.844,23.438,2860.399
1686623482.492,124.023,413.574,41.504,160.645,2860.400
1686623482.496,106.445,100.586,1.953,127.441,2860.404
1686623482.500,19.531,-533.691,87.402,-20.508,2860.408
1686623482.504,15.137,-108.398,82.031,-27.832,2860.412
1686623482.508,104.492,420.410,27.344,130.859,2860.416
1686623482.512,115.234,-1.465,-1.953,161.133,2860.420
1686623482.515,31.738,-426.758,29.785,3.906,2860.424
1686623482.519,10.742,-12.695,47.852,-59.570,2860.428
1686623482.523,70.801,268.555,20.020,71.289,2860.432
1686623482.527,89.844,-83.984,-20.020,141.602,2860.436
1686623482.531,26.855,-145.508,4.395,11.719,2860.439
1686623482.535,-24.902,164.551,15.137,-93.262,2860.443
1686623482.551,30.273,139.648,-3.906,21.484,2860.447
1686623482.555,94.727,-196.289,-0.488,159.668,2860.451
1686623482.559,52.734,-280.762,16.113,75.195,2860.455
1686623482.563,-14.648,-22.461,27.832,-74.707,2860.458
1686623482.567,11.719,88.867,4.395,-20.508,2860.462
1686623482.571,83.008,-725.098,9.766,159.668,2860.466
1686623482.574,62.988,-744.141,125.000,145.508,2860.470
1686623482.578,-5.859,132.812,48.828,-34.180,2860.474
1686623482.582,3.906,88.379,-18.066,-47.852,2860.478
1686623482.586,83.984,9.277,47.852,125.000,2860.482
1686623482.590,88.379,331.543,22.461,161.133,2860.486
1686623482.594,6.836,342.773,-5.859,-9.766,2860.490
1686623482.597,-19.531,-55.176,3.906,-88.867,2860.494
1686623482.601,50.293,-133.789,55.664,48.828,2860.498
1686623482.605,92.773,351.074,32.227,145.508,2860.502
1686623482.609,37.109,277.344,-12.695,35.645,2860.506
1686623482.613,-30.762,-361.816,13.184,-73.730,2860.510
1686623482.617,20.508,-588.867,56.641,8.301,2860.514
1686623482.620,97.168,-64.453,69.824,137.695,2860.517
1686623482.624,51.270,346.680,13.184,73.242,2860.521
1686623482.628,-32.715,-342.285,-41.016,-73.730,2860.525
1686623482.632,-4.395,-633.789,83.984,-29.297,2860.529
1686623482.636,84.473,272.949,73.730,131.348,2860.533
1686623482.640,75.684,402.344,-13.184,122.070,2860.537
1686623482.641,-14.160,-116.699,-3.906,-37.598,2860.537
1686623482.645,-19.531,-125.488,19.531,-66.895,2860.540
1686623482.649,73.242,11.230,28.809,86.914,2860.544
1686623482.653,92.773,145.508,24.902,146.973,2860.548
1686623482.657,5.859,-249.023,42.969,7.324,2860.552
1686623482.661,-27.832,-447.266,40.039,-75.195,2860.556
1686623482.664,45.410,-204.590,42.969,43.457,2860.560
1686623482.668,87.402,-117.188,39.551,151.855,2860.564
1686623482.672,11.719,-789.062,-15.625,54.688,2860.568
1686623482.676,-40.527,-1000.000,47.852,-70.312,2860.572
1686623482.680,27.344,-67.383,76.172,3.418,2860.576
1686623482.684,61.523,303.223,11.230,121.582,2860.580
1686623482.686,20.508,175.293,21.484,73.730,2860.583
1686623482.690,-31.250,247.070,21.973,-58.594,2860.587
1686623482.694,-20.020,261.719,20.020,-44.434,2860.591
1686623482.698,45.898,154.297,25.391,100.098,2860.595
1686623482.702,41.016,195.312,35.645,103.516,2860.599
1686623482.706,-30.762,-62.500,18.066,-42.480,2860.603
1686623482.709,-31.738,-225.098,27.832,-78.613,2860.607
1686623482.713,48.340,-282.715,14.160,78.125,2860.610
1686623482.717,74.219,-480.469,66.895,148.926,2860.614
1686623482.721,12.207,-25.391,64.453,20.508,2860.618
1686623482.725,-21.973,190.918,10.254,-64.941,2860.622
1686623482.729,39.062,-233.887,-18.555,47.363,2860.626
1686623482.731,96.191,86.914,25.879,164.551,2860.631
1686623482.735,43.457,432.617,22.949,69.336,2860.635
1686623482.739,-25.879,-153.320,-9.277,-72.266,2860.639
1686623482.743,12.207,-564.453,26.367,0.977,2860.642
1686623482.747,95.703,56.641,56.641,153.320,2860.646
1686623482.751,74.219,258.301,14.648,112.305,2860.650
1686623482.754,-8.301,-257.812,0.488,-41.504,2860.654
1686623482.758,-15.625,-803.223,25.391,-30.762,2860.658
1686623482.762,62.988,-230.469,110.352,122.070,2860.662
1686623482.766,87.891,541.504,52.246,139.160,2860.666
1686623482.770,5.859,263.184,-15.137,-13.184,2860.670
1686623482.774,-23.438,-144.531,17.090,-72.754,2860.674
1686623482.777,50.293,100.098,75.684,66.895,2860.676
1686623482.781,77.637,586.914,46.875,155.762,2860.680
1686623482.785,10.254,219.238,-3.906,26.367,2860.684
1686623482.789,-34.180,-151.855,48.340,-95.703,2860.688
1686623482.793,23.438,144.531,53.223,11.719,2860.692
1686623482.797,80.566,216.309,29.297,144.043,2860.696
1686623482.800,30.762,-216.309,-9.766,63.965,2860.700
1686623482.804,-53.223,-864.258,29.785,-83.984,2860.704
1686623482.808,-18.555,-189.453,81.543,-45.898,2860.708
1686623482.812,68.359,450.684,34.180,106.934,2860.712
1686623482.816,39.551,124.023,-1.953,84.961,2860.715
1686623482.820,-46.387,109.375,15.625,-82.520,2860.719
1686623482.836,-38.086,293.945,34.180,-96.191,2860.733
1686623482.840,46.387,260.254,19.043,70.312,2860.737
1686623482.844,56.641,-157.227,37.598,119.141,2860.741
1686623482.848,-27.344,-252.930,48.828,-27.344,2860.745
1686623482.852,-52.734,61.035,48.828,-100.586,2860.749
1686623482.856,20.020,0.488,26.367,24.902,2860.753
1686623482.859,59.570,-772.949,10.254,125.977,2860.757
1686623482.863,6.348,-893.555,96.191,26.367,2860.761
1686623482.867,-38.086,-29.785,82.031,-91.309,2860.765
1686623482.871,1.465,218.750,27.832,3.906,2860.769
1686623482.875,64.453,203.613,50.293,145.020,2860.773
1686623482.879,37.109,278.809,41.016,81.543,2860.776
1686623482.880,-36.621,249.512,27.344,-68.848,2860.791
1686623482.884,-20.020,83.984,37.109,-39.551,2860.795
1686623482.888,60.059,188.477,79.102,116.211,2860.798
1686623482.892,48.340,459.473,37.598,110.352,2860.802
1686623482.896,-35.156,230.957,14.160,-54.688,2860.806
1686623482.900,-39.062,-225.098,39.062,-83.008,2860.810
1686623482.903,43.457,-215.820,45.410,68.848,2860.814
1686623482.907,71.777,242.188,50.293,124.023,2860.818
1686623482.911,-1.953,411.133,20.508,-26.367,2860.822
1686623482.915,-45.898,-371.582,-17.090,-114.746,2860.826
1686623482.919,22.949,-839.355,97.656,24.414,2860.830
1686623482.923,72.266,153.809,105.957,136.230,2860.834
1686623482.925,3.906,429.688,4.395,33.691,2860.821
1686623482.929,-69.824,-278.809,25.879,-101.562,2860.825
1686623482.933,-21.484,-318.848,79.102,-30.762,2860.829
1686623482.937,57.129,337.402,65.430,117.676,2860.833
1686623482.941,29.297,386.230,3.906,66.895,2860.837
1686623482.945,-58.105,-668.457,10.254,-77.148,2860.841
1686623482.948,-37.598,-583.496,105.957,-60.059,2860.845
1686623482.952,46.387,166.992,74.707,92.285,2860.849
1686623482.956,33.691,56.152,14.648,108.887,2860.853
1686623482.960,-38.574,-180.664,78.125,-52.734,2860.857
1686623482.964,-48.828,79.102,68.848,-94.238,2860.861
1686623482.968,31.250,454.102,51.270,58.594,2860.864
1686623482.973,53.711,254.883,3.906,128.418,2860.871
1686623482.977,-30.273,-710.938,-4.395,-7.812,2860.875
1686623482.981,-69.336,-320.312,73.242,-114.746,2860.879
1686623482.985,3.418,359.863,51.758,-5.371,2860.883
1686623482.989,54.688,142.090,22.949,122.070,2860.887
1686623482.993,-8.301,-141.113,23.438,37.109,2860.891
1686623482.996,-67.383,-187.012,63.965,-100.586,2860.895
1686623483.000,-28.320,235.352,50.293,-38.574,2860.899
1686623483.004,35.156,10.254,0.488,118.164,2860.902
1686623483.008,16.602,-500.977,67.383,95.215,2860.906
1686623483.012,-58.105,-122.070,75.684,-70.312,2860.910
1686623483.016,-52.734,116.211,27.344,-88.379,2860.914
1686623483.015,25.391,-88.379,0.000,70.801,2860.912
1686623483.019,30.762,92.773,15.137,106.934,2860.915
1686623483.023,-48.828,52.734,40.039,-39.551,2860.919
1686623483.027,-68.848,-63.477,44.922,-94.238,2860.923
1686623483.031,6.348,-171.875,82.520,46.387,2860.927
1686623483.035,46.387,-52.734,46.387,122.559,2860.931
1686623483.038,-1.953,26.855,8.301,12.207,2860.935
1686623483.042,-51.758,11.230,20.996,-90.332,2860.939
1686623483.046,-12.207,-735.840,10.742,4.883,2860.943
1686623483.050,42.480,-951.660,66.406,123.535,2860.947
1686623483.054,5.371,136.230,61.523,34.180,2860.951
1686623483.058,-55.664,163.574,-8.789,-108.398,2860.955
1686623483.060,-29.785,-212.891,39.551,-54.199,2860.956
1686623483.064,42.480,322.754,73.730,100.586,2860.960
1686623483.068,25.879,650.879,13.672,77.148,2860.964
1686623483.072,-53.711,143.555,13.184,-77.148,2860.968
1686623483.076,-53.223,-190.430,81.543,-93.262,2860.972
1686623483.080,32.715,99.609,61.523,59.570,2860.976
1686623483.083,47.852,237.305,19.531,118.164,2860.980
1686623483.087,-36.621,-207.031,-4.883,-27.832,2860.984
1686623483.091,-67.383,-528.809,97.656,-115.234,2860.988
1686623483.095,16.113,220.703,97.656,21.973,2860.991
1686623483.099,55.664,594.238,12.695,118.164,2860.995
1686623483.103,-15.137,147.949,4.883,2.441,2860.999
1686623483.120,-67.871,134.277,22.461,-106.445,2861.016
1686623483.124,-11.719,292.480,37.109,-19.043,2861.020
1686623483.128,51.270,70.312,33.691,116.699,2861.024
1686623483.132,9.766,-526.367,3.418,70.801,2861.028
1686623483.136,-58.105,-519.043,92.773,-82.520,2861.032
1686623483.140,-30.762,24.902,78.613,-63.477,2861.036
1686623483.143,39.062,30.762,18.066,96.680,2861.040
1686623483.147,23.926,-515.137,21.484,91.797,2861.044
1686623483.151,-52.734,-191.895,60.547,-82.520,2861.048
1686623483.155,-64.453,356.445,43.457,-118.164,2861.052
1686623483.159,15.625,331.543,41.016,47.363,2861.055
1686623483.163,38.574,404.785,56.152,116.211,2861.059
1686623483.150,-39.062,423.828,39.551,-26.367,2861.047
1686623483.154,-81.055,330.078,40.039,-121.094,2861.051
1686623483.158,-7.324,194.336,57.129,3.906,2861.055
1686623483.162,52.734,348.633,63.965,110.840,2861.059
1686623483.166,3.418,458.496,22.949,13.184,2861.063
1686623483.170,-49.316,12.207,9.277,-105.469,2861.067
1686623483.173,-4.395,-282.715,28.320,-38.574,2861.071
1686623483.177,65.918,6.836,83.496,110.840,2861.075
1686623483.181,38.574,385.742,87.891,83.496,2861.078
1686623483.185,-46.875,350.098,28.809,-84.473,2861.082
1686623483.189,-36.133,-392.578,-28.320,-76.172,2861.086
1686623483.193,42.480,-788.574,96.680,87.891,2861.090
1686623483.195,54.688,218.262,107.910,93.750,2861.106
1686623483.199,-25.391,293.945,-18.066,-59.082,2861.110
1686623483.203,-49.805,-559.082,5.859,-89.844,2861.114
1686623483.207,35.156,-45.898,76.172,59.082,2861.118
1686623483.211,65.430,606.445,52.734,121.582,2861.122
1686623483.215,-18.066,78.125,-8.301,-7.324,2861.126
1686623483.218,-71.777,-797.363,28.809,-106.934,2861.130
1686623483.222,-12.695,-400.391,123.535,-8.301,2861.133
1686623483.226,43.457,267.090,55.664,111.328,2861.137
1686623483.230,-7.812,3.906,14.648,17.090,2861.141
1686623483.234,-81.055,-320.801,124.023,-129.395,2861.145
1686623483.238,-33.203,167.480,101.074,-56.641,2861.149
1686623483.241,49.316,567.383,28.809,98.145,2861.149
1686623483.245,10.742,354.492,20.020,56.641,2861.153
1686623483.249,-62.988,129.395,33.203,-97.656,2861.157
1686623483.253,-42.969,260.254,58.594,-102.539,2861.160
1686623483.257,30.273,494.629,50.781,57.129,2861.164
1686623483.261,26.855,12.207,24.902,91.797,2861.168
1686623483.264,-42.969,-381.836,62.012,-51.758,2861.172
1686623483.268,-57.617,112.305,63.477,-108.398,2861.176
1686623483.272,8.789,438.477,30.762,33.691,2861.180
1686623483.276,33.691,27.344,-0.488,107.910,2861.184
1686623483.280,-37.598,-315.918,52.734,-18.066,2861.188
1686623483.284,-93.750,-177.246,73.730,-138.672,2861.192
1686623483.299,-35.156,114.746,44.922,-55.664,2861.196
1686623483.303,26.367,-164.062,-15.625,74.219,2861.199
1686623483.307,-13.184,-292.969,19.531,8.789,2861.203
1686623483.311,-83.496,164.062,60.059,-136.230,2861.207
1686623483.315,-58.594,288.086,32.227,-90.820,2861.211
1686623483.319,14.648,-557.129,19.531,80.566,2861.215
1686623483.322,-0.488,-633.789,119.629,65.430,2861.219
1686623483.326,-67.871,226.562,62.500,-107.422,2861.223
1686623483.330,-60.547,103.516,13.672,-134.277,2861.227
1686623483.334,22.949,26.855,86.426,31.250,2861.231
1686623483.338,36.621,434.082,51.758,95.703,2861.235
1686623483.342,-45.410,410.156,18.066,-44.922,2861.238
1686623483.345,-77.148,7.812,-2.441,-128.418,2861.242
1686623483.349,-9.766,-167.480,43.945,-5.371,2861.245
1686623483.353,44.434,235.840,79.590,100.586,2861.249
1686623483.357,-11.230,457.031,13.184,-13.184,2861.253
1686623483.361,-76.172,-24.414,11.230,-133.789,2861.257
1686623483.365,-19.531,-470.215,79.102,-38.086,2861.261
1686623483.368,45.410,39.062,81.543,101.074,2861.265
1686623483.372,7.324,519.531,3.906,39.551,2861.269
1686623483.376,-58.594,-184.570,-36.133,-108.887,2861.273
1686623483.380,-40.527,-557.129,101.562,-89.355,2861.277
1686623483.384,34.668,308.594,83.984,64.941,2861.281
1686623483.388,25.391,480.957,2.930,61.035,2861.285
1686623483.391,-62.012,4.883,12.695,-98.145,2861.287
1686623483.395,-77.148,-79.590,19.043,-116.699,2861.291
1686623483.399,5.371,36.133,50.781,44.434,2861.295
1686623483.403,32.227,223.145,49.316,100.098,2861.299
1686623483.407,-51.270,-520.508,3.906,-39.551,2861.302
1686623483.411,-94.727,-868.164,63.477,-130.371,2861.306
1686623483.414,-19.531,-76.172,73.242,-11.230,2861.310
1686623483.418,36.621,291.504,6.348,104.980,2861.314
1686623483.422,-25.879,-541.992,6.348,4.883,2861.318
1686623483.426,-87.891,-311.523,63.965,-132.324,2861.322
1686623483.430,-39.551,407.715,46.875,-60.547,2861.326
1686623483.434,28.809,361.328,25.391,84.961,2861.330
1686623483.435,0.000,270.996,35.156,35.156,2861.331
1686623483.439,-77.148,241.211,36.133,-130.371,2861.335
1686623483.443,-61.523,289.062,29.297,-110.840,2861.339
1686623483.447,24.902,230.957,22.461,55.176,2861.343
1686623483.451,23.926,240.234,39.062,70.312,2861.347
1686623483.455,-49.316,-47.852,14.648,-73.730,2861.351
1686623483.458,-72.754,-205.566,27.832,-132.324,2861.355
1686623483.462,1.465,-276.367,13.672,7.812,2861.359
1686623483.466,25.879,-835.938,23.438,91.797,2861.362
1686623483.470,-39.062,-120.117,63.477,-27.832,2861.366
1686623483.474,-75.684,277.344,24.902,-125.000,2861.370
1686623483.478,-16.602,-52.246,22.461,-14.160,2861.374
1686623483.484,43.945,349.609,36.133,106.934,2861.389
1686623483.488,-8.301,421.875,7.812,17.578,2861.393
1686623483.492,-73.730,-110.352,-2.441,-113.770,2861.397
1686623483.496,-47.363,-601.074,17.090,-53.223,2861.401
1686623483.500,20.508,-91.309,81.055,93.262,2861.405
1686623483.504,9.277,261.719,40.039,55.664,2861.409
1686623483.507,-66.406,-233.887,9.277,-96.680,2861.413
1686623483.511,-57.617,-768.555,62.500,-90.820,2861.416
1686623483.515,29.785,-152.832,103.027,65.430,2861.420
1686623483.519,32.227,364.746,46.875,87.891,2861.424
1686623483.523,-48.828,-60.547,20.996,-64.453,2861.428
1686623483.527,-71.289,-295.410,128.906,-131.836,2861.432
1686623483.525,0.000,268.555,114.258,-3.906,2861.422
1686623483.529,38.574,612.793,29.297,88.867,2861.425
1686623483.533,-22.949,261.230,27.344,-21.484,2861.429
1686623483.537,-69.336,59.570,68.359,-132.324,2861.433
1686623483.541,-12.695,273.438,76.172,-40.527,2861.437
1686623483.545,48.340,260.742,29.785,91.797,2861.441
1686623483.548,5.859,-245.605,13.672,30.762,2861.445
1686623483.552,-75.195,-555.176,118.652,-116.699,2861.449
1686623483.556,-42.969,146.484,106.445,-78.613,2861.453
1686623483.560,41.504,517.090,37.109,72.754,2861.457
1686623483.564,25.879,144.043,-2.441,67.383,2861.461
1686623483.568,-54.688,-100.586,9.766,-81.543,2861.465
1686623483.571,-49.805,7.812,94.727,-100.586,2861.487
1686623483.575,27.344,287.109,36.621,51.758,2861.491
1686623483.579,29.785,-405.273,-13.672,106.445,2861.495
1686623483.583,-46.387,-611.328,101.074,-32.227,2861.499
1686623483.587,-70.801,158.691,83.496,-117.676,2861.503
1686623483.591,2.930,89.355,35.156,9.277,2861.507
1686623483.594,52.246,-536.133,61.523,123.535,2861.510
1686623483.598,-10.742,-146.973,100.586,15.137,2861.514
1686623483.602,-78.125,361.816,35.156,-128.906,2861.518
1686623483.606,-20.020,219.727,33.203,-36.621,2861.522
1686623483.610,54.688,289.062,82.520,117.676,2861.526
1686623483.614,16.602,468.262,48.828,57.129,2861.530
1686623483.618,-57.129,407.227,25.879,-92.285,2861.525
1686623483.622,-34.668,84.961,29.785,-61.523,2861.529
1686623483.626,42.480,-55.176,78.125,92.285,2861.533
1686623483.630,41.016,290.527,77.637,95.215,2861.537
1686623483.634,-37.109,418.457,32.227,-65.430,2861.541
1686623483.638,-52.734,-261.230,17.090,-89.355,2861.544
1686623483.641,19.531,-778.320,119.141,64.453,2861.548
1686623483.645,50.293,145.996,119.141,113.770,2861.552
1686623483.649,-21.973,430.664,13.672,-21.973,2861.556
1686623483.653,-75.684,-207.031,-1.465,-119.629,2861.560
1686623483.657,-20.020,2.441,43.457,-14.648,2861.564
1686623483.661,36.133,494.141,59.570,104.004,2861.568
1686623483.674,-16.113,408.691,20.020,6.348,2861.570
1686623483.678,-80.078,-211.914,8.301,-129.395,2861.574
1686623483.682,-36.133,-290.527,56.152,-48.828,2861.578
1686623483.686,40.039,352.539,66.895,99.609,2861.582
1686623483.690,5.371,350.586,11.719,51.758,2861.586
1686623483.694,-83.496,-699.219,16.113,-101.074,2861.590
1686623483.697,-63.477,-867.188,113.770,-86.914,2861.594
1686623483.701,25.879,221.680,107.422,62.988,2861.598
1686623483.705,17.090,333.984,4.883,79.590,2861.602
1686623483.709,-69.824,-542.969,45.410,-71.289,2861.606
1686623483.713,-84.961,-149.414,83.984,-124.512,2861.609
1686623483.717,-8.789,330.078,55.664,17.090,2861.613
1686623483.719,17.090,282.227,10.254,87.891,2861.644
1686623483.723,-40.039,158.691,11.230,-33.203,2861.648
1686623483.727,-75.684,152.832,51.758,-147.461,2861.652
1686623483.731,-17.578,332.520,41.016,-44.434,2861.656
1686623483.735,46.387,243.164,38.086,105.469,2861.660
1686623483.739,-6.348,-81.543,29.297,24.414,2861.664
1686623483.742,-81.543,-256.348,25.879,-126.953,2861.668
1686623483.746,-36.621,-37.598,55.176,-71.289,2861.672
1686623483.750,36.621,-176.758,-7.324,91.309,2861.676
1686623483.754,15.625,-794.434,36.133,64.453,2861.679
1686623483.758,-56.641,-93.262,78.613,-102.051,2861.683
1686623483.762,-63.965,264.648,8.301,-100.098,2861.687
1686623483.764,6.348,48.340,33.203,56.152,2861.661
1686623483.768,19.043,257.812,34.180,85.938,2861.665
1686623483.772,-47.363,92.773,26.367,-62.012,2861.668
1686623483.776,-71.777,0.000,37.109,-135.742,2861.672
1686623483.780,-9.277,-431.641,22.949,16.602,2861.676
1686623483.784,30.273,-319.336,62.012,114.258,2861.680
1686623483.787,-27.832,123.047,29.297,-12.207,2861.684
1686623483.791,-83.984,-16.602,17.578,-126.465,2861.688
1686623483.795,-26.855,-169.434,141.602,-41.992,2861.692
1686623483.799,47.363,229.980,101.074,92.773,2861.696
1686623483.803,0.488,310.547,28.809,34.668,2861.700
1686623483.807,-81.543,-56.152,4.395,-117.188,2861.704
1686623483.809,-49.805,-579.102,72.754,-82.520,2861.705
1686623483.813,36.621,92.285,120.117,66.406,2861.709
1686623483.817,19.531,626.953,31.738,53.223,2861.713
1686623483.821,-74.219,1.953,6.836,-97.656,2861.717
1686623483.825,-82.031,-617.188,99.609,-108.398,2861.721
1686623483.829,0.000,-138.672,104.980,38.086,2861.725
1686623483.832,20.996,253.906,20.996,85.938,2861.729
1686623483.836,-50.781,-235.352,-0.977,-51.270,2861.733
1686623483.840,-86.426,-521.973,113.770,-130.859,2861.736
1686623483.844,-4.883,281.250,112.305,-7.812,2861.740
1686623483.848,46.875,627.930,19.043,97.656,2861.744
1686623483.852,-22.949,176.270,-8.789,-2.930,2861.748
1686623483.855,-89.844,-41.016,8.789,-139.160,2861.752
1686623483.859,-36.621,84.473,66.406,-63.477,2861.756
1686623483.863,33.203,170.410,44.434,80.078,2861.760
1686623483.867,1.465,-442.871,-6.836,30.273,2861.764
1686623483.871,-66.895,-640.625,67.871,-108.887,2861.768
1686623483.875,-43.457,-73.730,66.406,-80.566,2861.772
1686623483.878,30.762,72.754,20.996,68.848,2861.775
1686623483.882,22.461,-414.551,20.508,68.359,2861.779
1686623483.886,-47.363,-131.348,57.129,-83.496,2861.783
1686623483.890,-59.570,405.273,40.039,-127.930,2861.787
1686623483.894,10.254,340.820,29.297,12.207,2861.791
1686623483.898,32.227,368.652,55.176,73.730,2861.795
1686623483.901,-49.316,415.039,34.180,-59.570,2861.798
1686623483.905,-95.703,355.957,30.762,-148.438,2861.802
1686623483.909,-18.555,139.160,36.133,-23.926,2861.806
1686623483.913,40.039,61.035,41.504,99.121,2861.810
1686623483.917,-14.648,301.758,19.531,1.465,2861.814
1686623483.921,-84.473,144.043,18.555,-140.137,2861.818
1686623483.924,-50.293,-345.703,10.742,-64.453,2861.822
1686623483.928,22.949,-822.266,58.594,98.633,2861.825
1686623483.932,3.906,25.879,88.379,50.781,2861.829
1686623483.936,-74.707,398.926,24.902,-117.676,2861.833
1686623483.940,-63.477,-76.172,30.273,-115.723,2861.837
1686623483.944,22.461,242.676,58.105,42.969,2861.841
1686623483.945,24.414,580.566,40.039,62.012,2861.855
1686623483.949,-52.734,316.895,-0.977,-84.961,2861.859
1686623483.953,-71.289,-322.266,34.180,-132.324,2861.863
1686623483.957,9.277,53.711,79.590,11.230,2861.867
1686623483.961,42.969,543.457,32.227,96.680,2861.871
1686623483.965,-32.715,65.430,3.906,-29.297,2861.875
1686623483.968,-84.961,-840.820,14.160,-135.742,2861.879
1686623483.972,-17.090,-881.836,118.652,-32.715,2861.883
1686623483.976,61.523,265.137,108.887,86.426,2861.887
1686623483.980,5.859,411.621,6.348,6.836,2861.891
1686623483.984,-78.125,-3.906,42.969,-139.160,2861.895
1686623483.988,-39.062,255.371,56.641,-91.309,2861.898
1686623483.991,41.504,555.176,41.504,78.125,2861.900
1686623483.995,16.602,368.164,13.672,54.688,2861.904
1686623483.999,-65.430,68.848,18.066,-106.445,2861.908
1686623484.003,-61.035,192.383,53.223,-114.258,2861.912
1686623484.007,19.531,481.445,38.574,45.898,2861.915
1686623484.011,23.926,75.684,13.672,76.660,2861.919
1686623484.014,-43.457,-369.141,62.012,-62.012,2861.923
1686623484.018,-66.406,1.465,53.711,-121.094,2861.927
1686623484.022,2.441,168.457,29.297,11.230,2861.931
1686623484.026,41.504,-161.621,6.836,106.445,2861.935
1686623484.030,-25.391,-362.793,79.590,-7.324,2861.939
1686623484.034,-69.824,135.742,72.266,-124.512,2861.943
1686623484.050,-18.066,296.387,19.531,-32.227,2861.946
1686623484.054,43.945,67.871,27.344,107.910,2861.950
1686623484.058,4.395,-55.176,44.922,52.246,2861.954
1686623484.062,-74.219,134.766,56.152,-104.980,2861.958
1686623484.066,-44.434,273.438,28.809,-77.148,2861.962
1686623484.070,32.227,-579.102,26.367,93.750,2861.966
1686623484.073,15.137,-628.418,119.141,81.055,2861.970
1686623484.077,-57.617,295.898,68.848,-71.289,2861.974
1686623484.081,-58.105,192.383,11.230,-89.355,2861.978
1686623484.085,28.809,44.434,80.566,52.734,2861.982
1686623484.089,52.734,319.824,60.059,107.910,2861.986
1686623484.093,-26.855,244.141,36.621,-28.320,2861.989
1686623484.084,-68.359,-23.926,16.602,-112.793,2861.991
1686623484.088,3.906,-149.902,84.961,16.113,2861.995
1686623484.092,62.012,365.234,76.172,117.676,2861.999
1686623484.096,-1.465,480.957,22.461,1.465,2862.003
1686623484.100,-72.266,42.969,31.250,-130.859,2862.007
1686623484.104,-30.273,-239.258,47.852,-43.945,2862.011
1686623484.107,50.293,26.367,74.219,98.145,2862.014
1686623484.111,22.461,410.645,33.203,37.109,2862.018
1686623484.115,-62.500,-208.496,-18.066,-113.770,2862.022
1686623484.119,-46.875,-549.805,109.375,-92.773,2862.026
1686623484.123,30.762,300.293,91.797,69.336,2862.030
1686623484.127,21.484,274.414,14.160,89.355,2862.034
1686623484.141,-58.594,-155.762,27.832,-63.965,2862.040
1686623484.145,-65.430,-130.371,30.273,-109.863,2862.044
1686623484.149,9.277,-16.113,45.410,37.598,2862.048
1686623484.153,28.320,124.023,30.762,99.609,2862.052
1686623484.157,-44.922,-476.562,-15.137,-40.039,2862.056
1686623484.161,-91.797,-916.504,99.609,-128.418,2862.060
1686623484.164,-21.973,-26.367,133.789,-17.090,2862.064
1686623484.168,39.551,410.645,2.930,98.145,2862.068
1686623484.172,-11.230,-354.980,11.719,18.555,2862.072
1686623484.176,-74.707,-88.379,61.035,-117.676,2862.076
1686623484.180,-37.109,409.668,33.203,-57.617,2862.079
1686623484.184,36.133,368.164,26.367,88.379,2862.083
1686623484.185,9.766,360.840,37.598,52.734,2862.082
1686623484.189,-70.312,351.562,44.434,-96.191,2862.086
1686623484.193,-53.711,323.730,39.062,-87.891,2862.090
1686623484.197,28.809,150.879,44.434,61.035,2862.094
1686623484.201,22.949,47.852,38.574,70.801,2862.097
1686623484.205,-54.688,-69.824,4.395,-82.031,2862.101
1686623484.208,-76.172,-103.027,34.180,-125.488,2862.105
1686623484.212,-5.371,-203.613,23.438,27.832,2862.109
1686623484.216,35.156,-775.391,41.992,111.816,2862.113
1686623484.220,-24.414,-50.781,65.430,-27.344,2862.117
1686623484.224,-78.125,341.797,20.020,-134.766,2862.121
1686623484.228,-30.273,-24.902,13.184,-20.996,2862.125
1686623484.230,31.738,343.262,23.926,102.051,2862.127
1686623484.234,-12.695,444.336,23.438,23.926,2862.131
1686623484.238,-85.449,-77.148,8.301,-114.746,2862.134
1686623484.242,-49.316,-578.613,25.391,-76.172,2862.138
1686623484.246,35.645,-94.727,74.219,64.453,2862.142
1686623484.250,15.625,212.891,26.855,44.922,2862.146
1686623484.253,-72.266,-187.500,5.859,-100.586,2862.150
1686623484.257,-66.895,-819.824,43.457,-107.422,2862.154
1686623484.261,18.066,-435.547,142.090,35.645,2862.158
1686623484.265,37.109,561.035,60.547,65.430,2862.162
1686623484.269,-38.574,314.941,-20.508,-71.777,2862.166
1686623484.273,-64.941,-29.785,60.059,-132.812,2862.170
1686623484.276,12.207,327.637,65.918,7.324,2862.173
1686623484.280,50.781,558.594,25.391,112.305,2862.177
1686623484.284,-22.949,207.520,-1.953,1.465,2862.181
1686623484.288,-92.285,-30.762,24.902,-123.535,2862.185
1686623484.292,-42.480,180.664,56.152,-41.016,2862.189
1686623484.296,37.109,243.164,26.367,95.703,2862.193
1686623484.299,-1.465,-205.078,9.766,26.855,2862.197
1686623484.303,-81.543,-548.340,127.441,-132.324,2862.201
1686623484.307,-53.711,39.551,95.215,-102.051,2862.205
1686623484.311,27.832,196.289,12.207,67.871,2862.209
1686623484.315,17.578,-168.457,-4.883,72.266,2862.213
1686623484.319,-66.895,-98.145,38.574,-95.703,2862.216
1686623484.320,-77.637,257.812,56.152,-135.742,2862.230
1686623484.324,5.371,194.336,2.441,19.043,2862.234
1686623484.328,26.855,-173.340,2.441,81.055,2862.238
1686623484.332,-46.875,11.719,36.621,-45.410,2862.242
1686623484.336,-71.289,246.094,18.066,-119.629,2862.246
1686623484.340,-3.418,18.066,16.113,6.836,2862.250
1686623484.343,41.504,-717.285,29.785,119.141,2862.254
1686623484.347,-6.348,-628.906,105.957,9.277,2862.258
1686623484.351,-60.547,162.109,45.898,-126.465,2862.262
1686623484.355,-12.207,158.203,4.883,-54.688,2862.266
1686623484.359,56.152,193.848,71.289,87.402,2862.269
1686623484.363,19.531,265.137,30.273,41.992,2862.273
1686623484.368,-60.547,54.688,19.043,-109.375,2862.268
1686623484.372,-37.598,-107.910,19.531,-82.520,2862.272
1686623484.376,47.852,-254.395,114.258,83.008,2862.276
1686623484.380,48.828,247.070,97.168,90.332,2862.280
1686623484.384,-40.527,348.633,-1.953,-70.312,2862.284
1686623484.388,-67.383,-289.551,29.297,-117.188,2862.288
1686623484.391,10.742,-405.273,98.633,23.438,2862.291
1686623484.395,38.086,297.363,59.570,82.520,2862.295
1686623484.399,-39.062,381.836,-8.301,-49.316,2862.299
1686623484.403,-78.125,-282.227,-5.859,-138.184,2862.303
1686623484.407,-9.766,-201.660,79.102,-27.344,2862.307
1686623484.411,45.898,468.262,57.617,83.008,2862.311
1686623484.426,-7.812,391.602,3.418,-4.883,2862.325
1686623484.430,-89.844,-206.543,-9.766,-130.859,2862.329
1686623484.434,-54.199,-329.102,30.762,-63.477,2862.333
1686623484.438,23.438,9.277,64.941,89.355,2862.337
1686623484.442,14.160,236.816,22.949,57.129,2862.341
1686623484.446,-62.500,-614.746,-20.508,-103.027,2862.345
1686623484.449,-69.336,-1000.000,51.758,-99.121,2862.349
1686623484.453,16.602,-13.184,102.539,48.340,2862.353
1686623484.457,19.531,395.508,14.648,60.547,2862.357
1686623484.461,-62.012,29.785,31.738,-92.773,2862.360
1686623484.465,-81.543,113.281,62.500,-151.367,2862.364
1686623484.469,-11.230,332.031,32.715,0.977,2862.368
1686623484.470,29.297,312.012,8.301,95.215,2862.367
1686623484.474,-35.156,135.742,23.926,-28.320,2862.370
1686623484.478,-90.820,148.926,28.809,-136.230,2862.374
1686623484.482,-27.344,262.207,20.020,-40.527,2862.378
1686623484.486,40.527,122.559,32.227,87.402,2862.382
1686623484.490,-5.859,-150.879,41.504,16.602,2862.386
1686623484.493,-77.148,-321.777,42.480,-124.512,2862.390
1686623484.497,-41.992,-5.859,66.406,-80.566,2862.394
1686623484.501,47.363,-95.703,-9.766,77.148,2862.398
1686623484.505,23.926,-820.312,27.832,60.547,2862.402
1686623484.509,-63.965,-156.250,66.895,-112.305,2862.406
1686623484.513,-53.711,228.027,22.949,-123.047,2862.409
1686623484.516,11.719,23.926,27.344,33.203,2862.412
1686623484.520,8.789,191.406,5.859,66.406,2862.416
1686623484.524,-52.734,20.020,28.320,-70.312,2862.420
1686623484.528,-74.707,-57.617,41.992,-145.996,2862.424
1686623484.532,-6.348,-448.730,6.836,-22.461,2862.428
1686623484.536,24.902,-372.559,41.016,66.895,2862.432
1686623484.539,-47.363,6.348,32.715,-50.781,2862.435
1686623484.543,-119.629,-119.141,-16.113,-187.988,2862.439
1686623484.547,-95.703,-842.285,20.508,-109.375,2862.443
1686623484.551,-36.133,-514.160,136.230,11.719,2862.447
1686623484.555,-86.426,381.348,41.504,-76.172,2862.451
1686623484.559,-183.105,-99.609,0.977,-232.910,2862.455
1686623484.560,-165.527,-306.152,87.891,-216.309,2862.457
1686623484.564,-79.590,326.172,51.758,-63.965,2862.461
1686623484.568,-93.750,548.828,7.324,-53.223,2862.465
1686623484.572,-178.711,51.270,7.324,-210.449,2862.469
1686623484.576,-185.547,-328.125,52.246,-247.070,2862.473
1686623484.580,-102.539,-89.355,59.570,-92.285,2862.476
1686623484.583,-76.660,135.742,14.648,-31.738,2862.480
1686623484.587,-147.949,-229.004,-21.973,-160.156,2862.484
1686623484.591,-183.594,-566.406,91.309,-239.746,2862.488
1686623484.595,-98.633,102.051,83.496,-120.117,2862.492
1686623484.599,-33.203,251.465,-7.324,4.883,2862.496
1686623484.603,-90.332,-301.758,-36.133,-85.449,2862.500
1686623484.605,-143.066,-182.617,27.344,-207.031,2862.502
1686623484.609,-81.055,234.863,47.852,-114.258,2862.506
1686623484.613,-12.207,30.762,11.230,39.551,2862.509
1686623484.617,-39.551,-454.590,0.488,2.930,2862.513
1686623484.621,-113.770,-299.805,36.621,-155.762,2862.517
1686623484.625,-91.309,8.789,55.664,-141.602,2862.521
1686623484.628,6.348,-64.453,25.879,34.668,2862.525
1686623484.632,14.160,-522.461,21.973,62.988,2862.529
1686623484.636,-43.457,-207.031,83.496,-82.520,2862.533
1686623484.640,-51.758,343.262,48.340,-110.352,2862.537
1686623484.644,21.973,273.926,17.090,44.434,2862.541
1686623484.648,59.082,320.801,43.457,120.117,2862.545
1686623484.652,-0.488,190.430,12.207,6.348,2862.553
1686623484.656,-39.551,34.668,38.574,-95.215,2862.557
1686623484.660,23.438,15.625,46.875,0.488,2862.561
1686623484.664,81.543,6.836,78.613,124.512,2862.565
1686623484.668,39.062,248.535,43.945,41.504,2862.569
1686623484.672,-22.461,39.551,-1.465,-88.379,2862.572
1686623484.675,3.418,-407.227,34.180,-14.648,2862.576
1686623484.679,69.336,-467.285,148.438,132.812,2862.580
1686623484.683,65.430,260.254,92.285,101.074,2862.584
1686623484.687,-8.301,303.711,-1.465,-47.852,2862.588
1686623484.691,-11.719,-148.926,18.066,-57.129,2862.592
1686623484.695,75.684,152.832,53.223,106.934,2862.596
1686623484.696,85.449,526.367,42.969,148.438,2862.606
1686623484.700,0.977,209.961,-11.230,-2.930,2862.610
1686623484.704,-25.391,-643.555,-41.016,-64.453,2862.614
1686623484.708,60.547,-444.824,37.598,67.871,2862.617
1686623484.712,106.445,333.496,70.312,152.344,2862.621
1686623484.716,36.621,98.633,2.930,40.527,2862.625
1686623484.719,-12.695,-852.051,10.254,-63.477,2862.629
1686623484.723,48.828,-762.695,150.391,30.273,2862.633
1686623484.727,116.211,309.570,100.098,155.273,2862.637
1686623484.731,72.266,327.637,-0.488,76.172,2862.641
1686623484.735,3.906,-62.500,57.129,-74.707,2862.645
1686623484.739,43.945,169.434,60.059,-12.695,2862.649
1686623484.742,112.793,413.086,41.016,143.555,2862.655
1686623484.746,81.055,260.742,-4.395,117.676,2862.659
1686623484.750,0.000,-0.488,15.137,-41.016,2862.663
1686623484.754,6.348,81.543,51.758,-62.988,2862.667
1686623484.758,77.637,271.973,33.691,92.285,2862.670
1686623484.762,84.473,-104.492,31.738,134.277,2862.674
1686623484.765,20.508,-540.527,53.223,-2.441,2862.678
1686623484.769,-3.418,-391.602,51.758,-67.871,2862.682
1686623484.773,58.594,141.602,55.664,58.105,2862.686
1686623484.777,94.238,-120.605,3.418,163.574,2862.690
1686623484.781,31.250,-577.637,73.242,49.316,2862.694
1686623484.785,-21.484,2.441,70.801,-93.750,2862.698
1686623484.801,24.414,230.957,27.344,-17.090,2862.697
1686623484.805,85.449,-41.504,27.832,125.977,2862.701
1686623484.809,43.457,-193.848,14.160,77.148,2862.705
1686623484.813,-20.508,21.973,54.688,-76.172,2862.708
1686623484.817,8.301,162.598,44.434,-51.758,2862.712
1686623484.821,74.219,-617.676,9.277,105.469,2862.716
1686623484.824,65.430,-672.363,112.793,97.656,2862.720
1686623484.828,-14.160,132.324,57.617,-63.477,2862.724
1686623484.832,-30.762,-146.484,-10.254,-89.844,2862.728
1686623484.836,47.363,-657.715,77.637,62.500,2862.732
1686623484.840,69.336,83.984,93.750,116.699,2862.736
1686623484.844,-6.348,469.727,16.113,-20.020,2862.740
1686623484.845,-43.945,0.488,4.395,-103.516,2862.742
1686623484.849,23.438,11.230,50.293,7.812,2862.746
1686623484.853,67.383,403.320,57.617,100.586,2862.750
1686623484.857,1.953,408.691,21.484,5.859,2862.754
1686623484.861,-64.453,-37.598,10.254,-106.445,2862.758
1686623484.865,-23.438,-398.438,56.641,-32.715,2862.761
1686623484.868,47.852,-59.570,81.055,104.492,2862.765
1686623484.872,20.996,357.910,30.762,57.617,2862.769
1686623484.876,-60.059,-261.230,-16.602,-89.844,2862.773
1686623484.880,-43.945,-598.145,122.070,-71.289,2862.777
1686623484.884,39.551,101.562,92.285,73.242,2862.781
1686623484.888,44.434,74.219,-1.953,86.426,2862.785
1686623484.891,-35.645,-434.570,-19.531,-59.082,2862.787
1686623484.895,-56.641,-366.211,6.836,-108.887,2862.791
1686623484.899,29.297,-52.246,57.617,36.133,2862.795
1686623484.903,53.711,162.598,43.457,111.328,2862.799
1686623484.907,-20.508,-435.547,-9.766,-19.043,2862.803
1686623484.911,-66.406,-705.078,31.250,-128.906,2862.807
1686623484.914,-0.488,-67.383,87.402,-31.250,2862.810
1686623484.918,52.246,219.727,20.508,87.402,2862.814
1686623484.922,-6.348,-562.988,-5.371,15.625,2862.818
1686623484.926,-69.824,-338.867,77.637,-116.211,2862.822
1686623484.930,-26.855,324.707,47.363,-64.453,2862.826
1686623484.934,47.363,258.789,16.113,88.379,2862.830
1686623484.936,11.719,208.984,28.320,53.711,2862.835
1686623484.940,-80.078,-0.977,2.930,-109.375,2862.839
1686623484.944,-79.102,-51.758,35.645,-113.770,2862.843
1686623484.948,8.301,20.996,46.387,40.527,2862.847
1686623484.952,13.672,-75.195,62.012,76.660,2862.851
1686623484.956,-62.988,-224.121,30.273,-76.172,2862.855
1686623484.959,-80.566,-261.719,12.207,-145.508,2862.859
1686623484.963,-21.484,-326.172,34.668,-2.930,2862.863
1686623484.967,27.344,-463.867,121.094,93.262,2862.866
1686623484.971,-13.672,173.828,79.590,-24.414,2862.870
1686623484.975,-78.613,189.453,-3.906,-141.113,2862.874
1686623484.979,-34.180,-190.430,21.484,-43.945,2862.878
1686623484.980,41.016,232.910,37.109,92.773,2862.877
1686623484.984,-0.977,320.801,1.465,26.367,2862.881
1686623484.988,-78.613,-226.562,9.766,-126.953,2862.885
1686623484.992,-45.898,-685.059,25.879,-87.891,2862.889
1686623484.996,35.156,-416.504,52.246,75.684,2862.893
1686623485.000,20.020,-22.949,41.992,65.430,2862.896
1686623485.003,-62.012,-177.246,4.883,-91.309,2862.900
1686623485.007,-60.547,-818.359,26.367,-103.516,2862.904
1686623485.011,18.555,-567.383,138.184,44.434,2862.908
1686623485.015,33.691,389.648,54.199,83.008,2862.912
1686623485.019,-36.621,215.332,-9.766,-57.129,2862.916
1686623485.023,-70.801,-71.777,52.246,-136.230,2862.920
1686623485.025,0.977,237.793,48.828,-8.301,2862.923
1686623485.029,46.875,439.941,40.527,93.750,2862.927
1686623485.033,-16.113,189.453,1.953,-14.160,2862.931
1686623485.037,-71.777,-19.043,31.738,-139.160,2862.934
1686623485.041,-13.672,131.348,57.617,-58.105,2862.938
1686623485.045,57.129,113.281,32.227,86.914,2862.942
1686623485.048,6.836,-298.828,15.137,30.273,2862.946
1686623485.052,-76.172,-894.043,43.945,-130.859,2862.950
1686623485.056,-43.457,-267.578,100.098,-105.957,2862.954
1686623485.060,41.992,361.816,60.059,62.012,2862.958
1686623485.064,27.344,67.383,-9.277,66.895,2862.962
1686623485.068,-57.617,3.906,14.648,-93.750,2862.966
1686623485.070,-61.035,218.262,53.223,-125.000,2862.980
1686623485.074,20.508,213.379,17.578,21.484,2862.984
1686623485.078,36.133,-322.266,-25.391,79.590,2862.988
1686623485.082,-32.227,-183.594,25.391,-46.875,2862.992
1686623485.086,-64.453,155.762,64.453,-131.836,2862.996
1686623485.090,-1.465,-86.426,39.062,-16.113,2863.000
1686623485.093,40.039,-680.664,50.781,99.609,2863.004
1686623485.097,-3.906,-447.754,113.281,10.254,2863.008
1686623485.101,-49.805,92.773,31.738,-118.652,2863.012
1686623485.105,-17.090,-220.215,9.277,-51.758,2863.016
1686623485.109,55.176,-378.418,137.207,88.867,2863.019
1686623485.113,39.551,150.879,93.262,44.922,2863.023
1686623485.116,-48.340,232.422,-1.465,-114.746,2863.026
1686623485.120,-49.316,-96.680,22.461,-101.074,2863.029
1686623485.124,39.062,26.367,67.871,64.941,2863.033
1686623485.128,46.387,328.125,53.711,83.008,2863.037
1686623485.132,-27.344,232.910,11.230,-77.637,2863.041
1686623485.136,-52.734,-405.273,14.648,-124.023,2863.045
1686623485.139,16.602,-599.609,120.605,30.273,2863.049
1686623485.143,56.152,173.340,96.191,106.445,2863.053
1686623485.147,-10.742,269.043,13.672,-11.719,2863.057
1686623485.151,-67.383,-269.043,-6.348,-118.164,2863.061
1686623485.155,-2.930,-78.125,42.969,-18.555,2863.065
1686623485.159,62.500,238.770,44.922,107.422,2863.069
1686623485.175,4.883,-37.598,9.277,23.438,2863.072
1686623485.179,-67.383,-640.625,-23.438,-119.141,2863.076
1686623485.183,-17.090,-659.180,101.074,-63.965,2863.080
1686623485.187,47.852,231.934,112.305,70.801,2863.083
1686623485.191,6.836,300.781,21.484,38.086,2863.087
1686623485.195,-69.824,-686.035,15.137,-97.168,2863.091
1686623485.198,-56.641,-719.727,89.355,-102.051,2863.095
1686623485.202,27.344,232.422,83.984,42.969,2863.099
1686623485.206,45.898,235.352,5.859,95.215,2863.103
1686623485.210,-26.855,-446.289,74.707,-50.293,2863.107
1686623485.214,-60.547,-118.164,89.355,-138.672,2863.111
1686623485.218,7.812,339.844,44.434,-2.930,2863.115
1686623485.221,53.223,235.840,20.020,104.980,2863.121
1686623485.225,0.488,-18.555,2.930,-16.602,2863.125
1686623485.229,-52.246,-239.258,32.715,-133.789,2863.129
1686623485.233,2.441,22.949,64.941,-27.344,2863.132
1686623485.237,66.895,118.652,22.949,112.793,2863.136
1686623485.241,16.113,-392.090,18.066,35.156,2863.140
1686623485.244,-59.570,-438.965,49.805,-114.746,2863.144
1686623485.248,-28.809,73.242,59.082,-74.707,2863.148
1686623485.252,46.875,-107.422,15.625,80.566,2863.152
1686623485.256,32.227,-506.836,102.051,68.848,2863.156
1686623485.260,-47.852,37.109,71.289,-94.238,2863.160
1686623485.264,-51.270,63.477,8.789,-107.910,2863.164
1686623485.265,27.832,-113.770,48.828,50.781,2863.162
1686623485.269,39.062,89.355,27.344,79.590,2863.166
1686623485.273,-40.039,-83.984,20.020,-55.176,2863.170
1686623485.277,-75.684,-202.148,25.879,-117.188,2863.174
1686623485.281,-9.277,-619.141,8.301,6.348,2863.178
1686623485.285,35.156,-544.922,49.316,104.980,2863.182
1686623485.288,-19.531,-170.898,33.203,8.301,2863.186
1686623485.292,-72.754,-328.613,14.160,-105.957,2863.190
1686623485.296,-23.926,-866.699,32.227,-20.020,2863.194
1686623485.300,56.152,-503.906,129.883,108.398,2863.197
1686623485.304,24.414,336.914,59.570,47.852,2863.201
1686623485.308,-64.941,73.730,-10.742,-106.934,2863.205
1686623485.310,-37.598,-85.449,54.688,-90.820,2863.207
1686623485.314,52.734,302.734,65.918,61.035,2863.211
1686623485.318,39.551,387.207,42.969,65.918,2863.214
1686623485.322,-48.340,9.277,29.785,-82.520,2863.218
1686623485.326,-53.711,-145.996,62.500,-119.141,2863.222
1686623485.330,22.949,-57.129,55.664,36.621,2863.226
1686623485.333,47.852,-6.836,27.344,107.910,2863.230
1686623485.337,-26.367,-375.977,-9.277,-31.250,2863.234
1686623485.341,-71.289,-933.594,45.410,-121.094,2863.238
1686623485.345,0.977,-157.227,100.586,-13.184,2863.242
1686623485.349,56.152,452.637,31.738,90.332,2863.246
1686623485.353,-8.789,-10.254,-9.766,-5.859,2863.250
1686623485.355,-72.754,-64.453,26.855,-141.113,2863.252
1686623485.359,-26.367,141.602,48.340,-69.336,2863.256
1686623485.363,38.574,-3.418,20.020,74.219,2863.259
1686623485.367,7.324,-479.980,0.977,37.109,2863.263
1686623485.371,-69.824,-418.945,46.875,-116.699,2863.267
1686623485.375,-54.199,-151.367,55.664,-113.770,2863.271
1686623485.378,20.996,-221.680,21.973,42.480,2863.275
1686623485.382,19.531,-662.109,24.414,64.453,2863.279
1686623485.386,-54.199,-356.934,82.031,-88.867,2863.283
1686623485.390,-75.195,160.156,36.133,-135.742,2863.287
1686623485.394,1.465,-160.645,33.203,19.531,2863.291
1686623485.398,41.992,-333.984,123.047,108.398,2863.295
1686623485.415,-23.926,93.750,79.102,-25.391,2863.312
1686623485.419,-70.312,165.039,18.555,-132.324,2863.316
1686623485.423,-16.602,-90.332,43.945,-31.738,2863.320
1686623485.427,46.387,80.078,63.965,93.262,2863.324
1686623485.431,3.906,224.609,29.785,21.484,2863.327
1686623485.435,-72.754,-110.840,17.090,-122.070,2863.331
1686623485.438,-27.832,-530.762,29.785,-73.730,2863.335
1686623485.442,43.457,-581.543,145.020,78.125,2863.339
1686623485.446,14.648,104.492,94.238,46.875,2863.343
1686623485.450,-63.965,158.691,-0.977,-106.934,2863.347
1686623485.454,-60.547,-251.953,22.949,-103.516,2863.351
1686623485.458,19.531,71.289,52.246,49.316,2863.355
1686623485.446,34.180,272.949,56.152,79.590,2863.345
1686623485.450,-44.922,-145.020,10.254,-65.430,2863.349
1686623485.454,-80.566,-823.730,-24.414,-117.188,2863.353
1686623485.458,-4.395,-622.070,123.047,12.207,2863.357
1686623485.462,59.082,268.066,85.449,93.750,2863.361
1686623485.466,-10.742,-67.871,-30.273,-9.277,2863.365
1686623485.469,-81.055,-786.621,46.875,-121.582,2863.369
1686623485.473,-17.090,-231.934,92.773,-40.039,2863.373
1686623485.477,55.176,447.754,43.457,89.355,2863.377
1686623485.481,14.160,144.531,-23.926,23.926,2863.381
1686623485.485,-59.570,-759.277,-2.930,-117.676,2863.385
1686623485.489,-24.902,-377.441,84.961,-73.730,2863.388
1686623485.492,57.129,343.750,48.340,84.473,2863.400
1686623485.496,33.691,166.992,0.977,74.219,2863.404
1686623485.500,-52.246,-155.273,24.902,-84.961,2863.408
1686623485.504,-47.852,-299.316,63.965,-107.910,2863.412
1686623485.508,41.504,65.430,70.801,42.969,2863.416
1686623485.512,58.105,-98.633,4.395,103.516,2863.420
1686623485.515,-19.531,-902.344,17.090,-31.250,2863.424
1686623485.519,-54.688,-422.363,80.566,-126.953,2863.427
1686623485.523,7.812,169.434,45.898,-10.254,2863.431
1686623485.527,54.688,14.648,3.418,103.027,2863.435
1686623485.531,-1.953,67.871,16.602,8.789,2863.439
1686623485.535,-66.406,114.746,36.621,-122.559,2863.443
1686623485.550,-9.277,50.781,38.086,-41.016,2863.447
1686623485.554,55.176,-129.395,12.695,108.887,2863.451
1686623485.558,11.230,-274.414,17.090,49.316,2863.455
1686623485.562,-49.316,-66.895,43.457,-107.422,2863.459
1686623485.566,-23.926,20.020,35.645,-80.078,2863.462
1686623485.570,54.688,-708.984,17.090,92.773,2863.466
1686623485.573,49.805,-866.211,76.660,98.633,2863.470
1686623485.577,-44.922,-164.062,80.078,-82.520,2863.474
1686623485.581,-61.035,-101.074,12.207,-126.953,2863.478
1686623485.585,24.902,-651.855,31.738,37.598,2863.482
1686623485.589,49.805,-86.426,77.148,100.586,2863.486
1686623485.593,-22.949,369.141,11.230,-38.086,2863.490
1686623485.595,-68.359,-109.863,-4.883,-142.578,2863.492
1686623485.599,-7.324,-242.188,69.824,-32.227,2863.496
1686623485.603,50.781,216.309,47.363,93.262,2863.500
1686623485.607,-9.277,270.996,4.395,4.883,2863.504
1686623485.611,-72.266,-168.945,12.207,-126.465,2863.507
1686623485.615,-22.461,-450.684,45.898,-55.664,2863.511
1686623485.618,50.781,-233.398,60.547,96.680,2863.515
1686623485.622,28.320,134.277,27.344,62.012,2863.519
1686623485.626,-47.852,-355.469,-40.039,-89.844,2863.523
1686623485.630,-41.992,-970.703,55.176,-72.754,2863.527
1686623485.634,44.434,-96.191,119.629,81.055,2863.531
1686623485.638,51.270,367.188,18.555,92.285,2863.535
1686623485.640,-27.344,-182.617,-21.484,-60.547,2863.537
1686623485.644,-53.223,-232.910,11.230,-116.699,2863.541
1686623485.648,16.113,-86.914,59.082,24.902,2863.545
1686623485.652,49.805,141.113,44.922,105.469,2863.548
1686623485.656,-21.973,-450.195,-30.762,-12.207,2863.552
1686623485.660,-65.430,-809.082,24.902,-122.070,2863.556
1686623485.663,-2.441,-125.977,82.520,-25.391,2863.560
1686623485.667,61.035,208.008,6.836,98.633,2863.564
1686623485.671,13.184,-606.934,0.977,11.719,2863.568
1686623485.675,-63.477,-481.934,72.266,-149.414,2863.572
1686623485.679,-26.367,170.410,25.879,-91.797,2863.576
1686623485.683,53.711,-79.590,22.949,76.172,2863.580
1686623485.685,29.785,-314.453,94.727,58.594,2863.582
1686623485.689,-53.711,14.648,58.105,-89.844,2863.586
1686623485.693,-54.688,133.789,19.531,-107.422,2863.589
1686623485.697,24.902,-2.441,38.086,42.969,2863.593
1686623485.701,36.621,71.777,30.762,79.102,2863.597
1686623485.705,-36.621,-171.875,12.695,-67.383,2863.601
1686623485.708,-63.477,-332.031,10.742,-127.930,2863.605
1686623485.712,1.465,-389.648,19.531,6.348,2863.609
1686623485.716,45.898,-497.559,147.461,102.051,2863.613
1686623485.720,-11.230,94.727,77.148,-24.902,2863.617
1686623485.724,-78.125,123.535,-17.090,-150.879,2863.621
1686623485.728,-24.902,-203.613,23.926,-40.527,2863.625
1686623485.731,49.316,122.070,70.801,102.539,2863.630
1686623485.735,13.672,166.992,43.945,26.367,2863.634
1686623485.739,-58.105,-276.367,-1.953,-125.488,2863.638
1686623485.743,-34.180,-794.922,-10.254,-91.797,2863.642
1686623485.747,48.828,-576.172,99.609,62.988,2863.646
1686623485.751,36.621,-48.828,64.453,55.176,2863.650
1686623485.754,-50.293,-284.180,-6.348,-93.262,2863.653
1686623485.758,-65.918,-800.293,31.738,-104.980,2863.657
1686623485.762,16.113,-219.727,120.117,39.551,2863.661
1686623485.766,43.945,518.066,48.340,77.148,2863.665
1686623485.770,-26.367,165.039,-16.602,-50.293,2863.669
1686623485.774,-58.105,-133.789,45.410,-126.953,2863.673
1686623485.775,18.555,172.852,62.988,-5.859,2863.673
1686623485.779,71.289,395.996,31.738,111.816,2863.677
1686623485.783,6.836,138.184,-1.465,8.301,2863.681
1686623485.787,-52.734,-157.715,19.531,-119.141,2863.685
1686623485.791,-0.488,-215.820,49.805,-36.133,2863.689
1686623485.795,68.848,-75.684,43.457,107.910,2863.693
1686623485.798,27.832,-255.859,8.301,55.664,2863.697
1686623485.802,-62.500,-887.695,20.996,-104.492,2863.700
1686623485.806,-40.527,-319.336,76.172,-95.703,2863.704
1686623485.810,51.758,358.398,44.922,65.430,2863.708
1686623485.814,43.945,58.594,-4.883,74.219,2863.712
1686623485.818,-42.480,-111.328,24.414,-84.961,2863.716
1686623485.821,-52.734,90.820,41.504,-119.141,2863.746
1686623485.825,23.926,165.527,26.855,33.691,2863.750
1686623485.829,50.781,-326.660,-33.203,110.352,2863.753
1686623485.833,-20.508,-237.305,6.348,-22.461,2863.757
1686623485.837,-58.594,145.020,43.457,-125.977,2863.761
1686623485.841,12.695,-68.848,12.695,-19.531,2863.765
1686623485.844,62.500,-780.273,3.418,112.793,2863.769
1686623485.848,7.324,-712.402,103.027,26.855,2863.773
1686623485.852,-52.246,62.988,67.383,-110.352,2863.777
1686623485.856,-14.648,56.641,6.348,-36.133,2863.781
1686623485.860,65.918,-68.848,75.684,108.398,2863.785
1686623485.864,42.969,219.727,59.082,62.012,2863.789
1686623485.866,-42.969,216.797,1.465,-96.680,2863.776
1686623485.870,-38.086,-42.969,2.930,-90.820,2863.779
1686623485.874,37.109,40.039,49.805,59.082,2863.783
1686623485.878,37.598,266.113,33.203,70.801,2863.787
1686623485.882,-43.457,173.828,3.418,-84.473,2863.791
1686623485.886,-69.824,-395.020,-0.488,-129.395,2863.795
1686623485.889,5.371,-571.777,108.398,17.090,2863.799
1686623485.893,45.410,178.711,84.473,96.191,2863.803
1686623485.897,-18.066,262.695,-8.789,-21.973,2863.807
1686623485.901,-61.035,-392.578,18.066,-123.535,2863.811
1686623485.905,-0.488,-290.527,79.590,-24.902,2863.815
1686623485.909,55.176,300.293,62.012,101.562,2863.819
1686623485.940,5.371,315.430,8.789,23.926,2863.837
1686623485.944,-66.895,-520.020,-64.941,-114.746,2863.841
1686623485.948,-37.109,-820.801,49.805,-66.895,2863.845
1686623485.952,37.598,90.332,95.215,75.684,2863.849
1686623485.956,24.902,296.387,6.836,58.594,2863.853
1686623485.960,-56.641,-701.172,-12.695,-90.820,2863.857
1686623485.963,-54.199,-729.980,84.473,-108.887,2863.861
1686623485.967,31.250,237.793,77.637,39.551,2863.864
1686623485.971,39.062,235.840,-8.789,82.520,2863.868
1686623485.975,-47.852,-447.266,56.152,-67.871,2863.872
1686623485.979,-69.336,-166.992,75.684,-144.531,2863.876
1686623485.983,9.277,230.957,20.508,-9.277,2863.880
1686623485.970,41.016,-84.473,20.508,99.121,2863.867
1686623485.974,-27.344,-368.652,83.984,-14.648,2863.870
1686623485.978,-76.172,-59.570,58.594,-135.254,2863.874
1686623485.982,-15.137,159.668,43.945,-40.527,2863.878
1686623485.986,44.434,53.223,41.992,92.773,2863.882
1686623485.990,3.906,-242.676,35.645,34.180,2863.886
1686623485.993,-63.477,-223.145,64.941,-107.422,2863.890
1686623485.997,-31.250,92.773,35.645,-70.801,2863.894
1686623486.001,45.898,-70.312,17.090,85.449,2863.898
1686623486.005,29.785,-145.020,58.105,68.359,2863.902
1686623486.009,-52.734,48.340,35.156,-95.703,2863.906
1686623486.013,-50.293,65.430,27.344,-125.488,2863.910
1686623486.015,31.250,-363.770,4.883,34.180,2863.912
1686623486.019,47.363,-597.168,61.523,91.797,2863.916
1686623486.023,-27.344,-327.637,67.383,-47.852,2863.920
1686623486.027,-75.684,-378.418,20.508,-132.812,2863.924
1686623486.031,-9.277,-744.629,19.043,-5.859,2863.927
1686623486.035,50.781,-688.965,79.102,103.516,2863.931
1686623486.038,-2.441,-179.688,45.410,-2.441,2863.935
1686623486.042,-70.801,-150.391,-0.977,-126.953,2863.939
1686623486.046,-20.996,-705.566,32.715,-53.711,2863.943
1686623486.050,54.199,-133.301,107.910,78.125,2863.947
1686623486.054,13.672,490.234,35.156,27.832,2863.951
1686623486.058,-62.500,39.551,-15.625,-120.117,2863.955
1686623486.060,-41.992,-80.566,57.617,-97.656,2863.957
1686623486.064,35.156,324.707,71.289,60.059,2863.961
1686623486.068,34.668,452.637,22.949,68.359,2863.965
1686623486.072,-37.109,38.574,23.926,-80.078,2863.969
1686623486.076,-51.270,-187.500,49.316,-124.023,2863.972
1686623486.080,20.020,-126.465,36.621,20.020,2863.976
1686623486.083,49.805,-40.527,31.738,96.680,2863.980
1686623486.087,-20.020,-292.480,8.789,-27.832,2863.984
1686623486.091,-64.941,-911.133,53.223,-121.582,2863.988
1686623486.095,5.371,-232.422,106.934,-11.230,2863.992
1686623486.099,65.918,455.566,25.879,100.586,2863.996
1686623486.103,12.207,31.250,-16.602,18.555,2864.000
1686623486.120,-55.664,-9.277,23.438,-117.188,2864.017
1686623486.124,-14.648,134.766,38.086,-65.430,2864.021
1686623486.128,54.688,-49.805,26.367,83.008,2864.025
1686623486.132,28.320,-442.871,-23.438,64.453,2864.029
1686623486.136,-51.758,-327.637,55.664,-94.238,2864.033
1686623486.140,-43.945,-47.852,67.871,-102.539,2864.037
1686623486.143,41.016,-80.566,25.391,63.477,2864.041
1686623486.147,42.480,-598.145,26.367,89.355,2864.044
1686623486.151,-31.250,-457.520,93.262,-71.289,2864.048
1686623486.155,-45.898,222.168,52.734,-134.766,2864.052
1686623486.159,25.879,208.496,20.020,3.906,2864.056
1686623486.163,55.664,105.957,67.871,81.055,2864.060
