timestamps,TP9,AF7,AF8,TP10,Secondary Timestamp
1685506698.949,1.465,7.812,57.129,-27.344,1425.845
1685506698.953,15.625,438.965,142.578,-27.832,1425.849
1685506698.957,-35.156,326.172,13.672,-40.039,1425.853
1685506698.961,-60.547,-226.074,-159.668,-38.086,1425.857
1685506698.965,-19.531,-262.207,-43.945,-20.996,1425.861
1685506698.969,9.277,15.625,58.594,-18.555,1425.865
1685506698.973,-16.113,-44.922,-20.996,-22.461,1425.869
1685506698.976,-55.664,-518.555,-237.305,-13.672,1425.873
1685506698.980,-42.969,-1000.000,-300.293,-5.371,1425.877
1685506698.984,18.066,-201.660,145.996,-7.324,1425.880
1685506698.988,6.348,367.676,158.203,-20.020,1425.884
1685506698.992,-53.711,-3.418,-31.250,-30.762,1425.888
1685506698.995,-47.852,107.910,74.219,-23.438,1425.892
1685506698.999,1.953,477.539,185.059,-5.371,1425.896
1685506699.003,7.324,350.098,12.695,-8.301,1425.900
1685506699.007,-36.621,28.809,-119.629,-26.855,1425.904
1685506699.011,-43.945,81.543,-8.789,-34.668,1425.908
1685506699.015,1.953,68.848,-42.480,-27.832,1425.912
1685506699.019,21.484,-154.297,-129.883,-14.160,1425.916
1685506699.022,-17.578,-604.492,-240.234,-22.461,1425.920
1685506699.026,-41.992,-194.824,38.574,-33.203,1425.924
1685506699.030,-1.465,346.191,164.551,-23.438,1425.928
1685506699.034,28.320,9.766,1.465,-18.555,1425.931
1685506699.038,-18.066,-92.773,-11.230,-31.738,1425.935
1685506699.039,-74.219,207.520,73.242,-47.363,1425.950
1685506699.043,-56.152,245.605,58.105,-36.133,1425.954
1685506699.047,3.906,29.297,-20.020,-16.113,1425.958
1685506699.051,-0.977,-150.879,-32.227,-20.508,1425.962
1685506699.055,-62.500,-137.207,-41.992,-31.250,1425.965
1685506699.059,-65.430,-112.793,-47.363,-25.879,1425.969
1685506699.063,-2.441,-536.133,-197.754,-11.230,1425.973
1685506699.066,11.230,-873.047,-203.125,-16.602,1425.977
1685506699.070,-30.762,-71.289,153.809,-29.297,1425.981
1685506699.074,-49.316,182.129,68.359,-24.902,1425.985
1685506699.078,-12.207,17.090,42.969,-11.719,1425.989
1685506699.082,12.695,305.664,152.344,-8.789,1425.993
1685506699.099,-17.578,280.273,9.277,-23.926,1425.995
1685506699.103,-46.875,-158.203,-230.957,-31.250,1425.999
1685506699.107,-10.742,-349.609,-99.121,-23.438,1426.003
1685506699.111,38.086,184.570,197.266,-12.207,1426.007
1685506699.115,14.648,429.199,66.895,-27.832,1426.011
1685506699.119,-35.156,-260.742,-315.430,-37.109,1426.015
1685506699.123,-35.645,-527.832,-209.473,-15.137,1426.019
1685506699.126,4.395,167.969,172.852,-11.719,1426.023
1685506699.130,-2.930,563.477,155.273,-28.809,1426.027
1685506699.134,-53.223,-129.883,-225.586,-31.250,1426.030
1685506699.138,-50.293,-625.977,-263.672,-18.555,1426.034
1685506699.142,9.766,196.289,204.102,-2.930,1426.038
1685506699.144,27.344,496.094,133.789,-8.789,1426.040
1685506699.148,-30.273,71.289,-82.520,-30.273,1426.044
1685506699.152,-53.223,-52.734,-50.293,-29.785,1426.048
1685506699.156,-2.930,10.254,18.555,-7.324,1426.052
1685506699.160,18.066,53.711,51.270,-7.812,1426.056
1685506699.164,-20.020,-467.285,-244.141,-24.414,1426.060
1685506699.168,-64.453,-816.895,-219.238,-37.598,1426.064
1685506699.171,-40.527,-11.719,218.750,-32.227,1426.068
1685506699.175,18.066,423.340,129.883,-16.113,1426.071
1685506699.179,-4.395,-312.988,-167.969,-15.137,1426.075
1685506699.183,-59.082,-531.738,-65.918,-31.250,1426.079
1685506699.187,-48.340,258.789,184.570,-34.180,1426.083
1685506699.189,-1.953,280.762,63.477,-18.555,1426.085
1685506699.193,-4.883,139.160,10.254,-34.668,1426.089
1685506699.197,-44.434,225.586,62.988,-50.781,1426.093
1685506699.201,-48.340,292.480,66.895,-40.039,1426.097
1685506699.205,-11.230,145.996,-39.551,-26.367,1426.101
1685506699.209,-0.488,-105.469,-94.238,-31.250,1426.105
1685506699.213,-45.898,-201.660,-103.516,-41.504,1426.109
1685506699.216,-66.895,-41.016,-29.785,-37.598,1426.112
1685506699.220,-23.438,-34.180,-35.645,-28.809,1426.116
1685506699.224,-0.488,-751.465,-289.551,-28.809,1426.120
1685506699.228,-31.250,-312.012,44.922,-42.480,1426.124
1685506699.232,-69.336,318.359,151.367,-44.434,1426.128
1685506699.234,-58.594,-47.852,-51.758,-31.738,1426.131
1685506699.238,-4.883,21.973,48.828,-21.484,1426.135
1685506699.242,-7.812,379.883,117.676,-23.926,1426.139
1685506699.246,-57.617,81.055,-112.793,-50.293,1426.143
1685506699.250,-44.434,-563.477,-290.527,-38.574,1426.146
1685506699.254,5.859,-605.469,-126.953,-15.137,1426.150
1685506699.258,2.441,31.738,151.367,-30.762,1426.154
1685506699.261,-43.457,246.582,92.285,-32.227,1426.158
1685506699.265,-62.012,-571.289,-315.918,-24.414,1426.162
1685506699.269,-18.066,-698.242,-161.133,-15.625,1426.166
1685506699.273,11.230,366.699,284.668,-17.090,1426.170
1685506699.277,-24.902,358.887,63.477,-32.715,1426.174
1685506699.279,-41.992,-57.129,-67.383,-33.691,1426.176
1685506699.283,-1.953,167.969,78.125,-12.207,1426.180
1685506699.287,35.156,510.742,147.949,-7.324,1426.184
1685506699.291,8.301,293.457,-23.926,-22.461,1426.188
1685506699.295,-41.504,-80.566,-196.289,-27.832,1426.191
1685506699.299,-33.203,-194.336,-143.066,-20.508,1426.195
1685506699.303,2.930,106.445,110.840,-20.020,1426.199
1685506699.306,-5.371,76.660,-25.879,-30.273,1426.203
1685506699.310,-52.246,-609.375,-319.336,-45.898,1426.207
1685506699.314,-44.922,-177.734,49.805,-38.086,1426.211
1685506699.318,11.230,351.562,147.949,-4.883,1426.215
1685506699.322,12.695,-26.367,-30.273,-3.418,1426.219
1685506699.324,-37.109,-151.855,-9.766,-29.297,1426.235
1685506699.328,-54.688,154.297,69.824,-40.039,1426.239
1685506699.332,-2.930,368.164,104.980,-25.391,1426.243
1685506699.336,25.391,-237.305,-138.672,-20.996,1426.246
1685506699.340,-18.066,-622.070,-202.148,-41.016,1426.250
1685506699.344,-45.410,-272.461,-76.660,-43.457,1426.254
1685506699.348,-16.113,-124.512,15.137,-30.273,1426.258
1685506699.351,15.625,-453.125,-83.984,-23.438,1426.262
1685506699.355,-8.301,-703.613,-141.113,-26.367,1426.266
1685506699.359,-50.781,94.238,169.922,-39.062,1426.270
1685506699.363,-24.414,159.668,47.852,-26.855,1426.274
1685506699.367,15.625,63.477,50.293,-18.555,1426.278
1685506699.391,-2.441,336.914,136.719,-31.250,1426.290
1685506699.395,-35.645,189.941,-53.223,-42.969,1426.294
1685506699.399,-35.156,-251.465,-239.258,-34.180,1426.298
1685506699.403,0.000,-264.160,-45.898,-13.184,1426.302
1685506699.407,8.789,183.105,145.020,-16.113,1426.306
1685506699.411,-39.062,85.449,-33.691,-26.855,1426.310
1685506699.415,-55.664,-418.457,-289.062,-20.996,1426.314
1685506699.418,-11.230,-541.016,-137.695,-11.230,1426.318
1685506699.422,11.719,103.027,214.844,-11.230,1426.321
1685506699.426,-25.879,525.391,142.090,-30.273,1426.325
1685506699.430,-71.289,-195.801,-211.914,-38.574,1426.329
1685506699.434,-40.039,-596.191,-208.984,-16.113,1426.333
1685506699.429,15.625,248.535,193.359,-5.371,1426.325
1685506699.433,0.977,452.148,101.074,-12.695,1426.329
1685506699.437,-41.016,3.906,-89.355,-27.344,1426.333
1685506699.441,-38.086,-275.391,-145.020,-23.438,1426.337
1685506699.445,11.719,-117.188,-2.930,-3.906,1426.341
1685506699.449,11.230,14.648,49.805,-6.348,1426.344
1685506699.453,-41.016,-355.469,-149.414,-30.273,1426.348
1685506699.456,-51.270,-307.617,-58.105,-28.809,1426.352
1685506699.460,10.742,265.137,171.387,-0.488,1426.356
1685506699.464,31.738,446.777,95.703,-4.395,1426.360
1685506699.468,-36.133,-339.844,-290.039,-30.273,1426.364
1685506699.472,-69.336,-1000.000,-364.746,-35.156,1426.368
1685506699.474,-18.555,-142.090,160.645,-30.273,1426.370
1685506699.478,16.113,338.379,190.430,-29.785,1426.374
1685506699.482,-6.348,78.613,31.250,-39.551,1426.378
1685506699.486,-38.086,222.168,87.402,-45.898,1426.382
1685506699.490,-4.395,297.852,81.543,-39.551,1426.386
1685506699.494,-1.465,152.832,23.926,-36.621,1426.390
1685506699.498,-30.273,245.117,85.449,-21.484,1426.394
1685506699.501,11.230,-31.738,-86.914,0.000,1426.397
1685506699.505,5.859,-773.926,-318.359,-5.859,1426.401
1685506699.509,-39.551,-307.617,29.297,-33.691,1426.405
1685506699.513,-38.086,263.184,141.113,-34.668,1426.409
1685506699.517,10.254,78.125,22.461,-18.555,1426.413
1685506699.519,30.762,231.445,72.754,-16.602,1426.415
1685506699.523,-8.789,114.746,-41.992,-28.320,1426.419
1685506699.527,-45.898,-134.766,-177.734,-37.109,1426.423
1685506699.531,2.441,-452.148,-174.805,-18.555,1426.427
1685506699.535,29.785,-330.078,-14.648,-16.113,1426.431
1685506699.539,-12.207,82.031,71.777,-32.227,1426.435
1685506699.543,-43.457,-97.656,-32.715,-35.156,1426.438
1685506699.546,-20.508,-636.719,-225.586,-23.926,1426.442
1685506699.550,34.668,-653.320,-100.098,-25.391,1426.446
1685506699.554,-9.766,351.562,245.605,-41.992,1426.450
1685506699.558,-78.613,304.688,44.922,-36.133,1426.454
1685506699.562,-52.246,-60.547,-46.387,-19.531,1426.458
1685506699.580,-4.395,283.691,122.559,-16.113,1426.476
1685506699.584,12.207,602.051,155.273,-25.391,1426.480
1685506699.588,-8.301,234.863,-105.469,-17.578,1426.484
1685506699.592,-25.879,-34.668,-149.902,-5.371,1426.488
1685506699.596,-4.395,208.984,58.105,-10.254,1426.492
1685506699.600,23.438,233.887,45.410,-7.324,1426.496
1685506699.604,-14.648,-224.609,-210.938,-2.930,1426.500
1685506699.607,-38.574,-668.945,-312.988,-2.930,1426.504
1685506699.611,5.859,-13.672,93.750,-11.719,1426.507
1685506699.615,32.715,502.930,181.152,-20.508,1426.511
1685506699.619,-2.930,-150.879,-139.160,-23.438,1426.515
1685506699.623,-62.012,-397.949,-149.902,-31.738,1426.519
1685506699.609,-48.828,231.934,124.023,-27.344,1426.518
1685506699.613,4.395,282.715,66.406,-16.602,1426.522
1685506699.617,2.930,-351.562,-141.113,-23.438,1426.526
1685506699.621,-32.715,-372.559,-49.805,-36.133,1426.530
1685506699.625,-23.438,195.801,88.867,-21.973,1426.534
1685506699.629,25.391,41.992,19.043,0.488,1426.538
1685506699.633,31.250,-155.273,-30.762,-7.812,1426.541
1685506699.636,-19.043,12.207,-13.184,-33.691,1426.545
1685506699.640,-48.828,203.125,86.426,-31.738,1426.549
1685506699.644,-13.672,339.355,109.863,-21.973,1426.553
1685506699.648,18.066,-433.105,-221.680,-19.531,1426.557
1685506699.652,-13.672,-726.562,-188.965,-26.855,1426.561
1685506699.656,-40.039,0.488,108.398,-34.668,1426.555
1685506699.660,-6.836,-154.297,-14.160,-23.438,1426.559
1685506699.664,33.691,-205.566,22.461,-14.160,1426.563
1685506699.668,8.789,273.438,163.086,-21.973,1426.567
1685506699.672,-32.227,338.867,73.730,-25.879,1426.571
1685506699.676,-29.297,-248.047,-250.000,-16.113,1426.575
1685506699.680,12.207,-428.223,-153.320,-7.812,1426.579
1685506699.683,20.020,231.445,205.078,-17.090,1426.582
1685506699.687,-33.203,411.133,73.242,-28.809,1426.586
1685506699.691,-54.688,-123.535,-105.469,-31.738,1426.590
1685506699.695,-15.137,-79.590,27.344,-23.926,1426.594
1685506699.699,1.953,470.703,171.387,-24.414,1426.598
1685506699.744,-48.828,427.246,51.758,-36.621,1426.654
1685506699.748,-66.406,-161.621,-208.008,-31.738,1426.658
1685506699.752,-20.020,-255.859,-103.516,-20.020,1426.662
1685506699.756,0.977,102.051,121.094,-23.926,1426.666
1685506699.760,-17.090,219.238,60.059,-41.016,1426.670
1685506699.764,-57.617,-395.996,-296.875,-41.504,1426.674
1685506699.768,-45.898,-1000.000,-318.848,-24.414,1426.678
1685506699.771,2.930,-105.469,201.172,-17.578,1426.682
1685506699.775,-8.789,344.238,157.227,-7.324,1426.686
1685506699.779,-54.688,14.648,5.859,-26.855,1426.690
1685506699.783,-60.547,133.789,92.773,-35.645,1426.694
1685506699.787,-7.324,442.383,147.949,-13.672,1426.697
1685506699.764,-2.930,298.828,27.344,-17.578,1426.664
1685506699.768,-63.965,-35.645,-115.723,-35.156,1426.668
1685506699.772,-69.336,87.891,33.203,-39.551,1426.672
1685506699.776,-5.859,370.117,137.207,-38.086,1426.676
1685506699.780,13.672,237.305,-0.488,-39.551,1426.680
1685506699.784,-37.109,-250.488,-228.027,-52.246,1426.683
1685506699.788,-68.848,-369.629,-238.281,-42.480,1426.687
1685506699.791,-29.785,-80.078,8.789,-20.020,1426.691
1685506699.795,15.137,-67.871,17.578,-18.066,1426.695
1685506699.799,-19.043,-204.590,-119.141,-33.691,1426.699
1685506699.803,-60.547,93.750,57.129,-44.922,1426.703
1685506699.807,-39.551,234.375,89.355,-26.367,1426.707
1685506699.804,9.277,0.977,2.441,-19.531,1426.700
1685506699.808,0.977,-276.367,-55.176,-28.320,1426.704
1685506699.812,-52.734,-137.207,-26.855,-40.527,1426.708
1685506699.816,-64.941,85.449,55.664,-46.387,1426.711
1685506699.820,-17.090,-87.402,-30.273,-29.297,1426.715
1685506699.824,-3.418,-277.344,-55.664,-29.785,1426.719
1685506699.828,-41.016,-54.199,54.199,-34.180,1426.723
1685506699.831,-53.223,94.727,43.457,-20.508,1426.727
1685506699.835,-10.254,-450.195,-153.809,-4.395,1426.731
1685506699.839,12.207,-1000.000,-346.191,0.488,1426.735
1685506699.843,-24.902,-875.488,-164.551,-11.719,1426.739
1685506699.847,-51.758,-306.641,108.398,-32.227,1426.743
1685506699.848,-23.438,11.230,156.738,-31.250,1426.745
1685506699.852,15.625,365.234,206.543,-16.602,1426.749
1685506699.856,-10.742,557.129,169.434,-16.602,1426.753
1685506699.860,-60.059,145.508,-87.402,-29.297,1426.757
1685506699.864,-37.109,-52.734,-130.859,-26.855,1426.761
1685506699.868,19.043,84.473,70.312,-16.113,1426.765
1685506699.872,14.160,113.281,99.609,-33.203,1426.768
1685506699.875,-35.156,-231.445,-146.484,-50.293,1426.772
1685506699.879,-41.504,-608.887,-177.246,-37.598,1426.776
1685506699.883,5.371,136.230,221.191,-16.113,1426.780
1685506699.887,22.949,565.430,157.715,-20.508,1426.784
1685506699.891,-32.227,-189.941,-179.688,-30.273,1426.788
1685506699.893,-57.617,-350.586,-127.930,-25.391,1426.790
1685506699.897,0.000,105.957,103.516,-18.066,1426.794
1685506699.901,24.414,141.602,68.848,-25.391,1426.797
1685506699.905,-16.602,-348.145,-134.766,-30.762,1426.801
1685506699.909,-60.059,-478.516,-94.727,-29.785,1426.805
1685506699.913,-36.133,-9.766,101.562,-25.391,1426.809
1685506699.917,13.184,147.461,98.633,-10.742,1426.813
1685506699.920,-4.395,-342.773,-119.141,-20.020,1426.817
1685506699.924,-58.105,-504.883,-86.914,-39.551,1426.821
1685506699.928,-49.316,310.547,179.688,-33.203,1426.825
1685506699.932,12.207,380.859,80.566,-10.742,1426.829
1685506699.936,2.930,228.516,47.363,-25.879,1426.833
1685506699.940,-48.340,246.094,36.621,-41.992,1426.837
1685506699.944,-44.434,127.441,-52.734,-23.926,1426.841
1685506699.948,0.488,-114.258,-111.816,-15.137,1426.845
1685506699.952,8.301,-175.293,-31.738,-15.625,1426.849
1685506699.956,-31.738,125.488,89.844,-20.020,1426.853
1685506699.960,-53.711,48.828,-58.594,-25.391,1426.857
1685506699.964,-23.438,-308.105,-182.617,-28.320,1426.861
1685506699.967,5.371,-444.824,-56.152,-30.762,1426.864
1685506699.971,-22.949,110.352,176.270,-44.434,1426.868
1685506699.975,-65.918,375.488,90.820,-61.035,1426.872
1685506699.979,-45.898,-20.020,-43.945,-54.688,1426.876
1685506699.983,7.324,94.238,45.410,-41.016,1426.880
1685506699.984,-8.301,427.734,108.398,-49.316,1426.880
1685506699.988,-62.500,93.750,-126.465,-54.199,1426.884
1685506699.992,-54.199,-600.098,-315.918,-37.598,1426.888
1685506699.996,-3.906,-420.410,-27.832,-24.414,1426.892
1685506700.000,0.488,123.535,125.000,-28.809,1426.896
1685506700.004,-45.410,-26.855,0.000,-41.504,1426.900
1685506700.008,-68.359,-616.699,-209.961,-34.180,1426.904
1685506700.011,-16.113,-677.246,-120.605,-14.160,1426.908
1685506700.015,22.461,295.410,272.949,-27.344,1426.911
1685506700.019,-27.344,322.754,59.570,-41.016,1426.915
1685506700.023,-57.129,-31.738,-56.641,-43.945,1426.919
1685506700.027,-21.484,201.172,132.324,-41.504,1426.923
1685506700.031,25.391,487.305,136.230,-29.297,1426.928
1685506700.035,5.371,207.031,-107.422,-32.227,1426.932
1685506700.039,-47.852,-119.141,-171.387,-34.180,1426.936
1685506700.043,-27.344,141.113,61.523,-28.320,1426.940
1685506700.047,22.461,401.367,114.258,-26.855,1426.944
1685506700.051,-4.395,-62.012,-196.289,-33.203,1426.948
1685506700.055,-66.895,-825.195,-398.438,-33.691,1426.952
1685506700.058,-48.340,-413.086,35.645,-26.855,1426.956
1685506700.062,13.672,346.680,227.539,-16.113,1426.959
1685506700.066,22.461,40.527,-17.090,-14.160,1426.963
1685506700.070,-32.715,-260.742,-107.910,-32.227,1426.967
1685506700.074,-58.105,138.672,89.844,-33.203,1426.971
1685506700.089,-7.812,348.633,117.188,-7.812,1426.985
1685506700.093,26.367,-85.938,-78.613,4.395,1426.989
1685506700.097,-7.812,-253.418,-43.457,-4.395,1426.993
1685506700.101,-38.574,83.984,57.617,-21.484,1426.997
1685506700.105,0.488,263.672,87.891,-7.324,1427.001
1685506700.109,28.320,-300.781,-156.738,8.301,1427.005
1685506700.113,-18.066,-996.582,-320.801,-8.789,1427.008
1685506700.116,-58.594,-259.277,103.027,-32.227,1427.012
1685506700.120,-35.645,174.805,125.977,-23.438,1427.016
1685506700.124,14.648,-24.414,51.270,-5.371,1427.020
1685506700.128,10.254,184.570,128.418,-17.090,1427.024
1685506700.132,-39.062,365.723,102.539,-34.180,1427.028
1685506700.133,-34.180,127.441,-7.812,-25.879,1427.030
1685506700.137,11.719,-157.227,-12.695,-9.277,1427.034
1685506700.141,19.531,161.133,128.906,-7.812,1427.038
1685506700.145,-11.719,404.297,116.699,-16.113,1427.042
1685506700.149,-33.691,43.457,-108.398,-22.461,1427.046
1685506700.153,-12.207,-271.484,-187.012,-18.555,1427.049
1685506700.157,5.371,-36.133,66.406,-16.113,1427.053
1685506700.160,-25.879,363.281,159.668,-25.391,1427.057
1685506700.164,-47.363,-143.066,-158.691,-24.902,1427.061
1685506700.168,-17.578,-644.531,-198.242,-15.137,1427.065
1685506700.172,5.371,111.328,184.082,-31.738,1427.069
1685506700.176,-23.438,322.754,47.852,-43.945,1427.073
1685506700.178,-70.312,-393.066,-210.938,-41.504,1427.104
1685506700.182,-58.594,-650.391,-122.070,-38.574,1427.108
1685506700.186,-10.254,33.691,163.086,-36.133,1427.112
1685506700.190,-15.137,434.570,141.602,-42.480,1427.116
1685506700.194,-62.988,-305.664,-205.078,-51.270,1427.120
1685506700.198,-62.500,-732.422,-196.777,-39.062,1427.124
1685506700.202,-11.719,-31.250,172.852,-28.320,1427.128
1685506700.205,-2.441,393.555,136.719,-30.762,1427.132
1685506700.209,-62.012,-372.559,-260.742,-34.668,1427.135
1685506700.213,-83.008,-579.102,-118.652,-35.645,1427.139
1685506700.217,-18.555,290.039,232.422,-26.855,1427.143
1685506700.221,13.184,298.828,62.012,-27.832,1427.147
1685506700.224,-23.926,40.039,-42.969,-41.992,1427.122
1685506700.228,-45.410,135.742,44.434,-38.574,1427.126
1685506700.232,-22.949,109.375,34.668,-20.020,1427.130
1685506700.236,2.441,-107.910,-37.598,-17.090,1427.133
1685506700.240,-17.090,-253.418,-87.402,-37.598,1427.137
1685506700.244,-60.059,-315.918,-66.895,-45.410,1427.141
1685506700.248,-39.062,-116.699,64.941,-33.203,1427.145
1685506700.251,15.625,-107.910,-19.043,-16.602,1427.149
1685506700.255,13.184,-426.758,-125.977,-14.160,1427.153
1685506700.259,-27.832,33.691,131.348,-28.320,1427.157
1685506700.263,-38.574,299.316,98.633,-16.113,1427.161
1685506700.267,2.441,-118.652,-39.551,-0.488,1427.165
1685506700.269,7.812,-60.059,33.691,-11.230,1427.165
1685506700.273,-47.363,108.887,31.250,-40.527,1427.169
1685506700.277,-69.824,-121.582,-110.840,-45.898,1427.173
1685506700.281,-28.809,-534.180,-232.422,-26.367,1427.177
1685506700.285,3.906,-739.258,-99.609,-24.902,1427.181
1685506700.289,-14.648,-159.668,155.273,-39.062,1427.184
1685506700.293,-43.945,-67.383,76.172,-43.945,1427.188
1685506700.296,-31.250,-651.367,-164.062,-26.367,1427.192
1685506700.300,20.020,-666.016,-79.590,-11.719,1427.196
1685506700.304,13.184,316.406,287.598,-28.320,1427.200
1685506700.308,-55.664,279.785,50.293,-38.086,1427.204
1685506700.312,-49.805,-27.832,-36.133,-26.855,1427.208
1685506700.313,13.672,308.105,137.207,-19.043,1427.210
1685506700.317,20.508,552.246,121.094,-16.602,1427.214
1685506700.321,-28.320,158.691,-108.887,-28.809,1427.218
1685506700.325,-50.781,-84.961,-130.371,-31.738,1427.222
1685506700.329,-13.672,230.469,83.984,-20.508,1427.226
1685506700.333,12.207,192.871,62.500,-18.555,1427.229
1685506700.337,-24.902,-270.996,-195.801,-27.832,1427.233
1685506700.340,-59.082,-803.711,-372.559,-33.691,1427.237
1685506700.344,-21.973,-230.469,82.520,-30.762,1427.241
1685506700.348,22.949,570.312,260.742,-26.855,1427.245
1685506700.352,2.441,-7.324,-120.605,-23.438,1427.249
1685506700.356,-40.039,-419.434,-177.734,-29.785,1427.253
1685506700.374,-24.902,175.293,134.277,-33.691,1427.272
1685506700.378,18.555,277.344,117.676,-22.949,1427.276
1685506700.382,-11.719,-436.035,-182.617,-32.715,1427.279
1685506700.386,-56.152,-530.762,-122.070,-34.668,1427.283
1685506700.390,-41.504,58.594,85.938,-21.484,1427.287
1685506700.394,-0.977,68.848,59.082,-17.090,1427.291
1685506700.398,0.000,-474.121,-118.164,-16.113,1427.295
1685506700.401,-53.711,-568.848,-97.168,-35.156,1427.299
1685506700.405,-65.430,145.020,157.227,-36.133,1427.303
1685506700.409,-15.625,192.383,66.895,-11.230,1427.307
1685506700.413,11.230,-43.457,20.508,-12.207,1427.311
1685506700.417,-34.180,64.453,51.270,-40.039,1427.315
1685506700.407,-63.965,253.418,82.520,-46.875,1427.304
1685506700.411,-28.809,48.828,-30.273,-30.762,1427.308
1685506700.415,10.742,-154.297,-88.379,-23.926,1427.312
1685506700.419,-15.137,153.320,81.055,-33.691,1427.316
1685506700.423,-62.500,258.789,41.504,-43.457,1427.320
1685506700.427,-51.270,-302.734,-274.902,-33.691,1427.324
1685506700.431,-1.953,-426.758,-199.707,-9.277,1427.327
1685506700.434,0.000,157.715,124.023,-14.160,1427.331
1685506700.438,-42.969,313.477,82.520,-40.039,1427.335
1685506700.442,-49.316,-216.797,-178.711,-38.574,1427.339
1685506700.446,-9.766,-897.461,-321.289,-12.207,1427.343
1685506700.450,3.418,-200.195,107.910,-20.020,1427.347
1685506700.450,-42.969,257.812,74.707,-54.199,1427.359
1685506700.454,-67.871,-529.297,-277.832,-50.781,1427.363
1685506700.458,-13.672,-587.402,-75.195,-28.809,1427.367
1685506700.462,23.926,280.762,228.027,-34.180,1427.371
1685506700.466,-16.602,396.973,81.055,-52.246,1427.375
1685506700.470,-58.594,-418.457,-329.590,-43.457,1427.379
1685506700.474,-26.855,-1000.000,-404.785,-20.508,1427.383
1685506700.477,29.297,-235.352,143.555,-3.906,1427.386
1685506700.481,2.441,395.508,167.480,-13.672,1427.390
1685506700.485,-79.590,13.184,-20.508,-49.316,1427.394
1685506700.489,-66.895,115.234,94.238,-45.898,1427.398
1685506700.493,3.418,496.094,172.852,-14.160,1427.402
1685506700.510,2.441,351.562,25.879,-8.789,1427.406
1685506700.514,-47.363,-7.324,-112.305,-27.344,1427.410
1685506700.518,-62.988,78.613,19.531,-29.785,1427.414
1685506700.522,-21.484,108.887,61.035,-6.348,1427.418
1685506700.526,-1.465,-103.027,-54.688,1.465,1427.422
1685506700.530,-45.898,-593.262,-233.887,-2.441,1427.426
1685506700.534,-64.941,-396.484,4.395,-12.207,1427.430
1685506700.537,-8.301,282.715,244.141,-2.930,1427.434
1685506700.541,30.273,-6.348,-55.176,22.949,1427.438
1685506700.545,0.977,-442.871,-190.430,22.949,1427.442
1685506700.549,-33.203,67.383,117.676,15.137,1427.445
1685506700.553,-6.836,281.738,101.562,30.273,1427.449
1685506700.553,40.527,107.422,23.438,38.574,1427.450
1685506700.557,22.949,-78.613,-13.184,24.414,1427.454
1685506700.561,-13.672,-59.082,28.809,20.996,1427.458
1685506700.565,-6.836,120.605,53.223,29.785,1427.462
1685506700.569,40.527,-134.277,-47.363,49.316,1427.465
1685506700.573,53.223,-269.043,-24.414,55.664,1427.469
1685506700.577,9.277,-225.098,-9.766,41.504,1427.473
1685506700.580,-9.277,-193.359,6.836,40.039,1427.477
1685506700.584,36.133,-527.832,-153.809,49.316,1427.481
1685506700.588,52.734,-1000.000,-258.301,46.387,1427.485
1685506700.592,11.719,-245.117,136.719,24.414,1427.489
1685506700.596,-18.066,65.430,96.680,15.137,1427.493
1685506700.599,4.883,-90.332,18.555,21.484,1427.495
1685506700.603,55.176,311.523,175.293,22.461,1427.499
1685506700.607,31.250,436.523,110.352,10.742,1427.503
1685506700.611,-28.320,12.695,-112.793,5.371,1427.507
1685506700.615,-8.789,-159.180,-119.629,15.137,1427.511
1685506700.619,35.645,-34.180,41.504,20.508,1427.515
1685506700.623,21.973,100.586,118.652,2.441,1427.519
1685506700.626,-27.832,-134.277,-108.398,-9.277,1427.523
1685506700.630,-28.320,-818.359,-346.191,9.277,1427.526
1685506700.634,25.391,-170.410,101.074,19.043,1427.530
1685506700.638,37.598,495.117,199.219,1.953,1427.534
1685506700.642,-14.648,-109.375,-73.242,-18.555,1427.538
1685506700.644,-28.809,-312.500,-22.949,-13.672,1427.541
1685506700.648,18.555,-5.859,67.871,7.324,1427.545
1685506700.652,39.062,47.363,67.871,5.371,1427.548
1685506700.656,-1.465,-426.270,-200.684,-7.324,1427.552
1685506700.660,-40.527,-746.582,-238.281,-20.020,1427.556
1685506700.664,-16.602,-250.977,128.418,-15.625,1427.560
1685506700.668,32.715,3.906,116.211,-8.789,1427.564
1685506700.671,12.207,-427.246,-119.141,-14.648,1427.568
1685506700.675,-42.969,-572.754,-66.895,-24.414,1427.572
1685506700.679,-35.156,225.098,191.895,-21.973,1427.576
1685506700.683,20.020,280.273,84.961,-3.418,1427.580
1685506700.687,15.625,-44.434,19.531,-8.301,1427.584
1685506700.689,-40.039,49.316,84.961,-34.668,1427.614
1685506700.693,-43.457,278.320,86.426,-32.227,1427.618
1685506700.697,1.953,135.742,3.906,-12.207,1427.622
1685506700.701,17.090,-13.672,-36.621,-15.137,1427.626
1685506700.705,-24.902,151.855,43.457,-34.668,1427.630
1685506700.709,-44.434,-46.875,-104.004,-38.574,1427.634
1685506700.713,-6.348,-381.836,-215.332,-27.832,1427.638
1685506700.716,16.113,-553.223,-86.914,-20.508,1427.642
1685506700.720,-16.113,-37.109,143.066,-41.504,1427.646
1685506700.724,-52.734,277.832,104.980,-51.758,1427.649
1685506700.728,-46.875,-42.480,-4.883,-42.969,1427.653
1685506700.732,1.953,67.383,78.613,-38.574,1427.657
1685506700.735,-1.465,318.848,88.379,-41.992,1427.632
1685506700.739,-55.664,-29.297,-122.559,-43.945,1427.636
1685506700.743,-50.293,-693.848,-326.660,-31.250,1427.640
1685506700.747,-7.812,-666.016,-116.699,-22.949,1427.644
1685506700.751,-6.348,137.695,209.473,-34.180,1427.648
1685506700.755,-52.246,-45.410,-46.387,-44.434,1427.652
1685506700.759,-66.895,-623.047,-184.082,-46.387,1427.656
1685506700.762,-18.555,-209.961,113.770,-29.785,1427.660
1685506700.766,15.137,475.098,236.816,-12.695,1427.664
1685506700.770,-20.996,269.531,0.977,-23.438,1427.667
1685506700.774,-52.246,-242.188,-172.852,-30.273,1427.671
1685506700.778,-9.766,-56.641,34.668,-22.949,1427.675
1685506700.784,18.555,401.855,190.918,-23.926,1427.688
1685506700.788,-14.160,196.289,-35.156,-41.992,1427.692
1685506700.792,-47.852,-480.469,-246.582,-42.480,1427.696
1685506700.796,-36.133,-282.227,22.949,-33.691,1427.700
1685506700.800,-2.930,108.398,149.414,-31.250,1427.703
1685506700.804,-11.719,-204.590,-73.242,-43.945,1427.707
1685506700.808,-60.059,-841.797,-327.148,-57.129,1427.711
1685506700.811,-54.199,-439.453,22.949,-40.039,1427.715
1685506700.815,5.371,351.562,272.949,-16.602,1427.719
1685506700.819,7.324,151.367,77.148,-22.461,1427.723
1685506700.823,-38.574,2.441,25.879,-37.109,1427.727
1685506700.827,-44.922,180.664,82.031,-30.762,1427.731
1685506700.839,-10.254,277.832,91.797,-20.020,1427.735
1685506700.843,2.930,-65.918,-41.016,-23.926,1427.739
1685506700.847,-36.621,-229.492,-33.203,-29.297,1427.742
1685506700.851,-60.547,81.055,88.379,-31.250,1427.746
1685506700.855,-14.160,299.316,110.840,-19.531,1427.750
1685506700.859,34.180,-320.801,-170.898,8.301,1427.754
1685506700.863,14.160,-850.098,-266.602,2.930,1427.758
1685506700.866,-26.855,-211.914,112.793,-9.766,1427.762
1685506700.870,-14.160,128.418,100.098,-0.977,1427.766
1685506700.874,26.855,-297.852,-57.129,9.277,1427.770
1685506700.878,23.926,-221.680,49.316,-1.953,1427.774
1685506700.882,-23.438,220.215,124.023,-15.625,1427.778
1685506700.884,-35.156,4.395,-11.230,-5.859,1427.781
1685506700.888,7.324,-71.289,-21.973,4.395,1427.784
1685506700.892,27.832,239.258,126.953,-2.441,1427.788
1685506700.896,-14.648,278.809,76.660,-17.090,1427.792
1685506700.900,-39.551,-94.238,-138.184,-20.020,1427.796
1685506700.904,0.977,-368.652,-145.508,-7.324,1427.800
1685506700.908,29.785,-56.641,107.422,-8.301,1427.804
1685506700.911,-11.230,298.340,144.043,-21.973,1427.808
1685506700.915,-42.969,-231.934,-181.152,-16.113,1427.812
1685506700.919,-16.602,-826.172,-239.258,0.000,1427.816
1685506700.923,20.508,-91.797,186.523,3.906,1427.820
1685506700.927,2.441,392.090,147.461,-2.441,1427.823
1685506700.929,-53.223,-293.457,-136.719,-14.160,1427.825
1685506700.933,-37.109,-753.906,-188.965,-6.836,1427.829
1685506700.937,14.160,-161.133,118.164,-7.812,1427.833
1685506700.941,10.254,325.195,178.223,-21.484,1427.837
1685506700.945,-41.016,-323.242,-196.289,-28.320,1427.841
1685506700.949,-52.246,-792.969,-199.219,-33.203,1427.845
1685506700.953,0.488,-157.715,166.504,-13.672,1427.848
1685506700.956,21.484,284.180,141.602,-8.301,1427.852
1685506700.960,-31.250,-411.133,-191.406,-25.391,1427.856
1685506700.964,-49.805,-594.727,-56.152,-27.344,1427.860
1685506700.968,-1.953,253.418,230.469,-20.508,1427.864
1685506700.972,23.926,257.812,90.820,-14.160,1427.868
1685506700.974,-17.578,-115.234,-7.812,-20.508,1427.870
1685506700.978,-59.570,11.719,79.102,-38.086,1427.874
1685506700.982,-28.809,260.254,118.652,-28.320,1427.878
1685506700.986,0.000,109.375,25.879,-21.973,1427.882
1685506700.990,-33.203,-184.082,-102.051,-37.598,1427.886
1685506700.994,-79.102,-334.961,-163.574,-42.969,1427.890
1685506700.998,-64.941,-162.109,18.555,-35.156,1427.894
1685506701.001,-12.207,-145.996,-22.949,-12.695,1427.898
1685506701.005,-12.695,-602.051,-175.293,-20.996,1427.902
1685506701.009,-67.383,-169.434,133.301,-51.270,1427.906
1685506701.013,-71.289,166.992,111.816,-41.992,1427.909
1685506701.017,-9.277,-64.941,20.996,-28.320,1427.913
1685506701.019,10.742,69.336,94.238,-19.043,1427.915
1685506701.023,-37.598,-4.395,-30.762,-31.250,1427.919
1685506701.027,-64.453,-292.480,-165.039,-45.410,1427.923
1685506701.031,-18.066,-619.141,-207.520,-21.484,1427.927
1685506701.035,18.555,-679.199,-125.977,-7.324,1427.931
1685506701.039,-6.836,-148.438,119.141,-20.996,1427.935
1685506701.043,-51.270,-166.992,53.223,-38.086,1427.939
1685506701.046,-41.992,-651.367,-150.879,-32.227,1427.943
1685506701.050,8.301,-409.668,14.648,-18.555,1427.946
1685506701.054,0.488,410.156,237.305,-37.598,1427.950
1685506701.058,-50.293,170.410,20.996,-55.664,1427.954
1685506701.062,-46.875,-124.023,-19.043,-44.922,1427.958
1685506701.064,7.324,176.270,103.027,-24.902,1427.974
1685506701.068,10.742,430.664,148.438,-29.785,1427.978
1685506701.072,-27.344,61.035,-115.234,-31.738,1427.982
1685506701.076,-49.316,-207.031,-177.246,-37.109,1427.986
1685506701.080,-27.344,97.168,66.895,-49.316,1427.990
1685506701.084,-2.441,73.730,42.480,-41.016,1427.994
1685506701.088,-46.387,-335.449,-182.129,-43.945,1427.998
1685506701.091,-81.543,-898.438,-373.047,-45.410,1428.002
1685506701.095,-43.945,-353.027,84.961,-39.062,1428.006
1685506701.099,-2.930,399.414,250.488,-36.133,1428.009
1685506701.103,-24.902,109.375,12.695,-41.992,1428.013
1685506701.107,-64.453,-52.734,5.371,-53.711,1428.017
1685506701.109,-42.480,231.934,107.910,-43.945,1428.019
1685506701.113,3.906,236.328,95.215,-33.203,1428.023
1685506701.117,-8.301,-484.375,-184.082,-43.457,1428.027
1685506701.121,-61.523,-596.191,-137.695,-47.852,1428.031
1685506701.125,-59.570,36.133,112.305,-48.340,1428.035
1685506701.129,-7.812,27.344,56.152,-37.109,1428.039
1685506701.133,-17.090,-496.094,-138.184,-27.832,1428.043
1685506701.136,-60.547,-718.262,-156.250,-41.504,1428.047
1685506701.140,-62.988,-132.324,121.094,-47.852,1428.050
1685506701.144,-21.484,270.508,120.605,-36.133,1428.054
1685506701.148,-3.418,-321.289,-106.445,-26.367,1428.058
1685506701.152,-41.016,-446.289,-35.156,-32.227,1428.062
1685506701.154,-70.801,176.758,110.352,-36.133,1428.064
1685506701.158,-29.297,94.238,29.297,-24.902,1428.068
1685506701.162,14.160,56.641,31.738,-16.113,1428.072
1685506701.166,-11.719,269.531,94.727,-31.250,1428.076
1685506701.170,-53.711,246.582,37.109,-39.062,1428.079
1685506701.174,-38.086,-220.703,-204.102,-18.066,1428.083
1685506701.178,12.695,-460.449,-142.578,-1.465,1428.087
1685506701.181,4.395,60.547,145.996,-20.020,1428.091
1685506701.185,-51.758,308.105,97.656,-40.039,1428.095
1685506701.189,-48.340,-259.766,-156.738,-35.156,1428.099
1685506701.193,4.395,-594.238,-186.523,-20.508,1428.103
1685506701.197,21.973,26.367,113.281,-20.508,1428.107
1685506701.214,-13.672,316.406,136.230,-34.668,1428.111
1685506701.218,-45.410,-422.852,-248.535,-35.156,1428.115
1685506701.222,-7.324,-721.680,-224.121,-17.090,1428.119
1685506701.226,32.227,201.660,250.000,-12.207,1428.123
1685506701.230,-10.254,387.695,87.891,-25.879,1428.127
1685506701.234,-50.781,-448.730,-285.156,-30.273,1428.131
1685506701.238,-20.508,-573.730,-99.121,-16.113,1428.135
1685506701.241,20.996,243.652,257.324,-17.090,1428.139
1685506701.245,3.906,291.992,53.223,-35.156,1428.143
1685506701.249,-49.316,-296.875,-190.430,-44.434,1428.146
1685506701.253,-39.551,-230.957,15.625,-28.320,1428.150
1685506701.257,5.859,314.941,168.457,-14.648,1428.154
1685506701.247,-1.465,147.949,-20.020,-14.160,1428.170
1685506701.251,-44.922,-261.230,-111.328,-30.762,1428.174
1685506701.255,-61.035,-102.539,41.016,-44.922,1428.178
1685506701.259,-6.348,256.348,123.535,-22.949,1428.181
1685506701.263,4.883,62.012,-3.906,-16.113,1428.185
1685506701.267,-51.758,-555.664,-262.207,-40.527,1428.189
1685506701.271,-69.336,-453.613,-113.770,-50.781,1428.193
1685506701.274,-30.762,136.230,183.594,-38.574,1428.197
1685506701.278,15.137,-19.043,-51.758,-20.996,1428.201
1685506701.282,-16.113,-784.180,-336.914,-27.344,1428.205
1685506701.286,-53.711,-351.562,38.086,-46.387,1428.209
1685506701.290,-18.555,166.992,162.598,-29.785,1428.213
1685506701.304,21.484,19.531,37.109,-13.184,1428.201
1685506701.308,-4.395,-164.062,-16.602,-26.367,1428.205
1685506701.312,-56.152,-162.109,4.395,-43.457,1428.209
1685506701.316,-49.805,-36.133,74.219,-41.016,1428.213
1685506701.320,0.000,-522.461,-162.109,-23.926,1428.216
1685506701.324,3.418,-903.809,-211.426,-29.297,1428.220
1685506701.328,-43.945,-277.832,146.973,-47.363,1428.224
1685506701.331,-49.805,21.973,90.332,-41.992,1428.228
1685506701.335,-9.277,-166.992,81.055,-28.320,1428.232
1685506701.339,6.348,106.445,185.059,-31.738,1428.236
1685506701.343,-36.621,333.496,114.746,-45.898,1428.240
1685506701.347,-70.312,122.070,-16.602,-49.316,1428.244
1685506701.349,-28.320,-456.543,-169.922,-27.344,1428.246
1685506701.353,9.277,-264.648,58.105,-20.996,1428.250
1685506701.357,-9.277,339.844,165.039,-28.809,1428.254
1685506701.361,-50.781,11.719,-93.262,-33.203,1428.257
1685506701.365,-41.992,-187.988,-110.352,-31.250,1428.261
1685506701.369,6.348,-57.129,58.594,-24.414,1428.265
1685506701.373,6.836,-111.328,44.434,-36.621,1428.269
1685506701.376,-40.039,-443.359,-216.309,-43.457,1428.273
1685506701.380,-45.898,-926.758,-342.285,-27.344,1428.277
1685506701.384,10.254,-277.344,128.906,-17.578,1428.281
1685506701.388,29.785,407.715,245.117,-20.020,1428.285
1685506701.392,-23.926,18.066,-10.742,-25.391,1428.289
1685506701.394,-51.758,-89.844,11.719,-21.973,1428.290
1685506701.398,-3.418,33.203,92.285,-9.277,1428.294
1685506701.402,22.461,1.465,55.176,-15.625,1428.298
1685506701.406,-18.555,-462.402,-178.223,-31.738,1428.302
1685506701.410,-47.852,-589.355,-149.902,-41.016,1428.306
1685506701.414,-19.531,-157.227,99.121,-29.297,1428.310
1685506701.418,13.672,-2.930,117.676,-21.484,1428.314
1685506701.421,-14.648,-405.273,-129.883,-34.668,1428.318
1685506701.425,-53.223,-737.793,-148.926,-31.250,1428.322
1685506701.429,-28.809,-46.875,182.617,-19.531,1428.326
1685506701.433,20.020,289.551,137.695,-11.719,1428.330
1685506701.437,15.625,-49.316,-3.906,-17.578,1428.333
1685506701.439,-35.156,-101.074,-4.395,-30.273,1428.335
1685506701.443,-36.133,177.246,75.195,-26.367,1428.339
1685506701.447,12.695,113.770,26.367,-17.090,1428.343
1685506701.451,22.949,56.641,-1.953,-18.066,1428.347
1685506701.455,-24.414,191.895,42.480,-31.738,1428.351
1685506701.459,-48.340,-73.730,-127.441,-25.391,1428.355
1685506701.463,-8.789,-400.391,-193.359,0.000,1428.359
1685506701.466,16.602,-574.707,-71.289,-2.930,1428.363
1685506701.470,-13.672,-90.332,145.996,-31.250,1428.367
1685506701.474,-45.410,261.230,103.027,-44.922,1428.370
1685506701.478,-25.879,-124.512,-40.527,-32.227,1428.374
1685506701.482,5.859,-224.121,32.227,-20.508,1428.378
1685506701.484,-4.883,157.227,128.906,-33.691,1428.383
1685506701.488,-55.176,47.852,-48.828,-42.480,1428.387
1685506701.492,-58.594,-642.578,-298.828,-32.227,1428.391
1685506701.496,-6.836,-703.125,-114.258,-18.066,1428.394
1685506701.500,-7.812,140.137,221.680,-25.391,1428.398
1685506701.504,-62.500,111.816,-17.578,-44.922,1428.402
1685506701.508,-68.848,-681.152,-287.109,-37.109,1428.406
1685506701.511,-12.695,-515.625,-11.719,-23.926,1428.410
1685506701.515,8.789,350.586,237.305,-29.785,1428.414
1685506701.519,-29.785,207.520,-0.977,-40.039,1428.418
1685506701.523,-49.316,-137.695,-53.711,-40.039,1428.422
1685506701.527,-15.137,79.590,113.281,-28.320,1428.426
1685506701.531,15.137,415.039,147.949,-31.738,1428.432
1685506701.535,-26.855,86.426,-94.238,-38.574,1428.436
1685506701.539,-77.148,-351.074,-177.246,-43.457,1428.440
1685506701.543,-49.805,12.695,83.008,-33.203,1428.444
1685506701.547,0.488,311.523,127.441,-13.184,1428.447
1685506701.551,-13.184,-112.305,-156.250,-19.531,1428.451
1685506701.555,-61.523,-845.215,-391.113,-26.855,1428.455
1685506701.558,-40.039,-455.078,47.363,-24.902,1428.459
1685506701.562,11.719,302.246,251.953,-21.484,1428.463
1685506701.566,10.742,123.047,45.898,-27.344,1428.467
1685506701.570,-31.738,-110.840,-31.250,-31.250,1428.471
1685506701.574,-43.457,75.195,60.547,-25.391,1428.475
1685506701.589,0.977,289.062,128.906,-16.602,1428.486
1685506701.593,20.020,-49.805,-68.848,-14.160,1428.489
1685506701.597,-23.926,-251.953,-114.258,-31.250,1428.493
1685506701.601,-61.523,36.133,40.527,-43.945,1428.497
1685506701.605,-24.414,26.367,84.961,-26.855,1428.501
1685506701.609,13.672,-483.398,-176.758,-20.508,1428.505
1685506701.613,-8.301,-990.723,-333.008,-24.902,1428.509
1685506701.616,-36.133,-313.965,130.371,-24.414,1428.513
1685506701.620,-22.949,114.746,142.578,-25.879,1428.517
1685506701.624,20.020,54.199,77.148,-20.996,1428.521
1685506701.628,13.672,254.395,138.184,-27.832,1428.525
1685506701.632,-30.762,230.957,60.059,-41.992,1428.529
1685506701.635,-28.809,9.277,-17.090,-29.785,1428.533
1685506701.639,19.043,-87.891,-20.020,-7.812,1428.537
1685506701.643,19.043,211.426,106.445,-18.555,1428.540
1685506701.647,-28.320,270.996,65.918,-45.410,1428.544
1685506701.651,-40.039,-120.605,-135.742,-43.945,1428.548
1685506701.655,5.371,-372.559,-162.598,-21.484,1428.552
1685506701.659,32.715,-214.844,21.484,-20.020,1428.556
1685506701.662,-20.508,-9.766,92.285,-40.039,1428.560
1685506701.666,-58.105,-255.371,-104.004,-44.434,1428.564
1685506701.670,-26.367,-871.582,-311.035,-27.344,1428.568
1685506701.674,13.184,-243.164,101.074,-27.344,1428.572
1685506701.678,-8.301,321.289,171.387,-39.551,1428.576
1685506701.679,-61.523,-58.105,-25.879,-43.457,1428.576
1685506701.683,-41.992,-314.453,-18.555,-31.250,1428.580
1685506701.687,20.996,-50.781,137.695,-18.555,1428.583
1685506701.691,10.254,275.879,119.141,-35.156,1428.587
1685506701.695,-49.316,-228.516,-173.340,-50.781,1428.591
1685506701.699,-45.410,-545.898,-128.418,-34.180,1428.595
1685506701.703,12.695,-98.145,130.859,-19.043,1428.599
1685506701.706,26.367,310.547,148.438,-23.926,1428.603
1685506701.710,-24.902,-392.578,-255.859,-27.832,1428.607
1685506701.714,-54.688,-989.258,-286.621,-29.297,1428.611
1685506701.718,-2.930,-114.746,212.402,-19.531,1428.615
1685506701.722,35.645,295.410,158.203,-11.719,1428.619
1685506701.739,-14.648,-166.992,19.043,-30.273,1428.636
1685506701.743,-54.199,-90.332,108.398,-41.504,1428.640
1685506701.747,-27.344,268.555,128.418,-19.531,1428.644
1685506701.751,-1.953,204.102,52.734,-7.324,1428.647
1685506701.755,-21.484,0.000,-78.613,-22.461,1428.651
1685506701.759,-58.594,-216.797,-156.250,-35.645,1428.655
1685506701.763,-40.527,-146.973,40.527,-29.297,1428.659
1685506701.766,18.066,-90.820,-3.906,-5.859,1428.663
1685506701.770,14.160,-522.461,-168.457,-4.395,1428.667
1685506701.774,-41.016,-128.418,121.094,-40.527,1428.671
1685506701.778,-60.547,217.773,99.609,-57.129,1428.675
1685506701.782,-22.949,-46.387,-12.695,-48.340,1428.679
1685506701.769,-17.090,-221.680,-10.254,-57.129,1428.666
1685506701.773,-69.824,-250.977,-30.273,-83.008,1428.670
1685506701.777,-98.633,-231.445,-26.855,-83.984,1428.674
1685506701.781,-69.336,-581.543,-133.301,-87.891,1428.678
1685506701.785,-59.082,-706.543,-104.004,-99.121,1428.682
1685506701.789,-102.539,-181.641,127.441,-118.652,1428.686
1685506701.793,-145.020,-201.660,24.414,-141.602,1428.690
1685506701.796,-109.375,-250.488,92.773,-126.953,1428.694
1685506701.800,-69.824,93.262,176.270,-123.047,1428.697
1685506701.804,-100.098,372.559,132.324,-144.531,1428.701
1685506701.808,-146.484,235.352,17.090,-162.109,1428.705
1685506701.812,-146.484,-481.445,-190.918,-156.250,1428.709
1685506701.814,-102.539,-306.152,57.617,-144.531,1428.711
1685506701.818,-107.910,464.355,216.797,-165.039,1428.714
1685506701.822,-150.879,66.895,-99.609,-185.059,1428.718
1685506701.826,-143.555,-286.621,-135.254,-179.688,1428.722
1685506701.830,-93.262,154.785,110.352,-161.133,1428.726
1685506701.834,-55.176,205.078,81.543,-140.625,1428.730
1685506701.838,-105.957,-313.477,-192.871,-144.043,1428.734
1685506701.841,-180.176,-848.633,-359.375,-153.320,1428.738
1685506701.845,-151.367,-276.855,106.934,-144.531,1428.742
1685506701.849,-90.332,456.543,241.699,-131.348,1428.746
1685506701.853,-106.445,151.367,17.578,-145.020,1428.750
1685506701.857,-147.949,-99.609,-24.902,-149.414,1428.754
1685506701.859,-144.043,163.086,85.449,-135.254,1428.769
1685506701.863,-90.332,259.277,98.633,-115.723,1428.773
1685506701.867,-83.008,-414.551,-183.105,-107.910,1428.777
1685506701.871,-122.559,-550.293,-142.090,-103.027,1428.781
1685506701.875,-94.727,59.570,80.078,-83.496,1428.785
1685506701.879,-47.363,92.285,59.570,-74.707,1428.789
1685506701.883,-50.781,-490.234,-179.688,-78.613,1428.793
1685506701.886,-58.105,-770.996,-194.824,-70.312,1428.797
1685506701.890,-49.316,20.508,210.449,-57.129,1428.801
1685506701.894,-13.672,221.191,125.000,-57.617,1428.805
1685506701.898,17.578,134.766,77.148,-44.434,1428.809
1685506701.902,2.441,251.465,108.887,-41.504,1428.812
1685506701.905,-23.926,275.391,70.801,-45.410,1428.829
1685506701.909,1.465,157.715,21.484,-16.113,1428.833
1685506701.913,31.250,75.684,4.883,-7.812,1428.837
1685506701.917,6.836,265.625,99.121,-7.324,1428.841
1685506701.921,-30.273,291.992,71.777,-0.977,1428.844
1685506701.925,-1.465,-213.379,-209.961,15.625,1428.848
1685506701.929,51.270,-473.145,-167.480,41.992,1428.852
1685506701.932,46.875,-61.523,83.984,41.992,1428.856
1685506701.936,3.906,124.023,104.492,29.785,1428.860
1685506701.940,-3.418,-211.426,-91.797,29.785,1428.864
1685506701.944,48.828,-556.152,-145.020,41.992,1428.868
1685506701.948,56.641,148.438,197.266,42.969,1428.872
1685506701.964,7.324,405.762,86.914,22.949,1428.860
1685506701.968,-7.324,-195.801,-98.633,12.695,1428.864
1685506701.972,49.805,-255.371,0.977,23.438,1428.868
1685506701.976,91.797,304.199,177.734,33.691,1428.872
1685506701.980,59.082,334.961,57.617,34.668,1428.876
1685506701.984,14.160,-487.793,-301.758,41.992,1428.880
1685506701.988,33.203,-720.215,-193.359,45.410,1428.884
1685506701.991,66.406,156.250,234.375,36.133,1428.887
1685506701.995,34.180,344.727,107.422,25.879,1428.891
1685506701.999,-17.090,-97.656,-110.840,21.973,1428.895
1685506702.003,-7.324,-232.422,-28.809,17.090,1428.899
1685506702.007,58.594,88.379,152.344,32.227,1428.903
1685506701.997,53.711,235.352,56.152,35.645,1428.904
1685506702.001,-5.859,-444.336,-193.359,11.719,1428.908
1685506702.005,-5.859,-396.484,30.762,10.254,1428.912
1685506702.009,44.922,359.375,208.008,17.090,1428.916
1685506702.013,57.617,292.969,66.895,15.625,1428.920
1685506702.017,0.000,-204.102,-160.645,5.859,1428.924
1685506702.021,-18.066,-195.801,-58.594,-0.977,1428.928
1685506702.024,35.156,296.387,214.355,8.789,1428.931
1685506702.028,55.664,84.961,-42.480,9.277,1428.935
1685506702.032,12.207,-575.195,-227.539,-1.465,1428.939
1685506702.036,-18.066,-145.508,104.492,-16.113,1428.943
1685506702.040,15.625,306.152,154.785,-18.555,1428.947
1685506702.054,41.016,101.074,71.289,-8.789,1428.951
1685506702.058,13.184,-163.574,-16.602,-8.789,1428.955
1685506702.062,-29.785,-279.297,-45.410,-10.742,1428.959
1685506702.066,-26.367,50.781,90.820,-11.719,1428.963
1685506702.070,21.484,-235.352,-102.539,2.441,1428.967
1685506702.074,10.742,-1000.000,-311.523,5.371,1428.971
1685506702.078,-33.203,-397.949,85.449,-11.719,1428.975
1685506702.081,-29.785,179.688,150.879,-12.207,1428.978
1685506702.085,15.625,-83.008,-1.465,3.418,1428.982
1685506702.089,36.133,89.844,88.867,1.465,1428.986
1685506702.093,-5.859,402.832,119.141,-21.484,1428.990
1685506702.097,-23.438,147.949,-21.973,-4.395,1428.994
1685506702.114,26.367,10.742,-15.137,12.695,1429.011
1685506702.118,56.152,317.383,138.184,0.488,1429.014
1685506702.122,15.137,434.570,114.258,-10.254,1429.018
1685506702.126,-32.715,-8.301,-145.996,-9.766,1429.022
1685506702.130,-25.391,-262.207,-180.664,-3.906,1429.026
1685506702.134,20.020,-52.734,50.293,12.695,1429.030
1685506702.138,18.066,156.738,123.047,12.695,1429.034
1685506702.141,-38.086,-121.094,-140.137,-15.137,1429.038
1685506702.145,-34.668,-852.051,-353.027,-4.883,1429.042
1685506702.149,27.832,-189.941,149.902,17.090,1429.046
1685506702.153,20.508,460.449,200.195,1.953,1429.050
1685506702.157,-41.992,1.953,-59.082,-21.484,1429.053
1685506702.143,-53.223,-142.578,-16.602,-18.066,1429.054
1685506702.147,-0.488,1.465,71.289,0.000,1429.058
1685506702.151,20.996,19.531,82.031,5.859,1429.062
1685506702.155,-22.461,-438.477,-152.832,-5.371,1429.066
1685506702.159,-52.734,-622.559,-151.367,-15.625,1429.070
1685506702.163,-12.695,-165.039,94.238,-14.160,1429.074
1685506702.167,19.531,-120.605,71.777,-6.836,1429.078
1685506702.170,-21.484,-222.656,-2.441,-17.578,1429.082
1685506702.174,-64.941,-109.375,17.090,-33.203,1429.086
1685506702.178,-41.992,175.781,104.492,-19.043,1429.089
1685506702.182,13.672,309.082,127.441,0.000,1429.093
1685506702.186,3.906,-425.781,-206.055,-5.859,1429.097
1685506702.189,-56.641,-839.355,-243.652,-25.879,1429.085
1685506702.193,-58.594,-79.590,147.949,-32.715,1429.089
1685506702.197,-4.883,107.422,95.215,-17.578,1429.093
1685506702.201,6.836,35.156,67.871,-14.648,1429.097
1685506702.205,-30.762,142.090,49.805,-26.367,1429.101
1685506702.209,-42.969,-86.426,-112.793,-28.320,1429.105
1685506702.213,0.000,-317.383,-117.188,-18.066,1429.109
1685506702.216,27.344,-414.062,-18.555,-10.254,1429.113
1685506702.220,-16.113,-180.176,58.105,-27.832,1429.117
1685506702.224,-57.617,57.617,81.543,-41.992,1429.120
1685506702.228,-28.809,-212.891,-68.848,-27.832,1429.124
1685506702.232,13.672,-541.992,-101.074,-12.207,1429.128
1685506702.233,-0.488,51.758,177.246,-21.484,1429.130
1685506702.237,-38.086,120.117,54.688,-26.855,1429.134
1685506702.241,-22.949,-605.469,-197.754,-13.184,1429.138
1685506702.245,24.414,-574.707,-90.332,-1.953,1429.142
1685506702.249,11.719,299.805,220.703,-12.695,1429.146
1685506702.253,-41.016,121.582,-40.527,-25.391,1429.149
1685506702.257,-44.922,-692.871,-314.941,-19.531,1429.153
1685506702.260,3.418,-501.465,-50.293,-9.766,1429.157
1685506702.264,20.508,448.242,261.230,-11.230,1429.161
1685506702.268,-32.227,311.035,14.648,-34.180,1429.165
1685506702.272,-47.852,-122.070,-113.281,-40.527,1429.169
1685506702.276,2.930,-116.211,53.223,-19.531,1429.173
1685506702.281,30.762,269.043,172.363,-4.883,1429.182
1685506702.285,-4.883,249.023,5.859,-24.902,1429.186
1685506702.289,-49.805,-300.293,-135.742,-31.250,1429.190
1685506702.293,-34.180,-48.340,100.098,-11.230,1429.194
1685506702.297,12.207,394.531,157.227,-1.465,1429.198
1685506702.301,-1.465,-30.762,-153.320,-10.742,1429.202
1685506702.305,-48.828,-697.754,-321.777,-24.902,1429.206
1685506702.308,-41.016,-207.520,70.801,-25.879,1429.210
1685506702.312,11.230,409.668,201.660,-21.484,1429.213
1685506702.316,9.766,168.945,22.949,-29.785,1429.217
1685506702.320,-37.109,-41.016,-21.484,-33.203,1429.221
1685506702.324,-34.180,170.898,81.543,-22.949,1429.225
1685506702.339,6.836,315.918,93.750,-12.695,1429.236
1685506702.343,13.184,-20.996,-46.387,-16.602,1429.240
1685506702.347,-25.879,-382.324,-155.762,-30.273,1429.243
1685506702.351,-51.270,-198.730,-55.664,-28.809,1429.247
1685506702.355,-18.066,203.613,143.555,-12.695,1429.251
1685506702.359,4.883,-316.895,-178.223,-10.742,1429.255
1685506702.363,-29.297,-1000.000,-361.816,-20.508,1429.259
1685506702.366,-53.711,-293.457,120.117,-27.832,1429.263
1685506702.370,-32.715,181.152,158.691,-28.320,1429.267
1685506702.374,4.395,76.660,81.543,-28.809,1429.271
1685506702.378,-6.348,217.285,116.699,-34.180,1429.275
1685506702.382,-57.129,251.953,57.617,-39.551,1429.279
1685506702.383,-46.875,83.496,3.906,-24.414,1429.280
1685506702.387,2.930,35.156,5.371,-7.324,1429.284
1685506702.391,2.930,249.512,83.008,-23.438,1429.288
1685506702.395,-29.785,235.840,33.203,-44.922,1429.292
1685506702.399,-52.734,-191.406,-195.312,-50.293,1429.295
1685506702.403,-34.668,-474.609,-193.848,-44.434,1429.299
1685506702.407,-8.301,-270.996,26.855,-37.598,1429.303
1685506702.410,-31.738,8.301,102.539,-39.062,1429.307
1685506702.414,-64.453,-230.957,-103.027,-42.480,1429.311
1685506702.418,-27.832,-833.008,-269.043,-24.902,1429.315
1685506702.422,22.461,-134.277,153.320,-11.719,1429.319
1685506702.426,-12.695,357.422,162.598,-28.320,1429.323
1685506702.428,-70.801,-98.633,-71.289,-41.504,1429.324
1685506702.432,-42.480,-371.094,-41.504,-32.715,1429.328
1685506702.436,13.672,-96.191,113.281,-23.926,1429.332
1685506702.440,1.953,304.688,144.043,-38.574,1429.336
1685506702.444,-47.852,-332.520,-200.684,-46.875,1429.340
1685506702.448,-52.734,-829.590,-224.609,-31.250,1429.344
1685506702.452,-7.812,-233.398,120.117,-23.438,1429.348
1685506702.455,1.465,59.570,148.438,-38.086,1429.352
1685506702.459,-49.316,-560.059,-222.656,-46.875,1429.356
1685506702.463,-73.730,-776.855,-186.035,-29.297,1429.359
1685506702.467,-20.996,123.535,263.672,-20.020,1429.363
1685506702.471,3.906,298.828,117.676,-27.344,1429.367
1685506702.473,-35.645,10.254,-12.695,-42.969,1429.383
1685506702.477,-56.641,44.922,64.453,-42.480,1429.387
1685506702.481,-25.391,234.375,117.676,-31.250,1429.391
1685506702.485,10.254,190.430,37.598,-22.949,1429.395
1685506702.489,-19.531,-48.828,-92.773,-24.902,1429.399
1685506702.493,-51.270,-299.316,-183.105,-34.668,1429.402
1685506702.497,-17.578,-169.922,-6.836,-25.879,1429.406
1685506702.500,21.484,-54.199,18.555,-5.371,1429.410
1685506702.504,2.930,-521.973,-195.312,-8.789,1429.414
1685506702.508,-43.457,-416.504,-23.438,-20.508,1429.418
1685506702.512,-44.434,-69.336,99.609,-20.020,1429.422
1685506702.516,-2.441,-228.027,0.488,-9.277,1429.426
1685506702.519,6.348,-240.234,7.812,-13.184,1429.415
1685506702.523,-30.273,-28.320,17.578,-32.227,1429.419
1685506702.527,-46.387,-257.812,-107.910,-30.273,1429.423
1685506702.531,-13.184,-560.547,-93.262,-12.695,1429.427
1685506702.535,14.160,-482.910,-19.531,-15.137,1429.431
1685506702.539,-10.254,-85.449,78.613,-29.297,1429.435
1685506702.543,-49.805,-217.773,14.648,-38.086,1429.439
1685506702.546,-37.109,-607.422,-86.426,-33.691,1429.442
1685506702.550,4.883,-354.980,42.480,-24.414,1429.446
1685506702.554,-12.695,396.484,214.844,-34.668,1429.450
1685506702.558,-67.871,180.176,-13.672,-38.086,1429.454
1685506702.562,-50.293,-181.641,-73.242,-26.855,1429.458
1685506702.564,2.441,-74.707,118.652,-19.531,1429.461
1685506702.568,-4.883,327.148,178.711,-42.480,1429.465
1685506702.572,-58.105,160.156,-94.238,-59.082,1429.469
1685506702.576,-61.523,-327.637,-128.906,-44.434,1429.473
1685506702.580,1.953,42.969,163.086,-24.902,1429.477
1685506702.584,9.766,203.613,106.445,-26.367,1429.480
1685506702.588,-55.664,-273.926,-153.809,-44.434,1429.484
1685506702.591,-80.566,-670.410,-249.512,-43.457,1429.488
1685506702.595,-37.598,-112.793,120.117,-31.738,1429.492
1685506702.599,-9.277,449.219,214.844,-36.133,1429.496
1685506702.603,-34.180,84.473,-7.812,-40.527,1429.500
1685506702.607,-60.547,-83.008,-3.906,-41.504,1429.504
1685506702.609,-33.203,173.828,82.031,-43.945,1429.518
1685506702.613,5.371,155.273,61.523,-36.621,1429.522
1685506702.617,-21.484,-480.957,-209.961,-39.062,1429.526
1685506702.621,-65.918,-713.379,-206.055,-50.293,1429.530
1685506702.625,-51.758,-26.855,125.000,-45.898,1429.534
1685506702.629,0.977,111.816,116.699,-33.203,1429.538
1685506702.633,0.000,-477.539,-147.949,-30.762,1429.542
1685506702.636,-49.316,-713.379,-186.035,-32.715,1429.545
1685506702.640,-56.641,54.688,183.105,-31.738,1429.549
1685506702.644,-22.949,249.512,115.723,-24.414,1429.553
1685506702.648,-11.719,152.832,80.566,-28.809,1429.557
1685506702.652,-33.203,172.852,50.781,-38.574,1429.561
1685506702.669,-64.453,198.242,34.180,-45.410,1429.566
1685506702.673,-37.598,133.301,43.945,-32.227,1429.570
1685506702.677,11.719,75.195,3.418,-22.949,1429.574
1685506702.681,-25.879,242.676,72.266,-34.668,1429.578
1685506702.685,-62.988,179.688,27.832,-34.668,1429.582
1685506702.689,-40.039,-227.051,-208.008,-22.949,1429.586
1685506702.693,-4.883,-603.027,-200.684,-16.602,1429.590
1685506702.696,-19.043,-248.047,103.516,-34.180,1429.594
1685506702.700,-56.641,250.488,143.555,-43.945,1429.598
1685506702.704,-47.852,-275.391,-152.344,-33.203,1429.601
1685506702.708,-9.766,-595.703,-145.996,-13.184,1429.605
1685506702.712,-8.789,150.391,191.406,-20.996,1429.609
1685506702.714,-50.781,303.711,78.125,-42.480,1429.610
1685506702.718,-62.500,-270.996,-107.910,-41.504,1429.614
1685506702.722,-11.230,-367.188,11.230,-19.043,1429.618
1685506702.726,18.555,253.906,195.801,-15.137,1429.622
1685506702.730,-23.438,288.574,19.531,-35.645,1429.626
1685506702.734,-62.012,-436.035,-236.328,-38.086,1429.630
1685506702.738,-22.949,-437.012,-28.809,-31.250,1429.634
1685506702.741,17.578,156.738,127.441,-27.832,1429.637
1685506702.745,-8.301,56.641,25.879,-34.668,1429.641
1685506702.749,-62.012,-584.473,-251.953,-43.945,1429.645
1685506702.753,-51.270,-969.727,-242.188,-30.762,1429.649
1685506702.757,12.695,-92.285,217.773,-25.391,1429.653
1685506702.760,12.695,252.441,109.863,-35.156,1429.656
1685506702.764,-41.992,-94.727,-4.883,-44.434,1429.660
1685506702.768,-45.898,51.270,94.727,-29.785,1429.664
1685506702.772,7.812,354.980,149.902,-9.766,1429.668
1685506702.776,7.812,202.148,33.203,-12.695,1429.672
1685506702.780,-43.457,-325.195,-245.605,-31.250,1429.676
1685506702.784,-50.781,-313.477,-106.445,-36.621,1429.680
1685506702.787,-7.812,185.059,204.590,-25.391,1429.684
1685506702.791,13.672,10.254,-38.574,-16.602,1429.688
1685506702.795,-40.527,-591.797,-265.625,-27.344,1429.692
1685506702.799,-82.520,-374.512,12.207,-41.504,1429.696
1685506702.803,-35.645,20.020,166.992,-26.367,1429.699
1685506702.804,11.230,-105.957,22.949,-12.207,1429.713
1685506702.808,-13.672,-468.262,-128.418,-27.832,1429.717
1685506702.812,-56.152,-206.055,56.152,-50.781,1429.721
1685506702.816,-34.668,116.211,100.586,-45.898,1429.724
1685506702.820,18.555,-256.348,-43.945,-21.973,1429.728
1685506702.824,9.766,-556.641,-70.312,-18.555,1429.732
1685506702.828,-41.992,-218.262,38.574,-35.156,1429.736
1685506702.831,-45.410,-133.301,62.012,-39.062,1429.740
1685506702.835,5.859,-595.215,-140.625,-17.090,1429.744
1685506702.839,7.324,-819.336,-82.031,-20.020,1429.748
1685506702.843,-38.574,-4.395,220.215,-40.039,1429.752
1685506702.847,-58.105,145.020,67.871,-39.551,1429.756
1685506702.864,-17.578,-100.586,45.410,-31.250,1429.789
1685506702.868,12.207,23.438,123.047,-21.973,1429.793
1685506702.872,-24.414,250.977,146.484,-24.902,1429.797
1685506702.876,-64.453,56.641,-65.430,-28.320,1429.800
1685506702.880,-40.039,-353.516,-130.371,-20.020,1429.804
1685506702.884,18.555,-207.031,69.824,-18.066,1429.808
1685506702.888,7.812,155.762,140.137,-33.203,1429.812
1685506702.891,-42.480,-70.312,-101.562,-29.297,1429.816
1685506702.895,-45.898,-622.559,-181.152,-15.137,1429.820
1685506702.899,5.859,16.113,229.004,-10.254,1429.824
1685506702.903,12.207,492.676,164.062,-21.484,1429.828
1685506702.907,-49.805,-44.434,-61.523,-35.645,1429.832
1685506702.895,-65.430,-151.855,7.324,-35.156,1429.791
1685506702.899,-13.184,51.270,93.262,-21.973,1429.795
1685506702.903,9.766,187.012,109.863,-22.461,1429.799
1685506702.907,-34.180,-310.547,-179.199,-27.344,1429.803
1685506702.911,-63.477,-762.695,-233.398,-22.949,1429.807
1685506702.915,-25.391,-130.371,159.668,-20.508,1429.811
1685506702.919,5.371,57.129,131.836,-17.578,1429.814
1685506702.922,-24.902,-134.766,-17.578,-29.785,1429.818
1685506702.926,-63.965,-94.238,26.855,-42.480,1429.822
1685506702.930,-41.504,293.945,177.734,-43.945,1429.826
1685506702.934,9.277,354.492,100.098,-34.180,1429.830
1685506702.938,6.348,-129.395,-78.125,-21.973,1429.834
1685506702.939,-43.945,-168.457,-14.160,-38.086,1429.835
1685506702.943,-43.457,259.766,129.883,-38.574,1429.839
1685506702.947,0.977,228.027,37.598,-22.461,1429.843
1685506702.951,4.883,-126.465,-19.043,-25.879,1429.847
1685506702.955,-49.805,-29.297,53.223,-41.504,1429.851
1685506702.959,-77.637,-108.887,-80.566,-38.574,1429.855
1685506702.963,-19.043,-266.113,-68.848,-13.672,1429.859
1685506702.966,2.930,-790.527,-283.203,-10.742,1429.862
1685506702.970,-42.480,-714.844,-124.023,-35.156,1429.866
1685506702.974,-63.477,163.574,225.098,-40.527,1429.870
1685506702.978,-25.879,-50.781,39.062,-24.902,1429.874
1685506702.982,13.672,0.000,59.082,-18.066,1429.878
1685506702.984,-9.277,429.199,162.109,-23.438,1429.880
1685506702.988,-61.035,122.070,-34.180,-41.992,1429.884
1685506702.992,-35.156,-547.852,-267.578,-30.273,1429.888
1685506702.996,22.461,-440.430,-68.848,-16.602,1429.892
1685506703.000,13.672,299.805,188.477,-25.391,1429.896
1685506703.004,-33.203,86.426,-41.504,-39.062,1429.900
1685506703.008,-43.457,-683.105,-310.059,-42.969,1429.904
1685506703.011,-6.348,-527.344,-72.754,-31.738,1429.907
1685506703.015,6.836,200.195,145.996,-25.879,1429.911
1685506703.019,-34.180,-33.691,-25.879,-36.133,1429.915
1685506703.023,-64.941,-382.324,-66.895,-49.805,1429.919
1685506703.027,-29.785,-12.695,124.512,-41.504,1429.923
1685506703.029,6.836,436.035,175.293,-31.738,1429.939
1685506703.033,-30.273,7.812,-133.301,-36.133,1429.943
1685506703.037,-77.148,-219.727,-116.211,-49.805,1429.947
1685506703.041,-39.062,122.070,107.422,-41.016,1429.950
1685506703.045,12.207,378.906,136.230,-35.645,1429.954
1685506703.049,-15.137,-56.152,-132.324,-41.016,1429.958
1685506703.053,-62.012,-718.750,-319.824,-34.668,1429.962
1685506703.056,-46.875,-230.469,77.148,-23.926,1429.966
1685506703.060,5.859,430.176,236.328,-11.230,1429.970
1685506703.064,-5.371,208.496,29.785,-26.855,1429.974
1685506703.068,-58.105,-21.484,-30.762,-42.969,1429.978
1685506703.072,-47.363,-108.398,-33.691,-32.227,1429.982
1685506703.075,3.418,166.992,115.234,-25.879,1429.984
1685506703.079,17.090,-142.578,-78.125,-29.297,1429.988
1685506703.083,-32.227,-693.848,-241.699,-34.180,1429.992
1685506703.087,-62.500,-33.691,140.625,-31.738,1429.995
1685506703.091,-18.555,275.391,138.184,-22.949,1429.999
1685506703.095,12.207,-317.871,-120.605,-32.227,1430.003
1685506703.099,-19.043,-582.031,-115.723,-46.387,1430.007
1685506703.102,-50.781,47.363,130.859,-47.363,1430.011
1685506703.106,-25.391,128.418,67.871,-36.621,1430.015
1685506703.110,14.160,-171.387,-38.086,-24.414,1430.019
1685506703.114,-4.883,-43.457,44.922,-30.762,1430.023
1685506703.118,-50.293,223.145,105.469,-41.992,1430.027
1685506703.134,-48.828,50.781,22.461,-30.762,1430.030
1685506703.138,0.488,-70.312,-14.648,-26.367,1430.034
1685506703.142,-3.418,-23.438,57.129,-31.738,1430.038
1685506703.146,-52.734,117.188,119.629,-39.062,1430.042
1685506703.150,-56.152,34.180,-32.227,-38.574,1430.046
1685506703.154,-15.625,-672.852,-245.605,-27.832,1430.049
1685506703.158,-4.883,-462.402,28.320,-30.273,1430.053
1685506703.161,-41.016,276.367,218.262,-41.504,1430.057
1685506703.165,-61.523,-161.621,-105.957,-42.480,1430.061
1685506703.169,-25.391,-458.496,-141.113,-30.273,1430.065
1685506703.173,3.418,214.844,182.617,-29.297,1430.069
1685506703.177,-35.645,338.867,84.961,-41.992,1430.073
1685506703.179,-73.242,-73.242,-81.543,-46.387,1430.076
1685506703.183,-47.852,-313.477,-46.875,-41.504,1430.079
1685506703.187,-6.348,-37.109,105.957,-36.133,1430.083
1685506703.191,-11.719,269.531,125.488,-32.227,1430.087
1685506703.195,-62.012,-421.875,-263.184,-28.809,1430.091
1685506703.199,-67.871,-874.023,-266.602,-24.902,1430.095
1685506703.203,-10.742,-222.656,210.938,-24.902,1430.099
1685506703.206,-2.441,291.504,211.914,-30.273,1430.103
1685506703.210,-56.152,-374.512,-182.129,-42.480,1430.107
1685506703.214,-68.848,-625.977,-91.797,-38.574,1430.111
1685506703.218,-13.672,279.297,255.371,-26.855,1430.115
1685506703.222,3.906,357.910,96.680,-34.180,1430.119
1685506703.225,-36.621,55.664,-45.898,-48.828,1430.121
1685506703.229,-60.547,28.809,16.113,-47.363,1430.125
1685506703.233,-25.879,207.520,111.328,-33.691,1430.129
1685506703.237,11.719,195.312,38.574,-18.066,1430.133
1685506703.241,-18.555,14.648,-67.871,-30.762,1430.137
1685506703.245,-66.406,-165.527,-104.492,-40.527,1430.141
1685506703.249,-43.457,-289.062,-90.820,-26.367,1430.145
1685506703.252,0.488,-217.773,-10.254,-19.043,1430.148
1685506703.256,-23.438,-791.016,-276.855,-26.855,1430.152
1685506703.260,-75.684,-583.496,-37.109,-51.270,1430.156
1685506703.264,-64.453,218.750,226.074,-53.711,1430.160
1685506703.268,-11.230,86.426,92.285,-37.598,1430.164
1685506703.269,8.789,171.875,121.582,-22.949,1430.165
1685506703.273,-30.273,116.211,8.789,-25.391,1430.169
1685506703.277,-54.199,-161.133,-109.375,-38.574,1430.173
1685506703.281,-20.508,-442.871,-116.211,-38.086,1430.177
1685506703.285,3.418,-326.660,-0.977,-33.691,1430.181
1685506703.289,-30.273,-34.668,71.289,-44.922,1430.185
1685506703.293,-69.824,-136.230,34.668,-41.016,1430.188
1685506703.296,-38.086,-562.988,-156.250,-18.555,1430.192
1685506703.300,4.395,-684.082,-88.867,-21.973,1430.196
1685506703.304,1.953,76.172,201.172,-36.133,1430.200
1685506703.308,-39.551,-10.254,32.715,-39.062,1430.204
1685506703.312,-34.180,-300.293,13.672,-30.273,1430.208
1685506703.314,13.184,98.633,160.645,-21.484,1430.210
1685506703.318,-2.930,497.070,178.711,-30.762,1430.214
1685506703.322,-55.664,136.230,-49.805,-37.598,1430.218
1685506703.326,-57.617,-84.961,-56.152,-35.645,1430.222
1685506703.330,-9.277,223.145,99.121,-22.461,1430.226
1685506703.334,2.930,180.176,50.293,-18.066,1430.230
1685506703.338,-38.086,-315.918,-210.938,-21.973,1430.234
1685506703.341,-55.664,-725.098,-311.035,-24.902,1430.238
1685506703.345,-15.625,-122.559,131.348,-25.879,1430.242
1685506703.349,16.602,469.727,228.027,-20.020,1430.245
1685506703.353,-23.926,108.887,-7.324,-26.367,1430.249
1685506703.357,-61.035,-118.652,-27.344,-30.273,1430.253
1685506703.360,-28.809,-73.242,36.133,-19.043,1430.258
1685506703.364,17.090,-2.441,76.172,-10.742,1430.262
1685506703.368,-3.418,-405.273,-168.457,-14.160,1430.266
1685506703.372,-59.082,-750.000,-164.062,-17.578,1430.270
1685506703.376,-47.852,-88.379,178.711,-13.672,1430.274
1685506703.380,0.000,179.199,142.578,-12.695,1430.278
1685506703.384,1.953,-441.406,-122.070,-13.184,1430.282
1685506703.387,-31.250,-626.953,-143.066,-16.602,1430.285
1685506703.391,-41.992,166.992,187.012,-25.879,1430.289
1685506703.395,-2.441,246.582,107.422,-18.555,1430.293
1685506703.399,16.113,152.832,75.195,-15.137,1430.297
1685506703.403,-27.344,259.277,99.609,-25.879,1430.301
1685506703.405,-41.992,269.531,58.105,-20.996,1430.329
1685506703.409,-2.930,193.848,31.738,-9.277,1430.333
1685506703.413,24.414,21.484,-54.688,-0.488,1430.337
1685506703.417,-6.836,32.227,23.438,-7.812,1430.340
1685506703.421,-43.457,138.672,58.105,-31.738,1430.344
1685506703.425,-19.043,-120.605,-151.367,-16.113,1430.348
1685506703.429,11.719,-809.570,-331.055,4.395,1430.352
1685506703.432,-3.906,-482.910,-10.254,-25.391,1430.356
1685506703.436,-39.551,293.945,201.172,-44.434,1430.360
1685506703.440,-40.527,-7.324,-21.973,-27.344,1430.364
1685506703.444,-4.883,6.836,43.457,-13.672,1430.368
1685506703.448,9.277,350.098,151.855,-11.230,1430.372
1685506703.464,-40.527,202.148,-17.090,-26.367,1430.374
1685506703.468,-56.641,-353.516,-188.965,-28.809,1430.378
1685506703.472,1.953,-369.141,14.648,-15.137,1430.382
1685506703.476,22.461,259.766,189.941,-20.996,1430.386
1685506703.480,-18.066,271.484,32.715,-36.621,1430.390
1685506703.484,-41.504,-518.555,-309.570,-25.391,1430.394
1685506703.488,-17.578,-856.934,-208.984,-16.602,1430.398
1685506703.491,9.277,-59.082,213.379,-20.996,1430.402
1685506703.495,-19.531,291.992,111.328,-35.156,1430.406
1685506703.499,-62.012,-215.820,-127.441,-45.898,1430.410
1685506703.503,-40.039,-187.988,6.836,-35.645,1430.414
1685506703.507,10.254,328.125,188.477,-20.508,1430.417
1685506703.509,2.441,252.930,38.574,-20.508,1430.405
1685506703.513,-43.945,-452.637,-207.031,-23.438,1430.409
1685506703.517,-47.363,-393.066,-4.395,-28.320,1430.413
1685506703.521,7.812,294.922,215.332,-21.973,1430.417
1685506703.525,14.648,263.672,59.570,-22.949,1430.421
1685506703.529,-42.969,-273.926,-217.285,-40.527,1430.425
1685506703.533,-53.223,-263.184,-48.828,-28.809,1430.429
1685506703.536,-11.719,210.938,175.781,-17.578,1430.432
1685506703.540,4.883,-43.457,-54.199,-22.461,1430.436
1685506703.544,-34.668,-622.559,-218.750,-37.109,1430.440
1685506703.548,-66.406,-239.746,54.688,-38.086,1430.444
1685506703.552,-37.598,307.129,216.309,-33.691,1430.448
1685506703.554,0.488,-62.012,-39.551,-29.785,1430.450
1685506703.558,-26.367,-902.832,-343.750,-33.203,1430.454
1685506703.562,-62.500,-510.254,28.809,-54.199,1430.458
1685506703.566,-31.250,208.984,214.844,-44.434,1430.462
1685506703.570,14.648,-147.949,0.977,-26.855,1430.466
1685506703.574,11.230,-441.895,-41.504,-26.367,1430.469
1685506703.578,-43.457,-113.281,84.473,-40.527,1430.473
1685506703.581,-55.176,177.734,109.375,-40.527,1430.477
1685506703.585,-15.625,-386.719,-118.164,-16.602,1430.481
1685506703.589,-8.789,-453.125,-25.391,-26.855,1430.485
1685506703.593,-54.199,131.348,103.516,-52.246,1430.489
1685506703.597,-64.453,-138.184,-71.777,-41.504,1430.493
1685506703.603,-13.672,-265.137,72.754,-27.832,1430.501
1685506703.607,9.277,124.512,210.938,-26.367,1430.505
1685506703.611,-28.320,408.203,115.723,-41.016,1430.509
1685506703.615,-64.453,60.547,-44.434,-49.316,1430.513
1685506703.619,-26.855,-89.355,-62.012,-25.391,1430.517
1685506703.623,9.277,-32.715,15.625,-18.066,1430.520
1685506703.627,-18.066,132.812,102.051,-36.621,1430.524
1685506703.630,-59.570,-74.219,-85.938,-48.828,1430.528
1685506703.634,-52.246,-658.691,-273.926,-35.156,1430.532
1685506703.638,-1.465,-8.301,155.273,-29.785,1430.536
1685506703.642,0.977,514.160,192.871,-33.203,1430.540
1685506703.646,-57.129,22.461,-67.871,-43.945,1430.544
1685506703.645,-60.547,-163.086,-23.926,-39.551,1430.542
1685506703.649,-2.441,-4.883,86.914,-16.113,1430.545
1685506703.653,1.465,19.043,83.008,-24.414,1430.549
1685506703.657,-48.828,-427.734,-131.348,-32.227,1430.553
1685506703.661,-78.613,-532.715,-129.883,-38.574,1430.557
1685506703.665,-31.738,-96.680,122.070,-35.645,1430.561
1685506703.669,5.371,41.992,152.344,-29.785,1430.565
1685506703.672,-35.156,-395.508,-172.852,-35.156,1430.569
1685506703.676,-63.965,-992.676,-314.941,-26.367,1430.573
1685506703.680,-30.273,-158.691,187.500,-11.719,1430.577
1685506703.684,11.230,396.484,191.406,-8.789,1430.581
1685506703.688,-2.930,176.270,50.781,-22.461,1430.585
1685506703.689,-45.898,178.711,87.891,-33.691,1430.585
1685506703.693,-35.156,308.105,96.680,-26.855,1430.589
1685506703.697,19.043,274.414,47.852,-12.207,1430.593
1685506703.701,18.555,-30.762,-77.637,-12.695,1430.597
1685506703.705,-32.227,-155.762,-67.871,-24.902,1430.600
1685506703.709,-38.574,-212.891,-102.051,-26.855,1430.604
1685506703.713,3.906,-198.730,-51.758,-14.648,1430.608
1685506703.716,19.531,-692.383,-200.195,-12.207,1430.612
1685506703.720,-23.926,-455.078,-16.602,-31.738,1430.616
1685506703.724,-56.641,310.547,201.172,-41.992,1430.620
1685506703.728,-23.438,99.609,19.043,-30.273,1430.624
1685506703.732,10.742,156.250,72.266,-25.391,1430.628
1685506703.748,-20.996,334.961,70.312,-38.574,1430.644
1685506703.752,-64.941,3.418,-116.699,-49.316,1430.648
1685506703.756,-42.480,-591.309,-270.996,-26.855,1430.652
1685506703.760,8.301,-431.641,-71.777,-3.906,1430.656
1685506703.764,-11.719,333.984,172.852,-21.973,1430.660
1685506703.768,-58.105,118.652,-45.410,-37.109,1430.664
1685506703.772,-47.363,-669.922,-324.707,-20.020,1430.668
1685506703.775,0.977,-631.348,-129.883,-4.883,1430.672
1685506703.779,13.672,344.238,265.137,-14.160,1430.675
1685506703.783,-37.109,318.848,33.691,-33.203,1430.679
1685506703.787,-52.734,-176.758,-116.211,-24.902,1430.683
1685506703.791,-0.977,34.180,85.449,-7.812,1430.687
1685506703.780,23.926,457.520,180.176,-4.395,1430.676
1685506703.784,-12.695,246.094,-6.836,-15.625,1430.680
1685506703.788,-47.363,-124.512,-113.770,-25.879,1430.684
1685506703.792,-17.090,85.938,95.215,-18.555,1430.688
1685506703.796,21.484,345.703,137.695,-12.207,1430.692
1685506703.800,-9.766,-67.383,-127.930,-12.207,1430.696
1685506703.804,-62.988,-360.840,-144.043,-29.297,1430.699
1685506703.807,-53.711,20.996,82.031,-42.480,1430.703
1685506703.811,-0.977,290.039,140.625,-24.902,1430.707
1685506703.815,-4.395,-139.648,-115.723,-23.438,1430.711
1685506703.819,-59.570,-874.512,-359.863,-35.645,1430.715
1685506703.823,-48.828,-376.953,62.988,-28.320,1430.719
1685506703.824,5.859,312.988,212.891,-16.602,1430.747
1685506703.828,-2.930,-65.430,-21.484,-23.438,1430.751
1685506703.832,-42.480,-305.176,-16.602,-36.133,1430.755
1685506703.836,-43.945,9.766,97.656,-34.668,1430.759
1685506703.840,-8.301,292.969,132.812,-23.926,1430.763
1685506703.844,1.953,-269.531,-165.527,-29.297,1430.767
1685506703.848,-37.598,-983.398,-328.613,-44.922,1430.771
1685506703.851,-57.129,-268.066,110.352,-50.293,1430.775
1685506703.855,-28.320,187.012,135.742,-29.785,1430.779
1685506703.859,9.766,100.586,84.961,-14.648,1430.783
1685506703.863,-12.207,208.984,125.000,-37.598,1430.786
1685506703.867,-54.199,51.758,-65.430,-47.852,1430.790
1685506703.871,-33.203,-253.418,-147.949,-31.738,1430.778
1685506703.875,11.719,-227.539,34.668,-20.020,1430.782
1685506703.879,5.371,117.676,129.395,-36.133,1430.786
1685506703.883,-51.270,231.445,66.406,-57.617,1430.790
1685506703.887,-58.105,-38.574,-49.316,-48.828,1430.794
1685506703.891,-8.301,-661.133,-193.848,-24.902,1430.797
1685506703.895,-0.977,-366.699,71.777,-18.555,1430.801
1685506703.898,-52.246,331.055,192.383,-39.062,1430.805
1685506703.902,-75.195,-140.625,-111.816,-42.480,1430.809
1685506703.906,-23.926,-331.543,-101.074,-22.461,1430.813
1685506703.910,13.184,301.758,176.758,-24.902,1430.817
1685506703.914,-21.484,402.832,65.430,-43.945,1430.821
1685506703.930,-58.105,-123.535,-115.234,-49.805,1430.827
1685506703.934,-33.691,-425.781,-50.293,-34.668,1430.831
1685506703.938,2.930,-159.668,50.781,-19.043,1430.835
1685506703.942,-19.043,-1.953,64.453,-20.508,1430.839
1685506703.946,-63.477,-455.566,-189.453,-24.414,1430.842
1685506703.950,-62.012,-1000.000,-342.773,-20.996,1430.846
1685506703.954,-9.277,-341.309,142.578,-14.648,1430.850
1685506703.957,14.160,375.977,220.703,-12.207,1430.854
1685506703.961,-35.645,-148.926,-90.820,-27.344,1430.858
1685506703.965,-53.223,-206.055,26.367,-34.668,1430.862
1685506703.969,4.883,382.812,200.195,-29.785,1430.866
1685506703.973,13.184,317.871,25.391,-24.902,1430.870
1685506703.974,-38.086,34.180,-69.824,-29.297,1430.898
1685506703.978,-50.781,56.152,24.902,-28.809,1430.902
1685506703.982,-21.484,273.926,103.516,-28.809,1430.906
1685506703.986,13.184,233.887,44.434,-30.762,1430.910
1685506703.990,-20.020,-166.504,-172.852,-33.691,1430.914
1685506703.994,-65.430,-341.797,-210.938,-41.992,1430.918
1685506703.998,-47.852,-255.859,-57.129,-35.645,1430.922
1685506704.001,-5.371,-175.293,1.953,-24.902,1430.926
1685506704.005,-11.719,-737.793,-250.000,-33.203,1430.930
1685506704.009,-57.617,-523.926,-24.414,-46.875,1430.934
1685506704.013,-49.316,199.707,190.430,-39.551,1430.937
1685506704.017,1.465,49.805,45.898,-26.855,1430.941
