,timestamps,TP9,AF7,AF8,TP10,Secondary Timestamp,emg_signal
0,1686066347.73,29.785,-308.105,85.449,-8.301,652.623,324.62665735212954
1,1686066347.73,-78.125,86.914,101.562,-60.547,652.626,341.7823934929843
2,1686066347.73,-56.641,-104.004,16.602,-46.875,652.63,327.46359629169797
3,1686066347.74,64.941,-289.551,57.617,6.836,652.634,324.72948994813913
4,1686066347.74,58.105,-53.711,109.863,1.465,652.638,357.37956759672454
5,1686066347.75,-64.453,-178.223,-31.738,-57.129,652.642,337.4482677991936
6,1686066347.75,-75.684,-542.48,-197.266,-61.035,652.646,334.67004244037486
7,1686066347.75,35.645,-931.641,-353.516,18.555,652.65,342.3280747462999
8,1686066347.76,59.57,-713.379,-132.324,32.227,652.654,339.61358205690766
9,1686066347.76,-42.969,79.102,194.336,-42.48,652.658,331.71926737433296
10,1686066347.76,-88.379,-153.809,-34.18,-67.383,652.662,334.3150507677675
11,1686066347.77,11.23,-220.215,15.625,-21.484,652.666,327.5187222573799
12,1686066347.79,81.055,301.27,233.398,14.16,652.687,334.44369657448465
13,1686066347.79,-2.441,317.871,131.348,-21.973,652.691,330.9686917929658
14,1686066347.8,-104.492,-230.469,-35.156,-60.059,652.695,335.37585048424285
15,1686066347.8,-39.062,-247.559,48.34,-36.133,652.698,323.64857657218096
16,1686066347.8,78.125,186.035,181.152,13.672,652.702,330.41900050602015
17,1686066347.81,39.062,18.555,114.746,3.906,652.706,344.96142526529513
18,1686066347.81,-82.52,-680.176,-259.277,-31.25,652.71,341.9715577074176
19,1686066347.82,-72.754,-763.672,-258.789,-32.227,652.714,331.41660472971995
20,1686066347.82,49.805,66.406,199.219,-4.395,652.718,330.59907817904127
21,1686066347.82,47.363,202.148,134.277,2.93,652.722,333.89402571547294
22,1686066347.83,25.879,148.438,183.105,-24.414,652.76,341.73496400227896
23,1686066347.83,-62.012,-325.195,-76.172,-41.504,652.726,342.72692696046187
24,1686066347.83,53.711,193.359,140.137,19.531,652.764,342.3942540364832
25,1686066347.83,-80.566,-315.43,9.766,-65.43,652.73,329.55485658909305
26,1686066347.83,-51.27,-358.887,-49.316,-13.672,652.768,336.58829790857334
27,1686066347.84,-93.75,-611.816,-136.23,-49.805,652.772,320.745808817191
28,1686066347.84,1.953,-270.996,27.344,-14.16,652.776,340.6325545055805
29,1686066347.85,75.195,-220.215,55.664,31.738,652.78,344.9058335303455
30,1686066347.85,3.418,-438.965,-62.5,5.859,652.784,331.5100990003834
31,1686066347.85,-102.539,-212.402,38.086,-59.082,652.788,342.9512405075765
32,1686066347.86,-56.641,87.402,137.695,-59.082,652.792,328.1618041562045
33,1686066347.86,63.965,14.648,56.641,1.465,652.795,328.1444219814034
34,1686066347.86,24.902,-817.871,-333.984,10.254,652.799,342.228861322001
35,1686066347.87,-77.637,-161.133,69.336,-61.035,652.784,338.25343668156825
36,1686066347.87,-92.285,-748.047,-225.098,-59.57,652.803,341.5215429123064
37,1686066347.87,37.598,-477.539,-93.262,5.371,652.788,332.03177165095116
38,1686066347.88,57.129,-364.746,-50.293,7.812,652.792,328.401902656385
39,1686066347.88,-59.082,109.863,147.461,-59.082,652.796,327.86081991826086
40,1686066347.88,-93.262,-47.852,37.598,-69.336,652.8,326.7381255335141
41,1686066347.89,28.32,-429.688,-83.984,-11.719,652.804,343.0443923841869
42,1686066347.89,71.289,-291.504,47.363,-1.465,652.808,333.01006772110327
43,1686066347.89,-35.156,129.395,180.664,-44.434,652.812,342.51422561867514
44,1686066347.9,-101.562,17.578,42.48,-69.336,652.815,353.39230310750764
45,1686066347.9,-14.16,-373.047,-70.312,-21.484,652.819,336.5739796269986
46,1686066347.91,71.777,-120.605,118.164,19.043,652.823,320.9804236609404
47,1686066347.91,11.719,281.738,216.309,-17.09,652.827,354.31474073871334
48,1686066347.92,-92.285,-79.59,-8.301,-62.012,652.816,331.6694141407803
49,1686066347.92,-53.711,-449.707,-134.766,-39.062,652.82,344.58678992123123
50,1686066347.93,66.895,-108.887,83.984,12.695,652.824,328.5952449235527
51,1686066347.93,34.668,-43.945,89.844,-6.348,652.828,331.4987678588395
52,1686066347.94,-73.242,-464.844,-127.441,-61.523,652.832,331.010311293289
53,1686066347.94,-65.43,-833.496,-388.184,-36.133,652.836,329.7792363952663
54,1686066347.94,41.992,-1000.0,-474.609,27.832,652.84,347.92638361584875
55,1686066347.95,58.105,-559.082,-64.453,9.766,652.844,335.03115973964003
56,1686066347.95,-53.223,-128.906,29.785,-45.898,652.848,327.8119947191704
57,1686066347.96,-96.191,-276.855,-91.797,-58.594,652.852,337.2756142028868
58,1686066347.96,10.254,145.02,165.527,-6.348,652.855,350.6754110523369
59,1686066347.96,73.242,412.598,212.402,33.203,652.859,332.9477850442797
60,1686066347.96,-24.414,-15.137,44.922,-13.184,652.861,330.94703864560364
61,1686066347.97,-102.051,-271.973,-7.324,-48.34,652.865,326.5328552774403
62,1686066347.97,-26.367,63.965,131.348,-12.207,652.869,326.37415935358666
63,1686066347.98,76.172,310.059,209.961,30.273,652.873,330.2726286131766
64,1686066347.98,28.32,-27.832,24.902,2.93,652.877,337.0378349756451
65,1686066347.98,-86.426,-544.922,-200.684,-48.828,652.881,349.0963229084362
66,1686066347.99,-51.27,-500.977,-128.418,-35.156,652.885,323.11218199640024
67,1686066347.99,77.637,-140.137,102.051,11.719,652.889,334.6955821533377
68,1686066348.0,61.523,-465.82,-112.793,22.949,652.892,335.15085567592473
69,1686066348.0,-79.102,-865.723,-343.262,-23.926,652.896,314.71790135841866
70,1686066348.0,-95.703,-218.75,25.391,-49.316,652.9,330.61234237648915
71,1686066348.01,22.461,-45.41,87.891,-3.906,652.904,339.8914899824415
72,1686066348.01,64.941,-62.012,107.91,5.371,652.907,336.06012802344725
73,1686066348.02,-38.086,79.59,119.141,-53.711,652.911,340.37981584076977
74,1686066348.02,-96.191,41.992,56.152,-73.73,652.915,330.5321492696113
75,1686066348.02,2.441,-98.633,44.922,-24.902,652.919,330.2567823831838
76,1686066348.03,69.336,-393.555,12.207,12.695,652.923,340.0204694760386
77,1686066348.03,-19.043,-451.172,-11.719,-17.09,652.926,326.0160182753672
78,1686066348.03,-107.422,-276.367,-16.113,-61.035,652.93,336.71231411284083
79,1686066348.04,-32.715,-223.145,-44.434,-34.668,652.934,329.9606652920214
80,1686066348.04,71.289,-688.965,-169.434,25.879,652.938,344.0135093802885
81,1686066348.05,16.113,-315.918,70.801,-0.488,652.942,327.5567186413409
82,1686066348.05,-94.727,209.961,171.387,-70.801,652.946,318.5083025129188
83,1686066348.05,-66.406,-204.102,-47.363,-48.828,652.95,333.7954505424731
84,1686066348.06,49.316,-179.199,28.32,13.672,652.957,336.20476951300185
85,1686066348.06,48.34,293.457,210.938,3.418,652.96,331.2326507076841
86,1686066348.07,-62.988,162.598,109.375,-48.828,652.964,332.9375863985065
87,1686066348.07,-81.543,-216.797,-10.742,-56.641,652.968,332.5831443216433
88,1686066348.08,25.879,-143.555,53.223,-5.371,652.972,342.2143209350602
89,1686066348.08,47.852,-130.859,75.684,19.043,652.976,326.7419606083101
90,1686066348.08,-53.223,-252.441,20.996,-32.227,652.98,332.3564485603187
91,1686066348.09,-110.84,-685.059,-281.738,-54.688,652.984,329.10371444489243
92,1686066348.09,-4.395,-658.203,-194.824,-7.324,652.988,328.0732806962015
93,1686066348.09,65.918,222.168,231.445,9.277,652.992,339.0773664847142
94,1686066348.1,-26.367,129.883,40.527,-18.555,652.996,327.76193369972
95,1686066348.1,-60.547,-189.941,63.965,-38.574,652.997,340.0406743396753
96,1686066348.1,-110.352,-365.723,-114.746,-53.711,652.999,333.0377376876751
97,1686066348.1,52.246,315.43,232.91,11.719,653.001,325.5898450697158
98,1686066348.11,22.461,198.242,105.957,-2.441,653.004,340.09204539069776
99,1686066348.11,-101.562,-498.535,-161.621,-57.129,653.008,340.57788590216785
100,1686066348.12,-78.125,-551.758,-112.793,-51.758,653.012,335.8077301399118
101,1686066348.12,57.617,-217.285,73.73,-1.465,653.016,339.952796972398
102,1686066348.12,64.941,-203.125,36.621,5.371,653.02,324.2203944747551
103,1686066348.13,-55.664,-813.477,-379.395,-27.832,653.024,337.32283986485226
104,1686066348.13,-96.191,-784.18,-278.32,-49.316,653.028,343.0245840088343
105,1686066348.14,16.113,119.141,219.727,-18.555,653.032,341.9512537000429
106,1686066348.14,65.43,75.195,72.266,17.09,653.036,329.6806032494999
107,1686066348.14,-38.086,-129.883,-7.324,-20.02,653.04,333.4300775232985
108,1686066348.15,-101.074,9.766,71.289,-62.5,653.046,351.2008479737715
109,1686066348.15,-15.625,-70.801,53.223,-22.949,653.05,320.16883279602155
110,1686066348.16,69.824,-416.016,-57.129,24.902,653.054,338.2386494765224
111,1686066348.16,-0.977,-388.184,-36.621,-7.324,653.058,321.2735782489587
112,1686066348.16,-109.863,-15.137,80.566,-63.477,653.062,340.13601089018624
113,1686066348.17,-56.152,-170.898,34.668,-48.828,653.066,336.08598819040975
114,1686066348.17,59.57,-659.18,-149.414,16.602,653.07,338.26693344665415
115,1686066348.18,28.32,-659.18,-133.301,4.395,653.074,322.7738435338481
116,1686066348.18,-77.148,-15.137,118.652,-71.777,653.078,320.0554127826031
117,1686066348.18,-83.496,-54.199,18.066,-69.336,653.082,332.7183571653819
118,1686066348.19,25.879,-144.043,79.59,-16.602,653.085,331.1939232758394
119,1686066348.19,47.852,122.07,180.176,-13.672,653.089,332.7588461408964
120,1686066348.19,-77.637,179.688,118.164,-61.035,653.101,322.8362525267087
121,1686066348.2,-123.047,-122.07,-4.395,-68.359,653.105,334.4660892882221
122,1686066348.2,-1.953,-244.629,17.09,-18.066,653.109,323.8910505106446
123,1686066348.2,58.594,-107.422,128.418,16.113,653.112,334.08806947635975
124,1686066348.21,-40.039,-237.793,16.113,-28.809,653.116,322.97935269604693
125,1686066348.21,-117.676,-525.391,-172.363,-75.195,653.12,327.5916533956847
126,1686066348.22,-44.922,-924.805,-370.117,-32.227,653.124,338.06488900339025
127,1686066348.22,50.781,-856.934,-266.113,3.418,653.128,335.505912833446
128,1686066348.22,-0.488,-44.434,123.535,-29.297,653.132,327.2474176412776
129,1686066348.23,-104.004,-83.984,9.766,-66.406,653.136,327.62780337007695
130,1686066348.23,-62.988,-250.488,-13.672,-52.246,653.14,334.20793944835964
131,1686066348.24,52.246,269.531,224.609,-8.789,653.144,340.6362780759307
132,1686066348.24,31.25,387.207,171.875,-1.953,653.144,320.28636854056657
133,1686066348.24,-78.613,-112.793,-1.465,-55.664,653.148,333.2535098516143
134,1686066348.24,-76.172,-275.391,19.043,-71.289,653.152,329.42261327542076
135,1686066348.25,29.785,125.977,165.527,-12.695,653.156,333.8023429717289
136,1686066348.25,49.805,301.27,166.016,5.371,653.16,322.4953241065021
137,1686066348.26,-53.223,-255.371,-75.684,-36.621,653.164,336.58519779173486
138,1686066348.26,-108.398,-715.82,-208.984,-59.57,653.168,330.7036513768865
139,1686066348.26,-5.859,-257.812,42.48,-16.113,653.172,332.7496023764913
140,1686066348.27,66.895,255.371,220.703,15.137,653.176,319.30072075353337
141,1686066348.27,-23.926,-390.137,-171.875,-7.324,653.179,319.40784947283663
142,1686066348.28,-98.145,-855.469,-318.359,-49.805,653.183,322.95917385986536
143,1686066348.28,-22.949,-98.145,94.727,-40.527,653.187,326.6631542717472
144,1686066348.3,61.523,136.23,104.004,14.16,653.192,327.86811320033587
145,1686066348.3,12.207,-77.148,26.367,-5.371,653.195,326.5707535919897
146,1686066348.3,-83.008,-83.496,39.062,-63.965,653.199,322.6942108000918
147,1686066348.31,-59.57,-286.133,-64.453,-43.457,653.203,321.55329526165343
148,1686066348.31,44.922,-270.996,28.32,17.09,653.207,322.9397415050913
149,1686066348.32,38.574,-676.758,-239.746,21.973,653.211,337.8483607860282
150,1686066348.32,-78.125,-816.895,-281.25,-33.691,653.215,323.76622520591945
151,1686066348.32,-90.332,-20.02,131.348,-62.012,653.219,331.72796435163593
152,1686066348.33,38.574,-85.938,-2.441,2.441,653.223,336.4520613791515
153,1686066348.33,72.754,-326.66,-34.668,26.367,653.227,321.929613429012
154,1686066348.34,-29.297,-54.688,71.289,-41.504,653.231,331.69508811407667
155,1686066348.34,-86.914,72.266,81.543,-71.777,653.235,317.6308028702507
156,1686066348.34,7.324,-322.266,-99.121,-19.043,653.251,321.6218346431402
157,1686066348.34,83.496,-445.801,-136.23,19.531,653.255,328.3249160113931
158,1686066348.35,-5.859,100.586,133.789,-17.578,653.259,324.03989450432124
159,1686066348.35,-99.121,53.223,41.504,-66.406,653.263,327.3103409157536
160,1686066348.36,-51.758,-310.059,-85.449,-48.828,653.267,327.81154289932465
161,1686066348.36,39.551,-411.133,-47.852,5.371,653.271,348.02532685985756
162,1686066348.36,2.93,-164.551,56.641,-8.789,653.274,314.2249078850349
163,1686066348.37,-104.004,47.852,77.148,-67.871,653.278,327.2377186534147
164,1686066348.37,-87.891,-581.543,-264.648,-49.805,653.282,344.58611768481506
165,1686066348.38,30.762,-658.691,-186.035,4.883,653.286,339.90113996396036
166,1686066348.38,36.133,169.434,209.961,-7.324,653.29,323.5013635647649
167,1686066348.38,-74.707,-72.754,-38.086,-58.594,653.294,311.5331999326399
168,1686066348.39,-100.098,-493.652,-184.082,-64.453,653.282,317.17746930212894
169,1686066348.39,6.348,-124.512,54.199,-18.066,653.286,311.0065153366594
170,1686066348.4,51.27,261.23,172.363,5.371,653.29,329.1055435831684
171,1686066348.4,-41.016,-153.32,-75.684,-21.484,653.294,325.02204929885886
172,1686066348.4,-111.328,-866.211,-427.734,-40.039,653.298,316.48607486162564
173,1686066348.41,-32.227,-833.984,-308.105,-6.836,653.302,320.5069020528558
174,1686066348.41,59.082,-121.094,80.566,25.391,653.306,332.4721647236109
175,1686066348.41,2.441,-68.359,-6.348,-5.859,653.31,313.01129142215655
176,1686066348.42,-89.844,-558.594,-232.422,-57.617,653.314,325.26530106175704
177,1686066348.42,-45.898,-193.848,6.348,-44.922,653.318,322.99623974419734
178,1686066348.43,68.359,248.535,165.039,2.93,653.322,328.1025853413895
179,1686066348.43,43.457,-311.035,-147.949,2.441,653.325,320.67289877882666
180,1686066348.43,-83.008,-762.207,-298.34,-41.016,653.33,311.64142398692417
181,1686066348.44,-79.59,-238.77,16.113,-57.129,653.334,324.3896087516764
182,1686066348.44,57.617,-90.332,44.922,0.488,653.338,322.2558953008335
183,1686066348.45,80.566,-395.02,-58.594,31.738,653.342,333.843321455851
184,1686066348.45,-59.57,-365.723,-71.777,-40.039,653.345,314.06310754221244
185,1686066348.45,-123.047,-385.742,-167.969,-84.473,653.349,313.73554578215845
186,1686066348.46,-11.719,-351.074,-72.754,-29.785,653.353,316.12370005479426
187,1686066348.46,47.852,-541.504,-137.207,16.602,653.357,332.75003283836645
188,1686066348.46,-51.758,-846.68,-298.34,-20.508,653.361,331.5380907673407
189,1686066348.47,-131.348,-215.82,15.625,-77.637,653.365,326.21884698792394
190,1686066348.47,-46.387,62.012,65.918,-40.527,653.369,324.2850160137465
191,1686066348.48,53.711,3.418,83.496,10.742,653.373,326.6728081918217
192,1686066348.49,-4.395,114.746,132.324,-14.648,653.387,330.3475659294093
193,1686066348.5,-104.98,100.586,76.172,-61.035,653.391,320.79536045058194
194,1686066348.5,-55.176,-42.969,13.672,-48.34,653.394,318.9914677128418
195,1686066348.5,56.641,-270.02,-38.574,7.324,653.398,339.07406818219414
196,1686066348.51,29.785,-294.922,0.0,2.441,653.402,320.2242344042152
197,1686066348.51,-79.102,-346.191,-98.145,-51.27,653.406,310.59304823809487
198,1686066348.51,-77.148,-538.086,-217.285,-62.012,653.41,330.3256408496954
199,1686066348.52,35.156,-904.785,-352.051,4.395,653.414,321.6298462227546
200,1686066348.52,62.012,350.098,212.402,13.672,653.419,304.05002864962233
201,1686066348.52,54.199,-850.586,-275.879,23.438,653.418,327.5462862088833
202,1686066348.53,-62.5,-112.305,39.062,-48.828,653.422,314.7561082825024
203,1686066348.53,-28.32,281.25,101.562,-15.137,653.423,318.29601304271176
204,1686066348.53,-113.77,-178.711,-69.336,-70.801,653.426,325.68793020566756
205,1686066348.53,-95.703,-244.141,-95.703,-53.223,653.427,331.21305513142903
206,1686066348.53,-4.883,-165.527,-31.738,-17.578,653.43,327.16155514982154
207,1686066348.53,-11.23,-229.98,14.648,-29.785,653.431,320.98605161985114
208,1686066348.54,71.289,192.871,153.809,23.438,653.435,320.06740859358086
209,1686066348.54,16.602,-68.359,-28.809,14.648,653.438,325.6903217689484
210,1686066348.54,-91.797,-574.707,-196.289,-39.062,653.442,324.24372408956214
211,1686066348.55,-68.359,-555.664,-135.254,-37.109,653.446,336.69868936046043
212,1686066348.55,54.199,4.395,82.031,16.602,653.45,314.8729240675694
213,1686066348.56,48.828,327.148,173.34,14.16,653.454,333.35520165677474
214,1686066348.56,-74.707,-472.168,-278.809,-27.344,653.458,335.6286985262213
215,1686066348.56,-93.262,-864.746,-391.113,-41.504,653.462,341.1763003534152
216,1686066348.57,33.203,32.715,115.234,-12.207,653.475,315.0042639505996
217,1686066348.57,71.289,269.531,133.789,23.438,653.479,328.63112646624313
218,1686066348.58,-39.062,-77.637,-1.465,-5.371,653.483,315.8700946504559
219,1686066348.58,-91.797,-279.785,-73.242,-32.715,653.486,311.96304501963493
220,1686066348.58,15.625,-235.84,-40.039,13.184,653.49,315.00307033793774
221,1686066348.59,90.332,-89.355,51.758,43.945,653.494,341.27968908481586
222,1686066348.59,5.371,-731.934,-327.637,15.625,653.498,324.4757268703827
223,1686066348.59,-82.031,-812.988,-307.129,-41.016,653.502,327.6578806638637
224,1686066348.6,-17.578,36.621,133.789,-41.016,653.506,326.52358728796065
225,1686066348.6,80.078,27.344,33.203,21.973,653.51,314.61697033859986
226,1686066348.61,25.391,-191.406,-24.902,2.441,653.514,319.0263608227277
227,1686066348.61,-91.309,-6.348,59.082,-68.848,653.518,330.55650421081407
228,1686066348.61,-58.594,140.625,83.984,-59.082,653.519,328.83702903073504
229,1686066348.62,57.617,-131.836,-18.066,6.836,653.523,306.07987919531104
230,1686066348.62,48.828,-260.742,-50.293,14.648,653.527,323.49418371416454
231,1686066348.62,-61.035,68.848,78.613,-42.969,653.531,330.35995308008415
232,1686066348.63,-85.449,90.332,83.984,-68.848,653.535,312.9057097046622
233,1686066348.63,33.691,-492.676,-143.555,-3.906,653.539,324.0499740699013
234,1686066348.64,79.59,-825.684,-284.668,35.156,653.543,321.5864135440383
235,1686066348.64,-30.273,-133.789,25.879,-31.738,653.547,323.6313718544347
236,1686066348.64,-93.75,-13.672,18.066,-70.801,653.551,310.7652246417681
237,1686066348.65,5.371,-249.512,-72.754,-18.555,653.555,324.7577157801602
238,1686066348.65,90.332,44.434,102.539,28.809,653.558,324.02917330088593
239,1686066348.66,19.043,283.203,144.531,-8.301,653.562,334.4007233243034
240,1686066348.68,-70.312,-137.695,-113.281,-56.152,653.57,333.1504540865902
241,1686066348.68,-19.531,-580.566,-196.777,-28.32,653.574,329.6757744667142
242,1686066348.68,74.219,-120.117,78.125,3.418,653.578,331.27914307186165
243,1686066348.69,30.762,69.824,66.406,-14.648,653.582,336.3780270978337
244,1686066348.69,-74.219,-402.344,-171.875,-62.5,653.586,327.2109751277566
245,1686066348.7,-66.406,-925.293,-464.355,-50.781,653.589,308.8257750754699
246,1686066348.7,44.434,-683.105,-248.047,6.348,653.593,320.39501143542
247,1686066348.7,78.613,258.301,249.023,6.836,653.597,321.96287144717576
248,1686066348.71,-24.902,-24.902,-40.527,-27.832,653.601,324.8455931941405
249,1686066348.71,-84.473,-461.426,-245.117,-55.664,653.605,325.40772586447224
250,1686066348.72,5.859,42.48,103.027,-26.367,653.609,318.9147287384479
251,1686066348.72,-21.973,-7.812,-7.812,-15.625,653.611,338.0808540088476
252,1686066348.72,71.289,385.742,207.52,6.348,653.613,317.489637183298
253,1686066348.72,-96.68,-262.207,-77.637,-42.969,653.615,328.6395598822806
254,1686066348.72,-8.789,44.434,95.215,2.93,653.619,312.63800250733254
255,1686066348.73,78.125,61.523,105.957,62.5,653.623,317.04422189554305
256,1686066348.73,12.695,-443.359,-153.32,37.109,653.627,318.316313958069
257,1686066348.74,-74.707,-819.336,-318.359,-6.836,653.631,302.4399538017854
258,1686066348.74,-23.926,-390.137,-60.059,12.207,653.635,327.0394968804193
259,1686066348.74,91.797,207.031,190.43,69.824,653.639,328.7819994910774
260,1686066348.75,82.031,-343.262,-145.508,84.961,653.643,326.30791612988446
261,1686066348.75,-40.039,-795.898,-277.344,33.203,653.646,323.8881550186587
262,1686066348.76,-53.223,-89.355,81.055,27.344,653.65,307.2824325342975
263,1686066348.76,59.57,146.484,114.746,92.285,653.654,326.49470214714097
264,1686066348.76,83.008,-18.555,75.195,100.098,653.657,306.8968371698386
265,1686066348.76,-31.738,-57.129,36.621,44.922,653.661,310.38986505926
266,1686066348.77,-75.195,-40.527,24.902,21.973,653.664,302.613829016198
267,1686066348.77,43.945,-211.914,3.418,79.102,653.668,329.6889721360236
268,1686066348.78,100.098,-595.215,-129.395,108.398,653.672,318.18827237773667
269,1686066348.78,-2.441,-610.84,-163.574,51.27,653.676,325.011118805568
270,1686066348.78,-78.125,-484.863,-192.383,-7.324,653.68,319.3122827151856
271,1686066348.79,5.371,-458.984,-165.527,21.484,653.684,317.86973587474984
272,1686066348.79,108.398,-794.922,-276.855,82.031,653.688,316.6267646870323
273,1686066348.8,50.781,-561.523,-148.438,38.086,653.692,326.18072407869096
274,1686066348.8,-48.828,54.199,85.449,-27.344,653.696,327.7706208976592
275,1686066348.8,-9.277,-256.348,-75.195,1.953,653.7,316.5725598429341
276,1686066348.82,97.168,-167.969,-5.859,56.152,653.717,315.00565264225105
277,1686066348.82,75.684,288.574,186.035,47.852,653.721,318.6783108468981
278,1686066348.83,-52.734,123.535,39.551,-11.719,653.725,306.6972875763617
279,1686066348.83,-63.477,-346.191,-138.184,-22.949,653.729,322.916550707025
280,1686066348.84,66.895,-149.902,42.969,32.227,653.733,301.6893565785141
281,1686066348.84,92.285,35.645,98.633,52.734,653.737,335.12251435260725
282,1686066348.84,-27.832,-228.027,-78.125,-2.441,653.741,323.8788329334398
283,1686066348.85,-78.613,-695.801,-381.836,-24.414,653.744,324.8235289909493
284,1686066348.85,-11.719,-359.863,-19.043,9.277,653.747,336.10088386886997
285,1686066348.85,22.949,-826.66,-296.387,33.691,653.748,312.0177736188234
286,1686066348.86,90.82,291.992,186.523,54.688,653.75,312.4157198368503
287,1686066348.86,94.727,40.527,176.27,60.547,653.752,324.02925292356747
288,1686066348.86,48.828,230.469,97.656,28.809,653.754,312.8495006605256
289,1686066348.86,13.672,238.281,62.012,18.066,653.756,338.0020034237661
290,1686066348.86,-69.824,-379.883,-185.547,-31.738,653.758,323.1950658731391
291,1686066348.86,-74.707,-459.961,-207.031,-20.508,653.76,323.6153974744933
292,1686066348.87,-57.617,-420.41,-141.113,-42.48,653.762,319.48314586967916
293,1686066348.87,62.988,-143.555,83.984,5.371,653.766,325.64264276700936
294,1686066348.87,62.012,-250.977,-30.273,17.09,653.77,321.2549729058922
295,1686066348.88,-57.617,-699.707,-258.789,-37.109,653.774,309.4395244451093
296,1686066348.88,-83.008,-461.914,-49.805,-62.5,653.778,324.3873129075578
297,1686066348.89,29.785,283.691,207.52,-2.93,653.782,325.5723673696317
298,1686066348.89,76.66,36.621,-30.273,30.762,653.786,313.8691844997389
299,1686066348.89,-41.016,-837.402,-375.0,-16.113,653.79,318.75792730068235
300,1686066348.9,-113.77,-516.602,-103.027,-68.359,653.793,331.3758683072797
301,1686066348.9,10.254,208.496,155.273,-40.527,653.797,320.9591698613422
302,1686066348.91,102.051,71.289,43.945,7.812,653.801,324.34724155629647
303,1686066348.91,11.23,-29.297,34.18,-23.926,653.805,324.6201112382584
304,1686066348.91,-91.797,9.766,39.062,-61.523,653.809,332.0587069277519
305,1686066348.92,-45.898,-164.062,-76.66,-30.273,653.813,321.12888019153337
306,1686066348.92,50.781,-591.309,-208.008,32.715,653.817,332.1774982216237
307,1686066348.92,14.648,-702.148,-207.52,20.996,653.821,321.8326352336646
308,1686066348.93,-85.938,-110.352,35.156,-52.246,653.825,326.0511313078736
309,1686066348.93,-71.289,13.672,29.297,-49.805,653.829,329.5338118388102
310,1686066348.94,55.664,-135.742,-29.297,8.301,653.832,319.4993952560244
311,1686066348.94,76.172,40.527,79.102,7.324,653.836,307.11016794164345
312,1686066348.96,-51.758,190.43,95.215,-53.711,653.854,334.9802959268651
313,1686066348.96,-98.145,-206.543,-119.141,-64.453,653.858,332.4031223820392
314,1686066348.96,21.973,-467.285,-144.531,-0.977,653.862,339.44699451946144
315,1686066348.97,79.102,-312.988,-4.395,25.391,653.866,314.5754252716685
316,1686066348.97,-35.645,-157.227,-5.371,-38.086,653.87,337.375221631316
317,1686066348.98,-106.934,-347.168,-152.832,-74.707,653.874,333.6061240333172
318,1686066348.98,-0.977,-958.984,-429.688,-8.301,653.878,343.1039199688017
319,1686066348.98,102.051,-676.758,-214.844,34.18,653.882,330.8980416446053
320,1686066348.99,23.926,180.176,182.129,-14.648,653.885,341.1935919448733
321,1686066348.99,60.059,372.07,163.086,14.16,653.896,340.0498047095061
322,1686066348.99,-63.477,-140.137,-42.969,-46.387,653.9,339.81998679387925
323,1686066348.99,-90.82,-131.348,-100.098,-48.828,653.889,338.8529252107216
324,1686066349.0,-41.992,-320.312,-146.484,-24.414,653.893,331.9775893111137
325,1686066349.0,-63.965,-276.855,-41.016,-46.387,653.903,347.1025316599202
326,1686066349.0,55.664,134.277,125.977,1.953,653.907,343.688128516142
327,1686066349.0,83.496,231.934,165.039,23.438,653.897,343.7594899495865
328,1686066349.0,85.449,64.453,88.867,13.184,653.911,343.2584353418334
329,1686066349.01,-34.668,-592.773,-235.352,-17.09,653.915,349.87370729129503
330,1686066349.01,-89.355,-680.176,-219.727,-36.133,653.919,355.83767319176957
331,1686066349.02,33.691,44.434,125.977,-0.977,653.923,343.3723673546767
332,1686066349.02,94.238,293.945,148.926,37.598,653.927,358.35987813775995
333,1686066349.02,-7.324,-419.434,-226.074,17.578,653.931,364.427143245403
334,1686066349.03,-67.871,-867.676,-390.137,-37.598,653.935,359.8530153413989
335,1686066349.03,8.789,-86.914,64.941,-22.949,653.939,366.3404210127953
336,1686066349.05,92.285,194.336,94.238,37.598,653.942,358.1010431819264
337,1686066349.05,34.668,-82.031,4.883,13.672,653.946,379.61639068095275
338,1686066349.05,-64.941,-83.984,51.27,-44.434,653.95,378.819628568002
339,1686066349.06,-26.367,-205.566,-69.824,-19.531,653.954,367.6252500259584
340,1686066349.06,83.496,-212.891,-22.461,44.434,653.958,375.3186751844387
341,1686066349.07,71.777,-607.422,-248.535,41.504,653.962,362.5704557024189
342,1686066349.07,-65.43,-906.738,-396.484,-27.832,653.966,379.71130052611625
343,1686066349.07,-85.449,-385.254,-111.816,-50.781,653.97,394.09298644870756
344,1686066349.08,43.945,-263.184,-105.957,12.207,653.973,389.42921540321123
345,1686066349.08,66.406,-393.555,-42.48,23.926,653.977,389.92698455833676
346,1686066349.08,-47.363,-89.844,65.43,-47.363,653.981,414.54844717210756
347,1686066349.09,-92.773,123.535,53.223,-74.219,653.985,398.17693078681503
348,1686066349.09,18.066,-35.156,21.484,-18.066,653.987,402.372307970325
349,1686066349.1,84.961,74.707,68.359,16.602,653.991,420.14219797117636
350,1686066349.1,-2.441,287.598,137.207,-29.297,653.995,412.60539505477476
351,1686066349.1,-96.191,73.73,25.879,-75.195,653.999,414.9967993171538
352,1686066349.11,-26.367,-229.004,-78.613,-37.598,654.003,422.76057201685836
353,1686066349.11,74.707,-298.34,-37.109,23.926,654.007,419.578874666031
354,1686066349.11,2.93,-79.59,65.918,-0.488,654.01,407.68559709986505
355,1686066349.12,-98.145,116.699,71.777,-70.312,654.014,420.1878521670641
356,1686066349.12,-49.805,-520.996,-271.973,-52.246,654.018,427.7794653508619
357,1686066349.13,68.848,-787.598,-231.934,7.812,654.022,430.83617793528344
358,1686066349.13,58.594,91.309,185.059,-12.695,654.026,424.5715948911252
359,1686066349.13,-67.871,147.949,18.066,-63.965,654.03,449.37134727645906
360,1686066349.14,-93.262,-455.566,-195.801,-56.641,654.032,436.70999509150636
361,1686066349.14,24.414,-244.629,37.598,0.488,654.036,443.47125049820056
362,1686066349.14,57.617,311.035,205.566,18.066,654.04,431.91655750160953
363,1686066349.15,-53.223,-10.254,-54.688,-31.25,654.044,437.46466276005896
364,1686066349.15,-106.934,-691.406,-306.152,-53.223,654.048,460.57804553496015
365,1686066349.16,-13.184,-603.027,-134.277,-1.953,654.052,439.74547618614383
366,1686066349.16,64.453,14.16,139.16,35.645,654.056,461.62085012410125
367,1686066349.16,-14.16,50.293,4.395,-12.695,654.06,464.434205249655
368,1686066349.17,-105.957,-723.633,-332.031,-64.453,654.064,479.99594016635166
369,1686066349.17,-36.621,-427.734,-29.297,-46.387,654.067,455.8459930833365
370,1686066349.18,76.66,389.16,230.469,4.883,654.071,472.9598097427421
371,1686066349.18,46.875,-26.367,-54.199,-5.859,654.075,466.2897260899401
372,1686066349.18,-63.965,-473.633,-193.359,-53.711,654.091,473.12994806908233
373,1686066349.19,-57.617,-76.66,62.012,-41.016,654.095,478.63542620387
374,1686066349.19,51.27,256.836,140.625,6.836,654.099,460.4551825254077
375,1686066349.19,55.176,2.441,50.781,16.113,654.103,472.6638805912442
376,1686066349.2,-62.012,-254.395,-16.602,-40.039,654.107,463.9212254740891
377,1686066349.2,-99.609,-309.57,-141.602,-60.059,654.111,487.962727766269
378,1686066349.2,27.832,-220.703,-62.012,4.395,654.115,486.44759306368456
379,1686066349.21,81.055,-465.82,-120.117,35.645,654.119,483.8077819645251
380,1686066349.21,-31.25,-742.676,-248.047,-23.438,654.122,474.0945955478147
381,1686066349.22,-93.262,-102.539,44.434,-76.172,654.126,471.15296468200273
382,1686066349.22,5.371,87.402,56.641,-23.438,654.13,483.5029476052642
383,1686066349.22,94.238,42.969,85.449,35.156,654.134,479.1211551224115
384,1686066349.23,13.184,132.812,132.324,-10.742,654.125,488.95023419282956
385,1686066349.23,-101.074,64.941,38.086,-72.266,654.129,480.11535451510446
386,1686066349.24,-45.41,-184.57,-98.145,-39.062,654.133,490.3110421977783
387,1686066349.24,65.43,-630.371,-167.48,31.25,654.136,481.21039159895037
388,1686066349.24,32.715,-460.938,-34.668,7.324,654.14,480.5444770986509
389,1686066349.25,-80.566,-241.699,-107.422,-71.777,654.144,483.9775500226269
390,1686066349.25,-66.406,-504.395,-259.277,-63.477,654.148,480.5967931105928
391,1686066349.25,48.828,-725.098,-221.191,12.207,654.152,483.19613545773825
392,1686066349.26,57.129,-261.23,40.039,8.789,654.156,494.9197849384908
393,1686066349.26,-61.523,271.973,139.16,-55.176,654.16,479.97096539693274
394,1686066349.27,-93.75,-275.879,-212.891,-61.035,654.164,484.4178330129634
395,1686066349.27,34.18,-564.941,-231.445,1.465,654.168,484.0243850361295
396,1686066349.27,99.121,142.09,174.316,22.461,654.182,486.7362067442753
397,1686066349.28,-12.207,288.086,84.473,-31.738,654.185,469.77608553085184
398,1686066349.28,-113.77,-251.465,-104.98,-61.523,654.189,481.88666929650384
399,1686066349.28,-27.344,-238.77,-7.324,-15.137,654.193,474.21480955111275
400,1686066349.29,77.148,148.926,93.75,27.344,654.197,499.02492527699127
401,1686066349.29,8.301,-71.289,-40.039,-14.16,654.201,474.4171425634692
402,1686066349.3,-100.098,-705.566,-384.277,-46.875,654.205,495.6587346584132
403,1686066349.3,-57.617,-881.348,-389.648,-13.672,654.209,484.31314695645267
404,1686066349.3,69.824,-39.551,91.309,21.484,654.213,474.9148148538088
405,1686066349.31,55.176,257.812,113.281,16.113,654.217,475.060907030112
406,1686066349.31,-62.988,-163.574,-83.496,-41.504,654.221,481.35505771198154
407,1686066349.32,59.57,207.031,125.977,12.695,654.242,480.2234707882469
408,1686066349.32,-57.617,-145.02,-34.18,-43.945,654.225,467.6309494996326
409,1686066349.32,79.59,161.133,48.828,29.297,654.246,480.25284483073085
410,1686066349.32,-34.668,-213.867,-82.52,-22.949,654.25,481.0317150410603
411,1686066349.33,-91.309,-441.895,-138.672,-46.387,654.253,473.3063752232382
412,1686066349.33,22.461,-300.781,-83.496,8.301,654.257,459.12669392146324
413,1686066349.34,86.426,-166.504,5.859,29.785,654.261,472.7112160000515
414,1686066349.34,-17.09,-735.352,-327.148,-1.465,654.265,474.51202376808413
415,1686066349.34,-97.168,-860.84,-411.133,-50.293,654.269,451.1278640719391
416,1686066349.35,0.977,-158.691,-0.488,-38.086,654.273,478.20796396977454
417,1686066349.35,99.121,39.551,9.277,19.531,654.277,471.1740105441445
418,1686066349.36,10.254,-654.785,-277.344,6.836,654.281,462.31864045407934
419,1686066349.36,-119.629,-461.914,-86.914,-63.965,654.285,467.46803632822383
420,1686066349.36,-69.824,72.754,40.039,-51.758,654.271,464.9546241977329
421,1686066349.37,62.5,-27.344,16.602,18.555,654.275,459.66967653837645
422,1686066349.37,41.016,-9.277,24.902,14.648,654.279,461.8082962571793
423,1686066349.38,-80.078,105.469,52.734,-45.41,654.283,453.3293604521898
424,1686066349.38,-84.473,20.996,-15.625,-61.035,654.286,458.93966619217304
425,1686066349.38,43.457,-501.953,-220.703,9.766,654.29,445.36462645071344
426,1686066349.39,78.125,-498.535,-112.793,28.32,654.294,446.8881014732425
427,1686066349.39,-18.066,84.961,84.473,-32.227,654.298,451.7274010886165
428,1686066349.39,-83.496,13.672,-40.039,-48.828,654.302,458.9335086907193
429,1686066349.4,7.324,-456.543,-149.902,4.395,654.306,431.0336585814907
430,1686066349.4,92.773,-462.891,-49.805,34.668,654.31,429.7019564159025
431,1686066349.41,0.488,50.293,83.984,-25.391,654.314,446.2624227458302
432,1686066349.42,-120.605,29.297,-29.785,-70.312,654.318,431.8066694278551
433,1686066349.42,-51.27,-636.719,-342.773,-20.508,654.322,429.16760861328356
434,1686066349.43,72.266,-498.535,-158.691,30.762,654.326,437.50410865578243
435,1686066349.43,24.414,-58.594,-0.488,-1.465,654.33,425.639301179644
436,1686066349.44,-83.008,-392.09,-231.445,-62.012,654.334,434.75506963204367
437,1686066349.44,-53.223,-894.531,-480.469,-44.434,654.338,424.88430324444045
438,1686066349.44,58.594,-680.176,-279.297,1.465,654.341,417.6113480716418
439,1686066349.45,53.223,206.543,160.645,-21.973,654.345,427.27297573447885
440,1686066349.45,-66.895,-99.609,-129.883,-68.848,654.349,412.80618676506634
441,1686066349.46,-87.402,-487.793,-263.184,-71.777,654.353,412.3497376808825
442,1686066349.46,32.715,-2.441,72.266,-16.113,654.357,418.71585279441257
443,1686066349.46,68.359,309.082,125.0,7.812,654.361,417.3066931262581
444,1686066349.47,-42.969,-261.23,-176.27,-33.691,654.376,413.3825188250145
445,1686066349.47,-115.234,-654.297,-312.5,-62.5,654.38,407.1394769161441
446,1686066349.48,-27.344,-106.445,-15.137,-21.484,654.383,393.13457148123
447,1686066349.48,66.406,214.844,120.117,21.484,654.387,415.2500413067963
448,1686066349.49,-3.418,-261.23,-88.867,-14.16,654.391,405.8293113189395
449,1686066349.49,-102.051,-782.715,-317.871,-67.383,654.395,404.177091356088
450,1686066349.49,-45.41,-558.594,-209.473,-42.969,654.399,397.82598770394605
451,1686066349.5,64.453,-41.016,47.363,0.977,654.403,403.09532442356004
452,1686066349.5,30.762,-419.434,-205.078,-10.742,654.407,402.3491821267936
453,1686066349.5,-86.914,-865.234,-429.688,-68.359,654.411,408.37900573163296
454,1686066349.51,-85.449,-210.449,-61.035,-83.984,654.415,404.1386141012475
455,1686066349.51,47.363,-115.234,-43.945,3.418,654.421,382.0769130302735
456,1686066349.51,33.203,20.508,20.02,-8.789,654.419,376.67068787178204
457,1686066349.52,-74.219,-127.441,-46.387,-58.594,654.425,396.30915928874293
458,1686066349.52,-116.699,-118.164,-130.859,-85.449,654.429,373.99579281215256
459,1686066349.52,4.395,-257.812,-179.199,-29.785,654.433,391.42408222967333
460,1686066349.53,66.406,-526.855,-187.988,4.883,654.437,379.5647054351614
461,1686066349.53,-41.992,-599.609,-242.676,-52.734,654.441,364.85285099348556
462,1686066349.53,-125.488,-510.254,-218.262,-102.051,654.444,385.7797813503957
463,1686066349.54,-25.879,-316.895,-112.793,-66.406,654.448,376.4256512339343
464,1686066349.54,79.102,-793.457,-395.996,15.137,654.452,384.13180480097964
465,1686066349.55,0.0,-868.164,-364.258,-9.766,654.456,373.844801711714
466,1686066349.55,-118.652,-69.824,25.391,-94.238,654.46,376.8652111460169
467,1686066349.55,-80.078,-293.945,-186.523,-76.172,654.464,374.59592473593636
468,1686066349.57,42.48,-499.023,-246.094,-3.906,654.468,353.7170637090215
469,1686066349.58,30.273,158.203,120.117,-14.16,654.472,365.2192574587917
470,1686066349.58,-87.891,130.859,9.277,-74.219,654.475,356.087657094236
471,1686066349.58,-83.984,-282.715,-122.07,-65.43,654.479,360.0364939973841
472,1686066349.59,33.691,-222.656,-12.207,-15.137,654.483,368.32709002836816
473,1686066349.59,50.293,-153.32,-38.086,-5.371,654.487,367.8381357701283
474,1686066349.59,-59.082,-319.824,-177.734,-59.57,654.491,368.73463549193207
475,1686066349.6,-113.77,-774.414,-406.25,-73.73,654.495,358.42123714486314
476,1686066349.6,-38.086,-639.16,-256.836,-37.598,654.498,363.8752378537626
477,1686066349.6,-4.883,-639.16,-224.121,-20.02,654.499,356.7792628537939
478,1686066349.6,67.383,210.938,179.199,-6.836,654.502,348.75227143360934
479,1686066349.61,61.523,172.852,141.113,0.488,654.503,349.20012369448705
480,1686066349.61,17.09,171.387,35.156,-24.902,654.505,366.6484716225074
481,1686066349.61,-30.762,170.898,40.527,-28.809,654.507,355.86421633265826
482,1686066349.61,-92.773,-422.852,-247.559,-66.406,654.509,345.9278527879258
483,1686066349.61,-113.77,-603.027,-328.125,-55.664,654.511,347.40182304819086
484,1686066349.62,-54.688,-468.75,-182.617,-46.387,654.513,339.8342131598904
485,1686066349.62,72.754,-208.496,-5.371,7.324,654.517,354.6612106772969
486,1686066349.62,46.875,-263.184,-85.938,5.859,654.521,330.43502237198135
487,1686066349.63,-84.961,-645.02,-270.508,-46.875,654.525,346.02425667429145
488,1686066349.63,-87.891,-638.672,-220.703,-62.988,654.529,334.90151438219516
489,1686066349.64,47.852,0.0,58.594,-4.395,654.533,337.95239108937307
490,1686066349.64,84.473,19.531,-20.02,19.043,654.537,333.79639670463285
491,1686066349.64,-31.25,-835.938,-444.336,-22.461,654.541,334.49373033778255
492,1686066349.65,-94.727,-604.98,-238.77,-55.664,654.557,333.33018985288174
493,1686066349.66,7.324,119.141,65.918,-20.996,654.561,342.6614076683384
494,1686066349.66,85.449,29.785,34.668,22.949,654.565,330.45121110916114
495,1686066349.66,-9.277,-31.25,13.184,-19.531,654.569,331.4405489702211
496,1686066349.67,-107.422,36.621,-0.488,-61.035,654.573,333.172214892743
497,1686066349.67,-28.809,-140.137,-101.562,-30.273,654.577,332.3320697165554
498,1686066349.67,84.473,-597.656,-258.301,28.809,654.581,333.1398470526191
499,1686066349.68,36.621,-681.641,-226.074,11.23,654.584,334.03124599167137
500,1686066349.68,-78.125,-57.617,38.086,-63.477,654.588,315.28041952384837
501,1686066349.69,-55.176,-21.973,-5.371,-51.758,654.592,320.84315021014766
502,1686066349.69,71.777,-167.969,-90.332,12.695,654.596,318.96862427497837
503,1686066349.69,-72.754,-108.398,-16.602,-69.336,654.602,320.69416594171867
504,1686066349.69,61.035,-243.164,-125.488,2.441,654.6,327.94474006328994
505,1686066349.7,-88.867,-81.055,-56.152,-73.242,654.605,307.1527863688116
506,1686066349.7,29.785,-338.867,-158.691,-12.695,654.609,324.8909956268032
507,1686066349.7,68.848,-241.211,-27.832,6.348,654.613,310.8849078411009
508,1686066349.71,-39.551,-188.477,-98.633,-26.367,654.617,304.6716373024204
509,1686066349.71,-105.957,-429.688,-279.785,-43.945,654.621,314.10632243778116
510,1686066349.71,3.418,-751.465,-258.789,-2.93,654.625,302.08848075763177
511,1686066349.72,83.984,-286.133,18.555,15.625,654.629,316.3133986108978
512,1686066349.72,0.0,288.086,162.109,-31.738,654.633,295.58844998666854
513,1686066349.73,-99.609,-213.867,-169.434,-67.871,654.637,315.6600881612929
514,1686066349.73,-45.41,-660.645,-349.609,-35.156,654.641,298.73122022313595
515,1686066349.73,74.707,25.391,90.82,6.348,654.645,306.56960201101055
516,1686066349.74,33.203,328.613,133.301,-11.23,654.645,301.9771245841624
517,1686066349.74,-92.285,-364.258,-207.031,-53.223,654.649,292.5150050073688
518,1686066349.75,-73.73,-469.727,-172.363,-42.969,654.653,294.3817034939343
519,1686066349.75,53.711,158.691,117.676,9.766,654.657,293.1897859948252
520,1686066349.76,60.547,356.445,152.832,7.324,654.661,292.20076127322756
521,1686066349.76,-54.688,-407.715,-263.184,-40.039,654.665,295.13334615376067
522,1686066349.76,-85.938,-841.797,-412.598,-56.152,654.669,292.6338988094154
523,1686066349.77,28.809,-40.039,70.312,-17.09,654.673,295.12124729869754
524,1686066349.77,100.098,321.777,129.883,17.578,654.677,289.5445880760248
525,1686066349.77,-19.043,-302.734,-115.723,-35.645,654.68,299.5660407657602
526,1686066349.78,-121.094,-525.391,-180.664,-96.68,654.684,290.6322976670773
527,1686066349.78,-24.414,41.504,8.789,-58.594,654.688,278.04647202387423
528,1686066349.8,62.988,170.41,72.754,2.93,654.692,271.09942457671553
529,1686066349.8,-24.902,-53.223,20.508,-28.32,654.696,292.49534412538736
530,1686066349.8,-127.441,-123.047,-15.625,-88.867,654.7,291.9924886425675
531,1686066349.81,-74.707,-272.461,-117.676,-62.5,654.704,274.87652384705547
532,1686066349.81,45.41,-261.23,-6.836,-3.906,654.708,278.04210845542235
533,1686066349.82,19.531,-680.664,-300.293,6.836,654.711,284.49356902230784
534,1686066349.82,-107.91,-963.379,-452.148,-51.27,654.715,284.5989137011731
535,1686066349.82,-105.469,-217.773,7.812,-74.219,654.719,273.67239382568533
536,1686066349.83,29.785,-60.547,2.93,-10.254,654.723,279.3304943250395
537,1686066349.83,55.176,-147.461,-63.965,4.883,654.727,264.34550068708074
538,1686066349.84,-68.359,96.68,53.711,-52.734,654.731,279.2664689140424
539,1686066349.84,-109.863,127.441,67.871,-79.102,654.735,261.06148605927325
540,1686066349.84,6.836,-211.914,-104.004,-19.043,654.738,261.97562033957666
541,1686066349.84,76.172,-329.102,-161.621,23.926,654.742,269.8046419311762
542,1686066349.85,-15.625,77.148,84.961,-25.391,654.745,267.8483736474712
543,1686066349.85,-98.633,19.531,21.973,-78.613,654.749,254.4134649881662
544,1686066349.86,-12.695,-225.098,-71.777,-41.504,654.753,280.4349640163723
545,1686066349.86,67.871,-330.566,-45.898,2.93,654.757,260.71336604680613
546,1686066349.86,-7.812,-344.238,-126.465,-26.855,654.761,260.47918939044195
547,1686066349.87,-95.215,-370.605,-206.055,-74.219,654.765,260.5041901876128
548,1686066349.87,-52.734,-734.863,-379.883,-47.363,654.769,278.1463098520473
549,1686066349.88,54.199,-797.363,-329.59,9.766,654.773,255.380698661577
550,1686066349.88,34.668,-44.922,66.406,-11.23,654.777,265.9510710630859
551,1686066349.88,-80.078,9.766,-18.066,-63.477,654.781,256.8091122386734
552,1686066349.89,-88.867,-307.129,-181.152,-65.918,654.783,277.0227202749339
553,1686066349.89,29.785,-15.625,29.785,-15.137,654.787,263.0418921896804
554,1686066349.89,46.387,315.918,176.27,4.395,654.791,259.911869449768
555,1686066349.9,-68.359,-126.465,-107.91,-36.621,654.795,254.9802704482175
556,1686066349.9,-110.352,-788.086,-350.098,-52.246,654.798,248.70550961727258
557,1686066349.91,-3.418,-614.258,-193.848,-9.277,654.802,270.7949803033184
558,1686066349.91,70.312,-187.988,-1.953,15.625,654.806,263.96442086667264
559,1686066349.91,-27.344,-297.852,-168.457,-31.25,654.81,254.168574816947
560,1686066349.92,-113.281,-747.07,-371.582,-70.801,654.814,249.09218165552073
561,1686066349.92,-33.691,-613.77,-175.781,-31.25,654.818,263.56090495101535
562,1686066349.92,77.148,130.371,112.305,14.648,654.822,244.70579096597478
563,1686066349.93,14.16,-37.598,-74.219,-9.766,654.826,234.07044889959195
564,1686066349.93,-101.074,-634.277,-384.277,-59.082,654.841,246.41024862732073
565,1686066349.94,-62.012,-205.078,-77.148,-61.523,654.845,251.24479275051434
566,1686066349.94,68.848,166.016,92.773,-2.93,654.849,239.13396313451574
567,1686066349.94,72.266,-31.738,14.16,10.742,654.853,246.38084455471704
568,1686066349.95,-59.082,-270.996,-125.977,-47.363,654.857,227.1945314007833
569,1686066349.95,-88.379,-452.148,-246.094,-51.27,654.861,233.9220695506673
570,1686066349.96,32.715,-333.984,-84.961,1.953,654.865,245.2528428333074
571,1686066349.96,80.078,-524.414,-194.336,21.973,654.869,234.92737809838945
572,1686066349.96,-36.621,-764.16,-296.387,-28.32,654.873,234.97157939532778
573,1686066349.97,-100.586,-179.688,-6.836,-75.684,654.876,229.52895852766156
574,1686066349.97,17.578,2.93,19.043,-19.531,654.88,236.78116025498645
575,1686066349.98,93.75,-194.336,-40.527,35.645,654.884,230.76291091100202
576,1686066349.98,12.695,-241.699,-38.574,0.488,654.873,235.01473211499078
577,1686066349.98,-78.613,-75.195,2.441,-53.223,654.877,234.78962146608382
578,1686066349.98,-26.367,-1.465,3.418,-26.855,654.881,220.832095727265
579,1686066349.99,79.59,-594.727,-259.766,40.039,654.885,227.86070798314933
580,1686066349.99,40.527,-679.688,-232.422,11.23,654.889,241.74497592862
581,1686066350.0,-86.914,-282.715,-98.145,-65.918,654.893,216.32243565001525
582,1686066350.0,-62.988,-491.211,-291.504,-39.551,654.897,229.4103594710451
583,1686066350.0,76.66,-714.844,-259.277,41.992,654.901,206.5786907696811
584,1686066350.01,67.871,-362.793,-23.926,24.414,654.905,220.94834226476047
585,1686066350.01,-53.223,91.797,67.871,-50.781,654.909,214.17004620511048
586,1686066350.02,-72.266,-371.582,-240.723,-51.758,654.912,208.76577705507202
587,1686066350.02,52.246,-612.793,-287.109,7.812,654.916,203.71673595723604
588,1686066350.02,100.098,-23.926,108.398,-1.953,654.924,202.70422097072964
589,1686066350.03,-4.395,25.391,-45.41,-50.781,654.928,196.68893163414072
590,1686066350.03,-62.988,-572.754,-338.867,-59.57,654.932,197.69566059582283
591,1686066350.04,24.902,-538.086,-153.32,-30.762,654.936,184.95067750241427
592,1686066350.04,113.281,-48.828,9.766,8.789,654.94,203.39761804387675
593,1686066350.04,33.691,-371.094,-196.289,-24.902,654.944,192.9854926858724
594,1686066350.05,-73.242,-889.648,-537.109,-71.777,654.948,194.88784611432547
595,1686066350.05,-10.742,-846.191,-510.254,-41.016,654.952,192.294420248172
596,1686066350.06,94.727,-210.449,-19.531,-8.789,654.956,187.387614867274
597,1686066350.06,52.246,-62.5,-61.523,-22.949,654.959,166.29583954724998
598,1686066350.06,-59.57,-499.512,-297.852,-64.941,654.963,179.6157377522305
599,1686066350.07,88.867,-155.762,-90.332,-23.438,654.999,165.04001677207998
600,1686066350.07,-47.363,-532.715,-264.648,-78.613,654.967,183.32158072488585
601,1686066350.07,113.281,-151.367,-103.027,-1.465,655.002,167.06228969912172
602,1686066350.07,-20.508,-504.883,-290.039,-61.035,655.006,158.57958520671593
603,1686066350.08,-59.57,-744.629,-333.496,-72.266,655.01,166.84529409280609
604,1686066350.08,48.34,-669.434,-295.898,-16.113,655.014,163.75353304131755
605,1686066350.09,108.887,-549.316,-240.234,0.488,655.018,147.83492118730612
606,1686066350.09,-1.465,-895.996,-567.871,-39.062,655.022,168.38506928108131
607,1686066350.09,-87.402,-1000.0,-605.957,-59.082,655.026,157.39247872692997
608,1686066350.1,9.277,-448.73,-156.738,-33.691,655.03,164.83975198328523
609,1686066350.1,95.703,-244.141,-181.152,4.395,655.034,168.6979281711696
610,1686066350.1,28.809,-440.918,-320.312,-12.207,655.038,153.59873770957805
611,1686066350.11,-79.102,-413.574,-275.879,-70.312,655.041,148.7938120606917
612,1686066350.11,-33.691,-263.672,-174.316,-56.641,655.021,158.1503977937372
613,1686066350.12,78.125,-336.914,-165.039,0.977,655.025,146.71527893946
614,1686066350.12,54.199,-387.207,-187.012,-4.395,655.029,150.88040916197883
615,1686066350.12,-65.918,-237.793,-184.57,-66.406,655.033,121.06932589740575
616,1686066350.13,-66.406,-271.973,-230.957,-67.383,655.037,123.45772684647766
617,1686066350.13,48.828,-670.898,-342.285,-4.395,655.041,129.0901209050408
618,1686066350.14,67.871,-674.805,-279.785,-1.465,655.044,137.9644899081369
619,1686066350.14,-46.875,-357.91,-198.242,-58.105,655.048,142.9990171106843
620,1686066350.14,-97.168,-599.121,-335.449,-82.52,655.052,119.83121683320286
621,1686066350.15,20.02,-665.039,-270.02,-31.738,655.056,125.61206962681696
622,1686066350.15,90.332,-238.77,35.645,-3.906,655.06,131.55801625130556
623,1686066350.16,0.488,16.113,10.254,-40.527,655.064,133.1454115846542
624,1686066350.17,-89.355,-212.402,-208.496,-73.242,655.068,123.07040884384062
625,1686066350.18,-14.648,-713.379,-367.676,-34.18,655.072,122.05709618053616
626,1686066350.18,87.402,-530.762,-145.996,17.09,655.076,130.09870773446846
627,1686066350.18,27.344,-170.41,-41.992,-19.531,655.08,106.73629415767698
628,1686066350.19,-80.566,-547.852,-284.668,-63.477,655.084,127.66319613048793
629,1686066350.19,-61.035,-958.984,-486.328,-36.133,655.088,120.86267562303559
630,1686066350.19,47.363,-676.758,-253.418,8.789,655.092,117.52059403738143
631,1686066350.2,43.945,167.969,169.434,-17.09,655.096,134.273601251216
632,1686066350.2,-70.801,-104.98,-142.09,-71.289,655.099,120.42331441875925
633,1686066350.21,-85.938,-481.934,-287.598,-68.359,655.103,116.75164457511399
634,1686066350.21,40.039,-261.719,-41.992,-5.371,655.107,113.09663635682828
635,1686066350.21,72.754,178.711,156.738,7.324,655.111,124.86468292635621
636,1686066350.22,-50.293,-160.156,-150.391,-43.945,655.113,126.58458958420725
637,1686066350.22,-105.957,-704.59,-341.797,-61.035,655.117,118.37176223990524
638,1686066350.22,4.395,-78.125,61.035,-28.32,655.121,125.542604044357
639,1686066350.23,84.961,284.18,147.949,12.695,655.124,136.79622047871194
640,1686066350.23,1.953,-44.922,-18.066,-19.531,655.128,136.06766695808795
641,1686066350.24,-90.82,-545.898,-253.418,-69.336,655.132,125.38142424694897
642,1686066350.24,-25.391,-373.047,-111.328,-50.781,655.136,122.25015187976993
643,1686066350.24,78.125,192.383,166.504,0.0,655.14,123.5975287424421
644,1686066350.25,36.133,-356.445,-171.387,-0.488,655.144,125.28548381903984
645,1686066350.25,-78.613,-801.758,-321.289,-60.059,655.148,132.0405468351591
646,1686066350.26,-67.871,-62.988,68.359,-70.801,655.152,138.06246674805976
647,1686066350.26,52.734,205.566,102.051,-7.812,655.156,125.88397234978562
648,1686066350.29,50.293,-148.926,-58.105,-0.488,655.19,156.8874260503769
649,1686066350.3,-76.66,-272.949,-57.129,-68.359,655.194,160.92814903511044
650,1686066350.3,-102.051,-20.996,42.48,-89.355,655.198,148.81459865731773
651,1686066350.3,24.414,-74.219,0.977,-25.879,655.202,166.01314252976073
652,1686066350.31,55.664,8.301,40.039,-2.93,655.214,167.28724317852198
653,1686066350.31,70.312,-638.672,-229.492,11.719,655.206,170.25780211886163
654,1686066350.31,18.066,369.629,171.875,-24.902,655.218,168.61782329663825
655,1686066350.31,-27.344,-860.352,-311.035,-35.156,655.209,155.49844190487227
656,1686066350.31,-84.473,-271.973,-34.18,-73.73,655.213,173.29700643698206
657,1686066350.31,-93.75,189.941,25.391,-77.148,655.222,156.08546165562527
658,1686066350.32,1.465,-25.879,17.578,-27.344,655.217,184.33145291042618
659,1686066350.32,-78.125,-340.332,-116.211,-65.43,655.226,165.57550408721008
660,1686066350.32,66.406,-480.957,-125.488,16.602,655.221,171.30337614567284
661,1686066350.32,36.621,-214.355,33.203,-7.812,655.23,174.37347527197957
662,1686066350.33,-17.09,-261.23,-6.348,-38.086,655.225,162.2222851491624
663,1686066350.33,46.387,59.57,100.586,-4.395,655.234,172.724327508414
664,1686066350.33,-68.359,-278.32,-126.953,-42.48,655.238,175.01859153089313
665,1686066350.33,-111.328,172.852,73.73,-96.191,655.229,178.37053381045592
666,1686066350.33,-108.398,-610.84,-214.355,-59.082,655.242,182.43252284781246
667,1686066350.33,-57.617,-79.102,-29.785,-55.664,655.233,176.2552783799715
668,1686066350.34,7.324,-286.133,12.695,-25.391,655.246,180.08455367908277
669,1686066350.34,69.336,329.59,185.547,-1.953,655.25,189.6057818391357
670,1686066350.34,-39.062,229.98,54.199,-41.504,655.253,199.7895680455213
671,1686066350.35,-118.652,-307.129,-157.715,-78.613,655.257,185.51162873640433
672,1686066350.35,-22.949,-219.238,7.324,-46.875,655.248,190.25520601147767
673,1686066350.36,74.219,294.922,183.105,-4.883,655.252,179.88831444176114
674,1686066350.36,2.441,249.512,94.238,-30.762,655.256,200.1424837325776
675,1686066350.36,-102.539,-602.539,-341.309,-57.617,655.26,196.01259247950708
676,1686066350.37,-61.035,-944.824,-437.5,-37.109,655.263,206.11382726077687
677,1686066350.37,52.246,-327.148,-22.949,-6.348,655.267,184.69111713707045
678,1686066350.37,22.949,-137.695,22.949,-13.672,655.271,207.68997619775394
679,1686066350.38,-101.562,-797.363,-403.32,-53.711,655.275,208.2123226441306
680,1686066350.38,-97.168,-677.246,-262.207,-65.918,655.279,191.65431229107958
681,1686066350.39,32.715,285.645,200.195,-13.184,655.283,217.37840789465372
682,1686066350.39,49.316,174.316,28.809,1.465,655.287,208.28790124364235
683,1686066350.39,-66.895,-93.75,-44.434,-57.617,655.291,203.16480395780624
684,1686066350.4,-104.492,118.652,86.426,-70.801,655.295,215.3457799347663
685,1686066350.4,11.23,330.078,142.578,-16.113,655.299,227.19956983769333
686,1686066350.41,69.336,127.93,56.152,19.043,655.303,221.50748060022195
687,1686066350.41,-35.645,-46.387,7.324,-18.555,655.306,219.39880127917633
688,1686066350.41,-114.258,25.391,17.578,-60.547,655.31,227.226999185205
689,1686066350.42,-23.438,-84.473,5.859,-33.203,655.314,231.7373534665597
690,1686066350.42,81.543,-498.047,-167.48,29.297,655.318,203.43629545880452
691,1686066350.42,21.973,-657.227,-190.918,4.395,655.322,225.80172458888114
692,1686066350.43,-91.797,-249.023,-67.871,-68.359,655.326,246.59978167429895
693,1686066350.43,-56.152,-130.371,-117.188,-53.711,655.33,246.8808227357119
694,1686066350.44,64.453,-252.441,-20.996,6.836,655.334,237.04884986457014
695,1686066350.44,50.781,-143.555,67.871,3.418,655.338,234.48145892899626
696,1686066350.44,-68.359,166.504,87.891,-58.594,655.351,251.68632932173418
697,1686066350.44,-79.102,-26.367,-24.414,-56.641,655.355,239.3827475538646
698,1686066350.45,41.504,-55.664,41.016,-1.465,655.359,234.04064676867748
699,1686066350.45,68.848,-46.387,76.172,8.789,655.363,246.3027265267233
700,1686066350.46,-54.199,-135.742,-20.996,-41.016,655.366,240.01553906625793
701,1686066350.46,-111.816,-281.738,-137.207,-69.336,655.37,251.77437419822814
702,1686066350.46,-3.418,-867.188,-373.047,-1.953,655.374,256.8236872050093
703,1686066350.47,77.148,-657.715,-184.57,39.551,655.378,261.12219911181325
704,1686066350.47,-7.324,202.637,183.105,-19.531,655.382,270.6163153623725
705,1686066350.48,-93.75,-97.656,-87.402,-58.105,655.386,260.12591520589285
706,1686066350.48,-21.484,-302.734,-147.461,-15.137,655.39,265.33615130844794
707,1686066350.48,78.613,6.836,102.051,27.832,655.394,277.3239924710816
708,1686066350.49,27.832,275.391,172.363,-1.465,655.392,252.56156634616872
709,1686066350.49,-82.52,-194.824,-139.648,-45.41,655.396,274.0008264108385
710,1686066350.5,-55.664,-586.426,-231.934,-34.668,655.4,264.5154186159987
711,1686066350.5,61.523,109.375,162.598,7.324,655.404,267.50390742613973
712,1686066350.5,52.246,361.816,156.25,9.277,655.408,270.4707684742602
713,1686066350.51,-73.73,-403.32,-206.543,-25.879,655.412,287.3132106912916
714,1686066350.51,-97.656,-669.922,-209.961,-34.668,655.416,260.4075448817238
715,1686066350.52,19.043,107.91,146.973,2.93,655.42,272.1511972254625
716,1686066350.52,55.664,328.125,123.047,21.973,655.424,272.55110448254976
717,1686066350.52,-50.781,-258.301,-66.895,-30.762,655.428,284.19374441126666
718,1686066350.53,-114.746,-501.953,-107.422,-59.082,655.432,293.3954510291939
719,1686066350.53,-9.766,-6.836,60.547,-20.02,655.435,283.38345894699705
720,1686066350.55,77.637,171.387,100.098,19.531,655.443,285.593533742693
721,1686066350.55,-9.277,-282.227,-128.906,-6.348,655.447,278.27928438739195
722,1686066350.55,-104.492,-346.191,-128.418,-59.082,655.451,298.3327453179513
723,1686066350.56,-37.109,-204.59,-74.707,-34.668,655.454,281.2631052113907
724,1686066350.56,71.289,-174.805,0.977,18.555,655.458,312.3166698069073
725,1686066350.57,27.344,-604.98,-270.02,15.137,655.462,296.984639631914
726,1686066350.57,-101.074,-1000.0,-456.543,-38.574,655.466,298.49505690485904
727,1686066350.57,-92.285,-258.301,39.551,-57.617,655.47,301.26409025383026
728,1686066350.58,37.598,78.125,62.5,8.789,655.474,301.8929524139655
729,1686066350.58,48.828,17.578,7.812,12.695,655.478,299.02226012843124
730,1686066350.58,-79.102,141.602,56.641,-58.105,655.482,296.0416014244641
731,1686066350.59,-116.211,86.914,20.508,-69.824,655.486,318.34509429826403
732,1686066350.59,0.488,-37.109,7.812,-12.695,655.487,284.20982048213256
733,1686066350.6,41.016,-5.371,20.996,2.441,655.491,320.9658079283526
734,1686066350.6,-65.43,142.578,74.219,-51.758,655.495,291.7475139840992
735,1686066350.6,-135.742,-17.578,-27.344,-80.566,655.499,301.70319308067207
736,1686066350.61,-49.316,-347.168,-95.215,-35.645,655.503,305.3051866602283
737,1686066350.61,37.109,-438.965,-41.504,9.277,655.507,299.01815654441873
738,1686066350.61,-30.273,-174.316,29.297,-27.344,655.511,308.0983063597342
739,1686066350.62,-131.836,37.109,45.898,-88.379,655.514,301.87622789443884
740,1686066350.62,-82.52,-563.965,-260.742,-52.246,655.518,309.81396617645925
741,1686066350.63,38.574,-707.031,-206.055,9.277,655.522,312.530359534399
742,1686066350.63,4.883,138.672,184.082,-18.555,655.526,310.13835164692574
743,1686066350.63,-115.234,32.715,2.441,-69.824,655.53,314.9764395973023
744,1686066350.64,-104.98,-302.246,-158.203,-64.453,655.532,301.59581701510456
745,1686066350.64,18.555,-37.109,29.785,-9.277,655.536,309.93165114983617
746,1686066350.64,34.668,325.684,199.707,1.953,655.54,322.3057845591664
747,1686066350.65,-86.426,-21.973,-47.852,-55.664,655.544,308.58314718003766
748,1686066350.65,-134.766,-688.477,-275.879,-71.289,655.548,308.42633508074425
749,1686066350.66,-25.879,-562.988,-143.555,-18.555,655.552,303.68064371439647
750,1686066350.66,37.598,-209.473,-27.344,-0.488,655.555,308.55474806992595
751,1686066350.66,-51.758,-259.277,-85.449,-40.527,655.559,302.7787697986588
752,1686066350.67,-125.0,-854.98,-454.102,-56.152,655.563,313.5695834159906
753,1686066350.67,-40.527,-586.914,-199.707,-28.32,655.567,304.7025886993981
754,1686066350.68,59.57,341.309,217.285,1.465,655.571,312.6717161935748
755,1686066350.68,9.766,83.496,-23.438,-12.695,655.575,322.4211933994191
756,1686066350.68,-95.703,-198.73,-112.793,-61.523,655.579,327.34789976102167
757,1686066350.69,-63.965,109.375,93.262,-44.922,655.583,307.83811791460727
758,1686066350.69,64.941,338.379,158.691,19.531,655.587,325.79234378081185
759,1686066350.7,42.48,52.734,35.156,13.672,655.591,319.6837667619573
760,1686066350.7,-90.82,-221.191,-50.293,-52.734,655.595,308.9019146640272
761,1686066350.7,-94.727,-321.289,-145.508,-50.293,655.599,327.3975424823433
762,1686066350.71,29.297,-204.102,-38.086,3.418,655.603,325.55199065653926
763,1686066350.71,52.734,-460.449,-145.508,20.996,655.607,327.3192862132742
764,1686066350.71,-60.547,-735.352,-278.809,-23.438,655.611,327.8433010367487
765,1686066350.72,-107.91,-300.781,-70.312,-60.059,655.615,326.5617504711509
766,1686066350.72,-2.441,-51.27,0.977,-12.207,655.618,336.91846459140834
767,1686066350.73,-29.785,-150.391,17.09,-31.25,655.623,320.6039469655595
768,1686066350.73,67.871,-144.043,12.695,21.484,655.622,329.1809592233276
769,1686066350.73,-129.883,71.289,65.918,-77.637,655.626,333.4349941001123
770,1686066350.73,-58.105,10.742,4.883,-50.781,655.63,323.3900820411321
771,1686066350.74,52.734,-128.906,1.953,1.465,655.634,320.43519688548747
772,1686066350.74,-2.93,-143.555,26.367,-18.066,655.638,323.8750792470075
773,1686066350.75,-115.234,-267.09,-108.398,-81.543,655.642,344.0146978962129
774,1686066350.75,-87.891,-419.434,-170.41,-73.242,655.646,330.4958114179451
775,1686066350.75,32.227,-801.758,-337.891,10.742,655.65,316.6744773787843
776,1686066350.76,21.484,-786.133,-256.836,19.531,655.654,331.19014488139715
777,1686066350.76,-102.539,-0.977,101.562,-63.965,655.658,320.06008208091305
778,1686066350.76,-118.652,-106.445,-64.941,-70.312,655.662,319.77735100591195
779,1686066350.77,5.859,-248.535,-121.582,-11.719,655.665,334.72300476527374
780,1686066350.77,45.41,39.551,89.844,1.953,655.674,326.5740244395931
781,1686066350.78,-72.266,247.07,145.02,-53.223,655.678,345.5934344845586
782,1686066350.78,-127.93,-304.688,-172.852,-72.266,655.681,331.06062463141643
783,1686066350.79,-27.832,-527.832,-204.102,-20.508,655.685,326.66460844898046
784,1686066350.79,54.199,181.152,141.113,9.766,655.689,326.71712284556895
785,1686066350.79,-22.949,36.621,14.648,-20.996,655.693,328.98604140959793
786,1686066350.8,-123.535,-703.613,-377.441,-57.129,655.697,318.7226158397055
787,1686066350.8,-63.965,-694.824,-264.16,-38.086,655.701,320.4219037637276
788,1686066350.8,52.246,164.551,155.273,3.906,655.705,325.45811241244985
789,1686066350.81,12.207,229.98,70.801,-16.113,655.709,318.1289433308282
790,1686066350.81,-109.375,-176.758,-82.031,-75.684,655.713,327.6932777905754
791,1686066350.82,37.109,258.789,156.25,-9.277,655.741,322.5102404722789
792,1686066350.82,-87.891,-115.723,-9.766,-68.359,655.717,323.0217333162734
793,1686066350.82,32.715,249.512,91.797,-7.324,655.745,338.38518402007287
794,1686066350.82,-88.867,-292.48,-153.32,-59.57,655.749,329.3678173331493
795,1686066350.83,-111.816,-578.125,-256.836,-72.266,655.753,337.8831497248303
796,1686066350.83,10.254,-246.094,-40.527,-20.02,655.757,335.95614014940156
797,1686066350.84,60.059,-51.758,77.637,5.371,655.761,330.4373894329361
798,1686066350.84,-57.129,-688.477,-355.469,-27.344,655.765,343.36802119349534
799,1686066350.84,-135.742,-997.07,-452.637,-56.152,655.769,340.3019772479625
800,1686066350.85,-30.273,-132.324,74.707,-35.645,655.773,338.1350653071522
801,1686066350.85,59.082,137.695,55.664,7.324,655.776,328.5450149785862
802,1686066350.86,-16.113,-57.617,-33.691,-23.438,655.78,331.15506453481606
803,1686066350.86,-113.281,55.664,52.246,-79.59,655.784,336.65100303288926
804,1686066350.86,-60.059,127.441,83.008,-54.688,655.772,335.4305001633358
805,1686066350.87,48.828,70.801,55.664,6.348,655.776,329.07092028015757
806,1686066350.87,12.207,12.695,40.527,-8.301,655.78,333.5134636875102
807,1686066350.88,-104.004,87.891,70.801,-68.359,655.784,330.0845823855599
808,1686066350.88,-93.75,39.551,37.598,-63.965,655.788,321.7295527033068
809,1686066350.88,35.645,-371.094,-107.91,5.859,655.791,337.1021880967106
810,1686066350.89,48.828,-613.281,-175.293,20.996,655.795,315.92374764269726
811,1686066350.89,-73.73,-192.871,6.836,-44.922,655.799,333.06051717080834
812,1686066350.89,-106.934,-9.277,25.391,-68.848,655.803,312.5475284419935
813,1686066350.9,15.625,-277.344,-57.129,-12.207,655.807,328.41889617724263
814,1686066350.9,65.918,-103.516,54.199,9.277,655.811,327.53675427768326
815,1686066350.91,-43.945,217.773,113.77,-41.504,655.815,329.54317667269095
816,1686066350.92,-125.0,62.012,0.488,-79.102,655.817,335.52353300630205
817,1686066350.92,-37.109,-583.496,-264.648,-25.879,655.821,317.65659103619987
818,1686066350.93,50.293,-501.465,-126.465,21.484,655.825,327.8649878785902
819,1686066350.93,-17.09,-45.41,58.105,-18.066,655.829,301.1385669981952
820,1686066350.94,-116.699,-370.117,-199.219,-67.871,655.833,324.2698059998465
821,1686066350.94,-70.312,-812.012,-349.609,-36.133,655.837,327.13713086954306
822,1686066350.94,47.852,-441.895,-81.055,12.207,655.841,336.04014635548504
823,1686066350.95,22.949,145.508,101.074,-10.742,655.845,316.08745346240187
824,1686066350.95,-96.68,-308.594,-235.352,-61.523,655.849,328.7700723442062
825,1686066350.96,-93.262,-811.035,-351.074,-52.734,655.853,328.6435100185303
826,1686066350.96,29.297,-322.266,10.742,-2.93,655.857,320.0700751194577
827,1686066350.96,50.781,234.375,139.16,-3.906,655.86,317.65704032482597
828,1686066350.97,-71.289,-96.68,-97.168,-43.945,655.862,315.39502989844806
829,1686066350.97,-122.559,-216.797,-102.539,-63.965,655.866,324.46232801793747
830,1686066350.97,-5.859,164.062,127.93,-23.438,655.87,328.09400387729
831,1686066350.98,68.359,383.789,175.781,19.043,655.874,307.79932344743503
832,1686066350.98,-27.832,-45.41,-19.043,-22.461,655.878,311.22420549695244
833,1686066350.99,-112.793,-576.66,-258.301,-68.359,655.882,329.23659970187043
834,1686066350.99,-26.855,-322.266,-79.102,-29.297,655.886,310.123361101357
835,1686066350.99,82.031,246.094,183.105,15.625,655.89,334.2730328470341
836,1686066351.0,17.09,-310.547,-143.555,13.184,655.894,320.13618472167656
837,1686066351.0,-108.398,-808.594,-334.473,-35.645,655.897,310.24330927636447
838,1686066351.0,-66.895,-271.484,-62.988,-48.34,655.901,320.04769562747276
839,1686066351.01,68.359,73.73,65.43,10.254,655.905,316.16454603627034
840,1686066351.01,59.57,-171.875,-28.809,15.137,655.907,322.5176855932405
841,1686066351.02,-71.777,-287.598,-48.34,-52.246,655.911,343.3062605888291
842,1686066351.02,-93.262,6.348,42.48,-65.43,655.915,307.56534669345996
843,1686066351.02,31.25,-96.191,34.668,-0.977,655.919,320.1671881657004
844,1686066351.03,61.035,-474.609,-73.242,18.555,655.923,338.7778176768238
845,1686066351.03,-59.082,-607.91,-207.52,-38.086,655.927,323.12227920403313
846,1686066351.03,-118.164,-286.133,-100.098,-71.777,655.931,334.13117705799584
847,1686066351.04,-3.906,-92.285,5.859,-19.531,655.935,313.7179211528963
848,1686066351.04,75.195,-555.664,-136.719,26.855,655.939,325.05752016729014
849,1686066351.05,-19.531,-325.195,-2.441,-20.508,655.942,313.93475447996605
850,1686066351.05,-115.234,153.809,79.59,-72.266,655.946,319.94165678007136
851,1686066351.05,-50.781,-77.148,-0.977,-32.227,655.95,321.8114783993363
852,1686066351.06,60.547,-158.691,-19.043,21.484,655.958,317.01312257280364
853,1686066351.06,17.09,-19.043,31.738,-7.324,655.962,322.05801318818385
854,1686066351.07,-99.609,135.742,87.891,-63.965,655.966,333.2917093328019
855,1686066351.07,-66.895,-339.844,-148.438,-38.086,655.97,328.16228520751497
856,1686066351.08,48.34,-511.23,-177.246,21.973,655.974,329.22001158429606
857,1686066351.08,49.805,-151.367,38.086,18.555,655.978,332.9303842653625
858,1686066351.08,-57.617,-245.117,-89.844,-27.344,655.982,312.70117280168074
859,1686066351.09,-92.773,-703.613,-366.211,-37.109,655.986,326.7570278138681
860,1686066351.09,24.902,-653.809,-207.031,14.648,655.99,324.50690447799514
861,1686066351.09,69.336,165.527,177.734,21.484,655.993,338.8090239299458
862,1686066351.1,-51.27,128.418,4.395,-28.32,655.997,323.03307063636777
863,1686066351.1,-123.047,-243.164,-160.156,-60.059,656.001,356.2667504224708
864,1686066351.13,-8.789,-70.801,19.043,-22.461,656.028,335.82215951520993
865,1686066351.14,83.984,321.289,181.152,14.16,656.032,328.54068146350545
866,1686066351.14,-2.93,145.508,43.945,-11.719,656.036,348.4899431042839
867,1686066351.14,-112.305,-420.41,-190.918,-53.223,656.039,334.99749624043454
868,1686066351.15,-49.316,-509.766,-175.293,-31.738,656.043,334.3483355393289
869,1686066351.15,-107.422,12.695,63.965,-55.664,656.045,324.44523807264306
870,1686066351.15,68.359,-250.977,-4.395,22.949,656.047,339.83101404920467
871,1686066351.15,20.996,242.188,144.531,-5.859,656.049,337.83441182159106
872,1686066351.15,28.32,-204.59,11.719,2.441,656.051,346.6826805071543
873,1686066351.16,68.848,99.609,65.918,23.438,656.052,343.97713776707576
874,1686066351.16,-88.379,-762.207,-410.156,-31.738,656.055,325.7217548947228
875,1686066351.16,-46.875,-24.414,15.137,-26.855,656.056,342.15476883144015
876,1686066351.16,-72.266,-948.73,-430.176,-18.066,656.059,359.1174722000944
877,1686066351.16,-107.91,-6.348,14.648,-54.688,656.06,340.22739430856114
878,1686066351.17,59.082,-32.227,102.051,9.277,656.063,344.8790056673919
879,1686066351.17,-12.207,-216.797,-85.938,-10.742,656.064,348.1247403384258
880,1686066351.17,67.871,154.785,42.969,16.602,656.067,341.54401996547494
881,1686066351.17,65.918,-572.266,-189.941,28.809,656.068,324.1009471171838
882,1686066351.17,-69.824,-159.18,-66.895,-29.785,656.071,343.11202167230726
883,1686066351.18,-2.441,-686.035,-218.75,-5.371,656.072,333.2102465577793
884,1686066351.18,-114.258,-126.953,4.395,-73.73,656.076,321.2504876443889
885,1686066351.18,-63.965,44.922,22.461,-42.969,656.08,333.167916531067
886,1686066351.19,56.641,-206.543,-35.156,24.414,656.084,332.9080009735168
887,1686066351.19,26.855,-63.965,56.641,3.906,656.088,328.61980885113684
888,1686066351.19,-88.379,112.793,53.711,-45.41,656.101,337.1249057746321
889,1686066351.2,-77.637,34.668,21.484,-35.156,656.105,327.83918133396503
890,1686066351.2,47.363,-559.082,-240.234,31.25,656.109,316.40682555327874
891,1686066351.2,58.105,-833.496,-282.227,41.504,656.113,339.2767940917661
892,1686066351.21,-65.918,-284.18,-23.926,-31.738,656.117,338.6521576964048
893,1686066351.21,-105.957,-314.941,-140.625,-56.152,656.121,321.81024787191495
894,1686066351.21,8.789,-875.488,-367.188,2.441,656.125,340.3781569883165
895,1686066351.22,64.453,-692.383,-188.965,26.367,656.129,327.46468656791774
896,1686066351.22,-33.691,-31.25,58.594,-25.879,656.133,350.97712476472265
897,1686066351.23,-121.094,-437.5,-273.926,-50.781,656.136,334.8714722666083
898,1686066351.23,-41.504,-544.922,-201.66,-19.043,656.14,325.62696132094294
899,1686066351.23,67.871,189.941,186.035,17.09,656.144,343.1998001467427
900,1686066351.24,1.465,387.207,130.859,-8.301,656.146,332.82061999901424
901,1686066351.24,-114.258,-160.156,-117.188,-47.852,656.15,338.1848936906999
902,1686066351.25,-72.266,-247.07,-67.871,-30.762,656.154,345.1529995419161
903,1686066351.25,51.27,244.141,148.926,15.137,656.158,339.40791415684686
904,1686066351.25,38.086,384.766,150.879,9.766,656.161,327.5581510208307
905,1686066351.26,-82.031,-432.129,-272.949,-23.438,656.165,323.316177335374
906,1686066351.26,-83.984,-798.828,-302.734,-27.832,656.169,338.23311223441084
907,1686066351.26,43.457,67.383,169.922,0.977,656.173,337.3044227122188
908,1686066351.27,71.289,311.035,136.719,12.695,656.177,331.2674733849155
909,1686066351.27,-50.781,-149.414,-48.828,-36.133,656.181,336.4666159962762
910,1686066351.28,-113.281,-340.82,-153.809,-62.988,656.185,340.557442532206
911,1686066351.28,-4.883,-202.148,-79.102,-15.625,656.189,340.0092784497589
912,1686066351.3,77.637,43.457,67.871,16.602,656.192,329.9904292359916
913,1686066351.3,-20.996,-261.23,-85.449,-18.555,656.196,346.2745230020479
914,1686066351.3,-115.723,-343.75,-46.875,-62.988,656.2,346.4863692574984
915,1686066351.31,-33.203,-155.762,-24.902,-29.297,656.204,345.46590037782414
916,1686066351.31,70.801,-168.457,-15.137,20.02,656.208,351.3151233794395
917,1686066351.32,12.207,-634.766,-261.23,8.789,656.212,348.07219216292833
918,1686066351.32,-111.328,-808.105,-322.754,-47.852,656.216,350.3839844273598
919,1686066351.32,-82.52,0.977,104.004,-57.617,656.22,346.45019486306063
920,1686066351.33,50.293,23.926,-1.953,16.113,656.223,335.73071445859966
921,1686066351.33,44.922,-131.836,-51.758,17.578,656.227,348.9921165303979
922,1686066351.34,-79.59,68.848,60.547,-50.781,656.231,335.36225630611375
923,1686066351.34,-103.027,97.656,53.223,-62.988,656.235,338.46018746300484
924,1686066351.34,21.973,-27.344,20.996,-8.789,656.239,353.79191797154294
925,1686066351.35,64.941,-206.543,-47.363,16.602,656.243,346.3783647205752
926,1686066351.35,-59.57,-162.109,-20.02,-33.691,656.247,353.95956337879625
927,1686066351.35,-128.418,27.344,59.082,-70.312,656.251,351.489241666649
928,1686066351.36,-15.625,-315.43,-84.473,-12.695,656.255,323.4139162505434
929,1686066351.36,66.895,-650.391,-206.543,42.969,656.259,330.47464636107276
930,1686066351.36,-20.508,-276.855,-14.16,-7.324,656.263,336.7326269819853
931,1686066351.37,-119.629,44.922,66.406,-72.266,656.267,344.25589726222
932,1686066351.37,-53.711,-528.32,-234.375,-24.902,656.271,354.2942231145365
933,1686066351.38,64.453,-656.738,-175.781,27.832,656.275,338.28466530798636
934,1686066351.38,25.879,62.5,102.539,-5.859,656.278,335.6186651994434
935,1686066351.38,-89.844,-254.883,-187.012,-51.758,656.282,347.9443167678683
936,1686066351.39,-73.73,-402.344,-195.801,-48.34,656.286,349.19143748555825
937,1686066351.39,44.434,59.082,78.613,9.766,656.29,341.92828434887315
938,1686066351.39,44.434,296.875,146.973,12.695,656.294,342.5288430787997
939,1686066351.4,-77.148,-162.109,-114.258,-41.992,656.297,330.1857351308664
940,1686066351.4,-103.516,-785.156,-336.426,-48.828,656.301,363.0894019824722
941,1686066351.41,23.926,-628.906,-146.973,-6.348,656.305,345.10610877046474
942,1686066351.41,73.242,-112.793,85.938,-2.93,656.309,341.5908428375469
943,1686066351.41,-36.621,-51.758,-0.977,-42.969,656.313,351.5018490131697
944,1686066351.42,-108.398,-787.598,-443.359,-52.246,656.317,334.2093248987453
945,1686066351.42,-14.16,-625.488,-222.168,-21.973,656.321,341.2883526334052
946,1686066351.42,76.66,333.008,229.98,1.953,656.325,348.50927546961606
947,1686066351.43,1.465,70.801,-45.41,-25.391,656.329,352.74593726400883
948,1686066351.43,-103.516,-291.016,-171.875,-70.801,656.329,344.4950851506376
949,1686066351.44,-45.898,-8.789,64.941,-49.316,656.333,341.02430426033453
950,1686066351.44,65.43,273.438,142.578,6.348,656.337,346.9592802507747
951,1686066351.44,44.434,45.41,31.738,12.695,656.341,333.9353215075574
952,1686066351.45,-59.082,-207.031,-56.641,-23.438,656.345,336.10635557697873
953,1686066351.45,-64.453,-280.273,-142.09,-26.855,656.349,355.1561203643248
954,1686066351.46,40.527,-248.535,-41.992,11.719,656.353,344.24399056498225
955,1686066351.46,51.758,-514.648,-172.852,28.809,656.357,335.19890748345006
956,1686066351.46,-62.988,-914.551,-387.207,-9.766,656.361,344.35337977038444
957,1686066351.47,-107.422,-251.465,0.0,-40.039,656.365,336.02819872919093
958,1686066351.47,17.578,152.344,93.75,11.719,656.368,347.0102354635696
959,1686066351.48,89.844,22.461,75.684,50.781,656.372,337.98791757706215
960,1686066351.48,-13.672,79.59,86.426,10.742,656.386,330.6016382964086
961,1686066351.48,-95.703,85.938,36.133,-28.32,656.39,349.1437444346411
962,1686066351.48,9.277,54.199,37.598,18.555,656.394,313.5523574581794
963,1686066351.49,113.77,-243.164,-74.219,68.848,656.398,352.27773643431567
964,1686066351.49,33.691,-223.145,-47.363,38.086,656.402,343.8194088302571
965,1686066351.5,-84.473,-279.785,-145.02,-9.277,656.406,334.42122186468276
966,1686066351.5,-37.598,-420.41,-203.125,2.441,656.409,336.2232474430221
967,1686066351.5,80.078,-764.648,-329.59,60.547,656.413,333.34008024082794
968,1686066351.51,48.34,-653.32,-201.172,47.852,656.417,351.7088905782136
969,1686066351.51,-73.73,-83.984,1.953,-21.484,656.421,343.9148792718204
970,1686066351.52,-74.707,-490.234,-299.316,-19.531,656.425,342.81340642373567
971,1686066351.52,47.852,-459.961,-160.156,29.785,656.429,337.8365444213637
972,1686066351.52,74.707,186.523,172.852,41.504,656.423,359.58072504093377
973,1686066351.53,-47.363,220.215,73.73,-4.395,656.427,333.4697558649327
974,1686066351.53,-78.125,-273.438,-121.094,-10.742,656.431,351.9107343874227
975,1686066351.54,44.434,-168.945,24.414,41.016,656.435,338.7167364527581
976,1686066351.54,79.102,251.465,143.066,38.574,656.439,329.96468176227523
977,1686066351.54,-27.344,-43.457,-45.898,-19.043,656.442,345.39157310259105
978,1686066351.55,-116.211,-748.535,-387.695,-55.176,656.446,332.96672428889536
979,1686066351.55,-56.152,-702.148,-288.086,-43.457,656.45,351.4319338834254
980,1686066351.55,37.109,121.582,169.434,-25.879,656.454,358.9034525755231
981,1686066351.56,-16.602,203.125,62.5,-53.223,656.458,345.50868488683585
982,1686066351.56,-129.883,-274.414,-163.574,-113.281,656.462,343.5032201042936
983,1686066351.57,-106.445,-314.453,-91.797,-112.793,656.466,348.45144423501137
984,1686066351.57,17.578,-63.965,67.871,-52.246,656.466,346.9751399548243
985,1686066351.57,-2.93,51.758,67.383,-58.105,656.47,345.38605742920873
986,1686066351.58,-137.207,-368.164,-165.039,-113.77,656.474,340.72498141654785
987,1686066351.58,-145.02,-657.227,-229.98,-115.723,656.478,323.9291292068039
988,1686066351.58,-7.324,-236.328,-46.387,-58.105,656.482,330.8930926514015
989,1686066351.59,44.434,-63.477,53.223,-28.32,656.486,348.93837620425427
990,1686066351.59,-63.965,-739.746,-370.605,-55.176,656.489,342.68345649025093
991,1686066351.59,-118.652,-819.336,-355.469,-81.543,656.493,353.58268312071516
992,1686066351.6,-13.184,55.664,137.207,-49.316,656.497,331.1780896591087
993,1686066351.6,63.965,122.559,41.992,-0.488,656.501,348.66138990833093
994,1686066351.61,-23.438,-97.168,-56.641,-36.621,656.505,336.47958831741374
995,1686066351.61,-118.652,7.812,9.766,-83.008,656.509,332.95616527859704
996,1686066351.61,-49.316,90.332,53.711,-54.688,656.521,338.01743967432276
997,1686066351.62,69.336,-3.906,24.414,4.883,656.525,347.62591911935726
998,1686066351.62,25.879,-282.227,-121.582,-0.488,656.529,328.7942418650926
999,1686066351.62,-96.191,-269.531,-110.352,-57.617,656.533,344.31301466941636
1000,1686066351.63,-76.172,7.324,27.344,-63.477,656.537,341.1369884794922
1001,1686066351.63,51.758,-408.203,-174.316,3.906,656.54,331.76873945027813
1002,1686066351.64,49.316,-961.426,-333.984,19.043,656.544,345.9179688597358
1003,1686066351.64,-78.613,-348.145,-17.578,-55.664,656.548,350.22430324038095
1004,1686066351.64,-103.027,24.902,19.531,-74.219,656.552,349.2653208742359
1005,1686066351.65,21.484,-105.957,-44.434,-18.555,656.556,338.2820653353003
1006,1686066351.65,81.543,129.883,91.797,0.0,656.56,344.39652340675826
1007,1686066351.66,-32.227,211.426,86.426,-46.387,656.564,347.1664487664522
1008,1686066351.67,-104.98,-81.055,-76.172,-69.824,656.568,334.8342717695446
1009,1686066351.68,4.395,-172.852,-34.668,-24.902,656.571,349.4596766916818
1010,1686066351.68,97.656,138.184,157.227,16.113,656.575,337.50609330847203
1011,1686066351.68,20.508,-25.879,-10.742,-18.555,656.579,325.1701907063344
1012,1686066351.69,-87.891,-424.316,-213.379,-74.707,656.583,332.43958626458414
1013,1686066351.69,-33.203,-802.246,-362.305,-29.785,656.587,338.2709184371629
1014,1686066351.69,82.52,-837.891,-296.875,27.832,656.591,355.3127772095984
1015,1686066351.7,45.898,-63.477,115.723,-11.719,656.595,357.2839661422969
1016,1686066351.7,-79.59,-66.406,-59.082,-56.641,656.599,327.88666354873993
1017,1686066351.71,-74.219,-626.953,-303.223,-46.875,656.603,321.47209394523657
1018,1686066351.71,60.059,-143.066,40.039,-2.441,656.607,331.6887148463568
1019,1686066351.71,68.848,342.285,195.801,2.441,656.61,338.8601998656442
1020,1686066351.72,-63.965,-103.027,-98.633,-46.387,656.628,324.66481888453876
1021,1686066351.72,-97.656,-333.496,-168.457,-61.035,656.632,344.4115753038171
1022,1686066351.72,27.832,72.266,98.145,-6.836,656.636,331.7403228362099
1023,1686066351.73,86.914,314.453,159.668,23.438,656.64,348.4612319664642
1024,1686066351.73,-20.996,-77.148,-43.945,-21.484,656.644,333.76839128286883
1025,1686066351.74,-100.098,-625.488,-279.785,-52.734,656.648,335.0927184149703
1026,1686066351.74,-14.16,-334.473,-68.359,-26.855,656.651,333.0763261791074
1027,1686066351.74,76.172,84.473,93.262,16.113,656.655,326.4029620446579
1028,1686066351.75,8.301,-490.723,-259.277,10.742,656.659,329.37124247110745
1029,1686066351.75,-98.145,-925.293,-393.555,-36.133,656.663,333.1825505465196
1030,1686066351.76,-58.105,-215.82,14.648,-41.992,656.667,326.7697954036637
1031,1686066351.76,69.336,158.691,98.145,12.695,656.671,341.5535490350798
1032,1686066351.76,51.758,-27.832,14.16,15.625,656.671,337.6037565708913
1033,1686066351.76,-77.148,-90.332,8.301,-44.434,656.674,330.74107211733883
1034,1686066351.77,-72.754,7.324,42.969,-46.387,656.678,333.5932207975353
1035,1686066351.77,56.152,-20.996,43.945,8.301,656.682,332.5213378015167
1036,1686066351.78,71.289,-510.254,-121.582,27.832,656.686,330.4559519890012
1037,1686066351.78,-48.828,-673.828,-211.426,-27.832,656.69,339.2736569320173
1038,1686066351.78,-96.68,-372.07,-127.441,-70.801,656.694,339.677397954407
1039,1686066351.79,7.812,-145.508,-24.414,-20.996,656.698,340.2193105578238
1040,1686066351.79,66.895,-515.137,-133.301,21.484,656.702,329.4913940301263
1041,1686066351.8,-35.156,-399.414,-33.691,-27.344,656.706,334.3033355688198
1042,1686066351.8,-117.188,-160.156,-53.223,-71.289,656.71,336.5649538259175
1043,1686066351.8,-33.203,-537.109,-277.344,-26.855,656.714,347.2874395062459
1044,1686066351.81,70.801,-522.949,-147.461,28.809,656.704,340.59670338235935
1045,1686066351.81,6.836,23.926,114.746,-6.348,656.708,338.3607241288993
1046,1686066351.82,-113.281,101.074,10.254,-70.312,656.711,335.51585416542673
1047,1686066351.82,-74.707,-257.812,-83.984,-51.758,656.715,324.21694058390165
1048,1686066351.82,55.664,-112.793,34.18,7.812,656.719,345.22953886262616
1049,1686066351.83,41.016,-57.617,26.855,-0.488,656.723,335.16600161989413
1050,1686066351.83,-91.797,-294.922,-134.766,-63.965,656.727,322.98741522691813
1051,1686066351.83,-94.238,-724.609,-355.469,-65.918,656.731,334.97805377643067
1052,1686066351.84,32.227,-630.859,-196.289,-9.277,656.735,342.9927116596559
1053,1686066351.84,58.594,232.422,211.914,1.953,656.739,331.8227530826588
1054,1686066351.85,-50.781,211.914,46.875,-45.41,656.743,322.0443668376513
1055,1686066351.85,-100.586,-448.73,-192.383,-64.453,656.747,323.535531285041
1056,1686066351.85,15.625,-434.57,-62.012,-3.906,656.751,341.663656534688
1057,1686066351.86,83.008,16.113,114.746,28.32,656.755,320.6097337437165
1058,1686066351.86,-20.996,22.461,23.438,-30.273,656.759,326.44905393485806
1059,1686066351.86,-107.422,-554.199,-252.93,-65.918,656.763,340.9606782521256
1060,1686066351.87,-31.25,-599.609,-142.09,-30.762,656.767,335.7659938438592
1061,1686066351.87,81.055,-149.902,37.109,17.09,656.771,339.44325949670474
1062,1686066351.88,31.25,-148.926,-11.23,-3.418,656.775,334.1952710489743
1063,1686066351.88,-86.914,-747.07,-376.465,-47.852,656.778,330.82152412179914
1064,1686066351.88,-70.312,-733.887,-266.602,-47.363,656.782,319.18841467705414
1065,1686066351.89,45.41,236.816,208.984,-18.066,656.786,324.5796980788879
1066,1686066351.89,42.969,89.844,-6.836,0.0,656.79,347.3242316265636
1067,1686066351.9,-87.402,-358.398,-169.434,-51.27,656.794,334.751845654973
1068,1686066351.9,-105.957,-19.043,34.18,-63.477,656.795,326.85729904550647
1069,1686066351.9,30.273,243.652,126.953,4.883,656.799,338.82379945961105
1070,1686066351.9,72.266,23.926,40.527,26.855,656.803,333.51213618457496
1071,1686066351.91,-50.293,-359.863,-148.438,-22.461,656.807,327.66970595883265
1072,1686066351.91,-115.234,-280.762,-121.582,-48.828,656.811,334.6080705386657
1073,1686066351.92,-5.371,-137.207,18.066,-7.812,656.815,330.4312037941052
1074,1686066351.92,79.102,-499.512,-155.762,24.414,656.819,328.70170060231914
1075,1686066351.92,-8.789,-965.82,-389.648,-10.254,656.823,321.527956391736
1076,1686066351.93,-120.605,-407.715,-38.086,-78.125,656.827,342.4305940973506
1077,1686066351.93,-58.594,104.492,108.398,-57.129,656.83,335.94373241477723
1078,1686066351.94,59.082,45.898,102.539,2.93,656.834,334.47134311198647
1079,1686066351.94,16.113,154.785,145.996,-7.812,656.838,338.2107622470468
1080,1686066351.96,-100.586,115.723,43.457,-59.082,656.852,330.4365998797345
1081,1686066351.96,-86.914,-57.617,-13.672,-52.734,656.856,326.6393113246639
1082,1686066351.96,45.898,-61.523,55.176,16.602,656.86,333.7480595699982
1083,1686066351.97,63.965,-142.578,60.547,24.902,656.864,334.7614303504075
1084,1686066351.97,-62.5,-261.719,-65.43,-37.598,656.868,329.3680010233966
1085,1686066351.98,-99.121,-317.383,-126.953,-63.477,656.872,318.7639103828227
1086,1686066351.98,25.879,-787.598,-343.262,8.789,656.876,339.6950904082399
1087,1686066351.98,79.102,-946.777,-324.219,45.898,656.88,322.86687647336026
1088,1686066351.99,-32.227,-155.762,80.566,-27.832,656.884,322.1738959014861
1089,1686066351.99,-2.441,344.238,152.344,-2.441,656.895,317.65962853781554
1090,1686066351.99,-109.375,-81.055,-56.152,-59.082,656.887,330.67554145589594
1091,1686066351.99,-105.469,-142.578,-90.332,-50.293,656.899,320.22850464576163
1092,1686066352.0,-11.23,-260.254,-110.352,-6.348,656.891,346.8980141806073
1093,1686066352.0,-48.828,-275.391,-111.816,-41.992,656.903,336.424808502632
1094,1686066352.0,82.52,226.074,167.48,28.32,656.895,335.8193457169218
1095,1686066352.0,69.824,185.059,129.883,7.812,656.907,346.49354641950634
1096,1686066352.0,36.133,316.895,127.441,0.0,656.911,342.7772420517243
1097,1686066352.01,-89.844,-375.488,-145.508,-51.27,656.915,340.1883233030254
1098,1686066352.01,-83.496,-729.98,-212.891,-47.363,656.919,322.3029805297809
1099,1686066352.02,45.898,-19.531,70.801,9.277,656.922,332.168853494085
1100,1686066352.02,57.129,190.43,128.906,16.113,656.926,335.35433116416726
1101,1686066352.02,-65.43,-532.227,-274.902,-27.832,656.93,338.66194340599407
1102,1686066352.03,-103.027,-963.867,-422.363,-32.715,656.934,342.9658617252694
1103,1686066352.03,13.672,-150.391,68.848,-5.371,656.938,322.5106840215273
1104,1686066352.05,76.66,234.863,102.051,22.949,656.942,341.9021079740432
1105,1686066352.05,-22.949,-92.773,-17.578,-17.09,656.946,334.6067844720681
1106,1686066352.05,-106.445,-92.285,20.02,-70.312,656.95,329.17133097737974
1107,1686066352.06,-21.973,-170.898,-21.973,-33.203,656.954,322.28567427755235
1108,1686066352.06,81.055,-127.93,40.039,13.184,656.958,326.6420181865781
1109,1686066352.07,15.137,-617.188,-288.574,3.418,656.961,327.0235299391247
1110,1686066352.07,-112.305,-815.43,-333.984,-51.27,656.965,336.2060552725091
1111,1686066352.07,-79.102,21.973,122.07,-53.711,656.969,329.70250649497007
1112,1686066352.08,53.711,112.305,50.293,13.184,656.973,330.0936246661585
1113,1686066352.08,44.922,-85.938,-10.742,10.742,656.977,323.6451940750483
1114,1686066352.08,-76.172,0.0,50.781,-53.711,656.981,329.48934140277083
1115,1686066352.09,-89.844,-172.363,-74.707,-67.383,656.985,339.5998171854879
1116,1686066352.09,28.809,-419.434,-171.875,-9.766,656.987,321.1488305366316
1117,1686066352.1,50.293,-367.188,-99.609,18.066,656.991,332.3864321734798
1118,1686066352.1,-70.312,43.457,64.453,-34.18,656.995,338.0518320766332
1119,1686066352.1,-116.699,82.031,51.758,-75.684,656.999,341.563137626369
1120,1686066352.11,0.977,-131.836,-0.977,-26.367,657.003,324.011869439725
1121,1686066352.11,71.777,-294.434,-34.18,17.578,657.006,341.14808355009615
1122,1686066352.11,-27.832,-139.16,35.645,-38.574,657.01,335.9701447266317
1123,1686066352.12,-118.652,102.051,69.336,-83.496,657.014,330.1163770378313
1124,1686066352.12,-42.969,-513.184,-208.008,-29.785,657.018,338.3172065628725
1125,1686066352.13,66.895,-663.574,-183.594,22.461,657.022,325.7305687496012
1126,1686066352.13,23.438,168.945,148.438,-18.555,657.026,335.8905212791397
1127,1686066352.13,-90.332,32.227,-2.93,-66.406,657.03,322.87477767384195
1128,1686066352.14,-69.824,-238.77,-126.465,-52.246,657.034,334.32113362963855
1129,1686066352.14,60.059,-83.984,5.371,-3.418,657.038,334.0177686552058
1130,1686066352.14,54.199,32.715,94.238,1.465,657.041,329.46139192053823
1131,1686066352.15,-81.055,-142.578,-39.062,-58.105,657.045,309.36557702903923
1132,1686066352.15,-101.074,-764.16,-385.742,-63.965,657.049,326.9521981844787
1133,1686066352.16,31.738,-830.566,-306.152,0.488,657.053,342.56591154820484
1134,1686066352.16,66.895,-83.496,121.094,9.277,657.057,334.15857609897284
1135,1686066352.16,-64.453,51.27,1.953,-54.199,657.061,349.8554183118947
1136,1686066352.17,-118.164,-644.043,-292.48,-70.801,657.065,332.66147884269463
1137,1686066352.17,-6.348,-340.332,12.695,-20.508,657.069,344.661316788074
1138,1686066352.18,72.266,341.309,187.012,4.883,657.073,335.3527014729094
1139,1686066352.18,-14.16,13.672,-41.016,-25.391,657.077,334.8959412670799
1140,1686066352.18,-118.652,-251.953,-129.883,-72.754,657.078,335.1597583975851
1141,1686066352.19,-52.734,62.012,54.688,-55.664,657.082,341.51242931052343
1142,1686066352.19,63.477,329.102,150.391,0.0,657.086,336.81475869240955
1143,1686066352.19,23.926,32.227,46.875,-13.672,657.09,320.2645078394522
1144,1686066352.2,-89.844,-438.477,-169.434,-62.5,657.094,328.39710897009905
1145,1686066352.2,-66.406,-499.023,-205.078,-52.246,657.098,320.82214029888934
1146,1686066352.2,63.965,-259.766,0.488,-6.348,657.102,338.58911693768295
1147,1686066352.21,62.5,-500.488,-203.613,3.906,657.106,338.6350506545539
1148,1686066352.21,-65.918,-969.727,-428.223,-27.344,657.11,335.09258648975907
1149,1686066352.22,-91.309,-362.305,-28.809,-58.594,657.114,328.7019874086996
1150,1686066352.22,29.785,120.117,87.402,-14.16,657.117,327.2404228741364
1151,1686066352.22,77.148,20.02,66.895,15.625,657.121,318.41272748359864
1152,1686066352.23,-31.25,-4.395,54.199,-28.809,657.122,334.1488722364072
1153,1686066352.23,-103.027,0.977,-7.324,-64.941,657.126,325.56161618449283
1154,1686066352.23,-7.812,25.879,25.391,-26.855,657.13,318.4080011411449
1155,1686066352.24,73.242,-200.684,-69.336,24.414,657.134,355.7737401794034
1156,1686066352.24,-15.137,-216.797,-59.082,-8.301,657.138,334.3718974937766
1157,1686066352.25,-111.328,-272.949,-134.766,-57.129,657.141,331.322008651437
1158,1686066352.25,-47.363,-440.43,-200.195,-26.855,657.145,341.4783099856093
1159,1686066352.25,67.871,-789.551,-341.309,37.109,657.149,342.01484593099934
1160,1686066352.26,31.25,-835.449,-317.383,7.324,657.153,344.05796939263877
1161,1686066352.26,-87.891,-83.496,50.293,-66.895,657.157,331.39030198508505
1162,1686066352.26,-83.496,-151.367,-86.914,-59.57,657.161,335.07229515037744
1163,1686066352.27,41.992,-200.195,-87.402,-7.324,657.165,333.5293336417218
1164,1686066352.27,59.082,279.785,165.039,2.93,657.169,327.3342358495816
1165,1686066352.28,-65.43,255.371,72.754,-44.922,657.173,333.36070820679004
1166,1686066352.28,-98.633,-212.891,-128.906,-59.082,657.177,335.482534757992
1167,1686066352.28,19.531,-187.5,-45.898,-11.23,657.181,331.5060347546005
1168,1686066352.29,76.172,183.594,90.82,11.23,657.185,334.80272857272604
1169,1686066352.29,-30.762,-97.168,-95.703,-24.414,657.189,320.1250870956364
1170,1686066352.3,-112.305,-753.418,-412.598,-46.387,657.192,335.670953047614
1171,1686066352.3,-22.461,-716.797,-279.785,-12.207,657.196,335.38382314479895
1172,1686066352.3,83.984,124.023,157.715,10.742,657.2,333.7439715268533
1173,1686066352.31,18.066,124.023,16.602,-13.672,657.204,335.3711110533528
1174,1686066352.31,-100.586,-557.129,-250.0,-55.176,657.208,341.90961703506156
1175,1686066352.32,-54.688,-407.227,-63.477,-42.969,657.212,327.43418281973055
1176,1686066352.32,63.965,268.555,163.574,14.648,657.225,337.6567366907539
1177,1686066352.32,36.133,168.457,27.344,8.789,657.229,307.40695937284715
1178,1686066352.32,-84.961,-240.234,-165.039,-50.293,657.233,322.7911658431315
1179,1686066352.33,-88.379,-366.211,-177.246,-45.41,657.236,338.16906199821324
1180,1686066352.33,38.086,-205.566,-41.016,12.695,657.24,327.0408115095505
1181,1686066352.34,58.594,-83.008,12.695,26.855,657.244,314.9716846778186
1182,1686066352.34,-61.035,-746.582,-436.523,-9.277,657.248,327.06515588063013
1183,1686066352.34,-109.863,-806.152,-360.352,-43.457,657.252,343.27624701418586
1184,1686066352.35,7.812,84.473,162.109,-18.066,657.256,325.7671548783059
1185,1686066352.35,84.961,136.719,30.273,20.02,657.26,315.7493890754982
1186,1686066352.36,-10.742,-122.07,-87.402,-23.438,657.264,328.03758363456967
1187,1686066352.36,-98.145,-84.473,-73.73,-63.965,657.268,329.532632533171
1188,1686066352.36,-23.926,-180.664,-140.137,-29.297,657.27,325.02464850800584
1189,1686066352.37,71.777,-376.465,-183.594,21.973,657.274,338.56553022025344
1190,1686066352.37,9.277,-452.637,-184.082,0.977,657.278,328.1557749240141
1191,1686066352.38,-104.004,-85.449,23.926,-61.523,657.282,323.19854057027044
1192,1686066352.38,-66.406,69.336,48.34,-54.688,657.286,318.04390147797
1193,1686066352.38,54.688,-478.027,-194.336,13.184,657.29,331.83894937021114
1194,1686066352.39,45.41,-703.613,-218.75,13.184,657.294,341.31070545243244
1195,1686066352.39,-79.59,-31.25,71.289,-62.012,657.297,322.81187275660636
1196,1686066352.4,-90.82,21.973,25.391,-62.988,657.301,333.4326015523502
1197,1686066352.4,36.133,-243.164,-54.688,0.977,657.305,333.70446756831376
1198,1686066352.4,66.406,-41.016,37.109,14.648,657.309,323.27963318030373
1199,1686066352.41,-52.246,169.434,70.801,-37.109,657.313,325.48599296123933
1200,1686066352.42,-111.328,-98.633,-66.406,-57.129,657.317,336.8558090165777
1201,1686066352.42,-6.836,-232.91,-119.629,-22.461,657.321,330.88308894457504
1202,1686066352.43,65.918,-94.238,-9.766,7.812,657.325,327.9546746958863
1203,1686066352.43,-18.555,-251.953,-98.633,-16.113,657.329,337.19518770016265
1204,1686066352.44,-103.516,-441.406,-218.262,-61.523,657.332,330.9118379657694
1205,1686066352.44,-27.832,-781.25,-368.164,-15.625,657.336,323.0318762232591
1206,1686066352.44,76.172,-985.352,-388.672,40.039,657.34,326.88937171468166
1207,1686066352.45,22.949,-183.105,64.941,-7.812,657.344,337.365056034111
1208,1686066352.45,-97.656,-57.129,-82.52,-62.5,657.348,334.7836403634957
1209,1686066352.46,-84.961,-401.367,-214.844,-49.805,657.352,331.28205082696746
1210,1686066352.46,43.945,104.492,118.164,-0.488,657.356,329.43313362370554
1211,1686066352.46,48.34,340.82,128.906,0.977,657.36,338.07739981877296
1212,1686066352.47,-86.426,-156.738,-160.645,-52.734,657.362,331.47865909358006
1213,1686066352.47,-114.258,-347.656,-187.5,-62.012,657.366,335.31523471032625
1214,1686066352.47,27.832,104.492,118.652,-0.488,657.37,352.96258940282615
1215,1686066352.48,85.938,298.828,140.625,28.32,657.374,320.8410569422278
1216,1686066352.48,-39.551,-192.871,-81.543,-19.531,657.378,326.4052365331854
1217,1686066352.49,-114.258,-635.742,-246.094,-61.035,657.382,320.333673753169
1218,1686066352.49,-14.16,-464.844,-190.43,-26.855,657.386,324.8050472763457
1219,1686066352.49,75.195,-161.621,7.812,14.648,657.39,326.06341952535644
1220,1686066352.5,-5.859,-476.074,-210.449,-5.859,657.393,334.75436592503036
1221,1686066352.5,-118.164,-942.383,-452.148,-56.641,657.397,331.4012305005701
1222,1686066352.5,-58.105,-239.746,6.348,-50.293,657.401,341.3635361225931
1223,1686066352.51,64.453,231.445,126.953,7.324,657.405,338.509597480979
1224,1686066352.51,24.902,2.93,-24.902,-4.883,657.408,322.01831637848426
1225,1686066352.52,-99.609,-72.754,-18.066,-63.965,657.412,327.24153979386483
1226,1686066352.52,-80.566,3.418,19.531,-59.082,657.416,342.388151694684
1227,1686066352.52,47.363,-41.992,13.672,4.883,657.419,346.4099982016829
1228,1686066352.53,54.688,-482.91,-107.91,17.09,657.423,346.08847276309837
1229,1686066352.53,-79.102,-708.984,-242.188,-51.758,657.427,321.17110403592085
1230,1686066352.53,-114.746,-346.191,-146.973,-79.102,657.431,340.8530224172896
1231,1686066352.54,11.23,-69.336,3.418,-19.043,657.435,336.7475440622507
1232,1686066352.54,59.57,-687.012,-296.387,17.578,657.439,323.1602665255522
1233,1686066352.55,-41.992,-712.891,-259.766,-37.598,657.443,344.8767583084231
1234,1686066352.55,-109.375,36.621,75.195,-82.52,657.447,335.6906864160812
1235,1686066352.55,-20.02,-135.254,-55.176,-30.273,657.451,330.29865752928777
1236,1686066352.56,70.801,-134.766,-43.945,24.902,657.455,342.9585977574571
1237,1686066352.56,0.977,197.266,105.957,-7.812,657.459,327.329768715311
1238,1686066352.57,-102.051,105.957,55.664,-61.523,657.463,316.1431510556799
1239,1686066352.57,-48.828,-200.684,-48.34,-41.992,657.467,324.87611976225884
1240,1686066352.57,64.941,-126.465,-2.93,12.207,657.47,338.3018883528789
1241,1686066352.58,34.18,-28.809,20.02,0.0,657.474,340.1957526489585
1242,1686066352.58,-85.449,-246.582,-98.145,-55.664,657.478,341.2811421151369
1243,1686066352.58,-95.215,-686.035,-340.82,-45.898,657.482,330.4625322096044
1244,1686066352.59,25.879,-696.777,-228.027,18.066,657.486,321.4909567505497
1245,1686066352.59,51.27,105.957,138.184,12.695,657.49,331.64689178117874
1246,1686066352.6,-65.918,-7.812,-88.867,-45.898,657.494,332.02538166733535
1247,1686066352.6,-116.699,-612.793,-251.953,-62.012,657.498,319.9313482021502
1248,1686066352.6,-7.812,-292.969,20.508,-19.531,657.497,334.2423957035452
1249,1686066352.6,60.547,344.727,189.941,6.836,657.501,332.34355290276113
1250,1686066352.61,-33.203,159.18,19.531,-33.691,657.505,329.1365552142146
1251,1686066352.61,-112.793,-497.559,-265.625,-73.73,657.509,342.20303317703025
1252,1686066352.62,-33.203,-416.016,-146.973,-39.551,657.513,343.1896209800423
1253,1686066352.62,73.242,-100.586,27.832,18.555,657.517,318.75344732757816
1254,1686066352.62,16.113,-188.477,-60.547,-2.93,657.521,339.0781074367769
1255,1686066352.63,-104.004,-754.883,-437.5,-46.875,657.525,327.2195931777796
1256,1686066352.63,-72.266,-759.277,-316.406,-42.48,657.529,330.59181307578865
1257,1686066352.64,56.152,208.984,196.289,-10.742,657.532,336.3016709697612
1258,1686066352.64,39.551,139.16,9.766,1.465,657.536,317.41698456684793
1259,1686066352.64,-81.055,-266.113,-167.969,-53.223,657.54,323.7371888162564
1260,1686066352.68,-80.078,-143.555,-73.73,-62.988,657.585,332.99370398476117
1261,1686066352.68,45.41,-74.219,-38.086,0.0,657.589,345.094040641732
1262,1686066352.68,69.336,-344.238,-175.293,15.625,657.593,318.46977042758243
1263,1686066352.69,-56.152,-492.676,-229.492,-36.621,657.596,336.32046654066494
1264,1686066352.69,-98.145,-180.176,-47.363,-60.059,657.6,330.04629151863674
1265,1686066352.7,23.926,-185.059,-90.82,0.977,657.604,331.95798553991955
1266,1686066352.7,94.727,-574.707,-241.211,37.109,657.608,338.2087630044267
1267,1686066352.7,-10.742,-725.586,-242.676,-15.137,657.612,317.19960266203196
1268,1686066352.71,-103.027,82.031,42.48,-77.637,657.602,332.8994351160866
1269,1686066352.71,-108.398,-127.441,29.785,-79.102,657.616,329.25265622222105
1270,1686066352.71,-88.867,-37.109,-26.367,-69.824,657.606,338.02794468065866
1271,1686066352.71,-20.996,29.297,6.836,-43.945,657.62,329.2606764139549
1272,1686066352.71,37.598,-102.539,5.371,-13.184,657.61,330.09470043014693
1273,1686066352.72,75.195,-56.152,10.254,4.883,657.624,335.0074792975101
1274,1686066352.72,32.715,-152.344,-10.254,-10.254,657.614,339.53952602541233
1275,1686066352.72,17.578,35.645,63.965,-25.879,657.628,328.0794032152606
1276,1686066352.72,-96.68,-351.074,-158.203,-63.965,657.618,328.7156799307742
1277,1686066352.73,-121.582,-468.262,-212.402,-73.73,657.622,322.2782223260831
1278,1686066352.73,12.207,-734.375,-248.535,-9.277,657.625,320.3525862441328
1279,1686066352.73,59.57,-408.203,-60.547,3.906,657.629,331.4896736386561
1280,1686066352.74,0.0,315.43,141.602,-29.785,657.645,327.35546874992264
1281,1686066352.74,-52.246,186.035,102.539,-62.988,657.633,333.7097001780191
1282,1686066352.74,-103.027,-252.441,-208.984,-55.176,657.649,332.7607168217169
1283,1686066352.74,-112.305,-133.301,-146.973,-85.938,657.637,339.0269633717057
1284,1686066352.74,-40.039,-751.953,-359.863,-20.508,657.653,326.2555133835428
1285,1686066352.74,-8.301,-708.008,-302.734,-30.273,657.641,335.3282353879678
1286,1686066352.75,79.59,-251.953,24.414,1.465,657.645,332.7165477131289
1287,1686066352.75,77.148,-11.23,89.844,12.207,657.657,330.69706862482525
1288,1686066352.75,39.062,322.266,111.816,-5.371,657.661,309.85796459969544
1289,1686066352.76,-75.684,-382.812,-159.668,-41.504,657.664,333.6709858080722
1290,1686066352.76,-57.617,-655.273,-204.59,-41.992,657.668,331.3849243474815
1291,1686066352.76,67.383,-137.695,-5.371,6.836,657.672,334.4693241290268
1292,1686066352.77,77.637,325.684,179.688,9.277,657.676,338.9116586637154
1293,1686066352.77,-41.992,-354.98,-224.609,-33.691,657.68,325.91329800999097
1294,1686066352.78,-80.566,-926.27,-427.246,-47.852,657.684,325.84660595179514
1295,1686066352.78,36.133,-73.73,69.824,-12.207,657.688,342.38356908229605
