,timestamps,TP9,AF7,AF8,TP10,Secondary Timestamp,emg_signal
0,1685506664.16,36.133,401.367,121.094,-20.508,1391.09,316.3631026016422
1,1685506664.17,-16.602,43.457,-54.199,-27.344,1391.094,317.5615293898494
2,1685506664.17,-61.035,-157.715,-48.34,-25.879,1391.098,310.87745446192224
3,1685506664.18,-19.531,-145.508,-0.977,-18.066,1391.102,310.47882502494303
4,1685506664.18,23.438,-103.027,72.754,-19.043,1391.106,313.2896783513545
5,1685506664.18,-8.789,-425.781,-127.441,-22.949,1391.109,320.358347627307
6,1685506664.19,-60.059,-1000.0,-377.93,-24.902,1391.113,309.99577306167504
7,1685506664.19,-46.387,-553.223,52.734,-28.809,1391.117,315.510452865284
8,1685506664.2,13.184,203.125,234.375,-23.438,1391.121,307.9706253335115
9,1685506664.2,7.324,155.762,110.352,-34.668,1391.125,306.7494505906572
10,1685506664.2,-48.34,99.609,86.914,-49.805,1391.129,313.7273293491731
11,1685506664.21,-45.898,204.102,101.562,-36.621,1391.133,318.61914475813455
12,1685506664.22,7.812,143.555,35.156,-19.531,1391.125,316.43480416427207
13,1685506664.23,9.277,6.348,-20.02,-34.668,1391.129,304.8398054124402
14,1685506664.23,-40.039,121.094,53.223,-57.129,1391.133,313.03796199518854
15,1685506664.24,-55.176,169.922,58.594,-43.457,1391.137,311.42843272712275
16,1685506664.24,-12.207,33.203,-12.207,-16.602,1391.141,309.81796637250204
17,1685506664.24,27.344,-271.484,-95.215,-13.672,1391.145,314.40161962598813
18,1685506664.25,-2.441,-335.938,-23.926,-24.414,1391.149,314.9009387629513
19,1685506664.25,-42.48,-134.766,58.594,-26.855,1391.153,320.9870481535631
20,1685506664.26,-20.02,-232.91,-23.926,-15.137,1391.157,318.063256026178
21,1685506664.26,24.414,-266.113,-38.574,-0.977,1391.16,321.288555656
22,1685506664.26,4.883,164.551,118.652,-7.324,1391.164,316.76881058197785
23,1685506664.27,-41.504,237.793,85.449,-23.438,1391.168,305.1759873385617
24,1685506664.27,-23.438,-293.457,-159.18,-13.672,1391.165,311.12527756210346
25,1685506664.27,26.855,-763.672,-130.371,3.418,1391.169,313.68078071175074
26,1685506664.28,25.879,-28.809,227.051,-15.137,1391.173,317.7116293042717
27,1685506664.28,-35.156,-36.133,-31.25,-35.156,1391.177,311.9859249695377
28,1685506664.28,-51.27,-642.578,-206.543,-25.391,1391.181,321.71073963902273
29,1685506664.29,-6.348,-530.273,19.531,-8.301,1391.185,314.9934971597583
30,1685506664.29,12.695,7.324,166.992,-3.418,1391.188,307.3666667894135
31,1685506664.3,-16.602,259.277,88.379,-22.949,1391.192,313.6022769996811
32,1685506664.3,-41.992,-416.504,-246.094,-24.414,1391.196,311.51549270823256
33,1685506664.3,-7.812,-1000.0,-322.754,0.488,1391.2,306.0725312309011
34,1685506664.31,20.996,-249.512,164.062,-4.883,1391.204,318.07548457649904
35,1685506664.31,-24.902,282.715,127.441,-29.297,1391.208,313.6461908225973
36,1685506664.31,-73.73,-112.305,-62.012,-35.156,1391.212,318.749317179596
37,1685506664.32,-38.574,6.348,112.793,-19.043,1391.216,315.1552656972014
38,1685506664.32,20.508,383.789,182.129,-10.742,1391.22,316.47850178452467
39,1685506664.33,5.371,274.902,41.992,-18.066,1391.223,318.59081074418987
40,1685506664.33,-41.504,-82.52,-99.609,-21.484,1391.227,315.17846480867433
41,1685506664.33,-23.438,-288.574,-142.578,-10.742,1391.231,313.34852940739455
42,1685506664.34,33.691,-130.371,62.988,0.488,1391.235,307.73408482385463
43,1685506664.34,23.926,27.832,42.969,-3.418,1391.239,307.6112960930809
44,1685506664.34,-30.273,-599.121,-259.766,-8.789,1391.243,313.96404001743224
45,1685506664.35,-52.246,-287.109,68.359,-18.555,1391.247,316.92505262465403
46,1685506664.35,-11.23,302.734,168.945,-21.484,1391.251,320.5298666713736
47,1685506664.36,14.648,-57.129,-50.293,-16.113,1391.255,308.81141243505994
48,1685506664.37,-24.414,-184.082,-49.805,-23.926,1391.27,320.015977734882
49,1685506664.38,-55.176,114.746,85.449,-31.25,1391.274,310.9858182237989
50,1685506664.38,-20.508,292.969,115.723,-19.043,1391.278,315.96895831235287
51,1685506664.39,18.066,-294.434,-161.133,-0.977,1391.282,322.82275400766605
52,1685506664.39,-3.906,-660.645,-214.355,-10.742,1391.286,314.23186826357016
53,1685506664.39,-41.992,-312.012,32.227,-22.461,1391.29,315.3260701480217
54,1685506664.4,-37.598,-203.125,88.379,-17.578,1391.294,308.3238692159404
55,1685506664.4,-10.254,-512.207,-99.609,-11.719,1391.297,322.0971891526503
56,1685506664.4,-26.367,-716.797,-133.301,-16.602,1391.301,309.8479516810926
57,1685506664.41,24.414,217.285,131.836,-30.273,1391.307,312.9081853641554
58,1685506664.41,-58.105,33.691,177.246,-27.832,1391.305,314.2014508154379
59,1685506664.41,-24.902,264.648,53.223,-44.434,1391.311,318.46375886811427
60,1685506664.41,-49.805,95.215,50.781,-26.367,1391.309,317.2909809444602
61,1685506664.42,-49.316,-147.461,-135.742,-43.457,1391.315,308.6370083817882
62,1685506664.42,5.371,-41.992,33.203,-21.484,1391.313,322.9110239495381
63,1685506664.42,-13.672,-374.512,-26.855,-41.504,1391.319,313.95035739110773
64,1685506664.42,7.324,78.125,179.199,-45.41,1391.323,320.0994912521689
65,1685506664.43,-40.527,58.105,-16.602,-55.176,1391.327,316.637334214217
66,1685506664.43,-72.266,-471.191,-165.039,-51.27,1391.331,316.38957306889455
67,1685506664.43,-40.527,-435.059,-33.691,-29.297,1391.334,320.23247251721153
68,1685506664.44,-3.906,124.512,150.879,-24.902,1391.338,308.8039483186506
69,1685506664.44,-12.695,410.156,153.809,-34.18,1391.342,312.9316001158624
70,1685506664.45,-50.293,-150.879,-174.805,-45.898,1391.346,317.5521516192994
71,1685506664.45,18.555,2.93,224.609,-11.719,1391.345,315.85234937951304
72,1685506664.45,-39.551,-720.703,-208.008,-33.203,1391.35,317.9219639712202
73,1685506664.45,16.113,396.484,136.23,-21.973,1391.349,312.9590538449581
74,1685506664.46,-48.34,-64.941,-62.5,-39.551,1391.352,313.843416135104
75,1685506664.46,-48.828,-380.371,-65.918,-30.762,1391.356,313.2622489098355
76,1685506664.46,0.977,-290.527,30.273,-21.484,1391.36,309.9649949444577
77,1685506664.47,5.859,-89.355,105.957,-30.762,1391.364,313.99315364332494
78,1685506664.47,-39.062,-461.426,-127.93,-37.109,1391.368,312.46374919459714
79,1685506664.48,-64.941,-1000.0,-361.816,-28.809,1391.372,318.5939436142336
80,1685506664.48,-15.137,-478.027,77.637,-20.996,1391.376,307.64750384118634
81,1685506664.48,30.273,292.48,236.816,-21.484,1391.38,317.6694971426293
82,1685506664.49,-5.859,6.348,7.324,-40.039,1391.384,315.5211332276061
83,1685506664.49,-44.434,-48.34,58.594,-42.48,1391.388,324.2029447767664
84,1685506664.5,-16.113,282.715,161.621,-23.438,1391.393,318.01315237513904
85,1685506664.5,28.32,227.539,45.898,-19.043,1391.396,311.71858448561306
86,1685506664.5,4.883,-6.348,-49.805,-20.02,1391.4,320.4455984856395
87,1685506664.51,-48.34,76.172,53.711,-32.227,1391.404,314.08162798419795
88,1685506664.51,-39.062,179.199,67.383,-25.879,1391.408,314.08633268189027
89,1685506664.52,12.695,-39.062,-13.184,-3.906,1391.412,316.41174270371744
90,1685506664.52,11.719,-569.824,-152.344,-8.301,1391.416,307.3954346680873
91,1685506664.52,-47.852,-502.441,-20.508,-32.715,1391.42,307.85703141228703
92,1685506664.53,-61.035,59.082,154.297,-41.504,1391.424,316.38925867172856
93,1685506664.53,-8.789,-2.441,14.16,-25.879,1391.428,321.8290861474097
94,1685506664.53,6.348,-237.305,-71.289,-26.367,1391.432,311.48422811844944
95,1685506664.54,-35.156,105.469,74.707,-42.48,1391.436,312.74369152737927
96,1685506664.54,-61.523,110.84,36.133,-40.039,1391.45,301.5957639096799
97,1685506664.54,-20.508,-98.633,11.23,-28.809,1391.453,306.02994240834175
98,1685506664.55,17.578,61.035,76.66,-16.113,1391.457,315.2246311249789
99,1685506664.55,-10.254,29.297,-26.855,-30.273,1391.461,311.7641738221153
100,1685506664.56,-53.223,-300.293,-160.645,-41.504,1391.465,313.76864008738886
101,1685506664.56,-35.645,-641.602,-238.77,-23.438,1391.469,317.40967952809444
102,1685506664.56,11.719,-941.406,-155.762,-11.23,1391.473,312.0460024201917
103,1685506664.57,0.0,-138.672,190.918,-20.508,1391.477,313.89539668239416
104,1685506664.57,-50.781,254.395,87.402,-28.32,1391.481,314.71917660228826
105,1685506664.57,-47.852,-158.691,-16.602,-24.902,1391.485,314.32547747316255
106,1685506664.58,15.625,-80.078,127.93,-14.648,1391.489,311.04136427560917
107,1685506664.58,16.602,331.055,169.922,-17.578,1391.493,302.94069721497306
108,1685506664.6,-46.387,199.219,-16.602,-36.133,1391.496,313.8183792589784
109,1685506664.6,-50.293,-329.102,-168.945,-23.926,1391.5,318.7821980763409
110,1685506664.61,-0.977,-117.188,50.781,-5.859,1391.504,312.84516593885
111,1685506664.61,19.043,382.324,191.895,-15.137,1391.507,310.38614898619824
112,1685506664.62,-32.715,119.629,-72.754,-25.879,1391.511,317.85164034816444
113,1685506664.62,-81.543,-518.555,-283.691,-33.203,1391.515,306.99068214598594
114,1685506664.62,-40.039,-381.348,-25.879,-27.832,1391.519,309.3763371649437
115,1685506664.63,14.648,257.812,191.895,-15.625,1391.523,309.07896455613496
116,1685506664.63,-5.859,17.09,-78.613,-20.996,1391.527,324.83512830407653
117,1685506664.63,-53.711,-567.871,-194.336,-28.32,1391.531,314.8537893618956
118,1685506664.64,-31.25,-88.867,148.926,-28.32,1391.535,309.18895346224934
119,1685506664.64,10.742,300.293,123.535,-20.508,1391.539,311.60660362635144
120,1685506664.64,-5.859,-152.344,-84.961,-17.09,1391.54,311.1808147669462
121,1685506664.65,-52.734,-440.43,-87.402,-35.645,1391.544,312.10655095433316
122,1685506664.65,-49.316,-35.645,107.91,-40.039,1391.548,303.86374804582005
123,1685506664.66,1.465,61.523,119.141,-20.508,1391.552,311.1571830557516
124,1685506664.66,1.465,-485.84,-150.879,-13.184,1391.556,318.7620400881352
125,1685506664.66,-53.711,-848.145,-228.027,-27.344,1391.56,310.9798411396285
126,1685506664.67,-64.941,-435.059,128.906,-39.062,1391.564,311.6302366992612
127,1685506664.67,-5.859,125.977,229.492,-23.926,1391.568,310.100156156295
128,1685506664.68,20.02,-336.426,-97.168,-24.414,1391.572,301.9592028131107
129,1685506664.68,-25.879,-692.383,-131.348,-41.016,1391.576,313.0166285368111
130,1685506664.68,-52.734,47.852,168.457,-37.109,1391.579,304.6018443178571
131,1685506664.69,-30.273,107.91,52.734,-26.367,1391.583,304.8009347630356
132,1685506664.69,-2.441,-12.207,29.785,-22.949,1391.603,310.78393007327264
133,1685506664.69,-18.066,160.156,101.074,-32.227,1391.607,319.13901552005484
134,1685506664.7,-60.547,93.262,20.996,-43.945,1391.611,311.18453865230293
135,1685506664.7,-51.758,-242.188,-87.402,-37.109,1391.615,317.63610193163566
136,1685506664.71,-0.488,-352.051,-20.02,-20.996,1391.619,321.2527557284871
137,1685506664.71,0.488,-259.766,68.848,-25.879,1391.623,316.27614834344814
138,1685506664.71,-48.34,-69.824,91.797,-41.992,1391.627,321.240571734567
139,1685506664.72,-57.129,-144.531,-21.484,-36.621,1391.631,314.67419490964096
140,1685506664.72,-13.184,-616.699,-119.141,-23.438,1391.635,317.40032951131803
141,1685506664.72,4.883,-85.938,165.039,-29.297,1391.639,317.3570371738816
142,1685506664.73,-37.598,340.332,126.953,-35.156,1391.642,311.1014628880583
143,1685506664.73,-57.617,-129.883,-74.219,-29.785,1391.646,322.21222580235633
144,1685506664.75,-21.973,-164.551,9.766,-22.949,1391.646,315.0668912842531
145,1685506664.75,9.766,301.27,161.621,-18.555,1391.649,314.7038617916936
146,1685506664.76,-23.438,299.805,59.082,-32.227,1391.653,317.2531461203287
147,1685506664.76,-61.523,-304.688,-150.391,-35.645,1391.657,304.908115171371
148,1685506664.76,-39.551,-430.176,-60.059,-18.066,1391.661,312.8097145690253
149,1685506664.77,9.766,-98.145,87.402,-14.648,1391.665,319.59783243792924
150,1685506664.77,-1.953,-117.188,65.918,-32.227,1391.669,307.4721798052179
151,1685506664.78,-61.035,-579.102,-214.355,-39.551,1391.673,308.9283492715377
152,1685506664.78,-52.246,-1000.0,-267.09,-24.902,1391.677,316.0852370083792
153,1685506664.78,-62.988,26.367,113.77,-45.898,1391.677,312.35543158995046
154,1685506664.78,8.301,-205.566,203.125,-14.648,1391.681,315.81509782362303
155,1685506664.78,-21.484,314.453,138.184,-20.508,1391.681,306.6888250861991
156,1685506664.79,4.883,296.387,155.762,-28.809,1391.685,314.9318991524281
157,1685506664.79,-6.348,206.543,19.531,-20.508,1391.685,311.6604956639647
158,1685506664.79,-53.711,-19.531,29.297,-56.152,1391.688,315.69997961779654
159,1685506664.79,-52.734,-58.594,-64.941,-41.504,1391.689,314.0728024595558
160,1685506664.8,-83.496,13.672,10.254,-47.852,1391.693,309.0730636059149
161,1685506664.8,-47.363,-81.055,40.039,-29.785,1391.697,310.332485298167
162,1685506664.8,-17.578,-244.141,-6.836,-29.785,1391.701,316.5344239438214
163,1685506664.81,-36.133,-280.273,-63.965,-35.645,1391.705,314.2762876908836
164,1685506664.81,-71.289,-290.527,23.926,-37.109,1391.709,311.9472362449581
165,1685506664.82,-41.992,0.977,152.344,-35.156,1391.713,309.27172700745194
166,1685506664.82,15.137,-4.395,-16.113,-18.066,1391.717,311.0385376150856
167,1685506664.82,-10.254,-782.227,-287.109,-21.484,1391.72,317.38533355535816
168,1685506664.82,-63.965,-450.684,70.312,-44.922,1391.72,316.9884017804744
169,1685506664.83,-48.828,143.066,181.152,-34.668,1391.724,307.11713761026044
170,1685506664.83,0.977,8.301,64.453,-21.484,1391.728,321.5998098548362
171,1685506664.84,-2.93,-139.16,60.059,-29.785,1391.731,316.3881997374726
172,1685506664.84,-52.246,-145.02,18.555,-43.457,1391.735,309.380218262902
173,1685506664.84,-67.871,-212.891,-20.996,-46.387,1391.739,302.90660774298357
174,1685506664.85,-22.949,-625.0,-168.457,-24.902,1391.743,314.8961329641348
175,1685506664.85,14.16,-937.012,-158.691,-12.207,1391.747,321.339865680615
176,1685506664.86,-25.879,-186.523,181.641,-37.109,1391.751,319.90038444035713
177,1685506664.86,-54.199,151.855,99.121,-49.316,1391.755,308.2296061150392
178,1685506664.86,-6.836,-209.473,-5.371,-30.762,1391.759,308.85493947775757
179,1685506664.87,23.926,-52.246,110.84,-20.996,1391.763,306.4941683314534
180,1685506664.87,-11.719,334.961,161.133,-18.066,1391.769,317.58018327802904
181,1685506664.88,-52.734,163.086,-24.414,-17.09,1391.773,316.688160833463
182,1685506664.88,-41.992,-287.109,-87.402,-14.16,1391.777,309.49132845840023
183,1685506664.88,-1.465,1.953,131.836,-27.832,1391.781,314.82524775690706
184,1685506664.89,-10.254,331.543,104.98,-51.758,1391.785,316.34966203815105
185,1685506664.89,-47.852,-193.359,-207.52,-50.293,1391.789,326.89903190258775
186,1685506664.89,-44.922,-760.254,-239.746,-37.598,1391.793,313.3748281864305
187,1685506664.9,0.977,-212.891,121.582,-35.156,1391.796,313.28980677708915
188,1685506664.9,12.207,421.387,196.289,-34.18,1391.8,313.5961104853388
189,1685506664.91,-39.062,39.062,-53.711,-38.086,1391.804,318.0588269569792
190,1685506664.91,-57.617,-193.848,-105.957,-32.227,1391.808,313.04744122815805
191,1685506664.91,0.977,207.52,150.879,-16.113,1391.812,304.0288889093447
192,1685506664.93,34.668,393.555,107.91,-15.137,1391.829,318.9079466400037
193,1685506664.93,-7.812,-125.488,-102.539,-29.297,1391.833,310.2947668272482
194,1685506664.94,-41.992,-344.727,-31.738,-37.109,1391.837,307.2832402757796
195,1685506664.94,-12.207,-128.418,56.641,-29.297,1391.841,318.1774684036316
196,1685506664.95,23.438,-39.062,96.68,-22.461,1391.845,314.4009545310937
197,1685506664.95,-5.859,-411.621,-140.137,-33.691,1391.849,305.84351011186016
198,1685506664.95,-62.988,-1000.0,-337.402,-37.598,1391.852,312.1936437887527
199,1685506664.96,-48.34,-355.957,132.812,-36.621,1391.856,304.79173056220577
200,1685506664.96,13.184,308.105,212.402,-29.297,1391.86,320.4212452213504
201,1685506664.96,5.371,142.09,66.406,-37.598,1391.864,312.54351885086584
202,1685506664.97,-41.992,58.105,71.777,-50.293,1391.868,320.70772209654734
203,1685506664.97,-41.992,170.41,94.238,-44.434,1391.872,311.80588989574494
204,1685506664.97,2.441,207.031,71.777,-36.621,1391.87,312.2632502548268
205,1685506664.98,6.836,83.984,3.906,-38.086,1391.874,310.6783385706822
206,1685506664.98,-32.715,143.066,58.594,-48.34,1391.878,309.16709872892596
207,1685506664.99,-47.363,94.238,-23.438,-45.41,1391.882,305.2936726430938
208,1685506664.99,-13.672,-180.664,-116.211,-35.156,1391.886,317.99621289223296
209,1685506664.99,11.719,-323.73,-40.039,-32.715,1391.89,304.26698615961226
210,1685506665.0,-32.715,-155.762,75.684,-47.363,1391.894,302.5408608590542
211,1685506665.0,-65.918,83.496,100.098,-54.199,1391.898,318.39732224703306
212,1685506665.0,-38.574,-55.176,-14.648,-39.551,1391.902,312.30724874629107
213,1685506665.01,-3.906,-814.453,-244.629,-33.691,1391.906,308.9202028206661
214,1685506665.01,-13.184,-585.938,3.418,-44.434,1391.909,312.4679611753351
215,1685506665.02,-48.34,166.016,175.781,-52.734,1391.913,311.104176683635
216,1685506665.02,-30.762,-170.898,-26.855,-30.762,1391.915,312.55453909079773
217,1685506665.02,10.254,-117.676,63.477,-9.766,1391.919,312.3400044181025
218,1685506665.03,2.441,304.199,143.555,-26.367,1391.923,311.37377435609073
219,1685506665.03,-39.062,-15.137,-67.383,-33.691,1391.927,308.14491597431606
220,1685506665.04,-53.223,-666.504,-284.18,-25.879,1391.931,320.134284173287
221,1685506665.04,-10.254,-726.074,-90.332,-17.578,1391.935,303.98680044351033
222,1685506665.04,1.953,-221.191,139.16,-14.648,1391.938,311.2136675514677
223,1685506665.05,-33.203,-69.824,87.891,-16.602,1391.942,308.5257897450625
224,1685506665.05,-52.246,-587.402,-153.32,-15.137,1391.946,310.8270906181537
225,1685506665.05,-27.832,-750.0,-97.656,-7.812,1391.95,299.3492588107272
226,1685506665.06,17.578,144.531,269.043,-14.16,1391.954,311.51746931589435
227,1685506665.06,-3.906,287.109,79.102,-30.273,1391.958,311.18755327850346
228,1685506665.06,-54.688,-219.727,-76.172,-27.832,1391.962,312.23068833082
229,1685506665.07,-41.016,-181.641,51.27,-18.066,1391.966,305.7723583154194
230,1685506665.07,0.488,321.289,175.781,-15.137,1391.97,318.4996093740983
231,1685506665.08,-5.371,148.438,-10.254,-16.113,1391.974,307.51095424384374
232,1685506665.08,-51.27,-199.707,-104.492,-29.297,1391.978,312.41934452167254
233,1685506665.08,-49.805,-241.699,9.277,-36.621,1391.982,310.31862280935366
234,1685506665.09,-0.977,-76.66,143.555,-31.25,1391.986,309.81666833558097
235,1685506665.09,8.301,69.824,64.453,-28.32,1391.99,319.76442280418297
236,1685506665.1,-43.945,-592.285,-247.559,-29.785,1391.994,318.78347680154735
237,1685506665.1,-61.035,-552.734,19.531,-20.508,1391.998,313.26993811248343
238,1685506665.1,-17.578,196.289,272.949,-11.23,1392.001,312.6408254393445
239,1685506665.11,5.859,-18.066,-20.02,-12.207,1392.005,312.04189327046345
240,1685506665.12,-37.598,-382.324,-159.668,-22.949,1392.02,310.808115086302
241,1685506665.13,-59.082,41.016,94.727,-28.809,1392.024,314.41993658561233
242,1685506665.13,-15.137,257.324,119.141,-15.137,1392.028,322.6998128781248
243,1685506665.14,11.719,-82.031,-27.832,-7.324,1392.032,305.27434561048824
244,1685506665.14,-8.301,-255.859,-49.316,-20.02,1392.036,301.63133062704077
245,1685506665.14,-47.363,-252.441,-53.711,-25.391,1392.04,313.1445329671548
246,1685506665.15,-36.621,-251.953,22.949,-14.648,1392.044,317.1774003586022
247,1685506665.15,12.695,-470.703,-67.871,4.883,1392.047,313.6602173871094
248,1685506665.16,-0.977,-918.945,-192.383,-2.441,1392.051,317.26421928585984
249,1685506665.16,17.09,-12.695,83.008,-27.344,1392.053,313.86084136574107
250,1685506665.16,-50.781,-202.637,148.926,-35.645,1392.055,315.10888393766015
251,1685506665.16,-31.738,248.047,114.746,-37.109,1392.057,314.23645227593346
252,1685506665.16,-40.039,134.766,108.398,-35.645,1392.059,307.426708571084
253,1685506665.16,-41.016,79.59,-12.695,-34.668,1392.061,315.15574100916524
254,1685506665.17,12.207,-143.066,15.137,-23.438,1392.063,310.9048572770961
255,1685506665.17,6.836,-193.848,-27.344,-22.461,1392.065,313.21963859206903
256,1685506665.17,35.645,107.422,106.445,-11.23,1392.069,319.2060607516253
257,1685506665.18,-17.578,82.031,26.855,-23.438,1392.073,320.98871507994323
258,1685506665.18,-72.754,-328.613,-167.969,-23.926,1392.076,313.76437911562635
259,1685506665.18,-45.898,-710.938,-198.73,-2.441,1392.08,323.4960386038266
260,1685506665.19,0.488,-264.648,109.863,-0.488,1392.084,317.6518271316733
261,1685506665.19,-4.883,394.531,204.102,-14.648,1392.088,307.8526787739784
262,1685506665.2,-43.457,-125.488,-136.23,-22.461,1392.092,310.15680378875396
263,1685506665.2,-44.434,-676.27,-168.945,-18.066,1392.096,315.6595050658747
264,1685506665.22,2.93,8.789,236.328,-15.625,1392.114,314.4138243186464
265,1685506665.22,8.789,401.855,125.0,-24.902,1392.118,319.6455691262894
266,1685506665.22,-38.086,-216.797,-116.211,-35.645,1392.122,317.57527642478954
267,1685506665.23,-52.246,-545.898,-46.875,-36.621,1392.126,304.59602926917063
268,1685506665.23,-8.301,-121.582,89.844,-27.344,1392.129,317.45025052527564
269,1685506665.24,16.602,71.777,93.262,-36.621,1392.133,321.41603240976195
270,1685506665.24,-33.691,-484.375,-186.523,-61.035,1392.137,312.18679715599217
271,1685506665.24,-62.5,-1000.0,-321.289,-44.922,1392.141,314.5168975462608
272,1685506665.24,-37.598,269.043,130.371,-40.039,1392.143,317.64713131778365
273,1685506665.25,-11.719,-271.484,168.457,-27.344,1392.145,317.19923872328843
274,1685506665.25,5.371,301.27,47.852,-30.762,1392.147,312.76131783475313
275,1685506665.25,20.508,376.465,199.707,-31.25,1392.149,328.17676300241675
276,1685506665.25,-20.508,68.848,-49.805,-46.387,1392.15,319.653126248634
277,1685506665.25,-24.902,133.301,41.992,-44.434,1392.153,325.10121791241903
278,1685506665.26,-61.035,87.402,30.762,-53.223,1392.154,323.3869220555877
279,1685506665.26,-67.383,48.34,88.867,-54.688,1392.157,311.9349934039367
280,1685506665.26,-35.645,78.613,5.371,-31.738,1392.158,323.4852828547158
281,1685506665.26,26.367,-120.605,-38.574,7.324,1392.162,312.8430008286801
282,1685506665.27,14.648,-395.02,-87.402,-2.93,1392.166,321.8737801117789
283,1685506665.27,-72.266,-285.645,23.926,-47.363,1392.17,320.24808276390195
284,1685506665.28,-90.332,100.098,147.949,-44.922,1392.174,323.01666300064284
285,1685506665.28,-28.32,-31.738,-31.738,-20.02,1392.178,333.0323553874665
286,1685506665.28,-9.277,-764.648,-259.277,-1.953,1392.182,321.2998685516393
287,1685506665.29,-48.828,-428.711,36.621,-20.508,1392.186,316.83542733943756
288,1685506665.3,-73.242,189.453,143.066,-33.691,1392.2,320.7803050662446
289,1685506665.31,-28.32,-104.98,-6.348,-3.418,1392.204,305.85031973348157
290,1685506665.31,19.531,17.09,98.633,19.531,1392.208,320.7668466183497
291,1685506665.32,-16.602,74.707,2.93,2.93,1392.212,315.1374797105222
292,1685506665.32,-52.246,-190.918,-157.227,-4.883,1392.216,313.99848223813
293,1685506665.32,-25.879,-574.219,-202.148,15.137,1392.22,317.9130283020448
294,1685506665.33,15.625,-938.477,-180.664,25.391,1392.224,321.77833752526305
295,1685506665.33,8.789,-324.707,142.09,15.625,1392.228,320.3231248662904
296,1685506665.34,-40.527,-76.172,105.957,2.441,1392.232,319.86082248811715
297,1685506665.34,-37.109,-396.484,-12.207,6.348,1392.235,314.9497937163173
298,1685506665.34,34.668,-62.5,125.0,36.133,1392.239,322.7018601769295
299,1685506665.35,45.898,419.922,171.875,38.574,1392.243,308.3870096469565
300,1685506665.35,-4.395,175.781,-42.969,28.32,1392.245,325.0351177818347
301,1685506665.35,-14.648,-86.426,-68.359,29.297,1392.249,325.56769279093766
302,1685506665.36,31.738,165.527,125.977,32.227,1392.253,324.1075192931665
303,1685506665.36,62.012,440.918,138.184,41.992,1392.257,319.53783893311663
304,1685506665.36,21.484,95.703,-114.258,49.805,1392.261,323.5378575275084
305,1685506665.37,-20.996,-539.551,-303.711,44.434,1392.265,319.8209051983782
306,1685506665.37,10.742,-335.938,3.906,37.598,1392.269,309.26928729327557
307,1685506665.38,52.246,313.477,232.91,42.969,1392.273,316.4173826012649
308,1685506665.38,32.227,107.91,-86.426,27.832,1392.277,316.43090895902435
309,1685506665.38,-14.16,-693.848,-356.934,7.812,1392.281,314.9924128927334
310,1685506665.39,-0.488,-520.508,45.898,11.23,1392.284,308.2292352255803
311,1685506665.39,42.969,262.695,262.695,26.367,1392.288,319.91151491853765
312,1685506665.39,16.602,-32.715,-80.566,17.578,1392.29,317.9617836828108
313,1685506665.4,-31.738,-487.305,-196.289,0.977,1392.294,322.6678896307394
314,1685506665.4,-20.996,-16.602,93.262,10.254,1392.298,324.83884708408436
315,1685506665.41,26.367,90.82,117.188,27.832,1392.302,325.70773628340356
316,1685506665.41,25.391,-446.289,-139.16,17.09,1392.306,317.1775817700439
317,1685506665.41,-31.25,-811.523,-207.031,-2.441,1392.31,324.7374914572369
318,1685506665.42,-46.387,-366.699,57.129,-2.93,1392.314,325.9222866701023
319,1685506665.42,11.23,149.414,143.555,8.789,1392.318,322.1287359030953
320,1685506665.42,29.785,-339.355,-118.652,13.184,1392.321,328.02888385896756
321,1685506665.43,-20.02,-651.855,-162.598,-14.648,1392.325,324.27930135217605
322,1685506665.43,-57.617,84.961,142.09,-27.832,1392.329,327.5270407573336
323,1685506665.44,-28.809,122.07,33.203,-0.488,1392.333,335.1893272650989
324,1685506665.46,15.625,-166.992,-26.855,2.441,1392.353,337.923421818675
325,1685506665.46,-2.93,-38.086,67.383,-10.254,1392.357,330.5171284656713
326,1685506665.46,-45.898,180.176,76.66,-16.602,1392.361,343.62352840906624
327,1685506665.47,-38.574,-4.883,-28.809,-7.812,1392.365,331.35946044503714
328,1685506665.47,7.324,-307.129,-82.52,4.395,1392.369,336.81240528252135
329,1685506665.48,8.789,-324.219,-5.371,-6.348,1392.373,330.09188123000564
330,1685506665.48,-46.387,-123.047,65.918,-22.461,1392.376,342.96213186439246
331,1685506665.48,-47.852,-163.574,-36.133,-16.113,1392.38,335.3110407631969
332,1685506665.48,-9.277,-211.426,-23.438,-12.695,1392.409,338.95711106218187
333,1685506665.49,3.906,-614.746,-158.203,8.301,1392.384,339.5606178202082
334,1685506665.49,23.926,116.699,118.652,-11.23,1392.413,335.3579316642739
335,1685506665.49,19.043,-177.246,111.328,3.906,1392.388,340.467312499304
336,1685506665.49,-7.812,164.551,39.551,-29.785,1392.417,351.85255127916446
337,1685506665.5,-15.625,264.648,114.258,-14.16,1392.392,349.19371195648915
338,1685506665.5,-48.828,-319.336,-130.371,-29.785,1392.421,337.29486093202945
339,1685506665.5,-44.434,-148.926,-86.914,-20.996,1392.396,344.07186455865184
340,1685506665.5,-30.762,-556.152,-33.691,-17.09,1392.425,340.2781681757369
341,1685506665.5,7.324,-229.004,91.309,-18.066,1392.429,338.80160291527244
342,1685506665.51,-7.324,-201.172,18.066,-21.973,1392.433,341.41298538245894
343,1685506665.51,-54.688,-520.02,-89.355,-28.809,1392.437,343.3194128525641
344,1685506665.52,-55.664,-311.035,50.781,-23.438,1392.441,348.4186523022603
345,1685506665.52,-12.207,250.977,177.734,-18.555,1392.444,349.39349805941896
346,1685506665.52,-11.23,335.449,64.453,-28.32,1392.448,346.6286902913169
347,1685506665.53,-55.664,-427.734,-308.594,-31.738,1392.452,347.05056089356304
348,1685506665.53,-71.777,-1000.0,-317.871,-44.434,1392.439,354.0966371516285
349,1685506665.53,-26.367,-111.328,202.637,-44.434,1392.442,344.81534505425157
350,1685506665.54,-10.742,269.531,136.23,-43.945,1392.446,343.1165212924106
351,1685506665.54,-53.223,-35.156,-41.992,-62.988,1392.45,348.537064283307
352,1685506665.55,-64.941,-39.062,-0.977,-52.734,1392.454,356.23287446759275
353,1685506665.55,-23.926,-161.133,-24.902,-32.227,1392.458,356.41703883570864
354,1685506665.55,8.301,-221.191,-34.18,-37.109,1392.462,351.8344669505253
355,1685506665.56,-21.484,-651.367,-181.152,-40.039,1392.466,356.71640904639764
356,1685506665.56,-60.059,-426.27,33.203,-40.039,1392.47,373.09886166563666
357,1685506665.56,-34.668,204.59,176.758,-41.016,1392.474,362.4749935325004
358,1685506665.57,14.16,-49.316,-47.852,-37.109,1392.478,368.163911024533
359,1685506665.57,-3.906,-214.844,-95.703,-48.34,1392.481,360.15271175791
360,1685506665.57,-47.852,75.684,59.082,-55.176,1392.47,365.91393532334524
361,1685506665.58,-46.387,232.422,100.098,-43.945,1392.474,352.2940417326249
362,1685506665.58,-3.906,-261.23,-143.066,-23.438,1392.478,369.83110852743044
363,1685506665.59,3.906,-748.535,-257.324,-23.926,1392.482,379.39168335812894
364,1685506665.59,-42.48,-266.602,18.555,-45.898,1392.486,367.0778887579961
365,1685506665.59,-55.664,-149.414,36.133,-39.062,1392.49,369.83440356998756
366,1685506665.6,-6.836,-594.238,-137.207,-23.438,1392.494,367.0870092212816
367,1685506665.6,3.418,-941.406,-211.426,-23.438,1392.498,359.96685116666083
368,1685506665.6,-33.691,-459.473,82.52,-42.969,1392.502,365.6958405330834
369,1685506665.61,-57.129,-8.301,90.82,-51.758,1392.505,370.9077840370281
370,1685506665.61,-24.414,-383.789,-35.645,-31.738,1392.509,373.3745330742893
371,1685506665.62,2.93,-243.164,108.398,-33.691,1392.513,373.5813633412387
372,1685506665.62,-26.855,356.934,148.926,-59.57,1392.517,367.73469203017095
373,1685506665.62,-56.641,82.031,-40.039,-64.453,1392.521,365.40732000529584
374,1685506665.63,-40.527,-125.488,-42.969,-45.898,1392.525,357.22730070596583
375,1685506665.63,9.277,206.055,116.211,-34.668,1392.529,370.8093653070063
376,1685506665.64,7.324,383.789,75.684,-41.992,1392.533,367.1630581106721
377,1685506665.64,-47.852,-159.668,-233.887,-49.805,1392.537,357.89750605034243
378,1685506665.64,-52.246,-781.738,-282.227,-47.852,1392.541,371.7076999045844
379,1685506665.65,4.395,-239.746,134.766,-33.691,1392.545,370.9970474627289
380,1685506665.65,21.973,432.129,205.078,-34.668,1392.548,369.2557548569574
381,1685506665.66,-36.133,79.102,-77.148,-51.27,1392.552,357.7141489650081
382,1685506665.66,-68.359,-250.488,-163.574,-54.199,1392.556,360.5281008713337
383,1685506665.66,-29.785,-110.352,73.73,-42.969,1392.56,366.9001354009999
384,1685506665.68,2.93,290.039,197.754,-35.156,1392.579,366.05975450749685
385,1685506665.68,-34.668,-118.652,-158.691,-38.086,1392.583,369.271060534254
386,1685506665.69,-73.242,-643.066,-261.23,-41.016,1392.587,367.42559479228845
387,1685506665.69,-32.715,-241.211,69.336,-18.555,1392.591,362.12485626662743
388,1685506665.7,8.789,-64.941,105.469,-3.906,1392.595,362.08202574490326
389,1685506665.7,-17.09,-487.793,-177.246,-19.531,1392.599,363.6569036059719
390,1685506665.7,-74.707,-1000.0,-305.176,-33.203,1392.603,358.3315144240617
391,1685506665.71,-59.082,-401.855,114.746,-33.691,1392.607,365.2839236578804
392,1685506665.71,4.883,205.566,172.363,-20.996,1392.61,364.9513597201562
393,1685506665.71,12.695,163.086,50.293,-25.391,1392.619,355.25542104022986
394,1685506665.72,0.977,91.309,64.941,-25.391,1392.614,359.7413276752149
395,1685506665.72,20.508,-140.625,-43.945,-25.879,1392.623,345.57463366128786
396,1685506665.72,-46.387,39.551,83.008,-42.48,1392.618,357.4810030059417
397,1685506665.72,-22.461,-126.953,-14.16,-45.898,1392.627,354.731200898503
398,1685506665.72,-40.039,185.059,82.031,-39.062,1392.622,358.8210648025096
399,1685506665.72,-39.062,83.984,49.805,-51.27,1392.631,355.4792655763057
400,1685506665.73,-10.742,43.945,19.043,-31.25,1392.635,353.8603847382242
401,1685506665.73,11.719,-319.824,-110.84,-24.902,1392.639,368.7862936302867
402,1685506665.74,-26.855,-315.43,-24.414,-35.156,1392.643,358.1614933274029
403,1685506665.74,-64.453,70.312,100.586,-43.457,1392.647,358.81552804427145
404,1685506665.74,-39.551,-19.043,-21.484,-25.879,1392.651,352.1624012255342
405,1685506665.75,-1.465,-802.734,-299.805,-4.883,1392.654,350.9944568130179
406,1685506665.75,-10.254,-647.949,-43.457,-19.043,1392.658,356.1919761428979
407,1685506665.76,-58.105,84.473,171.875,-28.809,1392.662,352.7743626359073
408,1685506665.77,-45.898,-153.809,-17.578,-8.301,1392.665,351.633523022733
409,1685506665.77,4.395,-84.473,54.199,-12.695,1392.669,357.38510722471625
410,1685506665.78,2.441,254.395,102.539,-31.738,1392.673,348.34371254465566
411,1685506665.78,-44.434,-64.941,-99.121,-46.387,1392.677,347.60938242294037
412,1685506665.78,-61.523,-667.969,-326.172,-44.434,1392.681,350.44984382869967
413,1685506665.79,-18.066,-928.223,-236.816,-25.391,1392.685,342.3861329119469
414,1685506665.79,2.441,-332.52,168.457,-29.785,1392.689,339.5051929055213
415,1685506665.8,-31.738,163.086,164.551,-38.574,1392.693,340.46686768729154
416,1685506665.8,-60.547,-455.566,-156.738,-35.156,1392.697,349.49684365399685
417,1685506665.8,-24.414,-485.352,-6.348,-26.367,1392.701,339.6013767870025
418,1685506665.81,14.16,298.34,216.309,-30.273,1392.705,338.0467609546461
419,1685506665.81,-19.043,186.523,-17.09,-48.828,1392.708,335.9769686201311
420,1685506665.82,-66.895,-190.918,-103.027,-51.27,1392.712,334.72976269541596
421,1685506665.82,-43.945,-72.266,47.363,-36.621,1392.716,335.0401526952408
422,1685506665.82,9.277,283.203,144.531,-17.578,1392.72,344.8610312269976
423,1685506665.83,-5.859,171.875,-12.695,-21.484,1392.724,335.265344528907
424,1685506665.83,-51.758,-172.363,-153.32,-46.875,1392.727,335.98878430562354
425,1685506665.84,-46.875,-296.387,-112.793,-39.551,1392.731,328.2346340676421
426,1685506665.84,4.395,-284.668,-25.879,-11.719,1392.735,337.75113996970964
427,1685506665.84,0.0,-215.82,-1.953,-19.043,1392.739,334.82105206814236
428,1685506665.85,-61.035,-778.32,-293.457,-41.992,1392.743,333.7373059938128
429,1685506665.85,-72.266,-573.73,-7.812,-42.48,1392.747,330.42513668390876
430,1685506665.85,-14.648,238.281,231.934,-28.809,1392.751,327.67755883396103
431,1685506665.86,10.254,72.754,8.789,-32.227,1392.755,329.93183032235635
432,1685506665.86,-41.992,-67.871,-5.859,-46.387,1392.755,333.5645393080758
433,1685506665.86,-59.082,86.426,65.918,-36.133,1392.759,320.9267358912655
434,1685506665.87,-11.23,205.078,103.027,-19.531,1392.763,324.9934620647
435,1685506665.87,16.602,-106.934,-27.832,-19.043,1392.767,334.86988135806473
436,1685506665.88,-13.672,-335.449,-85.449,-27.344,1392.771,333.05983835237987
437,1685506665.88,-58.105,-317.871,-125.0,-32.227,1392.775,324.2689177160917
438,1685506665.88,-35.645,-280.273,-24.414,-23.438,1392.778,325.43434974918864
439,1685506665.89,16.602,-506.348,-99.609,-10.254,1392.782,321.3862333762069
440,1685506665.89,4.883,-819.336,-126.953,-17.578,1392.786,327.4210179286953
441,1685506665.89,-47.852,-319.824,174.316,-43.945,1392.79,328.17411255340113
442,1685506665.9,-48.34,-52.734,74.219,-40.039,1392.794,315.0131719456065
443,1685506665.9,2.93,-205.078,-19.043,-15.625,1392.798,315.35438733186373
444,1685506665.9,2.441,-61.523,57.129,-21.484,1392.803,328.5115462559891
445,1685506665.91,-39.551,111.816,85.449,-35.156,1392.807,324.19268571422083
446,1685506665.91,-45.898,-80.566,-20.996,-18.555,1392.81,306.76202045454954
447,1685506665.92,-0.488,-76.172,11.23,-1.953,1392.814,325.45327269374246
448,1685506665.92,24.902,204.102,89.844,-18.555,1392.818,307.4941678779566
449,1685506665.92,-22.949,11.23,-114.258,-48.34,1392.822,314.842517854375
450,1685506665.93,-68.848,-445.801,-270.996,-55.176,1392.826,312.08763252430475
451,1685506665.93,-39.551,-753.418,-217.773,-38.574,1392.83,302.46700844539106
452,1685506665.94,4.395,-221.191,115.723,-30.273,1392.834,308.0165575672381
453,1685506665.94,-24.902,314.941,170.898,-35.156,1392.838,292.3686076242888
454,1685506665.94,-74.219,-102.051,-95.215,-42.48,1392.842,300.4473090457632
455,1685506665.95,-55.176,-337.402,-140.625,-34.18,1392.846,300.3899315814617
456,1685506665.95,0.977,-125.0,76.172,-23.438,1392.848,301.4622328789281
457,1685506665.95,5.371,180.664,143.066,-31.25,1392.852,296.27346279177294
458,1685506665.96,-43.945,-251.953,-144.531,-41.016,1392.856,301.02310891685704
459,1685506665.96,-50.781,-792.48,-218.262,-38.086,1392.86,294.3132105302095
460,1685506665.97,5.371,-325.684,65.918,-22.949,1392.864,299.9273176879231
461,1685506665.97,6.836,-29.785,112.305,-31.738,1392.868,287.31866213365447
462,1685506665.97,-55.176,-524.902,-193.359,-47.852,1392.872,296.78228136794473
463,1685506665.98,-69.824,-991.211,-279.785,-43.457,1392.876,292.69219255621226
464,1685506665.98,-20.02,-271.484,154.785,-36.133,1392.88,296.28899525640406
465,1685506665.98,10.742,215.332,132.324,-33.691,1392.884,275.17629548676075
466,1685506665.99,-21.484,-37.598,7.812,-37.109,1392.887,286.95537570191624
467,1685506665.99,-59.57,-61.035,48.828,-39.062,1392.891,281.1243408874471
468,1685506666.0,-37.109,125.0,95.703,-30.273,1392.904,282.515247700912
469,1685506666.0,5.371,130.859,37.598,-21.484,1392.908,274.7486987388982
470,1685506666.01,-8.789,-211.426,-136.23,-28.809,1392.912,259.4750823467736
471,1685506666.01,-62.012,-174.805,-4.395,-43.945,1392.915,278.58332497168533
472,1685506666.02,-62.5,63.965,53.711,-39.062,1392.919,274.0924829543152
473,1685506666.02,2.441,-88.867,-44.922,-21.973,1392.923,270.3245974918645
474,1685506666.02,-7.812,-752.93,-276.367,-19.531,1392.927,272.59437997228605
475,1685506666.03,-72.266,-672.363,-92.773,-35.645,1392.931,269.49007789789755
476,1685506666.03,-70.801,90.82,206.055,-41.504,1392.935,266.23776836534864
477,1685506666.04,-16.113,3.906,24.902,-31.25,1392.939,264.3379097824554
478,1685506666.04,-68.359,86.426,37.109,-31.738,1392.95,256.45287461797363
479,1685506666.04,-0.977,-44.922,12.207,-28.809,1392.943,266.1249721399724
480,1685506666.04,-25.879,-95.215,4.883,-28.32,1392.954,263.5508913418017
481,1685506666.04,-45.41,133.301,73.242,-31.738,1392.947,264.1945134219889
482,1685506666.05,15.625,18.555,57.129,-24.902,1392.958,268.3708288821099
483,1685506666.05,-14.16,7.812,-42.48,-31.25,1392.962,261.5514657940314
484,1685506666.06,-54.199,-343.262,-195.312,-41.992,1392.966,257.85415850722165
485,1685506666.06,-28.32,-628.418,-236.816,-29.297,1392.97,261.0894963780297
486,1685506666.06,15.625,-1000.0,-292.48,-9.766,1392.973,258.1837526572324
487,1685506666.07,2.93,-373.535,93.262,-28.32,1392.977,253.95920785844703
488,1685506666.07,-44.922,166.992,161.133,-41.992,1392.981,247.88474769455559
489,1685506666.07,-59.082,-202.148,-28.809,-25.391,1392.985,246.1634343079609
490,1685506666.08,-12.207,21.973,105.957,-9.766,1392.989,255.0603279627613
491,1685506666.08,3.418,399.902,156.738,-12.207,1392.993,251.13715365998556
492,1685506666.11,-44.922,106.934,-70.801,-19.043,1393.011,247.85995161399822
493,1685506666.12,-61.523,-257.324,-127.441,-26.855,1393.015,252.75530185978866
494,1685506666.12,-1.953,-18.066,84.473,-20.02,1393.019,248.4981441704673
495,1685506666.13,24.414,326.172,143.555,-19.531,1393.022,250.90047966473273
496,1685506666.13,-24.902,76.66,-91.309,-39.062,1393.026,252.26723203441904
497,1685506666.13,-53.223,-518.555,-285.156,-39.551,1393.03,254.38105443339822
498,1685506666.14,-11.23,-379.883,-43.457,-20.996,1393.034,254.77967139850725
499,1685506666.14,13.672,-44.434,95.703,-18.555,1393.038,249.3357983856712
500,1685506666.14,3.418,-22.461,-18.555,-31.25,1393.04,247.0656903238718
501,1685506666.14,-24.414,-278.809,-101.562,-40.039,1393.042,252.21242652326953
502,1685506666.15,-48.828,-189.453,-11.23,-40.527,1393.044,248.7883524561009
503,1685506666.15,-59.082,-803.223,-271.973,-41.504,1393.046,251.28558078021393
504,1685506666.15,-45.41,30.273,74.219,-35.645,1393.048,249.9362993363442
505,1685506666.15,-42.969,-382.324,103.027,-35.645,1393.05,254.9039546123115
506,1685506666.16,11.23,-5.859,73.242,-20.996,1393.052,242.5219586254231
507,1685506666.16,9.277,253.906,205.078,-29.297,1393.054,243.5245152890089
508,1685506666.16,6.348,-524.902,-165.039,-18.555,1393.056,255.14170337280532
509,1685506666.16,-48.828,-843.75,-241.211,-33.691,1393.06,264.0043165306269
510,1685506666.17,-62.988,-439.453,93.262,-39.062,1393.064,252.8139276650648
511,1685506666.17,-25.391,-56.152,147.461,-26.367,1393.067,245.67621699872487
512,1685506666.18,0.977,-142.578,13.672,-26.367,1393.071,254.23845044198325
513,1685506666.18,-31.738,-187.5,2.441,-46.875,1393.075,254.72860922434518
514,1685506666.18,-66.406,-226.562,-44.922,-51.758,1393.079,257.5202474355793
515,1685506666.19,-23.438,-62.5,38.086,-36.133,1393.083,250.4804111138821
516,1685506666.19,13.184,-464.355,-176.758,-24.902,1393.099,249.7663256166511
517,1685506666.19,-31.25,-756.348,-183.105,-33.203,1393.103,256.7477870784762
518,1685506666.2,-70.801,-6.836,180.176,-42.48,1393.107,267.88633871298686
519,1685506666.2,-52.734,5.371,55.664,-35.645,1393.111,260.31453582049085
520,1685506666.2,-3.418,-83.008,-7.324,-20.02,1393.115,263.2393707730741
521,1685506666.21,-5.371,-157.715,-14.16,-21.973,1393.118,261.77270893125655
522,1685506666.21,-45.41,-166.504,34.668,-40.527,1393.122,260.77932670332075
523,1685506666.22,-49.316,-184.57,-21.484,-42.48,1393.126,261.5274287242425
524,1685506666.22,-6.348,-648.438,-136.23,-26.855,1393.13,265.30868613680104
525,1685506666.22,16.113,-203.125,111.328,-22.949,1393.134,268.1006644079099
526,1685506666.23,-28.32,214.355,112.305,-39.062,1393.138,275.3106223841675
527,1685506666.23,-61.035,-167.969,-86.914,-40.039,1393.142,263.3444001205132
528,1685506666.24,-15.137,-333.984,-64.941,-26.855,1393.133,272.6471577759547
529,1685506666.24,16.602,-66.895,94.238,-27.344,1393.137,263.6247028352592
530,1685506666.24,-22.949,228.516,108.398,-37.598,1393.141,268.5175176983956
531,1685506666.25,-55.176,-380.371,-252.93,-45.41,1393.145,267.8684843576722
532,1685506666.25,-27.344,-872.559,-225.586,-27.832,1393.149,277.9193066049613
533,1685506666.26,15.625,-329.102,166.016,-13.672,1393.153,271.5335236666508
534,1685506666.26,0.977,-133.789,59.082,-22.949,1393.157,283.5104782435039
535,1685506666.26,-50.293,-568.359,-134.277,-33.691,1393.161,279.6704179037931
536,1685506666.27,-52.734,-445.801,33.691,-37.598,1393.165,280.7708986106456
537,1685506666.27,-12.207,221.68,202.148,-16.602,1393.169,276.1923174410675
538,1685506666.27,-5.859,255.859,20.02,-16.602,1393.172,285.15711140161034
539,1685506666.28,-56.152,-271.973,-167.969,-36.621,1393.176,284.78480340752884
540,1685506666.32,-77.637,-288.574,-4.883,-35.645,1393.222,293.6944180565405
541,1685506666.33,-20.508,234.375,150.879,-29.297,1393.226,287.1916218858715
542,1685506666.33,-55.176,-7.812,0.977,-58.594,1393.229,289.58133729929307
543,1685506666.33,0.977,147.949,10.742,-29.785,1393.23,293.2699336514631
544,1685506666.33,-47.363,-79.102,-24.902,-44.434,1393.233,296.4415470635168
545,1685506666.34,-38.574,-292.48,-165.527,-37.109,1393.234,296.68860401868915
546,1685506666.34,4.395,-125.488,-12.207,-32.227,1393.237,299.31209300610567
547,1685506666.34,-54.199,-265.625,-69.824,-28.32,1393.238,304.0874946418134
548,1685506666.34,4.395,-274.414,-1.465,-34.18,1393.241,294.78446178024154
549,1685506666.34,-47.363,-254.883,16.602,-46.875,1393.245,304.98232790585223
550,1685506666.34,-18.555,-176.758,20.508,-16.113,1393.242,297.9198344584023
551,1685506666.35,19.531,-220.703,-17.578,-11.719,1393.246,295.2375951090605
552,1685506666.35,-51.758,-328.125,-123.535,-41.992,1393.249,305.6153705206124
553,1685506666.35,-22.949,-730.469,-272.949,-28.32,1393.249,300.0759540347342
554,1685506666.35,-11.719,-688.965,-172.363,-23.926,1393.253,299.6749463830416
555,1685506666.36,-70.312,-688.965,-76.66,-50.781,1393.253,305.1875235019896
556,1685506666.36,15.137,-502.441,19.531,-20.02,1393.256,298.4645086675833
557,1685506666.36,-31.25,124.023,245.605,-44.922,1393.257,304.3245278582383
558,1685506666.36,-16.113,104.004,154.785,-31.25,1393.26,307.7605696855321
559,1685506666.36,-54.688,26.367,-26.367,-34.668,1393.264,302.7433707993831
560,1685506666.36,22.461,54.199,40.039,-22.461,1393.261,306.42998569799175
561,1685506666.37,-0.977,-74.707,-20.508,-40.039,1393.265,306.0882042543359
562,1685506666.37,-17.578,-514.16,-161.621,-15.625,1393.268,295.93764644286654
563,1685506666.37,-4.883,202.637,142.09,-24.902,1393.268,313.60955560784225
564,1685506666.37,25.391,-322.266,52.246,-9.766,1393.272,301.34456210889243
565,1685506666.37,-44.922,-47.363,-49.316,-23.926,1393.272,303.2931619842688
566,1685506666.38,-32.715,-419.922,-112.793,-11.23,1393.276,299.45001318438943
567,1685506666.38,15.625,-82.031,118.652,2.93,1393.28,300.7383590958244
568,1685506666.39,13.184,189.453,78.125,-10.254,1393.284,304.02476891493944
569,1685506666.39,-43.457,-254.395,-187.5,-26.367,1393.288,303.40264895797696
570,1685506666.39,-41.992,-819.824,-346.68,-7.812,1393.291,300.69898233747284
571,1685506666.4,7.812,-1000.0,-266.602,4.883,1393.295,293.0429672498159
572,1685506666.4,9.277,-462.891,106.934,-14.16,1393.299,302.5686999310013
573,1685506666.4,-42.48,-327.637,26.855,-33.691,1393.303,306.8915197640076
574,1685506666.41,-54.199,-555.664,-99.121,-41.504,1393.307,302.83071763543813
575,1685506666.41,-14.16,48.34,192.383,-35.645,1393.311,313.7404262111304
576,1685506666.43,11.23,379.883,147.461,-33.691,1393.325,311.54126308735607
577,1685506666.43,-27.344,6.836,-66.895,-51.27,1393.329,312.14689341139996
578,1685506666.44,-62.012,-124.023,-29.297,-53.711,1393.333,300.80656906071647
579,1685506666.44,-21.973,-91.309,18.066,-35.645,1393.337,298.8310078597794
580,1685506666.44,23.438,50.293,63.477,-25.879,1393.341,308.4425631575127
581,1685506666.45,-9.766,-333.984,-178.711,-30.273,1393.345,309.96619371034217
582,1685506666.45,-59.082,-1000.0,-335.449,-37.109,1393.349,300.4540640189572
583,1685506666.46,-37.109,-244.141,152.832,-44.434,1393.353,296.9713388637072
584,1685506666.46,15.625,328.125,172.852,-28.32,1393.356,312.77439285659403
585,1685506666.46,13.672,40.039,29.785,-28.32,1393.384,305.69412231256
586,1685506666.46,8.301,120.605,37.109,-33.203,1393.36,297.6062249738144
587,1685506666.46,11.23,-104.98,-32.227,-29.785,1393.388,302.59169315802467
588,1685506666.47,-55.176,-11.23,15.625,-59.57,1393.364,304.38566325248644
589,1685506666.47,-41.992,-143.066,-30.273,-41.504,1393.392,309.5835418549302
590,1685506666.47,-48.828,-109.863,-76.66,-46.387,1393.368,309.51091310412016
591,1685506666.47,-56.641,96.68,73.73,-46.875,1393.396,318.4358708123457
592,1685506666.48,-20.996,45.41,46.875,-32.227,1393.4,306.98273697814926
593,1685506666.48,-2.441,-212.891,-139.648,-29.297,1393.404,309.53882648511524
594,1685506666.48,-34.668,-230.957,-83.984,-42.969,1393.408,304.64682702009986
595,1685506666.49,-62.012,65.918,107.91,-44.922,1393.411,304.1497901088881
596,1685506666.49,-41.992,-127.441,-66.895,-26.855,1393.415,308.98212118261904
597,1685506666.5,-6.348,-636.23,-188.965,-15.625,1393.419,306.51127216869645
598,1685506666.5,-10.254,-206.055,66.895,-30.762,1393.423,309.96627321100885
599,1685506666.5,-49.316,145.02,88.379,-42.969,1393.427,305.3041378408152
600,1685506666.52,-43.945,-201.66,-75.684,-40.039,1393.418,321.98390409956056
601,1685506666.52,6.348,-316.406,-33.203,-34.18,1393.422,318.7740380607142
602,1685506666.53,4.883,-45.898,75.684,-35.645,1393.426,322.9782678927924
603,1685506666.53,-48.34,-84.961,-44.434,-41.992,1393.43,314.57693608597947
604,1685506666.54,-61.523,-623.047,-319.336,-38.086,1393.434,309.75729203999555
605,1685506666.54,-12.207,-1000.0,-310.547,-26.367,1393.438,323.53919281944275
606,1685506666.54,9.277,-415.527,101.562,-24.414,1393.441,316.6266922942367
607,1685506666.55,-33.691,-6.836,117.676,-48.34,1393.445,331.6710447545139
608,1685506666.55,-69.336,-545.41,-95.215,-65.918,1393.449,327.5215186353986
609,1685506666.56,-36.621,-390.137,77.148,-50.781,1393.453,318.127086761683
610,1685506666.56,3.418,289.551,203.125,-37.109,1393.457,310.67109124521045
611,1685506666.56,-18.555,206.055,-15.625,-38.086,1393.461,322.9743148001601
612,1685506666.56,-57.617,-326.172,-165.527,-39.062,1393.463,332.08259096972967
613,1685506666.57,-30.762,-216.309,25.391,-35.156,1393.467,327.75831477124643
614,1685506666.57,17.578,303.711,145.996,-30.273,1393.471,327.9381213802626
615,1685506666.58,-1.465,121.582,-59.082,-38.086,1393.475,342.9867979159576
616,1685506666.58,-55.664,-399.414,-261.23,-43.945,1393.479,324.6769044190414
617,1685506666.58,-56.641,-523.926,-150.391,-36.133,1393.483,329.94746971502593
618,1685506666.59,-7.324,-108.398,117.676,-16.602,1393.486,343.5882269238048
619,1685506666.59,-3.906,85.938,37.598,-22.461,1393.49,341.92751083137557
620,1685506666.6,-45.898,-743.652,-361.816,-40.039,1393.494,339.06948453732014
621,1685506666.6,-65.918,-646.973,-40.039,-42.969,1393.498,340.13699187125866
622,1685506666.6,-23.926,209.473,251.465,-26.855,1393.502,348.54810011143104
623,1685506666.61,3.906,66.895,14.648,-13.672,1393.506,338.880756654588
624,1685506666.61,-32.227,-124.512,-52.246,-29.297,1393.505,344.3416546792328
625,1685506666.61,-51.27,9.766,51.758,-26.367,1393.509,346.89789695804296
626,1685506666.62,-18.066,145.508,79.59,-11.719,1393.513,345.7890440428388
627,1685506666.62,10.254,-146.484,-42.48,-8.789,1393.517,342.74404579192174
628,1685506666.62,-15.625,-401.367,-66.406,-20.996,1393.521,344.1338302083714
629,1685506666.63,-59.57,-380.859,-142.578,-33.691,1393.525,349.48948956217885
630,1685506666.63,-36.133,-387.695,-46.875,-20.996,1393.529,349.7026670975707
631,1685506666.64,14.16,-567.383,-97.656,-9.277,1393.532,353.7319335726276
632,1685506666.64,-16.113,-1000.0,-286.621,-22.461,1393.536,354.75455479716794
633,1685506666.64,-60.547,-377.441,112.793,-35.156,1393.54,349.85033201571866
634,1685506666.65,-46.387,59.57,119.141,-34.18,1393.544,344.0049047518148
635,1685506666.65,3.906,-67.871,40.039,-26.855,1393.548,335.74136272207204
636,1685506666.67,13.184,179.199,132.324,-29.785,1393.568,352.7126646609902
637,1685506666.67,-34.18,253.418,68.359,-41.016,1393.571,370.5506337780222
638,1685506666.68,-55.176,-50.781,-95.215,-38.086,1393.575,344.99617743749496
639,1685506666.68,-11.23,-192.871,-81.543,-22.949,1393.579,352.3309593727887
640,1685506666.69,15.137,84.473,95.215,-22.949,1393.583,351.6987589805351
641,1685506666.69,-31.25,-41.504,-62.5,-43.945,1393.587,346.0229754634296
642,1685506666.69,-63.477,-386.23,-251.953,-53.223,1393.591,342.144428587221
643,1685506666.7,-30.273,-711.426,-206.055,-32.715,1393.595,353.3715084139989
644,1685506666.7,7.324,-262.207,86.426,-27.344,1393.599,352.9495583940242
645,1685506666.7,-24.414,144.043,121.094,-39.551,1393.603,348.31417740777397
646,1685506666.71,-77.148,-415.039,-146.973,-51.758,1393.607,346.49761671401234
647,1685506666.71,-48.34,-541.504,-148.926,-34.668,1393.61,348.9072926389531
648,1685506666.71,19.531,112.793,170.41,-12.695,1393.61,348.6928840120649
649,1685506666.72,11.719,312.012,105.957,-22.461,1393.614,344.1985260867763
650,1685506666.72,-52.246,-105.469,-88.379,-35.156,1393.618,339.89428726076704
651,1685506666.73,-63.477,-392.09,-81.543,-31.25,1393.622,350.85141324803607
652,1685506666.73,-6.348,-196.777,35.645,-14.648,1393.626,349.3233781257084
653,1685506666.73,11.719,-70.312,18.066,-6.836,1393.63,342.5481178967041
654,1685506666.74,-38.574,-578.613,-191.406,-24.902,1393.634,356.96811099471665
655,1685506666.74,-69.824,-553.711,-40.527,-41.504,1393.637,344.3290881155189
656,1685506666.74,-27.344,144.043,195.801,-22.949,1393.641,342.9402558492284
657,1685506666.75,-42.48,-411.621,111.328,-21.973,1393.646,346.08597211446164
658,1685506666.75,6.836,342.285,109.375,-21.484,1393.645,352.80425873531163
659,1685506666.75,12.207,-100.098,131.348,-17.578,1393.65,342.86830668357777
660,1685506666.75,-34.668,-383.301,-283.691,-42.48,1393.649,343.7934621768336
661,1685506666.76,-7.812,-303.223,15.625,-39.062,1393.654,340.1042901066927
662,1685506666.76,-77.637,-971.191,-334.473,-40.039,1393.653,352.2103620819098
663,1685506666.76,-63.477,-171.387,70.312,-49.316,1393.658,343.3815471284626
664,1685506666.76,-54.199,83.496,84.473,-41.504,1393.662,345.8883337310872
665,1685506666.77,-0.488,-141.602,2.93,-23.438,1393.666,337.4911276821077
666,1685506666.77,-1.953,-283.203,-6.836,-18.555,1393.67,344.072166454224
667,1685506666.77,-46.387,-30.762,53.223,-36.133,1393.673,348.361695506251
668,1685506666.78,-50.293,140.137,67.871,-31.25,1393.677,344.5267989372614
669,1685506666.78,-7.812,-91.797,-70.312,-9.277,1393.681,337.2142547357107
670,1685506666.79,12.695,-580.078,-176.758,-12.695,1393.685,341.4436165193237
671,1685506666.79,-46.875,114.746,71.777,-39.551,1393.703,336.4454357720812
672,1685506666.79,-27.344,-222.168,54.199,-32.227,1393.689,345.6597166855978
673,1685506666.79,-7.324,-139.16,-31.25,-27.344,1393.707,342.20964255981727
674,1685506666.8,11.719,-180.176,34.18,-23.438,1393.711,328.44249288509593
675,1685506666.8,-17.09,-190.43,-41.992,-33.203,1393.715,335.1474798289601
676,1685506666.8,-49.316,-356.445,-145.996,-37.109,1393.719,331.67441434595503
677,1685506666.81,-34.18,-604.98,-159.668,-19.043,1393.723,336.29420650135154
678,1685506666.81,3.418,-1000.0,-357.422,2.93,1393.727,329.2251396294621
679,1685506666.82,-5.371,-598.145,-1.465,-9.766,1393.731,333.6081136393641
680,1685506666.82,-52.246,83.496,167.969,-34.668,1393.735,334.14151870103024
681,1685506666.82,-45.898,-96.191,78.125,-31.25,1393.739,335.04795115405966
682,1685506666.83,2.93,93.262,167.969,-17.578,1393.742,323.5563492577578
683,1685506666.83,17.578,335.449,115.723,-23.438,1393.746,330.8752470423066
684,1685506666.85,-24.414,106.934,-32.227,-40.527,1393.746,319.67134070634364
685,1685506666.85,-54.199,-167.969,-105.469,-41.504,1393.75,328.3006542456747
686,1685506666.86,-2.93,6.836,69.824,-35.645,1393.754,334.75583759846853
687,1685506666.86,22.949,314.453,123.535,-33.203,1393.758,329.83895725105987
688,1685506666.86,-33.691,42.969,-127.441,-32.715,1393.761,320.53702647257256
689,1685506666.87,-68.359,-501.953,-291.016,-40.527,1393.765,329.6168521260011
690,1685506666.87,-34.18,-475.586,-29.785,-41.016,1393.769,321.5593516042595
691,1685506666.88,3.906,12.207,154.785,-38.086,1393.773,321.2201821928579
692,1685506666.88,-19.043,-10.254,-53.223,-42.969,1393.777,320.57558509630553
693,1685506666.88,-60.547,-777.344,-326.172,-39.062,1393.781,321.3169697388453
694,1685506666.89,-33.691,-420.898,55.664,-19.043,1393.785,304.1066067147435
695,1685506666.89,17.578,319.824,231.934,-9.277,1393.789,313.5599023311045
696,1685506666.89,1.465,-51.758,-68.848,-18.555,1393.79,319.23488380921424
697,1685506666.9,-54.199,-351.074,-119.629,-32.715,1393.794,323.8887530941169
698,1685506666.9,-52.246,-21.973,87.891,-40.527,1393.798,315.64823335707086
699,1685506666.91,0.0,-22.949,35.156,-33.691,1393.802,314.59284761679163
700,1685506666.91,-0.977,-531.738,-235.352,-31.738,1393.806,319.42405064072426
701,1685506666.91,-58.105,-891.602,-258.301,-38.574,1393.81,311.6375420049283
702,1685506666.92,-54.199,-442.383,52.734,-37.109,1393.814,310.88771383388377
703,1685506666.92,7.324,6.836,133.789,-21.484,1393.818,316.94891742291117
704,1685506666.92,20.02,-496.582,-173.34,-12.695,1393.822,309.0427716498737
705,1685506666.93,-27.344,-838.379,-155.273,-29.785,1393.826,315.1273837413407
706,1685506666.93,-60.547,-108.887,217.285,-45.898,1393.83,306.0818486667127
707,1685506666.94,-31.25,93.75,84.473,-30.762,1393.833,314.79316771443024
708,1685506666.94,20.508,-50.781,34.668,-23.926,1393.837,304.6167338147869
709,1685506666.94,-5.371,73.73,80.078,-41.992,1393.84,303.46974408917845
710,1685506666.95,-67.871,112.793,38.086,-52.734,1393.844,307.7814293804375
711,1685506666.95,-43.457,-17.578,0.977,-39.551,1393.848,305.6087768024885
712,1685506666.96,2.93,-175.293,-62.5,-24.414,1393.852,294.10099645454784
713,1685506666.96,-16.113,-284.668,-71.777,-35.156,1393.856,288.8180357260353
714,1685506666.96,-49.805,-248.535,5.371,-48.34,1393.86,301.4945097505742
715,1685506666.97,-42.48,-325.195,-26.367,-38.574,1393.864,299.41584059306587
716,1685506666.97,-1.465,-689.453,-128.906,-22.949,1393.868,296.5940553708099
717,1685506666.98,12.207,-252.93,88.867,-26.855,1393.872,293.3103089337662
718,1685506666.98,-33.203,36.621,102.051,-40.527,1393.876,295.204665389315
719,1685506666.98,-57.617,-508.301,-155.762,-39.551,1393.88,289.8897133369997
720,1685506667.0,-20.02,-537.598,-119.629,-25.391,1393.895,287.1704409688161
721,1685506667.0,12.207,137.207,171.875,-20.996,1393.899,290.0121430382003
722,1685506667.01,-20.02,265.625,91.797,-32.227,1393.903,284.4958181714828
723,1685506667.01,-55.176,-318.848,-104.004,-30.762,1393.907,293.697788899859
724,1685506667.02,-20.02,-445.801,-29.785,-19.043,1393.911,286.75077416710536
725,1685506667.02,21.973,-158.203,74.707,-18.066,1393.915,283.5976764205302
726,1685506667.02,4.395,-164.062,49.805,-33.203,1393.918,291.4379464668917
727,1685506667.03,-42.969,-607.91,-213.867,-41.016,1393.922,284.6467480712732
728,1685506667.03,-35.645,-843.262,-132.324,-36.621,1393.926,284.9495068174393
729,1685506667.03,-58.594,-207.52,-68.848,-38.574,1393.933,278.4464956289312
730,1685506667.03,19.043,12.695,287.109,-20.508,1393.93,280.26216384453636
731,1685506667.04,-6.836,-39.062,100.586,-13.672,1393.937,278.90626916882974
732,1685506667.04,5.371,289.062,104.492,-19.043,1393.934,294.37208463459626
733,1685506667.04,15.137,127.93,65.918,-14.648,1393.941,277.9535245005985
734,1685506667.04,-57.129,-65.918,-88.379,-45.898,1393.938,282.08358340170736
735,1685506667.04,-31.25,-259.766,-143.555,-23.926,1393.945,276.0548532518632
736,1685506667.05,-57.129,-293.457,-46.875,-25.879,1393.949,284.1085107246868
737,1685506667.05,-17.578,-145.996,25.879,-19.043,1393.953,275.73963725251775
738,1685506667.06,12.695,-242.676,-13.672,-13.184,1393.957,275.25420147510306
739,1685506667.06,-16.113,-296.875,-51.758,-28.809,1393.961,269.1583273136018
740,1685506667.06,-57.617,-81.543,77.148,-46.387,1393.965,269.1439281243597
741,1685506667.07,-26.855,134.766,115.234,-26.855,1393.968,273.1580929001983
742,1685506667.07,13.184,-106.445,-83.008,-11.719,1393.972,270.2075689455078
743,1685506667.07,-58.105,-241.211,69.336,-32.715,1393.97,277.9331011263752
744,1685506667.08,-6.348,-615.234,-218.75,-19.043,1393.976,274.2222625737393
745,1685506667.08,-52.734,167.48,143.555,-37.598,1393.974,260.84818926476277
746,1685506667.08,3.418,-83.008,1.465,-24.902,1393.978,272.02466221294515
747,1685506667.09,0.488,-301.758,-51.27,-32.715,1393.982,263.0013764266328
748,1685506667.09,-46.387,-336.426,-72.266,-41.992,1393.986,274.6946899955031
749,1685506667.09,-52.246,-358.887,-71.289,-38.574,1393.99,272.787006283747
750,1685506667.1,-4.883,-574.707,-127.441,-27.344,1393.994,267.0590435999162
751,1685506667.1,15.625,-1000.0,-350.098,-19.043,1393.998,264.92279740432826
752,1685506667.1,-29.297,-676.27,-38.086,-37.598,1394.002,269.5117064870304
753,1685506667.11,-66.895,0.488,183.105,-47.363,1394.005,257.3033783949825
754,1685506667.11,-28.32,-81.543,82.031,-31.25,1394.009,264.54129085171195
755,1685506667.12,21.484,119.629,148.438,-22.949,1394.013,253.5078689957313
756,1685506667.12,-8.789,318.848,97.168,-41.016,1394.017,260.4698088731999
757,1685506667.12,-51.27,62.988,-34.18,-42.969,1394.021,261.2844692101189
758,1685506667.13,-30.762,-141.113,-47.852,-25.391,1394.025,257.07093026872684
759,1685506667.13,19.531,134.766,109.863,-14.648,1394.029,252.4213948768776
760,1685506667.14,-1.465,263.672,50.781,-27.832,1394.033,250.20710301177863
761,1685506667.14,-60.059,-177.734,-195.312,-45.898,1394.037,252.63600609343885
762,1685506667.14,-57.129,-782.227,-273.926,-28.809,1394.041,261.8476765145043
763,1685506667.15,-9.277,-442.383,55.664,-10.254,1394.045,258.34377794568974
764,1685506667.15,-3.906,325.684,232.422,-19.043,1394.049,248.2364248171512
765,1685506667.16,-49.805,-55.664,-142.09,-34.668,1394.053,246.75010036040874
766,1685506667.16,-66.895,-555.176,-228.027,-33.691,1394.056,243.97891726949757
767,1685506667.16,-12.695,21.484,151.855,-15.625,1394.06,244.48420637169434
768,1685506667.18,17.578,328.613,92.773,-14.648,1394.075,241.76210619687052
769,1685506667.18,-24.414,-122.07,-101.562,-37.598,1394.079,244.7276440233783
770,1685506667.19,-52.734,-272.949,-60.059,-38.086,1394.083,242.99672899262768
771,1685506667.19,-20.508,-224.609,-32.715,-28.32,1394.087,242.9832598653002
772,1685506667.2,22.461,-182.617,49.805,-28.809,1394.091,234.2041399281327
773,1685506667.2,-7.812,-502.441,-159.18,-32.227,1394.095,240.04316622076888
774,1685506667.2,-66.406,-996.582,-326.66,-28.32,1394.099,235.9335997267328
775,1685506667.21,-42.48,-332.031,127.93,-21.973,1394.103,241.42111406927788
776,1685506667.21,12.695,130.859,152.344,-20.02,1394.106,243.39479569455503
777,1685506667.21,-0.977,-309.57,-40.527,-28.809,1394.11,238.53687383467235
778,1685506667.22,-49.316,-272.461,34.668,-36.133,1394.114,253.51657688264785
779,1685506667.22,-59.082,162.109,130.371,-34.668,1394.118,257.5035959892101
780,1685506667.22,-0.488,128.418,35.645,-17.09,1394.12,245.3696300267031
781,1685506667.23,13.672,1.953,18.555,-16.602,1394.124,252.25408331377687
782,1685506667.23,-35.645,67.383,43.945,-33.691,1394.128,254.5418264049222
783,1685506667.24,-59.57,117.188,31.25,-30.273,1394.132,255.90994721710445
784,1685506667.24,-26.367,60.547,14.648,-18.066,1394.136,257.9383221034211
785,1685506667.24,9.277,-353.027,-152.832,-15.625,1394.14,250.12672764211587
786,1685506667.25,-25.879,-329.59,-39.551,-39.551,1394.144,252.46366903799816
787,1685506667.25,-65.918,94.238,140.625,-51.27,1394.148,262.0969144427032
788,1685506667.26,-38.086,-79.102,-38.574,-30.762,1394.151,254.88098089201404
789,1685506667.26,2.93,-624.512,-196.777,-13.672,1394.155,248.77060253281746
790,1685506667.26,-13.184,-280.762,44.434,-32.715,1394.159,263.1767915518745
791,1685506667.27,-60.547,-80.078,56.641,-53.711,1394.163,259.9183615006252
792,1685506667.27,-51.758,-617.676,-169.922,-32.227,1394.165,263.7492855777558
793,1685506667.27,9.277,-481.934,-64.941,-16.113,1394.169,255.9239294816054
794,1685506667.28,17.578,149.902,150.391,-33.203,1394.173,253.46289649423008
795,1685506667.28,-34.668,-80.078,-53.711,-47.363,1394.177,257.0503415549801
796,1685506667.28,-55.176,-686.035,-274.414,-34.668,1394.181,261.4901321229003
797,1685506667.29,-11.719,-788.086,-156.25,-29.297,1394.185,258.93746335114724
798,1685506667.29,15.137,-157.715,130.371,-42.48,1394.189,272.96601893358843
799,1685506667.3,-26.367,214.355,99.121,-53.223,1394.193,271.8609011474813
800,1685506667.3,-65.43,-504.395,-254.883,-46.875,1394.196,258.213789815801
801,1685506667.3,-25.879,-695.312,-150.879,-30.273,1394.2,273.4681782469632
802,1685506667.31,12.207,208.496,219.238,-35.156,1394.204,269.2244895320911
803,1685506667.31,-20.02,202.637,16.602,-40.039,1394.208,270.4174545368901
804,1685506667.33,-59.57,-143.555,-70.801,-41.992,1394.227,279.1832300766129
805,1685506667.33,-44.922,-199.707,2.93,-37.598,1394.231,275.5827483613232
806,1685506667.34,1.953,-13.672,84.473,-17.578,1394.235,277.56744058431195
807,1685506667.34,-7.812,108.887,17.09,-30.762,1394.239,276.2007442484681
808,1685506667.34,-64.453,-354.492,-190.918,-59.57,1394.243,277.35403925529715
809,1685506667.35,-55.664,-543.457,-79.102,-41.504,1394.247,276.80284660212595
810,1685506667.35,6.836,-194.336,131.348,-13.184,1394.251,285.18241134912205
811,1685506667.36,23.926,-24.902,43.945,-18.066,1394.255,277.1425753577864
812,1685506667.36,-22.461,-195.801,-18.555,-42.969,1394.27,276.66566261481523
813,1685506667.36,-32.715,-625.0,-212.402,-39.062,1394.259,282.5240736496051
814,1685506667.36,-44.922,15.625,60.547,-36.621,1394.273,275.20663024127526
815,1685506667.36,-61.035,-408.203,45.898,-48.34,1394.262,282.96083127263887
816,1685506667.37,-5.859,165.527,83.496,-18.066,1394.277,280.08427320897647
817,1685506667.37,-9.766,229.98,159.668,-24.414,1394.266,276.1134325819058
818,1685506667.37,19.043,-294.434,-103.027,-13.672,1394.281,277.50717435288016
819,1685506667.37,22.461,-26.367,-27.344,-17.578,1394.27,285.3804719553524
820,1685506667.38,-2.93,-692.383,-202.637,-15.625,1394.285,280.3189435824348
821,1685506667.38,-38.574,-462.402,-29.785,-24.902,1394.289,282.4148845300766
822,1685506667.38,-30.273,-306.152,65.918,-20.508,1394.293,290.2629088943205
823,1685506667.39,9.766,-597.656,-98.633,0.0,1394.297,293.8234354795059
824,1685506667.39,0.488,-723.145,-126.953,-4.883,1394.301,284.1012551603123
825,1685506667.39,-50.293,-61.035,152.344,-28.809,1394.305,293.81342384408157
826,1685506667.4,-43.945,182.617,113.77,-28.809,1394.309,289.14203580562753
827,1685506667.4,12.695,-478.027,-169.434,-10.742,1394.313,287.37050328222404
828,1685506667.41,4.883,-705.078,-123.047,-15.625,1394.307,295.90826455054156
829,1685506667.41,-37.598,44.434,150.879,-33.691,1394.31,304.16542693000224
830,1685506667.42,-44.922,-24.902,8.301,-28.32,1394.314,306.9946523349159
831,1685506667.42,-0.488,-172.852,31.738,-13.672,1394.318,297.45756654779683
832,1685506667.42,19.531,105.957,115.723,-15.137,1394.322,291.28080268644214
833,1685506667.43,-29.785,-31.25,-39.062,-30.762,1394.326,305.22101577471983
834,1685506667.43,-63.477,-510.254,-242.676,-36.133,1394.33,293.73082751326666
835,1685506667.44,-31.25,-512.207,-82.52,-36.133,1394.334,301.6202985895252
836,1685506667.44,13.184,39.551,158.203,-26.367,1394.338,297.5334529014108
837,1685506667.44,-9.766,338.867,137.207,-30.273,1394.342,300.3152796112606
838,1685506667.45,-66.895,-125.0,-172.852,-47.852,1394.346,305.79968275046804
839,1685506667.45,-16.113,-294.434,114.746,-29.297,1394.345,301.6400773513912
840,1685506667.45,-65.918,-860.352,-372.07,-39.551,1394.349,305.6243084325739
841,1685506667.45,-20.996,317.383,185.547,-38.574,1394.349,306.1447564082403
842,1685506667.46,-68.359,-146.973,-61.035,-44.922,1394.353,299.93789776716886
843,1685506667.46,-65.43,-532.227,-92.285,-36.133,1394.357,308.26761743559393
844,1685506667.46,-16.602,-272.949,42.969,-29.785,1394.361,305.63595152909863
845,1685506667.47,1.465,-75.195,104.492,-39.062,1394.365,296.0048383560361
846,1685506667.47,-42.969,-559.57,-202.637,-46.387,1394.368,312.146366415576
847,1685506667.48,-67.383,-991.699,-292.969,-36.621,1394.372,312.975743005794
848,1685506667.48,-15.625,-274.902,169.434,-28.32,1394.376,309.75999038711035
849,1685506667.48,13.184,130.371,168.945,-31.738,1394.38,316.8560520249407
850,1685506667.49,-21.484,-388.184,-52.734,-43.945,1394.384,319.5351410829079
851,1685506667.49,-53.711,-301.27,43.457,-41.504,1394.388,311.24878970424146
852,1685506667.5,-31.738,202.637,167.48,-28.809,1394.392,307.70904397690356
853,1685506667.5,13.672,162.598,62.988,-19.043,1394.396,310.48673180256606
854,1685506667.5,-4.395,-73.242,-16.113,-30.273,1394.4,322.1728691351957
855,1685506667.51,-48.34,-8.301,33.203,-35.156,1394.404,322.57954073512377
856,1685506667.51,-19.531,90.82,63.965,-7.812,1394.408,323.18593277783924
857,1685506667.52,27.832,-101.562,-14.16,-11.23,1394.412,320.43124836183597
858,1685506667.52,-9.277,-643.555,-175.781,-39.062,1394.416,318.81912947824577
859,1685506667.52,-75.684,-419.434,32.715,-52.246,1394.42,320.5415254199876
860,1685506667.53,-66.406,106.934,144.043,-53.223,1394.424,328.83038295383045
861,1685506667.53,-7.812,-82.52,4.395,-37.598,1394.427,324.6391774968052
862,1685506667.53,10.254,-86.914,9.277,-33.203,1394.431,322.86766766252356
863,1685506667.54,-33.691,60.547,46.875,-48.34,1394.435,323.48152041157886
864,1685506667.56,-68.359,-207.031,-100.586,-51.27,1394.453,331.11401123008073
865,1685506667.56,-24.902,-597.656,-230.469,-32.227,1394.457,331.6285866533627
866,1685506667.56,11.719,-453.125,-81.543,-23.438,1394.461,323.616433955841
867,1685506667.57,-22.461,-138.672,38.574,-36.621,1394.465,321.95254987907276
868,1685506667.57,-53.711,-351.074,-32.227,-45.898,1394.469,320.6682079174346
869,1685506667.58,-28.32,-663.086,-164.062,-33.203,1394.473,324.49309430514455
870,1685506667.58,10.254,-965.82,-229.492,-21.484,1394.476,316.068873986073
871,1685506667.58,-7.324,-244.629,172.852,-43.945,1394.48,322.2234329720153
872,1685506667.59,-62.5,134.277,113.281,-65.918,1394.484,326.77551287015
873,1685506667.59,-55.664,-194.336,11.23,-60.059,1394.488,323.61797589236994
874,1685506667.59,9.766,23.438,148.438,-39.062,1394.492,308.70366635006764
875,1685506667.6,10.254,317.383,132.324,-43.457,1394.496,325.8810607716531
876,1685506667.6,-47.852,92.773,-48.34,-56.152,1394.496,325.7025825628834
877,1685506667.6,-57.129,-212.402,-138.672,-40.527,1394.5,326.5750887937006
878,1685506667.61,-3.906,-176.27,16.602,-29.297,1394.504,323.92157600009597
879,1685506667.61,30.273,15.137,98.145,-33.691,1394.507,317.46565208029205
880,1685506667.62,-10.254,18.555,-8.301,-35.156,1394.511,324.8564435137949
881,1685506667.62,-62.988,-539.062,-160.645,-35.156,1394.515,318.7389651297751
882,1685506667.62,-46.387,-433.105,21.973,-30.273,1394.519,315.016649991499
883,1685506667.63,7.812,192.383,176.27,-21.973,1394.523,326.37097844286563
884,1685506667.63,-26.855,70.312,-49.316,-46.387,1394.527,319.9112490605436
885,1685506667.63,-84.473,-812.988,-403.809,-44.434,1394.531,318.26772367778136
886,1685506667.64,-32.227,-598.145,-6.836,-12.207,1394.535,322.4456912842884
887,1685506667.64,15.625,248.535,241.211,-23.926,1394.539,319.3459480736701
888,1685506667.64,-18.555,9.766,-4.395,-50.781,1394.541,325.77084161798336
889,1685506667.65,-84.961,-224.609,-29.297,-74.219,1394.545,318.2848897554542
890,1685506667.65,-102.539,39.062,75.684,-84.473,1394.549,321.62739719858274
891,1685506667.66,-60.059,41.504,59.57,-80.566,1394.553,318.70182038980005
892,1685506667.66,-60.059,-518.066,-187.5,-104.492,1394.557,322.37351692033286
893,1685506667.66,-117.676,-845.703,-236.328,-136.719,1394.56,312.02166935616754
894,1685506667.67,-138.672,-523.926,16.602,-139.648,1394.564,313.95320925571275
895,1685506667.67,-106.445,-232.91,115.723,-134.277,1394.568,307.6948689307582
896,1685506667.68,-92.285,-523.926,-114.746,-129.883,1394.572,311.3858638605531
897,1685506667.68,-138.672,-848.633,-151.367,-137.695,1394.576,321.09903464853227
898,1685506667.68,-172.852,-174.316,200.684,-157.715,1394.58,315.23298313509497
899,1685506667.69,-143.555,105.469,111.816,-158.203,1394.584,329.578197383578
900,1685506667.7,-102.539,-0.488,72.266,-157.227,1394.602,315.8507602724178
901,1685506667.71,-123.047,77.148,88.867,-159.18,1394.606,317.2187130771349
902,1685506667.71,-178.223,77.637,47.363,-169.434,1394.609,317.97376370324804
903,1685506667.72,-173.828,-44.922,16.113,-175.293,1394.613,306.638493193277
904,1685506667.72,-112.305,-97.168,-11.719,-149.414,1394.617,313.6497355026
905,1685506667.72,-97.656,-187.988,4.883,-136.719,1394.621,320.9055261378177
906,1685506667.73,-135.742,-205.078,18.066,-158.691,1394.625,324.1557994066339
907,1685506667.73,-133.789,-149.414,8.301,-156.738,1394.629,302.8299762077454
908,1685506667.73,-66.406,-196.777,0.0,-104.492,1394.63,316.16142606431634
909,1685506667.74,-90.332,-819.336,-286.621,-125.0,1394.633,313.4315216147957
910,1685506667.74,-46.875,273.438,160.645,-115.234,1394.634,326.86795389701575
911,1685506667.74,-65.43,-677.734,-86.914,-115.723,1394.637,318.5737507002793
912,1685506667.74,-78.125,344.238,80.078,-119.141,1394.638,316.876784358949
913,1685506667.74,-82.52,155.762,222.656,-113.77,1394.641,324.3101057949308
914,1685506667.75,-93.262,-259.277,-137.207,-102.539,1394.642,314.76302474720893
915,1685506667.75,-97.656,-125.0,-24.902,-101.562,1394.645,312.8070654803113
916,1685506667.75,-58.105,-487.305,-92.285,-76.172,1394.646,316.85294130598083
917,1685506667.75,-25.879,-98.633,92.773,-54.199,1394.65,317.8816969187946
918,1685506667.76,-49.805,-159.18,19.043,-61.035,1394.654,313.84231334023673
919,1685506667.76,-87.891,-511.719,-99.121,-66.895,1394.657,318.02621418681423
920,1685506667.76,-48.34,-339.355,57.129,-37.598,1394.661,321.9291515718797
921,1685506667.77,20.996,182.129,164.551,-15.625,1394.665,323.25458284115996
922,1685506667.77,29.297,139.16,82.031,-6.836,1394.669,312.19733224482957
923,1685506667.78,-12.207,-543.457,-219.238,-12.695,1394.673,316.88490265268786
924,1685506667.78,-21.484,-1000.0,-268.066,-6.836,1394.679,314.9472612584597
925,1685506667.78,33.691,-180.176,214.355,10.742,1394.683,314.2498545764894
926,1685506667.79,39.062,231.445,166.504,10.742,1394.686,311.1015638398811
927,1685506667.79,-8.789,-77.148,26.855,-2.93,1394.69,324.5200840515159
928,1685506667.8,-25.391,-44.434,54.199,0.488,1394.694,315.25870912035447
929,1685506667.8,11.719,-101.562,47.852,23.438,1394.698,309.6425499861903
930,1685506667.8,51.758,-150.391,31.738,33.691,1394.702,312.4509705744223
931,1685506667.81,19.531,-577.148,-136.719,30.273,1394.706,314.53274369628224
932,1685506667.81,-19.531,-395.996,65.43,21.484,1394.71,320.3272764099703
933,1685506667.82,19.043,255.371,214.355,25.391,1394.714,311.5312959659464
934,1685506667.82,67.871,111.816,49.805,38.086,1394.718,310.08331977375275
935,1685506667.82,56.152,12.207,20.508,29.297,1394.722,310.49210017729513
936,1685506667.82,14.16,71.289,51.27,19.043,1394.724,318.642894763883
937,1685506667.83,17.09,-158.203,-29.785,20.996,1394.728,313.15342407602293
938,1685506667.83,72.266,-361.328,-65.43,26.855,1394.732,323.56866755947016
939,1685506667.84,76.66,-424.805,-20.02,22.949,1394.736,319.47155590551137
940,1685506667.84,16.113,-198.242,58.105,8.301,1394.739,325.57640381505325
941,1685506667.84,5.371,-145.02,55.664,15.137,1394.743,313.19749031116527
942,1685506667.85,45.41,-502.93,-71.289,33.691,1394.747,316.4706382004211
943,1685506667.85,57.617,-1000.0,-249.512,33.203,1394.751,317.2414036554843
944,1685506667.86,11.719,-395.508,76.66,8.301,1394.755,317.98338579339014
945,1685506667.86,-20.508,144.531,145.996,10.254,1394.759,315.02844895558246
946,1685506667.86,28.809,-60.547,83.496,35.156,1394.763,315.7345726175956
947,1685506667.87,78.613,211.914,193.848,45.41,1394.767,311.39965455123854
948,1685506667.87,44.434,399.414,107.91,31.738,1394.768,325.4776478693516
949,1685506667.87,-19.531,92.773,-42.48,8.789,1394.772,317.03462160486924
950,1685506667.88,-9.277,-134.277,-49.316,8.789,1394.775,319.977334842458
951,1685506667.88,44.434,-11.23,68.848,11.719,1394.779,316.0968007606725
952,1685506667.89,36.621,-5.859,11.23,1.465,1394.783,317.69718846681405
953,1685506667.89,-23.438,-209.473,-135.254,-8.301,1394.787,316.1829658107086
954,1685506667.89,-31.25,-826.66,-315.43,-1.953,1394.791,314.42621794307223
955,1685506667.9,42.969,-715.82,-60.059,21.484,1394.795,312.2129756940169
956,1685506667.9,59.082,230.469,270.02,13.184,1394.799,315.3759583864868
957,1685506667.9,-12.207,36.133,-10.254,-6.348,1394.803,315.5410912170252
958,1685506667.91,-29.297,-295.41,-104.004,-15.625,1394.807,316.3093721437321
959,1685506667.91,22.949,151.855,143.555,-28.32,1394.811,310.65215205912574
960,1685506667.91,42.48,337.891,124.512,-15.625,1394.84,306.57565429830163
961,1685506667.92,-24.414,-66.895,-68.359,-44.434,1394.844,313.1187473150862
962,1685506667.92,-60.059,-242.676,-49.316,-60.059,1394.848,320.48066017182543
963,1685506667.93,-21.973,-185.547,20.996,-35.156,1394.852,304.82219064252155
964,1685506667.93,15.625,-41.016,75.684,-23.926,1394.856,314.9287762270563
965,1685506667.93,6.836,-344.238,-144.531,-21.484,1394.86,314.68330370805216
966,1685506667.94,-47.852,-1000.0,-362.793,-28.809,1394.864,318.1505429241609
967,1685506667.94,-29.785,-454.59,126.953,-21.484,1394.867,320.7880883738508
968,1685506667.94,27.832,303.711,237.793,-2.93,1394.871,313.4410585899496
969,1685506667.95,8.789,-136.23,-45.41,-3.418,1394.875,318.9265270102656
970,1685506667.95,-37.109,-349.609,24.414,-16.602,1394.879,323.3980863730847
971,1685506667.96,-43.945,112.793,142.578,-18.555,1394.883,326.6658795384486
972,1685506667.97,7.324,172.363,50.781,-12.207,1394.87,316.8436904267042
973,1685506667.98,16.602,76.66,43.457,-15.137,1394.874,321.29917205644006
974,1685506667.98,-30.762,64.453,35.645,-25.391,1394.878,318.55095428497134
975,1685506667.99,-49.805,71.777,29.297,-22.461,1394.882,319.4192921246483
976,1685506667.99,-9.277,42.969,24.414,-0.977,1394.886,317.04106953984257
977,1685506667.99,12.207,-287.109,-74.707,4.395,1394.89,309.2448929506329
978,1685506668.0,-32.715,-258.789,27.832,-20.02,1394.894,301.30778080876485
979,1685506668.0,-56.641,70.801,80.566,-20.508,1394.898,320.0740376264527
980,1685506668.0,-25.391,-204.59,-104.492,-2.93,1394.901,313.14913509555004
981,1685506668.01,1.465,-470.215,-92.285,-3.906,1394.905,318.2305034578168
982,1685506668.01,-3.418,-49.805,113.77,-16.113,1394.909,317.47456872067255
983,1685506668.02,-37.109,172.852,92.773,-21.484,1394.913,313.9999011893598
984,1685506668.02,-36.621,-297.852,-155.273,-8.301,1394.915,318.4270364712552
985,1685506668.02,5.371,-847.656,-269.043,2.93,1394.919,322.30181470543556
986,1685506668.03,5.859,-247.07,101.074,-17.09,1394.923,321.4403153531342
987,1685506668.03,-42.48,-49.805,75.195,-32.715,1394.927,326.65837504891283
988,1685506668.04,-51.27,-666.016,-229.98,-22.949,1394.931,318.38281768799436
989,1685506668.04,4.395,-855.469,-145.508,-6.836,1394.935,320.97869259288234
990,1685506668.04,25.391,-256.836,174.805,-6.836,1394.939,321.9392919939001
991,1685506668.05,-31.25,220.215,148.926,-13.672,1394.942,323.13439844492416
992,1685506668.05,-55.176,-479.492,-209.473,-12.695,1394.946,323.81947809905444
993,1685506668.05,-15.137,-704.59,-135.742,-7.324,1394.95,317.40972515701543
994,1685506668.06,26.367,221.68,240.723,-11.719,1394.954,310.25282193588174
995,1685506668.06,-15.625,104.98,25.879,-33.203,1394.958,309.6482953179438
996,1685506668.06,-70.801,-519.043,-144.043,-41.016,1394.974,314.22711722610427
997,1685506668.07,-32.227,-263.672,67.871,-34.668,1394.978,318.24127212811396
998,1685506668.07,16.602,309.082,188.477,-15.137,1394.982,316.7467007008111
999,1685506668.08,-16.113,141.113,-49.316,-22.461,1394.986,311.8484931582086
1000,1685506668.08,-62.988,-193.848,-142.578,-34.668,1394.99,322.5822780258818
1001,1685506668.08,-49.805,-322.754,-80.566,-30.273,1394.994,323.4427347617976
1002,1685506668.09,-0.977,-142.578,75.195,-24.414,1394.998,310.8900882108743
1003,1685506668.09,8.301,50.293,66.895,-30.762,1395.002,307.8423612098174
1004,1685506668.1,-50.293,-630.371,-249.023,-43.457,1395.005,319.01428198005067
1005,1685506668.1,-72.754,-466.797,23.438,-39.551,1395.009,324.69758896969023
1006,1685506668.1,-16.602,246.582,201.172,-30.273,1395.013,321.7512764425513
1007,1685506668.11,9.277,70.801,7.812,-26.855,1395.017,325.21937046772706
1008,1685506668.11,-36.133,-113.281,-51.27,-40.527,1395.008,308.61182737228836
1009,1685506668.11,-53.223,-119.629,-35.156,-43.945,1395.011,320.7343242120105
1010,1685506668.12,-5.859,-155.762,2.441,-20.996,1395.015,335.6311415901982
1011,1685506668.12,23.926,-432.129,-81.543,-11.23,1395.019,320.4939236947288
1012,1685506668.13,-22.461,-763.672,-155.762,-28.809,1395.023,319.88397130590795
1013,1685506668.13,-63.965,-537.598,23.438,-45.41,1395.027,319.3180076626625
1014,1685506668.13,-23.926,-285.645,98.633,-37.109,1395.031,316.45074801212394
1015,1685506668.14,9.766,-475.586,-51.758,-28.32,1395.035,320.383218982508
1016,1685506668.14,-25.391,-826.172,-99.609,-43.945,1395.039,313.455291707197
1017,1685506668.14,-69.824,-144.531,193.848,-45.898,1395.043,321.44341580768133
1018,1685506668.15,-63.965,95.215,78.125,-20.02,1395.047,322.9110079370362
1019,1685506668.15,-15.625,-126.953,95.215,-12.207,1395.051,319.2535863956803
1020,1685506668.16,-1.953,114.258,148.926,-17.578,1395.052,321.2232593653265
1021,1685506668.16,-40.039,277.832,66.895,-26.367,1395.056,320.2849194119332
1022,1685506668.16,-46.387,7.324,-47.852,-30.762,1395.06,313.77511665118686
1023,1685506668.17,-4.883,-142.09,-59.082,-29.785,1395.064,320.3359904151168
1024,1685506668.17,15.137,-55.664,45.41,-29.297,1395.067,313.83659918171264
1025,1685506668.18,-29.785,-212.402,-32.715,-30.762,1395.071,327.27239349768666
1026,1685506668.18,-71.777,-327.148,-141.113,-43.945,1395.075,321.94157782258935
1027,1685506668.18,-47.852,-808.105,-304.688,-27.832,1395.079,317.0250443437384
1028,1685506668.19,3.418,-618.164,-6.836,-12.207,1395.083,322.93676133909054
1029,1685506668.19,-13.184,233.398,236.816,-22.461,1395.087,327.2667795922158
1030,1685506668.19,-69.824,-41.504,-53.223,-22.949,1395.091,321.92503480461824
1031,1685506668.2,3.418,208.984,142.09,-12.207,1395.094,333.25818443465556
1032,1685506668.2,-54.199,-221.191,-55.176,-11.719,1395.095,318.8058930314037
1033,1685506668.2,4.395,260.742,67.871,-18.066,1395.098,320.7469118041214
1034,1685506668.21,-50.293,-135.254,-88.379,-18.066,1395.102,318.0922831279322
1035,1685506668.21,-52.734,-417.969,-72.266,-20.996,1395.106,315.8471808574851
1036,1685506668.21,-7.812,-214.355,30.273,-14.16,1395.11,322.69991185774825
1037,1685506668.22,1.465,-78.125,81.543,-12.695,1395.114,316.12332440549466
1038,1685506668.22,-35.156,-501.953,-171.387,-27.832,1395.118,317.9711982687299
1039,1685506668.22,-63.477,-1000.0,-417.969,-21.973,1395.122,315.21199019539466
1040,1685506668.23,-27.344,-563.965,71.289,2.441,1395.126,315.74324795694304
1041,1685506668.23,15.137,265.137,248.047,0.0,1395.13,314.5541248518363
1042,1685506668.24,-13.672,63.477,43.457,-30.273,1395.134,319.9347544992565
1043,1685506668.24,-55.176,-82.52,62.988,-41.016,1395.137,323.4197140476693
1044,1685506668.24,-30.273,151.855,113.77,-29.297,1395.142,319.5128235087618
1045,1685506668.25,15.137,218.262,52.246,-20.508,1395.146,328.86341161413793
1046,1685506668.25,-0.977,-5.371,-24.414,-29.785,1395.15,324.54999601208715
1047,1685506668.26,-42.969,-36.621,16.602,-39.062,1395.153,317.7214326324982
1048,1685506668.26,-43.457,6.348,34.668,-32.227,1395.157,318.66569146378976
1049,1685506668.26,3.418,-123.047,1.465,-18.555,1395.161,320.98340758119735
1050,1685506668.27,9.277,-594.238,-131.348,-21.973,1395.165,317.73811821396674
1051,1685506668.27,-45.41,-410.156,28.32,-38.574,1395.169,311.73741114581776
1052,1685506668.28,-49.316,119.141,134.277,-35.156,1395.173,314.50702512180266
1053,1685506668.28,1.953,-117.676,-9.766,-14.648,1395.177,315.67262052305773
1054,1685506668.28,15.137,-207.031,-24.414,-15.625,1395.181,314.20938512751104
1055,1685506668.29,-30.762,104.98,75.684,-35.156,1395.185,318.45395998771977
1056,1685506668.29,-62.012,130.371,53.711,-30.273,1395.199,321.07885391796543
1057,1685506668.29,-9.766,-221.68,-76.172,-9.277,1395.203,323.2157344989984
1058,1685506668.3,25.879,-237.793,-30.762,-1.465,1395.207,320.54130006250665
1059,1685506668.3,-17.578,-83.496,-16.113,-20.996,1395.211,327.1707117061394
1060,1685506668.3,-49.805,-339.844,-155.273,-30.762,1395.215,321.7853327992808
1061,1685506668.31,-25.879,-660.156,-255.371,-20.02,1395.219,313.6347481901808
1062,1685506668.31,15.137,-975.586,-244.141,-3.906,1395.223,327.596075029398
1063,1685506668.32,6.348,-295.898,157.227,-13.672,1395.226,313.1777875788635
1064,1685506668.32,-45.41,100.586,134.277,-35.156,1395.23,317.9506357351352
1065,1685506668.32,-43.457,-195.801,34.668,-29.785,1395.234,321.4757268560232
1066,1685506668.33,9.277,52.734,161.133,-16.602,1395.238,319.61385835905674
1067,1685506668.33,16.602,267.578,106.934,-23.438,1395.242,307.31967533880845
1068,1685506668.34,-36.133,-149.414,-145.508,-36.621,1395.244,323.5272488545579
1069,1685506668.34,-59.57,-564.453,-197.754,-35.645,1395.248,328.6862885833324
1070,1685506668.34,-15.137,-246.094,89.355,-21.484,1395.252,315.4125450904385
1071,1685506668.35,19.043,284.668,191.406,-20.996,1395.255,328.03800599207386
1072,1685506668.35,-25.391,95.215,-58.105,-28.32,1395.259,324.22030136803306
1073,1685506668.36,-61.523,-538.086,-245.605,-32.227,1395.263,315.89676506576507
1074,1685506668.36,-21.973,-402.344,29.297,-19.043,1395.267,314.47865493474796
1075,1685506668.36,9.766,263.672,220.703,-12.207,1395.271,315.8071157797874
1076,1685506668.37,-16.113,34.668,-76.172,-24.902,1395.275,320.04195120263455
1077,1685506668.37,-57.129,-619.141,-258.789,-20.02,1395.279,314.1873916349179
1078,1685506668.38,-34.668,-229.004,87.402,-14.16,1395.283,313.1582487527653
1079,1685506668.38,11.719,291.992,193.359,-10.254,1395.287,312.18479737834
1080,1685506668.39,-6.348,-6.836,-39.551,-15.137,1395.29,312.8722396319996
1081,1685506668.4,-66.406,-250.0,-109.375,-36.133,1395.294,319.51055389738355
1082,1685506668.4,-68.359,-179.199,-13.672,-32.715,1395.298,317.5540102466275
1083,1685506668.41,-8.301,-188.477,47.363,-19.531,1395.302,319.96092043102965
1084,1685506668.41,4.883,-440.43,-100.098,-20.02,1395.306,302.80585136629657
1085,1685506668.41,-55.664,-1000.0,-399.414,-28.32,1395.31,317.2451351311996
1086,1685506668.42,-70.312,-699.707,-11.23,-32.715,1395.314,314.45986229741703
1087,1685506668.42,-18.555,62.5,259.277,-24.902,1395.317,318.56230275308167
1088,1685506668.42,-2.93,-203.125,38.086,-22.461,1395.321,314.48303344908413
1089,1685506668.43,-41.504,-331.543,38.574,-35.156,1395.325,317.0256022258954
1090,1685506668.43,-75.195,94.727,138.184,-45.898,1395.329,318.02524017632635
1091,1685506668.44,-36.133,71.289,59.082,-36.621,1395.333,325.7052372408502
1092,1685506668.44,12.695,-86.426,21.484,-24.414,1395.337,314.58357407892225
1093,1685506668.44,-9.766,-57.129,34.668,-34.668,1395.341,317.273430435912
1094,1685506668.45,-46.387,74.707,49.805,-50.781,1395.344,315.26939926987563
1095,1685506668.45,-22.461,-41.016,-6.348,-39.062,1395.348,309.4406398045095
1096,1685506668.46,16.113,-185.547,-60.547,-19.531,1395.352,318.9588960078154
1097,1685506668.46,-1.465,-218.75,17.578,-22.949,1395.356,328.3670603874244
1098,1685506668.46,-54.688,-336.914,-24.414,-26.855,1395.36,314.09959082936905
1099,1685506668.47,-58.594,-359.375,-48.34,-25.879,1395.364,309.9797385967044
1100,1685506668.47,-3.418,-786.621,-187.5,-8.301,1395.368,315.0830569197198
1101,1685506668.48,3.418,-608.887,-1.953,-13.672,1395.372,322.11997912588316
1102,1685506668.48,-41.504,155.762,208.496,-43.457,1395.376,320.5734181929352
1103,1685506668.48,-54.688,-157.227,-18.555,-40.527,1395.38,323.30111654498484
1104,1685506668.48,-11.719,-222.168,26.855,-25.391,1395.381,315.12837923604667
1105,1685506668.49,13.672,233.887,159.668,-21.484,1395.384,318.86093192808477
1106,1685506668.49,-20.996,215.82,63.965,-28.32,1395.388,315.0862824210618
1107,1685506668.5,-60.059,-355.957,-119.629,-38.574,1395.392,320.59871268082594
1108,1685506668.5,-32.715,-466.797,-32.715,-29.297,1395.396,327.08857607202333
1109,1685506668.5,16.113,-115.234,99.609,-16.113,1395.4,317.611716701133
1110,1685506668.51,-7.324,-140.625,69.336,-25.879,1395.404,320.9865082657955
1111,1685506668.51,-63.965,-535.156,-163.574,-38.086,1395.408,321.2716729750085
1112,1685506668.52,-58.105,-1000.0,-336.914,-20.02,1395.412,318.5579382412808
1113,1685506668.52,4.395,-312.988,141.113,-4.395,1395.416,311.3355849336793
1114,1685506668.52,5.371,315.918,230.957,-20.996,1395.42,316.85837323964563
1115,1685506668.53,-45.41,-71.289,10.742,-38.574,1395.423,313.8636327439356
1116,1685506668.53,-55.176,-116.699,67.383,-32.227,1395.428,315.7215057266946
1117,1685506668.53,-10.254,262.207,174.805,-23.926,1395.432,315.0289419167448
1118,1685506668.54,6.348,248.535,39.551,-44.434,1395.436,311.51621463131943
1119,1685506668.54,-45.898,-55.664,-74.219,-58.105,1395.439,321.02698336029636
1120,1685506668.55,-66.406,-99.609,-23.926,-41.504,1395.443,313.7339440836216
1121,1685506668.55,-27.832,-145.508,-15.625,-33.691,1395.447,321.6243078750854
1122,1685506668.55,8.789,-140.137,37.109,-27.832,1395.451,309.6253794940439
1123,1685506668.56,-23.926,-576.66,-146.484,-33.691,1395.455,315.8517164604931
1124,1685506668.56,-70.801,-450.195,23.438,-50.781,1395.459,317.35033156760795
1125,1685506668.56,-36.621,192.871,200.684,-36.621,1395.463,311.68704308187523
1126,1685506668.57,11.23,-23.926,-4.395,-21.973,1395.467,317.0342425692671
1127,1685506668.57,-11.23,-211.426,-72.754,-38.574,1395.471,314.30473072833905
1128,1685506668.57,-56.152,61.035,80.078,-48.828,1395.47,314.4648762984178
1129,1685506668.58,-43.945,134.766,83.008,-32.227,1395.474,321.8710554621265
1130,1685506668.58,4.395,-127.93,-18.066,-22.949,1395.478,321.327380569002
1131,1685506668.59,-1.465,-394.531,-59.082,-33.203,1395.482,311.9426696688172
1132,1685506668.59,-49.805,-256.836,0.977,-44.434,1395.486,313.53337790642
1133,1685506668.59,-61.035,-223.633,31.738,-40.039,1395.49,318.9775067794102
1134,1685506668.6,-22.461,-595.703,-139.16,-28.809,1395.494,318.1688140439992
1135,1685506668.6,-4.883,-959.473,-231.445,-24.902,1395.498,321.6932918959478
1136,1685506668.6,-41.016,-281.25,144.531,-39.062,1395.501,320.2223045187477
1137,1685506668.61,-66.406,117.676,135.742,-50.781,1395.505,318.25522116319
1138,1685506668.61,-17.578,-93.75,83.496,-38.574,1395.509,315.29049166983094
1139,1685506668.62,19.043,148.438,187.012,-20.996,1395.513,317.568470019515
1140,1685506668.62,-19.531,229.98,64.941,-26.367,1395.523,317.8813848931321
1141,1685506668.63,-56.641,-204.59,-166.504,-34.668,1395.527,319.3229196846938
1142,1685506668.63,-39.551,-516.113,-148.438,-23.438,1395.531,316.35955675010536
1143,1685506668.63,11.23,-72.754,130.371,-8.301,1395.534,314.52453867854126
1144,1685506668.64,3.418,226.074,97.168,-11.719,1395.538,311.47595438554055
1145,1685506668.64,-45.898,-252.93,-201.66,-25.391,1395.542,322.077641640788
1146,1685506668.64,-46.875,-794.434,-260.742,-19.043,1395.546,315.7054103166505
1147,1685506668.65,5.371,-394.531,92.773,-9.277,1395.55,314.41230329975167
1148,1685506668.65,24.414,315.918,232.91,-11.23,1395.554,317.7178317149015
1149,1685506668.66,-26.367,-32.227,-38.574,-32.227,1395.558,313.76624100746443
1150,1685506668.66,-52.734,-303.223,-92.285,-38.086,1395.562,322.795518386575
1151,1685506668.66,1.465,121.094,143.555,-3.418,1395.566,325.796032273223
1152,1685506668.68,27.832,347.168,138.184,-7.812,1395.576,316.1497376843731
1153,1685506668.68,-26.367,-10.742,-75.684,-33.203,1395.58,304.90162934940406
1154,1685506668.69,-54.199,-259.766,-133.301,-33.691,1395.584,312.2816575283435
1155,1685506668.69,-17.09,-199.219,-39.062,-28.809,1395.587,308.0285497530733
1156,1685506668.7,24.902,-169.922,52.246,-25.879,1395.591,318.45879642732444
1157,1685506668.7,-8.301,-450.684,-104.98,-29.297,1395.595,310.2240137970353
1158,1685506668.7,-68.848,-1000.0,-425.781,-33.203,1395.599,319.4922974371598
1159,1685506668.71,-47.363,-708.008,-50.781,-34.668,1395.603,307.3232768589657
1160,1685506668.71,7.324,124.512,276.855,-23.926,1395.607,316.0814734205968
1161,1685506668.71,-4.883,161.621,62.5,-18.555,1395.65,318.50680682838487
1162,1685506668.71,-7.812,137.695,162.109,-26.855,1395.611,312.9773005169728
1163,1685506668.71,0.977,-92.285,-48.828,-16.602,1395.654,320.73264056261837
1164,1685506668.72,-60.059,13.184,86.914,-32.715,1395.615,323.108198924179
1165,1685506668.72,-44.434,-70.312,16.602,-25.879,1395.658,318.6607822801681
1166,1685506668.72,-60.059,123.535,81.543,-28.809,1395.662,315.0516949015884
1167,1685506668.72,-52.246,151.855,91.797,-24.414,1395.619,310.16165759328464
1168,1685506668.73,-9.766,76.66,31.25,-15.625,1395.666,313.11328598320546
1169,1685506668.73,29.785,-199.219,-68.848,-13.184,1395.67,319.70818587231287
1170,1685506668.73,-10.254,-354.004,-56.641,-30.273,1395.674,317.4502251587975
1171,1685506668.74,-52.246,-210.449,62.988,-32.715,1395.678,313.94935938700144
1172,1685506668.74,-19.531,-53.711,45.898,-16.602,1395.682,312.9767078403304
1173,1685506668.74,10.254,-723.633,-245.117,-8.301,1395.686,314.6561343807895
1174,1685506668.75,-5.371,-599.121,-10.254,-12.695,1395.689,324.2159997885349
1175,1685506668.75,-38.086,146.973,189.941,-23.926,1395.693,316.24534573773684
1176,1685506668.77,-27.344,-80.078,6.348,-25.391,1395.665,314.5752079050839
1177,1685506668.77,14.16,-45.898,37.598,-13.672,1395.669,323.60460232469774
1178,1685506668.78,10.742,292.969,94.238,-16.113,1395.673,315.3589688940731
1179,1685506668.78,-40.527,-3.906,-66.406,-32.715,1395.677,310.01933814466213
1180,1685506668.78,-61.523,-627.441,-303.711,-25.879,1395.681,299.28952522715707
1181,1685506668.79,-22.949,-797.852,-187.988,-9.277,1395.685,307.6302277004438
1182,1685506668.79,-12.207,-137.695,187.012,-20.996,1395.689,319.52823737327503
1183,1685506668.8,-52.246,207.52,117.188,-39.551,1395.693,321.7094281919693
1184,1685506668.8,-65.43,-387.695,-95.703,-36.133,1395.696,307.97136673511807
1185,1685506668.8,-21.484,-403.809,58.594,-23.926,1395.7,313.6360417329389
1186,1685506668.81,16.113,304.688,239.258,-25.879,1395.704,318.7278141593792
1187,1685506668.81,-10.742,265.625,45.41,-37.109,1395.708,315.9311337368752
1188,1685506668.82,-67.383,-299.805,-187.988,-35.645,1395.712,320.1614731057382
1189,1685506668.82,-36.621,-259.766,5.859,-22.949,1395.716,321.01789878811735
1190,1685506668.82,17.578,228.027,178.711,-22.949,1395.719,323.40205762603307
1191,1685506668.83,-2.93,225.098,44.434,-30.762,1395.723,311.992589187496
1192,1685506668.83,-53.711,-544.922,-297.852,-23.438,1395.727,325.4492088965891
1193,1685506668.84,-55.664,-938.965,-192.871,-23.438,1395.731,308.5025508196792
1194,1685506668.84,2.441,-179.199,235.84,-30.273,1395.735,319.9048148056334
1195,1685506668.84,14.16,179.199,130.859,-31.25,1395.739,320.1121098066019
1196,1685506668.85,-36.133,-572.754,-181.641,-42.48,1395.743,314.2116491228719
1197,1685506668.85,-47.363,-438.965,52.734,-32.715,1395.747,314.2405468374122
1198,1685506668.85,-6.836,287.109,216.309,-22.949,1395.751,318.02319814524736
1199,1685506668.86,7.324,-41.016,-50.781,-25.391,1395.755,312.5905059322727
1200,1685506668.86,-22.949,-480.469,-186.523,-22.461,1395.755,318.9364188061254
1201,1685506668.86,-48.828,-161.133,54.199,-36.621,1395.759,315.9155376058584
1202,1685506668.87,-19.531,239.746,144.531,-35.645,1395.763,317.0614174645337
1203,1685506668.87,10.254,-27.344,19.043,-20.508,1395.767,319.3344143660365
1204,1685506668.88,-23.926,-300.293,-16.602,-22.461,1395.771,317.65935403181095
1205,1685506668.88,-61.035,-284.668,-68.848,-33.203,1395.775,313.82158635450037
1206,1685506668.88,-46.875,-210.449,17.578,-36.133,1395.779,315.6703535967438
1207,1685506668.89,-3.906,-438.477,-48.34,-22.461,1395.783,309.2797702805569
1208,1685506668.89,-11.719,-845.215,-147.949,-25.391,1395.787,321.85344421445103
1209,1685506668.89,-47.363,-143.555,181.641,-46.387,1395.791,319.36226371156846
1210,1685506668.9,-41.992,145.996,115.723,-40.527,1395.794,316.29358695555965
1211,1685506668.9,1.465,-21.484,81.543,-32.227,1395.798,323.3651061688133
1212,1685506668.93,10.254,220.215,167.969,-37.109,1395.832,304.4224761228001
1213,1685506668.94,-33.203,211.914,42.48,-44.434,1395.836,308.65054718230965
1214,1685506668.94,-51.758,-194.336,-149.414,-44.434,1395.84,313.83680821989986
1215,1685506668.95,-24.414,-360.84,-29.785,-29.785,1395.844,318.16684503277736
1216,1685506668.95,-0.977,213.379,178.223,-37.598,1395.845,314.8272717498813
1217,1685506668.95,1.465,11.719,130.371,-18.555,1395.848,325.386905145045
1218,1685506668.95,-1.953,353.516,125.0,-35.645,1395.849,312.68854240903437
1219,1685506668.95,-26.855,5.371,-7.812,-39.062,1395.852,319.5777935198233
1220,1685506668.96,-58.105,-362.793,-116.699,-52.734,1395.856,314.99615516513364
1221,1685506668.96,-41.992,-54.688,-69.824,-35.156,1395.853,313.5573643442759
1222,1685506668.96,-49.805,-449.707,-132.324,-26.855,1395.857,317.77550032684417
1223,1685506668.96,-22.949,-673.828,-106.445,-30.762,1395.859,327.3938258034601
1224,1685506668.96,14.16,-218.75,134.766,-23.438,1395.863,309.7775327555906
1225,1685506668.96,-0.977,-300.293,6.348,-19.043,1395.861,329.7610667055096
1226,1685506668.97,-18.555,409.18,219.238,-40.527,1395.867,317.0016433732791
1227,1685506668.97,20.02,-20.996,126.465,-20.996,1395.865,313.82954263965394
1228,1685506668.97,-35.156,-541.016,-190.918,-30.762,1395.869,305.3031636495324
1229,1685506668.97,-64.941,-49.316,-106.934,-42.969,1395.871,314.4606898134166
1230,1685506668.98,-56.641,-737.793,-182.129,-29.297,1395.873,322.07501554487726
1231,1685506668.98,-48.828,-274.414,-132.324,-40.527,1395.875,317.1934016268598
1232,1685506668.98,-12.695,39.062,208.984,-20.996,1395.877,305.3343856997647
1233,1685506668.98,13.672,382.812,160.156,-19.043,1395.881,318.39443457221574
1234,1685506668.99,-27.832,-330.566,-180.176,-25.879,1395.884,313.4077829965478
1235,1685506668.99,-66.406,-653.32,-149.414,-30.762,1395.888,318.41534527712327
1236,1685506669.0,-23.926,69.336,180.664,-18.555,1395.892,314.83537781929357
1237,1685506669.0,14.648,319.336,123.535,-11.23,1395.896,308.2173006993407
1238,1685506669.0,-1.953,-442.871,-229.492,-9.766,1395.9,317.0087617320882
1239,1685506669.01,-42.48,-720.703,-168.457,-13.672,1395.904,319.60802589087615
1240,1685506669.01,-34.668,58.594,185.059,-14.648,1395.908,318.7085469396369
1241,1685506669.02,17.578,42.48,71.777,-9.766,1395.912,308.7053954418184
1242,1685506669.02,14.648,-566.895,-122.07,-15.625,1395.916,311.96243239308507
1243,1685506669.02,-41.992,-604.492,34.18,-28.32,1395.92,316.8500165319144
1244,1685506669.03,-55.664,79.59,235.352,-30.273,1395.924,311.3271667909021
1245,1685506669.03,-1.953,85.938,38.574,-19.531,1395.928,309.75477243288265
1246,1685506669.03,17.09,-229.004,-52.734,-18.555,1395.932,321.91673729660914
1247,1685506669.04,-24.414,56.152,112.793,-27.832,1395.935,318.48124842899205
1248,1685506669.04,-46.387,216.309,107.422,-26.367,1395.95,318.67443280899164
1249,1685506669.04,-18.555,-22.949,-6.348,-6.836,1395.953,318.0334475592049
1250,1685506669.05,9.277,39.551,52.246,-9.766,1395.957,319.797191119099
1251,1685506669.05,-10.742,62.988,-4.395,-20.508,1395.961,318.8613764770324
1252,1685506669.06,-48.34,-244.629,-153.809,-28.32,1395.965,316.3962841941748
1253,1685506669.06,-35.645,-578.613,-207.031,-30.762,1395.969,323.8555436973278
1254,1685506669.06,12.695,-990.723,-242.676,-16.602,1395.973,322.0578696531812
1255,1685506669.07,-1.465,-317.383,142.578,-30.273,1395.977,320.6542113800832
1256,1685506669.07,-60.059,218.262,163.574,-46.387,1395.981,330.6256739115347
1257,1685506669.07,-43.457,-216.797,-79.59,-22.461,1395.985,319.89804062496773
1258,1685506669.08,16.113,-131.836,56.641,-1.953,1395.989,318.00002515581195
1259,1685506669.08,8.301,330.566,181.641,-16.113,1395.993,320.0966783312447
1260,1685506669.1,-44.434,199.707,11.23,-26.367,1395.995,314.1309193648055
1261,1685506669.1,-54.199,-370.605,-160.156,-22.949,1395.999,315.8420833203274
1262,1685506669.11,-19.043,-200.684,34.18,-21.484,1396.003,314.2930579786334
1263,1685506669.11,5.371,405.273,197.266,-21.973,1396.007,325.6850857859516
1264,1685506669.12,-24.902,212.402,-9.766,-25.391,1396.011,319.311535049527
1265,1685506669.12,-66.406,-407.715,-204.102,-29.785,1396.015,322.0059438002156
1266,1685506669.12,-35.156,-325.684,2.93,-23.438,1396.019,329.33651575363155
1267,1685506669.13,13.184,283.203,210.938,-8.789,1396.023,320.2426460794569
1268,1685506669.13,-9.277,132.324,-14.16,-17.578,1396.027,318.77934247992664
1269,1685506669.13,-48.828,-527.344,-212.402,-32.227,1396.03,321.5708571099326
1270,1685506669.14,-37.109,-238.77,58.594,-22.949,1396.034,323.4979010444815
1271,1685506669.14,5.371,325.195,186.035,-11.23,1396.038,319.64381047863554
1272,1685506669.14,-13.184,-98.633,-85.938,-22.949,1396.04,319.79767357508325
1273,1685506669.15,-58.105,-554.199,-169.434,-30.273,1396.044,318.32399564677104
1274,1685506669.15,-41.016,-44.434,118.164,-27.832,1396.048,315.63811911037146
1275,1685506669.16,8.301,125.488,127.441,-16.113,1396.052,322.7293829258029
1276,1685506669.16,12.695,-426.758,-136.719,-10.254,1396.056,315.73283570891294
1277,1685506669.16,-45.898,-848.145,-232.91,-26.855,1396.06,321.5017009909456
1278,1685506669.17,-66.406,-395.02,106.934,-28.32,1396.063,318.11809865728304
1279,1685506669.17,-21.973,266.113,217.773,-16.113,1396.067,321.7366838674276
1280,1685506669.18,6.348,-231.445,-108.398,-8.789,1396.071,316.25043996528666
1281,1685506669.18,-35.645,-728.516,-170.898,-28.809,1396.075,313.89696617805697
1282,1685506669.18,-63.477,-5.859,162.109,-47.852,1396.079,316.463890726694
1283,1685506669.19,-27.344,166.992,88.379,-37.598,1396.083,315.2462169376721
1284,1685506669.19,14.648,83.496,71.777,-29.785,1396.087,326.01742160426465
1285,1685506669.19,-5.859,159.668,86.914,-36.133,1396.091,322.50042047272905
1286,1685506669.2,-57.129,23.438,-59.082,-43.945,1396.095,319.9618424230211
1287,1685506669.2,-44.434,-208.496,-88.379,-24.902,1396.099,319.1782524130638
1288,1685506669.21,6.836,-313.965,77.148,-8.789,1396.102,324.32851642196357
1289,1685506669.21,9.766,-306.152,70.801,-19.531,1396.106,310.97546206375625
1290,1685506669.21,-34.18,-140.625,34.668,-27.344,1396.11,324.72567440801515
1291,1685506669.22,-47.363,-84.961,39.062,-20.996,1396.114,313.34730321997284
1292,1685506669.22,-8.301,-585.938,-91.797,-13.184,1396.118,320.93380379483546
1293,1685506669.22,12.207,-261.23,95.215,-19.043,1396.122,312.53163150486847
1294,1685506669.23,-38.086,300.293,159.668,-38.086,1396.126,315.79239936166977
1295,1685506669.23,-71.289,-139.648,-68.359,-38.086,1396.13,310.57067022401804
