,timestamps,TP9,AF7,AF8,TP10,Secondary Timestamp,emg_signal
0,1686016958.59,-16.113,157.715,103.027,-20.508,118723.007,330.46142570645327
1,1686016958.59,-17.09,5.371,53.711,-28.32,118723.011,336.6153629439141
2,1686016958.59,-27.344,79.102,69.824,-41.016,118723.015,335.8287055245379
3,1686016958.6,-32.715,-44.434,-26.855,-36.621,118723.019,340.3652781713745
4,1686016958.6,-22.461,-263.184,-77.148,-14.648,118723.023,338.02828405359196
5,1686016958.61,-16.602,-604.492,-66.895,-3.418,118723.027,338.6816860000316
6,1686016958.61,-21.484,-384.277,76.66,-24.902,118723.031,333.29659346758257
7,1686016958.61,-24.902,54.688,137.695,-36.133,118723.035,334.6981916446695
8,1686016958.62,-13.672,-407.715,-99.609,-15.137,118723.039,329.19110295036177
9,1686016958.62,-15.625,-569.824,-78.613,-10.254,118723.042,335.4953403051763
10,1686016958.62,-22.949,114.746,210.449,-30.273,118723.046,328.2714066642713
11,1686016958.63,-31.25,260.254,119.629,-43.457,118723.05,330.1696434388211
12,1686016958.63,-33.203,-312.988,-85.449,-30.762,118723.052,328.5867566495114
13,1686016958.64,-24.414,-318.359,42.969,-19.531,118723.056,326.07339940471695
14,1686016958.64,-38.086,229.98,215.82,-31.25,118723.06,333.7627471086197
15,1686016958.64,-40.527,225.098,100.098,-45.898,118723.063,329.52438185791465
16,1686016958.65,-31.25,-391.113,-123.535,-39.062,118723.067,331.44129915168196
17,1686016958.65,-20.996,-592.773,-10.742,-26.367,118723.071,340.0520441872838
18,1686016958.66,-11.23,-208.496,140.137,-22.949,118723.075,333.56757589449876
19,1686016958.66,-12.695,-164.062,76.172,-42.969,118723.079,334.78357210351624
20,1686016958.66,-26.367,-644.531,-197.754,-41.992,118723.083,335.30342786257376
21,1686016958.67,-27.832,-818.359,-99.609,-11.719,118723.087,330.04302642752765
22,1686016958.67,-29.297,66.895,327.148,-9.766,118723.091,332.75355751828624
23,1686016958.67,-39.551,212.891,138.672,-24.414,118723.095,334.55092414686993
24,1686016958.68,-37.598,-121.094,18.555,-34.18,118723.097,334.7929962884308
25,1686016958.68,-32.227,94.238,167.969,-26.855,118723.101,334.2042452433649
26,1686016958.68,-27.344,354.492,199.219,-19.043,118723.105,337.04528526910974
27,1686016958.69,-33.691,105.469,25.391,-29.785,118723.108,332.0982999748998
28,1686016958.69,-40.039,-192.383,-100.586,-39.062,118723.112,332.5214812209559
29,1686016958.7,-36.133,-291.504,-99.121,-30.762,118723.116,328.8443153746676
30,1686016958.7,-32.227,-49.316,96.68,-17.09,118723.12,333.4992363214038
31,1686016958.7,-39.062,-30.273,15.137,-16.113,118723.124,329.44744565723084
32,1686016958.71,-48.34,-766.602,-300.781,-28.32,118723.128,331.3973653182156
33,1686016958.71,-41.504,-455.078,66.406,-28.32,118723.132,330.6766991321341
34,1686016958.72,-19.043,289.551,269.043,-16.602,118723.136,336.25375005577104
35,1686016958.72,-17.09,-60.059,9.766,-14.648,118723.14,332.6518960137334
36,1686016958.72,-38.574,-647.949,-215.332,-33.691,118723.142,322.91035155379706
37,1686016958.72,-39.551,-288.086,-0.977,-37.109,118723.146,335.2243865973562
38,1686016958.73,-27.832,249.023,216.309,-16.602,118723.15,335.11986295814614
39,1686016958.73,-26.855,-237.305,-24.902,0.977,118723.153,340.00131248191815
40,1686016958.74,-28.809,-536.621,-104.492,-4.395,118723.157,337.40233825823935
41,1686016958.74,-32.715,-255.859,49.805,-20.996,118723.161,334.9201750269154
42,1686016958.74,-22.461,-245.117,66.406,-1.953,118723.165,337.00009943770726
43,1686016958.75,-13.184,-553.223,-88.379,27.832,118723.169,336.25851631340095
44,1686016958.75,-19.043,-572.266,-22.461,26.367,118723.173,336.5975645727646
45,1686016958.76,-29.785,145.02,218.75,9.277,118723.177,335.12741319654305
46,1686016958.76,-39.062,82.031,75.195,18.066,118723.181,324.28155737582847
47,1686016958.76,-32.227,-181.641,65.918,35.645,118723.185,325.8687179290221
48,1686016958.77,-24.414,55.176,168.457,29.785,118723.187,337.40705904803605
49,1686016958.77,-25.391,282.227,141.602,15.137,118723.19,337.0139417145371
50,1686016958.77,-28.809,-18.066,-16.113,12.695,118723.194,334.615321240907
51,1686016958.78,-20.508,-353.516,-33.203,28.809,118723.198,332.53359781953907
52,1686016958.78,-28.32,-34.668,127.93,38.574,118723.202,334.53593683000514
53,1686016958.79,-51.758,-34.668,57.129,27.832,118723.206,327.21478184674527
54,1686016958.79,-56.152,-470.215,-198.73,17.09,118723.21,330.9472855714603
55,1686016958.79,-43.457,-683.105,-193.359,20.508,118723.214,331.63196368250306
56,1686016958.8,-32.715,-122.559,208.984,27.832,118723.218,330.74956244070836
57,1686016958.8,-32.227,293.945,194.336,16.113,118723.222,338.6741655442019
58,1686016958.8,-36.621,-104.98,-18.066,6.836,118723.226,332.98637380229957
59,1686016958.81,-34.668,-137.695,54.688,20.02,118723.23,336.49158946621566
60,1686016958.81,-23.438,62.988,143.066,30.762,118723.233,330.5501350437681
61,1686016958.82,-29.297,-89.355,67.871,19.043,118723.237,336.28971275886965
62,1686016958.82,-34.668,-600.098,-221.191,4.395,118723.241,333.6565784110606
63,1686016958.82,-24.414,-762.207,-153.809,11.719,118723.245,333.2081360099378
64,1686016958.83,-14.648,64.941,248.047,17.09,118723.249,327.68093600517733
65,1686016958.83,-16.113,174.805,157.715,2.441,118723.253,330.0019617323856
66,1686016958.84,-27.344,-622.559,-197.266,-7.812,118723.257,331.3265163996293
67,1686016958.84,-40.039,-638.672,-114.258,-5.859,118723.26,334.7986449964161
68,1686016958.84,-37.109,259.277,285.156,3.418,118723.264,329.72997023121775
69,1686016958.85,-31.738,344.238,142.09,13.184,118723.268,333.9146115042985
70,1686016958.85,-39.062,-20.996,7.324,-7.324,118723.272,335.8643854545934
71,1686016958.86,-33.691,-11.719,64.941,-27.832,118723.276,326.2614800168642
72,1686016958.86,-18.555,241.699,146.484,-12.695,118723.291,334.17461092479493
73,1686016958.86,-9.277,183.105,68.848,9.766,118723.295,335.7986784471135
74,1686016958.86,-22.461,-46.875,-28.809,4.395,118723.299,333.13399708901414
75,1686016958.87,-35.156,22.461,34.668,-1.465,118723.303,328.9599942402804
76,1686016958.87,-30.762,-14.16,65.918,9.277,118723.307,328.94908101030114
77,1686016958.88,-25.879,-236.328,10.742,14.16,118723.311,333.9904657874416
78,1686016958.88,-29.297,-805.176,-259.277,11.23,118723.314,331.2008697412033
79,1686016958.88,-37.598,-517.578,-15.625,-1.465,118723.318,329.43941290237547
80,1686016958.89,-30.762,182.129,204.59,0.977,118723.322,334.75141196681886
81,1686016958.89,-23.438,10.254,66.895,20.508,118723.326,330.726862290778
82,1686016958.9,-35.156,31.25,102.051,8.301,118723.33,331.8597157574149
83,1686016958.9,-45.898,243.164,134.277,-12.695,118723.334,335.6475945680462
84,1686016958.92,-45.41,21.973,-13.672,-20.02,118723.338,336.5790827464484
85,1686016958.92,-27.832,-619.141,-250.977,-14.16,118723.342,332.3355928865947
86,1686016958.92,-9.766,-578.125,-93.75,-2.441,118723.346,328.1256262322972
87,1686016958.93,-30.273,159.18,187.5,-13.672,118723.35,332.7322221783302
88,1686016958.93,-54.688,156.738,81.543,-17.09,118723.353,333.3002968994848
89,1686016958.94,-57.617,-276.855,-82.031,5.371,118723.357,335.3817396700732
90,1686016958.94,-49.316,-309.082,8.789,15.137,118723.361,329.4696919727771
91,1686016958.94,-49.316,-62.5,153.809,-2.93,118723.365,329.8888403715405
92,1686016958.95,-48.828,64.453,125.977,-23.438,118723.369,334.2939250287916
93,1686016958.95,-38.574,-537.598,-191.406,-11.23,118723.373,330.7690844430727
94,1686016958.96,-40.039,-641.113,-109.375,7.324,118723.377,336.6355310686028
95,1686016958.96,-54.199,238.281,261.23,-6.836,118723.381,328.98020440317174
96,1686016958.96,-64.453,93.75,49.805,-28.809,118723.383,329.34741574372526
97,1686016958.96,-57.617,-187.012,-24.414,-25.391,118723.386,324.822930757653
98,1686016958.97,-44.922,93.262,144.531,-20.02,118723.39,327.60265638175633
99,1686016958.97,-37.109,325.195,162.109,-30.762,118723.394,327.43344704942797
100,1686016958.98,-39.062,29.297,-51.758,-55.176,118723.398,323.57352180133455
101,1686016958.98,-39.062,-462.402,-243.652,-63.477,118723.402,332.65442493090484
102,1686016958.98,-34.18,-204.102,40.527,-48.828,118723.406,334.51731477203464
103,1686016958.99,-34.668,349.121,234.375,-45.41,118723.41,332.8446114010002
104,1686016958.99,-34.668,-56.641,-85.938,-45.41,118723.414,331.56303316179026
105,1686016959.0,-48.34,-842.773,-356.445,-48.34,118723.418,331.23635664545884
106,1686016959.0,-53.711,-386.23,45.898,-42.969,118723.422,335.40998975894524
107,1686016959.0,-32.227,400.879,301.27,-26.855,118723.426,330.27316120635965
108,1686016959.01,-36.621,-149.902,-64.453,-35.645,118723.428,338.9356959199335
109,1686016959.01,-50.781,-749.512,-217.285,-60.059,118723.432,328.98618319929807
110,1686016959.01,-49.805,-48.34,175.781,-72.754,118723.436,328.3382368613819
111,1686016959.02,-33.691,303.711,188.965,-58.594,118723.44,332.00111810622997
112,1686016959.02,-32.227,-24.414,-7.324,-57.129,118723.444,325.2497426337045
113,1686016959.03,-41.992,-404.785,-126.465,-80.078,118723.447,326.8791260685211
114,1686016959.03,-39.062,-248.535,32.227,-75.195,118723.451,327.077240973757
115,1686016959.03,-36.133,205.566,160.645,-53.223,118723.455,327.29075360938907
116,1686016959.04,-40.039,-357.422,-110.352,-56.152,118723.459,328.5547171458364
117,1686016959.04,-53.711,-590.332,-48.34,-89.355,118723.463,332.19842216257507
118,1686016959.04,-50.781,172.363,196.777,-97.168,118723.467,328.05972939544023
119,1686016959.05,-41.504,133.301,85.938,-74.707,118723.471,332.1160524203432
120,1686016959.05,-39.062,-130.371,57.129,-75.195,118723.473,332.1289712894616
121,1686016959.06,-43.945,29.785,113.77,-88.379,118723.477,328.6019877490523
122,1686016959.06,-50.293,195.312,109.375,-89.355,118723.48,328.9753129364115
123,1686016959.06,-38.574,-37.109,-1.465,-71.289,118723.484,336.39927516230404
124,1686016959.07,-1.465,-327.637,-50.781,-36.621,118723.488,333.72685003545837
125,1686016959.07,-13.184,-295.898,44.922,-40.527,118723.492,332.99099173474116
126,1686016959.08,-70.801,-115.723,100.586,-91.309,118723.496,326.69586279506706
127,1686016959.08,-79.102,-235.84,-42.48,-85.938,118723.5,324.5796261889988
128,1686016959.08,-68.359,-626.465,-97.656,-54.688,118723.504,333.9292262565246
129,1686016959.09,-58.105,-107.422,212.402,-53.223,118723.508,329.9425590324111
130,1686016959.09,-68.359,256.836,151.855,-60.547,118723.512,332.1663139346005
131,1686016959.09,-81.055,-101.562,2.93,-69.824,118723.516,331.61444649675764
132,1686016959.1,-64.453,-327.148,16.602,-48.34,118723.518,330.820998595327
133,1686016959.1,-57.129,-71.777,124.512,-21.484,118723.522,328.9129337015672
134,1686016959.1,-59.082,147.461,101.562,-37.109,118723.526,328.56579250125196
135,1686016959.11,-50.781,-505.371,-235.352,-42.48,118723.529,328.3166305944146
136,1686016959.11,-41.504,-785.645,-171.875,-19.043,118723.533,329.0842133523654
137,1686016959.12,-34.668,-203.125,176.27,-2.93,118723.537,326.89150559019845
138,1686016959.12,-31.738,-14.648,151.367,-5.371,118723.541,328.18157117866485
139,1686016959.12,-36.621,-558.105,-117.188,-9.277,118723.545,330.2091567649302
140,1686016959.13,-24.902,-581.543,-21.973,6.836,118723.549,326.18022928659593
141,1686016959.13,-9.766,313.965,302.734,25.391,118723.553,334.0414590537962
142,1686016959.14,-15.625,322.754,113.281,35.156,118723.557,324.78884332859656
143,1686016959.14,-34.18,-89.844,-30.273,22.461,118723.561,329.51124196961
144,1686016959.14,-40.527,-12.207,92.285,13.672,118723.562,336.1592895824517
145,1686016959.15,-17.09,327.148,204.102,28.809,118723.566,332.6499650641001
146,1686016959.15,-8.301,117.188,47.363,30.762,118723.57,330.3800447713496
147,1686016959.15,-19.043,-187.012,-64.453,22.461,118723.574,329.4914074684694
148,1686016959.16,-14.16,-57.617,37.598,30.273,118723.578,333.859351885306
149,1686016959.16,-4.395,-98.145,54.688,54.199,118723.582,339.17073279520173
150,1686016959.17,-5.371,-267.578,-13.672,72.266,118723.586,331.60977581389716
151,1686016959.17,-5.859,-828.613,-295.41,65.43,118723.59,326.2738035162183
152,1686016959.17,-14.648,-530.273,0.977,43.457,118723.594,339.0266521124531
153,1686016959.18,-10.254,163.086,236.328,41.504,118723.598,327.7212525952817
154,1686016959.18,0.488,6.836,81.543,67.871,118723.601,336.79854757286375
155,1686016959.18,-10.742,10.742,93.75,55.176,118723.605,327.1057412301528
156,1686016959.19,-24.414,-87.402,41.016,23.438,118723.62,331.54137448453264
157,1686016959.19,-19.043,-63.965,70.312,39.551,118723.624,332.8175059484234
158,1686016959.19,-10.254,-353.516,-48.828,62.5,118723.627,329.4626108286686
159,1686016959.2,-16.113,-509.277,-58.105,57.129,118723.631,329.0151727409779
160,1686016959.2,-23.926,102.539,139.16,31.25,118723.635,330.24675802949764
161,1686016959.21,-31.25,-50.781,36.133,18.555,118723.639,327.63419296526223
162,1686016959.21,-26.855,-608.398,-108.398,42.48,118723.643,327.1290891163134
163,1686016959.21,-19.043,-614.746,-73.73,48.828,118723.647,331.086741114319
164,1686016959.22,-20.996,-78.613,172.363,21.973,118723.651,329.91268755075043
165,1686016959.22,-17.09,-35.645,92.285,12.207,118723.655,332.0027864908085
166,1686016959.22,-2.93,-240.234,12.207,38.574,118723.659,330.2478423897254
167,1686016959.23,0.977,-12.695,133.301,47.852,118723.663,334.34432038498124
168,1686016959.23,-5.371,350.098,192.871,24.902,118723.666,330.2069870046311
169,1686016959.24,-10.742,52.734,14.648,19.043,118723.67,330.6926155217737
170,1686016959.24,-19.043,-160.645,-39.551,23.438,118723.674,325.1793770315333
171,1686016959.24,-17.578,207.031,171.875,35.156,118723.678,331.40342461742716
172,1686016959.25,-15.137,295.898,115.723,29.785,118723.682,332.66501947376037
173,1686016959.25,-25.879,-316.406,-243.652,9.277,118723.686,333.420559112987
174,1686016959.26,-29.297,-616.211,-181.641,12.695,118723.689,330.3108349772961
175,1686016959.26,-23.926,-2.93,198.73,24.414,118723.693,331.2149982451249
176,1686016959.26,-26.367,365.234,194.336,16.113,118723.697,331.67427834704256
177,1686016959.27,-36.133,-99.121,-51.758,-7.324,118723.701,324.07490588477555
178,1686016959.27,-38.574,-493.164,-201.66,-5.859,118723.705,327.66287059735936
179,1686016959.27,-24.902,-111.328,31.738,14.648,118723.709,329.18911526943407
180,1686016959.29,-20.508,102.539,164.062,17.578,118723.712,325.1013985068619
181,1686016959.3,-29.785,-486.816,-163.086,-1.953,118723.716,327.51733781546983
182,1686016959.3,-35.645,-837.891,-251.465,-10.254,118723.72,332.3931064276164
183,1686016959.3,-21.973,-88.379,195.801,12.695,118723.724,331.0821813310783
184,1686016959.31,-14.648,328.125,196.289,24.414,118723.727,327.95078667024404
185,1686016959.31,-33.691,-177.734,-47.852,-0.977,118723.731,328.3006549953562
186,1686016959.32,-32.227,-350.098,-9.277,-11.23,118723.735,333.0838078714535
187,1686016959.32,-9.766,74.707,184.082,13.184,118723.739,331.89870994399615
188,1686016959.32,-10.742,222.656,119.141,10.254,118723.743,330.58398208629455
189,1686016959.33,-37.598,-329.59,-99.121,-18.066,118723.747,329.1081588170983
190,1686016959.33,-55.664,-417.48,17.578,-26.367,118723.751,326.5126315809848
191,1686016959.33,-45.41,167.969,173.828,-20.508,118723.755,327.2206371648469
192,1686016959.34,-35.156,124.512,91.309,-12.207,118723.757,324.1111462616496
193,1686016959.34,-36.621,-167.48,44.434,-7.812,118723.761,331.29375634989356
194,1686016959.34,-41.016,-41.992,83.984,-24.902,118723.765,328.13798449172145
195,1686016959.35,-47.852,179.199,110.84,-39.551,118723.769,323.7206459370506
196,1686016959.35,-37.598,7.812,13.672,-20.02,118723.773,327.7736937978976
197,1686016959.36,-29.297,-377.93,-92.285,-11.719,118723.777,323.942885302941
198,1686016959.36,-41.992,-227.539,83.008,-35.645,118723.781,328.3394098074731
199,1686016959.36,-52.734,138.184,160.156,-52.246,118723.785,334.196295639193
200,1686016959.37,-50.781,-176.758,-72.754,-35.156,118723.788,331.26801665486084
201,1686016959.37,-38.086,-629.883,-111.816,-11.23,118723.792,327.55450407330227
202,1686016959.38,-42.969,-103.027,201.172,-23.438,118723.796,333.8377940718306
203,1686016959.38,-54.199,251.465,145.996,-48.828,118723.8,331.1413390999055
204,1686016959.38,-44.922,-395.508,-121.094,-35.156,118723.802,332.0774170598251
205,1686016959.38,-44.434,-488.281,-55.176,-13.184,118723.806,322.1173396817991
206,1686016959.39,-57.129,163.574,162.598,-21.484,118723.81,330.4077963773552
207,1686016959.39,-56.641,58.105,19.043,-42.969,118723.814,334.5956547861567
208,1686016959.4,-52.246,-557.129,-227.539,-33.691,118723.817,334.8730713180978
209,1686016959.4,-45.898,-732.91,-131.348,-12.695,118723.821,326.7971232410607
210,1686016959.4,-38.086,-117.188,189.453,-20.02,118723.825,327.72375427280406
211,1686016959.41,-42.48,167.48,123.535,-34.668,118723.829,328.7381500493943
212,1686016959.41,-47.852,-530.273,-213.379,-32.715,118723.833,331.2895116476338
213,1686016959.42,-43.457,-569.824,-44.434,-19.043,118723.837,332.78125820365204
214,1686016959.42,-41.992,295.41,260.254,-13.184,118723.841,336.79345374814676
215,1686016959.42,-45.898,214.355,78.125,-22.461,118723.845,330.83424162377645
216,1686016959.43,-53.711,-142.578,-25.879,-40.039,118723.847,333.3033594561304
217,1686016959.43,-48.828,1.953,99.609,-33.691,118723.851,327.02162683267375
218,1686016959.43,-39.551,292.48,173.34,-22.461,118723.855,329.18962956641406
219,1686016959.44,-46.875,108.398,31.25,-35.156,118723.858,330.5732805606613
220,1686016959.44,-51.27,-206.055,-121.094,-44.434,118723.862,329.3389966068002
221,1686016959.45,-46.387,-301.27,-93.262,-41.016,118723.866,330.2983848300763
222,1686016959.45,-37.598,-205.078,79.102,-28.32,118723.87,334.65619040835657
223,1686016959.45,-36.133,-282.715,-54.688,-29.785,118723.874,332.6713089372411
224,1686016959.46,-46.875,-869.629,-352.539,-48.828,118723.878,333.5072028130549
225,1686016959.46,-47.363,-439.941,61.035,-47.363,118723.882,331.1463806603097
226,1686016959.46,-34.668,238.77,235.352,-28.32,118723.886,328.92655659790154
227,1686016959.47,-34.18,35.645,78.125,-24.902,118723.89,335.5728931116371
228,1686016959.47,-51.758,-277.832,-17.09,-40.039,118723.906,329.8950510108351
229,1686016959.48,-60.547,-234.375,20.508,-47.852,118723.91,333.55938397340816
230,1686016959.48,-42.969,210.449,181.152,-32.715,118723.913,333.48403268305174
231,1686016959.48,-34.18,-287.598,-62.5,-20.996,118723.917,335.0392276373345
232,1686016959.49,-52.246,-604.492,-133.301,-31.25,118723.921,332.0250943635326
233,1686016959.49,-57.129,-204.59,6.836,-43.945,118723.925,332.48678217624223
234,1686016959.5,-39.551,-214.355,31.25,-31.738,118723.929,331.4877290013475
235,1686016959.5,-37.109,-477.051,-48.828,-17.09,118723.933,330.81911444970416
236,1686016959.5,-48.34,-600.586,-89.355,-30.762,118723.937,324.922990326654
237,1686016959.51,-56.152,-107.91,153.32,-49.316,118723.941,331.79430200286214
238,1686016959.51,-58.105,73.242,116.211,-38.086,118723.945,332.2077000222592
239,1686016959.52,-43.945,-143.555,81.543,-15.625,118723.949,331.2195367269551
240,1686016959.52,-37.109,18.066,170.898,-13.672,118723.94,331.361032008482
241,1686016959.52,-38.086,303.223,135.254,-18.555,118723.944,332.7676612234075
242,1686016959.52,-37.598,29.297,12.695,-12.207,118723.948,327.819537776852
243,1686016959.53,-36.133,-43.457,26.855,-3.906,118723.952,331.5525663405082
244,1686016959.53,-39.551,223.145,131.836,4.883,118723.956,331.7723831459365
245,1686016959.54,-41.016,-20.996,-40.527,-1.465,118723.96,341.7552566124959
246,1686016959.54,-46.387,-445.801,-267.09,-10.742,118723.964,339.1087785179025
247,1686016959.54,-49.316,-566.895,-125.488,5.859,118723.968,340.0510150834171
248,1686016959.55,-37.598,13.184,225.098,17.578,118723.972,334.10900215374113
249,1686016959.55,-41.016,365.723,164.551,6.348,118723.976,334.28532572863344
250,1686016959.56,-53.223,-161.621,-64.453,-16.602,118723.979,337.18463737355717
251,1686016959.56,-52.246,-445.312,-48.34,-13.672,118723.983,334.6944552704203
252,1686016959.56,-41.992,-216.797,106.445,2.93,118723.983,333.8384208947566
253,1686016959.56,-41.504,-90.82,103.516,-6.836,118723.987,332.9840304780732
254,1686016959.57,-56.152,-527.344,-181.152,-22.461,118723.991,335.7280377932743
255,1686016959.57,-57.129,-746.094,-168.457,-16.602,118723.995,339.6831466575723
256,1686016959.58,-44.922,8.301,205.078,5.859,118723.999,338.9927778824374
257,1686016959.58,-41.992,121.094,162.598,5.371,118724.002,338.7662776857971
258,1686016959.58,-51.27,-572.266,-168.457,-17.578,118724.006,331.084683981138
259,1686016959.59,-56.152,-765.137,-139.16,-23.926,118724.01,333.77043061111834
260,1686016959.59,-44.922,115.723,281.25,-7.324,118724.014,337.1368645087895
261,1686016959.6,-34.18,342.285,151.367,4.883,118724.018,335.31642136633826
262,1686016959.6,-38.574,44.434,67.383,-19.043,118724.022,335.03682881884833
263,1686016959.6,-45.898,68.848,124.023,-35.156,118724.026,339.69860598785175
264,1686016959.61,-43.457,296.387,166.992,-20.996,118724.042,343.97700937843365
265,1686016959.61,-40.527,214.844,85.938,-5.371,118724.046,339.6300290882748
266,1686016959.62,-42.969,-175.293,-92.285,-15.625,118724.05,342.43325325584595
267,1686016959.62,-51.758,-51.758,56.152,-31.738,118724.054,341.7672773381905
268,1686016959.62,-54.199,166.504,133.789,-26.855,118724.058,342.53744389173863
269,1686016959.63,-51.758,-139.648,-71.289,-11.23,118724.062,350.5696994847516
270,1686016959.63,-53.711,-741.699,-253.418,-11.719,118724.066,344.3711080707837
271,1686016959.64,-57.129,-393.066,49.805,-35.156,118724.069,333.82464900454664
272,1686016959.64,-61.523,168.945,193.848,-47.363,118724.073,336.1167551280563
273,1686016959.64,-56.641,-23.926,65.43,-30.273,118724.077,339.10826232588374
274,1686016959.65,-51.27,-39.062,38.086,-20.996,118724.081,339.411722375891
275,1686016959.65,-56.152,129.395,88.867,-41.016,118724.085,342.1910986034265
276,1686016959.67,-62.5,-39.062,5.859,-59.082,118724.102,345.08438287599483
277,1686016959.67,-52.734,-604.492,-250.488,-41.016,118724.106,340.5165870636071
278,1686016959.67,-44.434,-588.867,-111.328,-27.832,118724.11,342.57947827323727
279,1686016959.68,-48.34,126.465,196.289,-47.852,118724.114,342.57181001300216
280,1686016959.68,-52.734,113.281,66.895,-56.641,118724.117,348.0662270011182
281,1686016959.69,-47.852,-534.18,-156.738,-40.527,118724.121,351.7664458705346
282,1686016959.69,-38.574,-643.066,-8.301,-24.902,118724.125,351.816878698055
283,1686016959.69,-39.062,115.723,239.258,-34.668,118724.129,354.51762748744784
284,1686016959.7,-46.387,221.68,73.73,-48.34,118724.133,359.0141512729449
285,1686016959.7,-47.363,132.812,-1.465,-30.273,118724.132,350.5358733454699
286,1686016959.7,-42.969,-451.66,-98.633,-29.297,118724.137,354.5206005291533
287,1686016959.7,-42.969,-183.594,-85.938,-16.113,118724.136,360.35139133733935
288,1686016959.7,-32.715,-284.668,79.59,-11.23,118724.141,350.11502726624013
289,1686016959.71,-32.227,90.82,130.371,-10.254,118724.14,351.28373693665947
290,1686016959.71,-35.156,369.629,219.238,-25.879,118724.145,354.35973395281724
291,1686016959.71,-32.227,400.391,187.012,-7.324,118724.144,359.97848242965597
292,1686016959.72,-40.039,90.82,-62.5,-26.855,118724.148,358.06145612540445
293,1686016959.72,-49.316,-437.5,-257.812,-41.992,118724.151,354.5564335756665
294,1686016959.72,-44.434,-264.648,20.02,-25.391,118724.155,354.5524179277077
295,1686016959.73,-28.32,7.812,156.738,-18.555,118724.159,351.4502230915939
296,1686016959.73,-36.133,-318.359,-73.242,-32.715,118724.163,355.8559713901352
297,1686016959.73,-52.734,-400.879,-94.727,-44.922,118724.167,360.3111268948763
298,1686016959.74,-41.992,59.082,148.438,-25.391,118724.171,352.55114288480576
299,1686016959.74,-28.809,327.637,208.008,-6.836,118724.175,355.024870919066
300,1686016959.76,-28.809,-278.32,-122.559,-18.066,118724.177,358.75320055616044
301,1686016959.76,-39.551,-809.57,-247.559,-42.48,118724.181,357.1414565206723
302,1686016959.76,-41.016,-124.512,136.719,-42.969,118724.185,361.020103446859
303,1686016959.77,-35.645,334.473,220.703,-22.949,118724.189,363.07193639052036
304,1686016959.77,-40.039,-301.758,-118.164,-16.602,118724.193,362.9180147005711
305,1686016959.78,-47.852,-924.805,-299.805,-33.203,118724.197,362.572460991556
306,1686016959.78,-45.898,-352.539,113.77,-44.922,118724.201,358.74708055784623
307,1686016959.78,-35.156,178.711,202.148,-20.508,118724.205,363.2266965989961
308,1686016959.79,-28.32,-278.32,-15.625,-9.766,118724.209,356.6921197661685
309,1686016959.79,-40.527,-552.734,-26.367,-38.086,118724.212,367.2147040549103
310,1686016959.8,-41.504,-111.328,111.816,-48.34,118724.216,360.9922983243397
311,1686016959.8,-10.742,77.637,124.512,-14.648,118724.22,365.2105824707709
312,1686016959.8,-18.555,-115.723,84.473,-12.207,118724.224,363.69753663297263
313,1686016959.81,-48.34,-11.719,114.746,-45.41,118724.228,362.706969870226
314,1686016959.81,-45.898,179.688,95.703,-46.875,118724.232,361.0161606716464
315,1686016959.81,-32.227,-28.32,26.855,-30.273,118724.236,365.30300011712734
316,1686016959.82,-23.926,-74.707,0.488,-15.137,118724.24,360.0247140275702
317,1686016959.82,-37.598,-115.723,25.391,-26.367,118724.243,360.8425296691007
318,1686016959.83,-44.434,-147.461,23.438,-48.828,118724.247,366.777838762955
319,1686016959.83,-36.621,-235.84,-83.984,-39.551,118724.251,358.4107109853453
320,1686016959.83,-33.203,-618.652,-156.738,-16.602,118724.255,355.63622412698925
321,1686016959.84,-31.738,-115.234,150.879,-20.508,118724.259,358.6139175377847
322,1686016959.84,-40.039,275.879,162.109,-37.598,118724.263,359.8294056810939
323,1686016959.84,-43.457,-145.508,-34.18,-33.203,118724.267,367.57628927010046
324,1686016959.85,-41.016,-323.242,-9.277,-23.438,118724.274,361.3513869166996
325,1686016959.85,-35.645,-171.875,81.543,-18.066,118724.277,361.9653582679716
326,1686016959.86,-40.039,18.066,108.398,-31.738,118724.281,357.4678046995826
327,1686016959.86,-45.898,-393.066,-140.137,-39.551,118724.285,370.956516368094
328,1686016959.86,-42.969,-789.062,-190.43,-24.414,118724.289,365.0746663007062
329,1686016959.87,-33.691,-246.094,132.812,-18.555,118724.293,365.07593246201003
330,1686016959.87,-42.48,-18.066,140.625,-27.344,118724.297,362.84630420763744
331,1686016959.87,-59.57,-539.551,-151.855,-43.457,118724.301,365.3324940298443
332,1686016959.88,-50.293,-705.566,-136.719,-36.621,118724.305,367.8052835045146
333,1686016959.88,-37.598,191.406,271.484,-24.902,118724.309,363.64301274332854
334,1686016959.89,-40.527,299.805,125.0,-27.344,118724.313,363.55029751978753
335,1686016959.89,-45.898,-11.719,17.09,-38.574,118724.317,363.4119998103365
336,1686016959.89,-52.246,83.496,104.98,-41.992,118724.312,358.0476522165359
337,1686016959.9,-43.457,365.723,162.109,-22.461,118724.316,364.0249340906106
338,1686016959.9,-34.18,193.359,16.113,-4.395,118724.32,360.40997498020977
339,1686016959.9,-36.133,-183.105,-104.492,-20.996,118724.324,352.5530256532355
340,1686016959.91,-34.668,-8.789,30.762,-26.855,118724.328,365.0018948625456
341,1686016959.91,-23.926,12.695,47.363,-8.301,118724.332,362.41856467486775
342,1686016959.92,-13.672,-205.078,-49.316,-5.371,118724.336,356.5282173689387
343,1686016959.92,-19.043,-711.426,-246.582,-17.09,118724.339,358.273329354936
344,1686016959.92,-21.484,-361.328,53.711,-26.367,118724.343,361.80773859679107
345,1686016959.93,-14.648,300.781,208.984,-9.277,118724.347,359.91698504471015
346,1686016959.93,-18.555,123.047,66.895,6.348,118724.351,359.9218634451073
347,1686016959.93,-22.461,35.645,38.574,-2.441,118724.355,358.56979513331174
348,1686016959.94,-20.508,-138.672,-122.559,-7.324,118724.357,355.97428998023184
349,1686016959.94,-15.137,-91.797,-12.207,0.488,118724.361,359.7921752464124
350,1686016959.94,-2.93,-344.238,-54.199,17.578,118724.365,361.8283165629473
351,1686016959.95,-9.766,-526.367,-110.84,16.113,118724.369,354.6228134445016
352,1686016959.95,-31.25,2.93,102.539,-5.371,118724.373,360.18460776048653
353,1686016959.96,-13.184,-113.281,-42.48,10.742,118724.377,356.9454574401544
354,1686016959.96,3.418,-631.348,-233.887,37.598,118724.381,355.835903239894
355,1686016959.96,-26.367,-707.031,-99.121,6.836,118724.385,356.8469892039225
356,1686016959.97,-41.016,114.746,246.094,-22.461,118724.389,354.39959829844304
357,1686016959.97,-42.969,176.27,97.168,-29.297,118724.393,359.2403545372638
358,1686016959.98,-39.551,-216.309,-25.391,-22.949,118724.396,355.41345276388887
359,1686016959.98,-28.32,35.645,117.676,-11.23,118724.4,352.88109781560655
360,1686016959.98,-31.738,371.094,190.43,-23.926,118724.417,343.9466309740525
361,1686016959.98,-41.016,79.102,-24.902,-40.039,118724.421,346.35825872007655
362,1686016959.99,-33.691,-195.801,-76.66,-34.18,118724.425,353.1672075693161
363,1686016959.99,-25.391,132.812,151.367,-18.555,118724.429,351.83061494313205
364,1686016960.0,-31.738,332.031,136.23,-29.785,118724.433,354.6172487068587
365,1686016960.0,-39.551,-214.844,-209.961,-47.363,118724.437,347.7909587373825
366,1686016960.0,-40.527,-733.887,-292.48,-38.574,118724.441,349.24719159408767
367,1686016960.01,-28.809,-201.66,98.145,-23.438,118724.444,351.6190292208552
368,1686016960.01,-35.156,119.629,180.176,-35.645,118724.448,343.823595647599
369,1686016960.02,-52.734,-378.906,-97.656,-56.641,118724.452,350.18453483631674
370,1686016960.02,-52.734,-466.309,-112.305,-43.945,118724.456,345.912782360584
371,1686016960.02,-39.062,156.25,195.801,-26.367,118724.46,346.9644019620663
372,1686016960.03,-33.691,193.848,124.512,-28.32,118724.462,344.2193382052312
373,1686016960.03,-47.852,-505.859,-205.078,-39.062,118724.466,345.28401547438125
374,1686016960.03,-51.758,-666.504,-177.734,-50.781,118724.47,348.82439700788643
375,1686016960.04,-34.668,124.023,211.914,-42.969,118724.474,350.45135218866125
376,1686016960.04,-29.785,359.863,171.875,-28.32,118724.478,342.2818841008585
377,1686016960.05,-37.598,-159.668,-90.332,-39.551,118724.482,341.7655760394031
378,1686016960.05,-39.062,-412.598,-143.555,-54.688,118724.485,335.86659286493847
379,1686016960.05,-38.086,33.691,105.469,-42.48,118724.489,337.9835687097699
380,1686016960.06,-23.438,299.805,137.207,-18.555,118724.493,341.7782937269387
381,1686016960.06,-20.508,-271.973,-94.727,-26.855,118724.497,339.40004152428224
382,1686016960.06,-34.668,-564.941,-42.969,-50.293,118724.501,343.6750361078091
383,1686016960.07,-41.504,-93.262,121.582,-54.688,118724.505,341.3719172346502
384,1686016960.09,-39.062,108.887,110.352,-38.574,118724.508,336.2185317949
385,1686016960.09,-36.621,-210.938,20.02,-34.668,118724.512,332.41131127281875
386,1686016960.09,-48.34,-237.793,44.434,-62.988,118724.516,328.49945703081056
387,1686016960.1,-61.523,159.18,137.207,-65.43,118724.52,337.6937381435493
388,1686016960.1,-45.41,103.027,63.965,-38.086,118724.523,334.0355680387967
389,1686016960.11,-37.109,-284.18,-82.52,-34.18,118724.527,333.62632150268314
390,1686016960.11,-49.805,-142.09,43.945,-59.57,118724.531,333.9546879198299
391,1686016960.11,-52.246,195.312,152.832,-68.848,118724.535,328.5298735072548
392,1686016960.12,-41.504,-145.02,-55.176,-48.828,118724.539,332.0348247714144
393,1686016960.12,-37.598,-493.652,-113.281,-39.062,118724.543,337.9226860680991
394,1686016960.12,-43.945,39.551,158.691,-54.199,118724.547,329.03963504450167
395,1686016960.13,-49.316,239.746,99.609,-71.289,118724.551,331.4082348526856
396,1686016960.13,-49.316,-219.238,-45.898,-69.336,118724.566,332.4673082745749
397,1686016960.14,-36.621,-421.387,-20.508,-49.316,118724.57,327.85085833872506
398,1686016960.14,-35.156,-105.957,105.957,-48.828,118724.574,319.6421012416252
399,1686016960.14,-50.781,150.879,130.371,-68.359,118724.578,329.60237824116746
400,1686016960.15,-43.457,-417.48,-198.242,-51.27,118724.582,317.6463314035107
401,1686016960.15,-36.621,-874.512,-201.172,-23.438,118724.586,322.66491037341206
402,1686016960.16,-38.086,-184.082,190.43,-27.832,118724.59,320.84730836431436
403,1686016960.16,-43.457,202.148,146.973,-44.922,118724.593,320.4193211072431
404,1686016960.16,-60.547,-501.953,-199.219,-45.898,118724.597,320.6428795729968
405,1686016960.17,-59.082,-565.918,-68.848,-21.973,118724.601,323.44257991616877
406,1686016960.17,-44.434,302.246,279.297,-11.23,118724.605,317.4887318458462
407,1686016960.18,-52.734,208.984,67.871,-30.273,118724.609,323.2681563243964
408,1686016960.18,-68.359,-108.887,-33.691,-44.434,118724.598,315.1495623798093
409,1686016960.18,-63.477,110.352,123.047,-27.832,118724.602,318.994982595353
410,1686016960.18,-50.293,374.512,159.18,-6.836,118724.605,319.3344135904184
411,1686016960.19,-54.688,95.703,-30.762,-11.719,118724.609,315.57799329058787
412,1686016960.19,-63.965,-278.809,-158.691,-34.18,118724.613,316.5428101964374
413,1686016960.2,-56.641,-336.914,-78.125,-28.809,118724.617,316.029846992686
414,1686016960.2,-43.457,-13.672,120.117,-4.883,118724.621,316.5325627665007
415,1686016960.2,-40.527,27.832,18.066,-2.93,118724.625,314.5759190062601
416,1686016960.21,-47.363,-715.332,-284.18,-16.113,118724.629,316.36360696319406
417,1686016960.21,-50.293,-362.305,51.758,-20.508,118724.633,309.41955045051657
418,1686016960.22,-39.062,347.656,249.512,-3.418,118724.637,310.3746271814288
419,1686016960.22,-31.738,-43.945,-1.953,5.859,118724.641,318.49660526672875
420,1686016960.24,-41.504,-615.723,-190.43,-6.836,118724.661,309.8983625019366
421,1686016960.24,-49.805,-270.996,37.598,-18.555,118724.665,305.32801056281613
422,1686016960.25,-40.039,280.762,197.266,-14.648,118724.669,302.68603999331145
423,1686016960.25,-32.227,-215.82,-62.5,-4.883,118724.672,302.05221450780846
424,1686016960.26,-37.598,-542.48,-129.395,-9.277,118724.676,294.40988356627633
425,1686016960.26,-44.434,-239.258,-28.809,-17.09,118724.68,305.55855564028667
426,1686016960.26,-45.41,-231.934,20.996,-9.766,118724.684,301.6305031751323
427,1686016960.27,-34.18,224.609,170.41,-12.207,118724.688,302.17871191605934
428,1686016960.27,-39.062,-542.969,-96.191,-6.836,118724.688,298.46188715776736
429,1686016960.27,-40.527,344.727,129.883,-40.527,118724.691,299.26863487013753
430,1686016960.27,-38.574,-764.648,-138.184,-17.578,118724.692,306.28337155565663
431,1686016960.27,-41.992,95.703,6.836,-51.758,118724.695,300.22074747430423
432,1686016960.28,-42.48,13.184,221.68,-28.809,118724.696,304.3499380028314
433,1686016960.28,-32.715,-102.539,-29.297,-33.203,118724.699,304.28042883950405
434,1686016960.28,-37.598,118.164,117.188,-25.879,118724.7,299.2307930979234
435,1686016960.28,-30.273,179.688,155.273,-36.133,118724.703,298.69362086100045
436,1686016960.28,-32.227,-40.039,104.004,-13.672,118724.704,296.5168457715221
437,1686016960.29,-46.387,26.855,-6.348,-62.988,118724.707,296.59359503425384
438,1686016960.29,-54.688,-379.395,-234.863,-74.219,118724.711,298.62603848077686
439,1686016960.29,-43.457,-244.629,-89.355,-45.898,118724.715,291.86830505962894
440,1686016960.3,-33.691,36.621,107.91,-33.203,118724.719,291.48351828912604
441,1686016960.3,-41.016,4.883,55.664,-54.199,118724.723,295.91823426338027
442,1686016960.3,-50.781,-481.445,-227.539,-67.871,118724.727,290.1259237508007
443,1686016960.31,-42.48,-756.348,-180.176,-54.199,118724.73,290.19531707579785
444,1686016960.31,-28.809,-333.496,135.742,-28.32,118724.732,292.32909226519917
445,1686016960.32,-32.715,54.688,209.473,-37.109,118724.736,287.2627715522053
446,1686016960.32,-47.852,-372.07,-121.094,-64.453,118724.74,286.5278428516838
447,1686016960.32,-43.945,-771.973,-179.688,-49.805,118724.744,281.83973104205927
448,1686016960.33,-22.461,24.902,240.234,-30.273,118724.748,286.4290393868807
449,1686016960.33,-19.043,175.781,154.297,-34.18,118724.752,281.5531816845002
450,1686016960.34,-29.785,-582.031,-181.641,-35.156,118724.756,282.13487933184354
451,1686016960.34,-28.809,-654.785,-126.953,-30.273,118724.76,282.0013243427697
452,1686016960.34,-21.973,225.586,262.695,-18.555,118724.764,285.9611515178536
453,1686016960.35,-22.949,348.145,134.277,-12.207,118724.768,285.31473749552714
454,1686016960.35,-26.855,96.68,60.547,-36.133,118724.771,275.29097786598373
455,1686016960.36,-41.016,-96.68,7.324,-56.152,118724.775,280.44107839283964
456,1686016960.39,-44.922,1.465,55.176,-49.316,118724.812,275.6910849635858
457,1686016960.39,-31.738,194.824,102.051,-43.457,118724.816,276.73101995443136
458,1686016960.4,-29.785,-164.062,-44.434,-47.363,118724.82,275.3446413201251
459,1686016960.4,-30.762,-132.324,30.273,-54.199,118724.824,273.3360462586703
460,1686016960.4,-27.344,142.09,94.238,-45.41,118724.828,277.4938080318766
461,1686016960.41,-25.391,-113.77,-3.418,-30.273,118724.832,275.00345914513747
462,1686016960.41,-29.297,-651.367,-168.945,-31.25,118724.836,277.7058215281276
463,1686016960.42,-40.527,-239.746,66.895,-41.504,118724.84,283.39551318576014
464,1686016960.42,-24.902,18.066,-35.645,-42.48,118724.852,275.713162745182
465,1686016960.42,-38.086,218.75,172.852,-37.109,118724.843,278.77028118317713
466,1686016960.42,-26.367,-549.316,-235.84,-30.273,118724.855,284.10635659007033
467,1686016960.42,-23.926,-8.301,55.664,-22.949,118724.847,281.9275516304134
468,1686016960.42,-29.785,-698.73,-104.004,-16.602,118724.859,276.5581381841116
469,1686016960.43,-20.508,27.344,77.148,-23.926,118724.851,281.15498844025996
470,1686016960.43,-30.762,51.758,203.613,-41.504,118724.863,281.1467096790001
471,1686016960.43,-27.832,211.426,106.445,-36.621,118724.855,275.57216799002
472,1686016960.43,-39.062,203.613,99.609,-59.082,118724.867,281.3269870643477
473,1686016960.44,-31.738,-391.602,-84.473,-34.18,118724.871,282.2467157295664
474,1686016960.44,-24.414,-363.281,44.434,-23.438,118724.875,271.605973359931
475,1686016960.44,-34.668,222.656,205.078,-38.574,118724.879,276.1714484646208
476,1686016960.45,-44.434,181.152,78.613,-48.828,118724.883,280.1977675959765
477,1686016960.45,-39.062,-199.707,-40.527,-51.758,118724.887,285.3673033516546
478,1686016960.46,-26.367,-58.105,70.312,-40.039,118724.891,284.5206333503056
479,1686016960.46,-21.973,233.887,158.203,-35.645,118724.895,288.4121962072035
480,1686016960.46,-35.156,153.32,74.219,-49.805,118724.883,288.76650653759197
481,1686016960.46,-31.738,-626.465,-304.199,-37.598,118724.886,285.6782804594613
482,1686016960.47,-19.531,-761.719,-143.066,-24.902,118724.89,287.6412345402097
483,1686016960.47,-27.344,166.504,279.785,-30.762,118724.894,292.308922452981
484,1686016960.48,-30.762,36.621,22.949,-44.922,118724.898,288.27285125744595
485,1686016960.48,-30.762,-452.637,-116.699,-57.129,118724.902,284.20068445153396
486,1686016960.48,-29.297,-334.473,62.5,-46.387,118724.906,294.1077352835136
487,1686016960.49,-25.391,181.152,236.816,-32.715,118724.91,289.3529686025611
488,1686016960.49,-33.691,-10.742,-31.25,-44.434,118724.914,290.63292571960005
489,1686016960.5,-47.852,-630.859,-198.242,-58.105,118724.918,288.3653851398606
490,1686016960.5,-46.387,-113.77,176.758,-47.852,118724.922,289.7013994125892
491,1686016960.5,-40.039,389.16,238.77,-33.203,118724.926,292.8402912705044
492,1686016960.51,-41.016,-176.758,-77.148,-42.969,118724.926,297.89057960796634
493,1686016960.51,-47.363,-834.961,-235.352,-60.547,118724.93,295.0279031152305
494,1686016960.51,-43.457,-284.18,124.512,-55.176,118724.934,299.43274657063415
495,1686016960.52,-31.25,338.867,228.516,-38.574,118724.938,303.8947385666729
496,1686016960.52,-26.855,-217.773,-62.012,-33.691,118724.942,302.24070295981466
497,1686016960.53,-42.48,-766.602,-147.461,-51.758,118724.946,294.1028029112498
498,1686016960.53,-55.664,-241.699,116.211,-66.895,118724.949,301.39523446285335
499,1686016960.53,-44.434,66.406,186.523,-43.945,118724.953,296.74382430291075
500,1686016960.54,-36.621,-499.512,-101.562,-21.973,118724.957,298.51102302430144
501,1686016960.54,-39.551,-770.508,-124.512,-36.133,118724.961,295.7712361039093
502,1686016960.54,-42.969,52.734,239.258,-55.176,118724.965,305.50157072057567
503,1686016960.55,-42.48,182.617,152.832,-47.363,118724.969,301.1709816027542
504,1686016960.55,-41.992,37.598,113.281,-39.551,118724.972,296.88583262779736
505,1686016960.56,-42.969,234.863,161.133,-57.129,118724.976,314.784571675602
506,1686016960.56,-47.363,253.906,121.094,-71.289,118724.98,300.21524956503345
507,1686016960.56,-42.48,24.414,40.039,-47.852,118724.983,297.6821490692491
508,1686016960.57,-28.32,-83.496,10.742,-24.902,118724.987,302.22682388306777
509,1686016960.57,-22.949,-126.465,21.973,-23.438,118724.991,305.9104335847666
510,1686016960.58,-26.367,-104.492,67.383,-36.133,118724.995,308.2668078420683
511,1686016960.58,-47.852,-196.289,-41.992,-44.434,118724.999,307.2221025655468
512,1686016960.58,-54.688,-617.676,-126.953,-32.227,118725.003,306.2560472797661
513,1686016960.59,-51.27,-153.32,159.18,-32.227,118725.007,305.99838626757753
514,1686016960.59,-53.223,58.105,138.672,-35.645,118725.011,304.7856510610417
515,1686016960.59,-44.434,-435.547,-73.73,-32.227,118725.015,312.47239161989614
516,1686016960.6,-29.785,-599.609,-81.055,-19.043,118725.017,303.5674831330872
517,1686016960.6,-24.414,-60.059,182.617,-12.207,118725.021,306.64075451261897
518,1686016960.6,-34.668,279.785,186.523,-34.18,118725.025,309.3596787500178
519,1686016960.61,-35.645,-388.672,-111.816,-33.691,118725.029,303.8356260419217
520,1686016960.61,-22.949,-561.035,-79.102,-10.254,118725.033,312.3217752508565
521,1686016960.62,-16.602,4.395,160.645,-1.465,118725.037,311.15869572549127
522,1686016960.62,-25.879,-61.035,105.957,-9.766,118725.04,314.38300034593436
523,1686016960.62,-35.645,-608.398,-147.461,-21.973,118725.044,316.05806280794997
524,1686016960.63,-33.203,-596.191,-83.984,-18.066,118725.048,305.6995426834804
525,1686016960.63,-16.113,289.551,273.438,-5.371,118725.052,310.07544456956566
526,1686016960.64,-16.602,279.785,111.816,-4.883,118725.056,318.7146016666175
527,1686016960.64,-31.25,-63.477,6.836,-31.738,118725.06,309.5214894198895
528,1686016960.64,-31.25,-170.898,41.016,-33.691,118725.065,316.5551916881374
529,1686016960.65,-19.043,9.766,144.531,-7.812,118725.069,320.273505732836
530,1686016960.65,-16.602,130.371,97.656,-5.371,118725.073,319.9172794688622
531,1686016960.65,-18.066,-248.047,-18.066,-20.508,118725.077,317.2017976369058
532,1686016960.66,-24.902,-182.617,56.641,-37.109,118725.081,324.75258250021227
533,1686016960.66,-16.602,-67.871,67.871,-14.648,118725.085,323.15318004970794
534,1686016960.67,-6.348,-205.078,37.598,-1.953,118725.089,316.43968140667164
535,1686016960.67,-19.531,-588.379,-149.414,-24.414,118725.093,314.9470752022402
536,1686016960.67,-25.879,-245.605,63.965,-35.156,118725.097,323.9077964336661
537,1686016960.68,-21.973,257.812,201.172,-29.297,118725.101,316.9518751506531
538,1686016960.68,-15.625,25.391,60.547,-13.184,118725.104,314.6121412320797
539,1686016960.68,-17.09,10.254,68.359,-12.207,118725.108,323.81469537458435
540,1686016960.69,-29.297,-34.668,-4.395,-25.391,118725.108,318.5431227307499
541,1686016960.69,-35.645,-158.203,-28.32,-20.508,118725.112,316.9260673504253
542,1686016960.69,-35.645,-499.512,-111.328,-1.465,118725.115,317.7078859292579
543,1686016960.7,-39.551,-674.805,-83.984,-7.812,118725.119,317.67656864007535
544,1686016960.7,-43.457,-28.809,168.945,-36.133,118725.123,316.0084601827286
545,1686016960.71,-34.18,-6.348,114.258,-45.41,118725.127,327.70540393588567
546,1686016960.71,-19.531,-550.781,-97.656,-21.484,118725.131,315.7552974576064
547,1686016960.71,-20.02,-950.195,-219.238,-9.766,118725.135,321.7333931929754
548,1686016960.72,-37.109,-278.32,138.184,-36.133,118725.139,320.70664636396896
549,1686016960.72,-44.922,115.234,153.32,-44.434,118725.143,324.5550884469904
550,1686016960.72,-32.715,-14.648,127.93,-24.414,118725.147,331.0580541480727
551,1686016960.73,-25.879,210.449,190.43,-13.184,118725.151,319.82225995643086
552,1686016960.73,-41.992,315.43,130.859,-26.855,118725.167,321.78499793245635
553,1686016960.74,-47.363,66.895,35.156,-32.227,118725.171,322.9493991096066
554,1686016960.74,-45.898,-109.863,0.488,-26.367,118725.174,323.18903316347115
555,1686016960.74,-37.109,183.594,157.227,-15.625,118725.178,325.47569584293853
556,1686016960.75,-28.32,250.488,99.609,-12.695,118725.182,323.85452368671366
557,1686016960.75,-34.668,-227.539,-193.359,-26.855,118725.186,329.6973907337875
558,1686016960.76,-36.133,-799.316,-297.363,-17.578,118725.19,324.29600856806417
559,1686016960.76,-26.855,-396.484,76.172,-6.836,118725.194,320.4726478152367
560,1686016960.76,-22.949,377.93,272.949,-16.602,118725.198,325.6539944914625
561,1686016960.77,-37.109,-108.398,-78.613,-31.25,118725.202,330.04725580640803
562,1686016960.77,-43.457,-550.293,-171.875,-33.691,118725.206,317.55544478331717
563,1686016960.77,-32.227,126.953,197.754,-14.648,118725.21,324.4053177740035
564,1686016960.78,-23.438,233.887,148.438,-7.812,118725.212,323.3461282269404
565,1686016960.78,-22.949,-487.305,-170.898,-14.648,118725.216,326.39564874446967
566,1686016960.78,-21.484,-690.43,-159.18,-6.836,118725.22,323.561538936131
567,1686016960.79,-29.297,76.66,200.195,0.977,118725.224,321.39413208472445
568,1686016960.79,-28.809,352.539,182.617,4.395,118725.227,323.9718866915915
569,1686016960.8,-33.691,-175.293,-56.152,-10.254,118725.231,324.57342695607684
570,1686016960.8,-54.199,-340.82,-20.508,-38.086,118725.235,324.6072905848682
571,1686016960.8,-50.781,64.941,144.043,-36.621,118725.239,328.32888252653146
572,1686016960.81,-44.434,100.098,130.859,-17.578,118725.243,325.5971596970765
573,1686016960.81,-47.363,-542.969,-161.621,-18.066,118725.247,324.3603204317663
574,1686016960.82,-42.969,-743.164,-169.922,-29.785,118725.251,326.3899410169984
575,1686016960.82,-36.621,47.363,208.496,-27.344,118725.255,327.15579144104
576,1686016960.84,-29.785,147.949,143.066,-7.324,118725.258,325.39952115174395
577,1686016960.84,-29.297,-24.902,86.426,-8.301,118725.261,332.9948594294941
578,1686016960.84,-38.086,96.191,111.816,-33.203,118725.265,327.74660698026975
579,1686016960.85,-42.48,220.703,141.113,-44.922,118725.269,321.1600492278561
580,1686016960.85,-33.203,69.824,51.27,-23.926,118725.273,331.75160928574405
581,1686016960.86,-27.832,-345.703,-64.453,-8.789,118725.277,326.4961404241682
582,1686016960.86,-33.691,-221.68,69.336,-26.855,118725.281,320.7877263321664
583,1686016960.86,-36.621,153.809,165.039,-38.574,118725.285,323.9540577615864
584,1686016960.87,-31.25,-141.113,-32.715,-19.043,118725.289,327.47013919233996
585,1686016960.87,-21.484,-459.961,-98.633,-8.301,118725.293,331.3426519565983
586,1686016960.88,-20.02,-150.391,75.195,-30.273,118725.297,325.282764530183
587,1686016960.88,-32.227,-20.02,85.938,-46.387,118725.301,322.926883316448
588,1686016960.88,-33.691,-410.645,-90.82,-28.809,118725.303,324.92205452197766
589,1686016960.88,-24.414,-794.434,-108.398,-5.859,118725.306,325.5049687671478
590,1686016960.89,-24.414,-85.938,217.285,-22.461,118725.31,330.4626671013212
591,1686016960.89,-32.715,180.176,128.418,-48.828,118725.314,325.09127627724587
592,1686016960.9,-34.18,-147.949,-4.883,-43.945,118725.318,328.07970117931694
593,1686016960.9,-26.367,-286.621,-7.324,-28.809,118725.322,325.5763223188018
594,1686016960.9,-23.438,-34.668,141.113,-35.156,118725.326,331.968849249598
595,1686016960.91,-29.785,182.129,103.516,-52.246,118725.33,331.24165780600157
596,1686016960.91,-34.668,-528.809,-251.953,-54.688,118725.334,333.872163457736
597,1686016960.92,-31.25,-615.234,-73.73,-34.668,118725.338,328.680946202309
598,1686016960.92,-26.855,260.742,283.203,-30.273,118725.342,324.68775329022566
599,1686016960.92,-36.133,209.961,75.195,-46.875,118725.345,328.7000912413197
600,1686016960.93,-41.992,-115.723,-23.438,-54.199,118725.349,328.78364563093584
601,1686016960.93,-33.203,-166.016,48.828,-34.18,118725.353,330.07945430692143
602,1686016960.94,-21.484,28.809,141.113,-16.602,118725.357,327.9170721445424
603,1686016960.94,-20.02,102.539,75.684,-29.297,118725.361,319.62610431754536
604,1686016960.94,-26.367,-323.242,-67.383,-46.387,118725.365,317.09882042739014
605,1686016960.95,-22.461,-384.766,51.27,-38.574,118725.369,326.57044915859996
606,1686016960.95,-10.742,-144.531,139.16,-22.949,118725.373,323.9857909139932
607,1686016960.95,-22.461,-198.73,1.465,-32.715,118725.377,320.4417505301963
608,1686016960.96,-36.133,-626.465,-169.922,-48.34,118725.381,322.08225643004516
609,1686016960.96,-27.344,-196.289,114.258,-43.945,118725.385,325.02524529650424
610,1686016960.97,-24.902,279.297,222.656,-28.32,118725.388,324.83426180206305
611,1686016960.97,-25.879,39.551,83.984,-18.066,118725.392,334.00680730342475
612,1686016960.97,-23.438,-283.203,-25.391,-33.203,118725.393,327.8748697784984
613,1686016960.98,-38.086,-226.074,33.691,-54.688,118725.397,326.05300833681855
614,1686016960.98,-43.945,212.891,204.59,-39.551,118725.401,326.3798158575313
615,1686016960.98,-39.062,-259.766,-58.105,-24.414,118725.404,318.96384030766757
616,1686016960.99,-40.527,-709.473,-153.809,-33.691,118725.408,330.76612220827565
617,1686016960.99,-37.109,-380.859,46.387,-43.945,118725.412,331.86286861570255
618,1686016961.0,-38.086,-196.289,104.004,-36.133,118725.416,336.81166511535673
619,1686016961.0,-32.715,-495.605,-94.727,-7.812,118725.42,330.2739134525086
620,1686016961.0,-33.691,-764.16,-140.137,-6.348,118725.424,326.71044850142493
621,1686016961.01,-42.969,7.324,229.492,-39.062,118725.428,321.05250945467844
622,1686016961.01,-39.551,153.32,109.863,-47.852,118725.432,329.79808682830463
623,1686016961.01,-30.762,11.719,101.562,-28.32,118725.436,329.9927217028701
624,1686016961.02,-26.367,184.082,157.227,-32.715,118725.438,331.98041114249475
625,1686016961.02,-27.344,256.836,121.094,-47.852,118725.442,329.0448481583823
626,1686016961.02,-30.273,42.48,17.09,-40.527,118725.446,325.01256633176274
627,1686016961.03,-23.926,-85.938,-9.277,-29.785,118725.45,326.1265386048898
628,1686016961.03,-21.484,184.082,137.695,-28.32,118725.454,329.074100214517
629,1686016961.04,-35.645,-36.621,-28.809,-41.016,118725.457,324.25218148452973
630,1686016961.04,-36.133,-447.266,-226.562,-47.363,118725.461,328.27500172351006
631,1686016961.04,-22.949,-881.836,-319.824,-26.367,118725.465,326.70411718031585
632,1686016961.05,-22.461,-442.383,41.016,-12.207,118725.469,326.95549336819937
633,1686016961.05,-21.973,314.941,259.277,-21.484,118725.473,334.5157760320235
634,1686016961.06,-22.461,-94.727,19.531,-32.715,118725.477,319.5416938429365
635,1686016961.06,-21.973,-176.758,34.18,-22.461,118725.481,328.5543089241384
636,1686016961.06,-14.16,-5.859,111.328,-11.719,118725.482,329.55939666943294
637,1686016961.06,-22.949,57.617,150.879,-17.578,118725.486,320.5740388431437
638,1686016961.07,-31.738,-340.332,-113.77,-28.32,118725.49,326.42683347858156
639,1686016961.07,-33.691,-662.598,-187.988,-36.133,118725.494,328.37698271487625
640,1686016961.08,-23.438,45.898,162.598,-28.32,118725.498,330.71717035963326
641,1686016961.08,-16.113,91.309,128.418,-24.902,118725.502,325.77924953644595
642,1686016961.08,-30.762,-584.473,-171.875,-38.086,118725.506,325.60586354750046
643,1686016961.09,-36.133,-645.996,-128.418,-42.48,118725.51,327.3145041266358
644,1686016961.09,-25.391,128.418,229.98,-26.855,118725.514,327.1710010150455
645,1686016961.1,-20.996,102.051,119.141,-18.555,118725.518,326.99656764360316
646,1686016961.1,-24.902,-320.801,-33.203,-35.156,118725.521,324.63370912681467
647,1686016961.1,-28.32,-202.148,50.293,-42.969,118725.525,330.8971222438943
648,1686016961.11,-26.367,220.215,185.059,-30.273,118725.541,327.26330872849746
649,1686016961.11,-22.461,133.301,89.844,-20.996,118725.545,334.99176854113216
650,1686016961.11,-31.738,-65.918,30.273,-31.738,118725.549,332.0020051444683
651,1686016961.12,-45.41,60.547,101.562,-46.875,118725.553,330.3617427028973
652,1686016961.12,-34.18,186.035,124.512,-41.504,118725.557,336.7738501808096
653,1686016961.13,-25.391,-109.863,-20.508,-23.438,118725.561,330.84237949233676
654,1686016961.13,-27.832,-657.715,-179.688,-22.461,118725.565,323.80942776753307
655,1686016961.13,-35.645,-387.695,11.719,-44.922,118725.568,331.96652675025194
656,1686016961.14,-35.156,22.461,111.328,-48.34,118725.572,326.7699468724162
657,1686016961.14,-19.043,-86.426,53.711,-31.738,118725.576,330.47016946219617
658,1686016961.14,-15.625,-52.734,66.895,-30.273,118725.58,327.38732876928697
659,1686016961.15,-26.367,3.418,44.434,-43.457,118725.584,331.39887839270654
660,1686016961.15,-35.645,-211.426,-84.473,-47.852,118725.586,322.17573297272946
661,1686016961.16,-32.227,-595.215,-207.52,-28.32,118725.59,323.1818662805605
662,1686016961.16,-26.367,-771.973,-83.984,-12.695,118725.594,330.67921060942217
663,1686016961.16,-39.551,-85.938,199.707,-36.621,118725.598,333.6097819442814
664,1686016961.17,-47.852,167.48,102.539,-55.664,118725.602,325.201935139678
665,1686016961.17,-36.133,-411.621,-33.691,-38.086,118725.606,326.82258049015996
666,1686016961.18,-22.461,-418.945,72.266,-25.391,118725.609,328.06631019245486
667,1686016961.18,-24.902,225.586,200.684,-36.133,118725.613,330.911367505829
668,1686016961.18,-36.133,132.812,51.27,-51.27,118725.617,328.5396183835059
669,1686016961.19,-39.062,-405.273,-101.074,-47.363,118725.621,330.7632982487887
670,1686016961.19,-30.273,-160.156,98.145,-24.414,118725.625,330.27070208205276
671,1686016961.2,-21.484,332.52,223.145,-20.02,118725.629,329.2676007374552
672,1686016961.21,-29.785,95.703,41.016,-47.852,118725.634,328.48279035809924
673,1686016961.22,-36.621,-159.18,-18.066,-46.875,118725.638,328.59674975069606
674,1686016961.22,-32.715,-163.086,77.637,-25.879,118725.642,329.7093711114537
675,1686016961.22,-23.926,44.922,161.621,-32.227,118725.646,331.87217228850784
676,1686016961.23,-27.344,20.02,-13.184,-47.363,118725.65,331.2765690899691
677,1686016961.23,-40.527,-728.027,-309.57,-43.945,118725.654,329.3242226187064
678,1686016961.24,-38.086,-528.32,33.203,-31.738,118725.658,326.37010127317916
679,1686016961.24,-30.273,316.406,285.645,-30.273,118725.662,327.1846699693906
680,1686016961.24,-32.227,-4.395,-7.324,-47.852,118725.666,330.238042115231
681,1686016961.25,-35.156,-482.91,-159.668,-52.734,118725.669,325.90077912540653
682,1686016961.25,-18.066,3.906,142.09,-31.25,118725.673,329.03445171710877
683,1686016961.26,-9.766,320.801,203.613,-9.766,118725.677,330.76776233476926
684,1686016961.26,-18.555,-286.621,-95.215,-10.742,118725.678,329.77271979336996
685,1686016961.26,-29.785,-618.164,-141.602,-29.297,118725.681,330.95445139745715
686,1686016961.26,-38.086,22.461,148.438,-31.738,118725.685,324.5280302295403
687,1686016961.27,-30.762,274.414,164.062,-16.113,118725.689,324.01736296559625
688,1686016961.27,-26.367,-129.395,-10.254,-16.602,118725.693,331.57305014696834
689,1686016961.28,-29.297,-486.816,-153.32,-31.738,118725.697,329.28471446109967
690,1686016961.28,-31.738,-404.785,-70.801,-34.668,118725.701,317.5888046575207
691,1686016961.28,-25.879,-185.059,110.84,-19.043,118725.705,326.4581705607583
692,1686016961.29,-21.484,-532.715,-124.023,-14.16,118725.709,327.7345307230553
693,1686016961.29,-31.738,-787.598,-166.016,-32.227,118725.713,329.12186447123986
694,1686016961.3,-44.434,-24.414,241.211,-41.504,118725.717,326.8092304180747
695,1686016961.3,-37.109,134.277,134.277,-23.438,118725.721,327.4636583137252
696,1686016961.3,-25.391,-9.277,98.145,-1.953,118725.723,333.92458420249795
697,1686016961.3,-27.344,130.371,161.133,-14.648,118725.727,330.2490424005097
698,1686016961.31,-36.133,162.598,107.422,-38.086,118725.731,332.6215027560773
699,1686016961.31,-32.715,-1.953,43.457,-29.785,118725.735,332.70137919507033
700,1686016961.32,-28.809,-96.191,-2.93,-15.625,118725.739,329.42386910752754
701,1686016961.32,-29.297,-187.012,-12.695,-19.531,118725.743,332.79067015661764
702,1686016961.32,-32.227,-226.562,-7.324,-33.691,118725.746,330.18972965655996
703,1686016961.33,-32.227,-255.371,-9.766,-23.438,118725.75,326.15539444279113
704,1686016961.33,-28.809,-853.027,-232.422,1.465,118725.754,330.4312229749644
705,1686016961.34,-32.227,-439.453,37.109,-6.348,118725.758,323.30960011070556
706,1686016961.34,-35.645,259.277,217.773,-27.832,118725.762,330.4698620572505
707,1686016961.34,-35.645,-85.938,27.832,-22.461,118725.766,331.35053001049056
708,1686016961.35,-34.668,-302.734,29.785,-4.883,118725.768,330.31327778543874
709,1686016961.35,-26.367,-129.883,93.262,10.254,118725.772,330.6113385753137
710,1686016961.35,-22.949,121.094,147.461,3.418,118725.776,327.06100247441907
711,1686016961.36,-30.273,-374.512,-120.117,-7.812,118725.78,326.7116323310957
712,1686016961.36,-29.785,-659.18,-149.902,6.836,118725.784,330.3203925911881
713,1686016961.37,-29.297,-118.652,142.578,12.695,118725.788,331.9497961186458
714,1686016961.37,-36.621,-36.621,132.324,-11.23,118725.791,333.9815777384834
715,1686016961.37,-40.527,-564.453,-145.508,-20.02,118725.795,342.8728381575931
716,1686016961.38,-42.48,-613.77,-100.098,-10.742,118725.799,328.1872602673472
717,1686016961.38,-37.598,234.863,263.672,-5.371,118725.803,336.65236095144223
718,1686016961.38,-34.668,117.188,105.957,-11.719,118725.807,326.9088527633356
719,1686016961.39,-41.016,-353.516,-46.387,-26.855,118725.811,331.06962858176723
720,1686016961.39,-43.457,-140.137,73.73,-28.32,118725.818,331.0697016795635
721,1686016961.4,-30.762,316.895,200.684,-11.23,118725.822,330.47995636323293
722,1686016961.4,-24.902,145.508,44.434,-8.301,118725.826,333.1962358690519
723,1686016961.41,-31.738,-98.145,-22.461,-28.32,118725.83,329.50474182889565
724,1686016961.41,-35.645,4.883,67.871,-26.367,118725.834,328.241161443586
725,1686016961.41,-33.203,-89.355,26.367,-5.859,118725.838,328.07677074489726
726,1686016961.42,-29.297,-273.438,-34.668,-5.859,118725.842,328.09309197184695
727,1686016961.42,-30.273,-638.184,-168.945,-16.602,118725.845,331.85678023523394
728,1686016961.42,-39.551,-292.48,57.129,-32.227,118725.849,327.838582033018
729,1686016961.43,-31.738,250.977,201.172,-20.508,118725.853,335.36673709736465
730,1686016961.43,-21.973,39.062,50.781,-7.324,118725.857,327.9762791656678
731,1686016961.44,-29.785,-76.66,11.23,-27.832,118725.861,329.4060332883855
732,1686016961.44,-45.898,-135.254,4.883,-52.246,118725.862,331.62505093462573
733,1686016961.44,-36.133,-283.203,-84.961,-40.039,118725.866,333.3016681201237
734,1686016961.44,-13.672,-435.547,-60.059,-5.371,118725.87,335.64641551856784
735,1686016961.45,-13.672,-213.379,110.352,-6.836,118725.874,332.5901313150248
736,1686016961.45,-16.602,61.523,91.797,-20.508,118725.878,333.45012868768066
737,1686016961.46,-15.625,-209.473,-62.988,-15.625,118725.882,325.91262027409743
738,1686016961.46,-9.766,-612.793,-185.059,0.488,118725.886,331.3972417935002
739,1686016961.46,-11.719,-979.004,-231.445,-1.465,118725.89,327.58505174952165
740,1686016961.47,-17.09,-279.297,132.812,-28.809,118725.893,324.10908024340114
741,1686016961.47,-17.09,85.938,136.23,-35.645,118725.897,324.5206509606354
742,1686016961.48,-7.812,-94.238,97.656,-16.602,118725.901,325.0334378812759
743,1686016961.48,0.977,208.008,219.238,-3.906,118725.905,326.42855520964514
744,1686016961.48,-13.672,365.234,168.457,-23.926,118725.905,332.42432744377544
745,1686016961.49,-31.25,86.914,33.203,-45.41,118725.909,331.3096021603044
746,1686016961.49,-20.508,-192.383,-48.34,-25.391,118725.913,328.429305189669
747,1686016961.5,-4.395,-110.352,100.098,-2.441,118725.916,324.2902674926827
748,1686016961.5,-5.859,86.914,144.531,-10.742,118725.92,334.7905190009782
749,1686016961.5,-16.602,-156.738,-99.609,-20.02,118725.924,328.9876296271964
750,1686016961.51,-19.531,-884.766,-351.562,-7.324,118725.928,322.76524966825207
751,1686016961.51,-10.742,-542.969,40.039,5.371,118725.932,331.45963696076507
752,1686016961.51,-16.602,336.914,307.617,-5.371,118725.936,328.46453203312933
753,1686016961.52,-27.344,56.152,27.344,-28.32,118725.94,326.83627732292786
754,1686016961.52,-28.32,-164.062,0.488,-35.645,118725.944,330.46716580273244
755,1686016961.53,-19.043,220.215,167.48,-9.277,118725.948,334.2354529070292
756,1686016961.54,-9.766,77.148,84.473,-6.348,118725.963,328.69857738514247
757,1686016961.54,-14.648,-346.68,-82.031,-34.668,118725.966,328.4618511287224
758,1686016961.55,-19.531,-203.125,28.32,-44.434,118725.97,323.6404063877556
759,1686016961.55,-19.531,150.391,150.391,-30.273,118725.974,316.14693362954597
760,1686016961.56,-21.484,209.473,123.535,-13.672,118725.978,328.2263326030391
761,1686016961.56,-26.855,-462.402,-256.836,-12.695,118725.982,321.2634108029249
762,1686016961.56,-35.645,-1000.0,-366.699,-31.25,118725.986,332.78194210069256
763,1686016961.57,-42.48,-481.934,74.219,-36.133,118725.99,326.6364572377043
764,1686016961.57,-29.785,-45.898,159.668,-19.043,118725.994,328.8539171425864
765,1686016961.58,-21.484,-333.008,16.602,-21.484,118725.998,324.0454338575757
766,1686016961.58,-32.227,-268.555,79.59,-40.527,118726.002,327.21619099690776
767,1686016961.58,-36.133,188.965,188.965,-42.969,118726.006,328.27007290843005
768,1686016961.59,-21.973,144.043,96.191,-21.484,118726.021,333.07362403171464
769,1686016961.59,-18.066,-19.043,70.312,-22.461,118726.025,330.28529518757426
770,1686016961.59,-35.645,28.32,81.543,-49.316,118726.029,325.04809421678686
771,1686016961.6,-41.992,125.977,96.191,-53.223,118726.033,320.74291865670216
772,1686016961.6,-32.715,66.895,75.195,-30.762,118726.036,330.1831811594331
773,1686016961.61,-31.25,-265.137,-90.82,-23.926,118726.04,335.92842295585615
774,1686016961.61,-37.598,-190.918,1.953,-43.457,118726.044,326.2087366085092
775,1686016961.61,-36.133,115.234,138.672,-48.34,118726.048,327.8307108923473
776,1686016961.62,-26.855,-147.949,-25.879,-30.762,118726.052,329.77306156038355
777,1686016961.62,-19.531,-835.449,-250.488,-17.578,118726.056,326.4731851978344
778,1686016961.62,-22.461,-422.363,43.945,-30.273,118726.06,329.10835970768517
779,1686016961.63,-25.391,288.574,227.539,-41.504,118726.064,326.7395201291472
780,1686016961.63,-25.879,-354.98,-84.961,-24.902,118726.053,331.18755642596267
781,1686016961.64,-26.855,-565.43,-62.5,-12.207,118726.057,330.2447773525015
782,1686016961.64,-28.32,181.641,221.68,-34.18,118726.061,322.5601991691463
783,1686016961.64,-44.434,235.352,117.676,-52.246,118726.065,324.37233832263775
784,1686016961.65,-50.781,-233.887,-90.82,-42.48,118726.069,325.2283479743329
785,1686016961.65,-28.809,-467.285,-43.457,-21.973,118726.073,322.085484698048
786,1686016961.66,-22.461,-93.262,146.484,-18.555,118726.077,329.3430882967884
787,1686016961.66,-24.414,201.66,123.535,-37.109,118726.081,323.6562023566573
788,1686016961.66,-31.25,-496.094,-217.285,-40.039,118726.084,322.5415214035042
789,1686016961.67,-26.855,-612.305,-108.398,-15.625,118726.088,325.78722169032017
790,1686016961.67,-13.672,151.367,191.406,-8.789,118726.092,328.5210034910193
791,1686016961.67,-19.043,-59.082,33.203,-31.738,118726.096,330.8993016543275
792,1686016961.68,-28.809,-452.637,-69.824,-47.852,118726.098,323.2665452869259
793,1686016961.68,-26.855,-176.27,81.055,-33.203,118726.102,329.9392586124313
794,1686016961.68,-20.996,289.551,215.332,-23.926,118726.106,323.93590981213913
795,1686016961.69,-23.438,104.98,47.363,-32.715,118726.11,329.8052626189793
796,1686016961.69,-34.18,-159.18,-60.059,-49.805,118726.114,329.68098746294265
797,1686016961.7,-34.668,-247.559,-20.508,-45.898,118726.117,328.4845973277425
798,1686016961.7,-21.484,-66.406,130.371,-26.367,118726.121,326.58971551313533
799,1686016961.7,-14.16,-65.43,29.297,-22.949,118726.125,328.8172753770273
800,1686016961.71,-21.484,-688.965,-270.508,-34.668,118726.129,332.58027754032787
801,1686016961.71,-32.715,-306.152,66.406,-49.316,118726.133,326.49766919435274
802,1686016961.72,-22.949,285.156,229.492,-32.715,118726.137,327.02585952576834
803,1686016961.72,-0.977,57.129,65.43,-5.371,118726.141,323.9303176075309
804,1686016961.72,-12.695,-332.031,-83.008,-25.391,118726.145,331.008272106541
805,1686016961.73,-41.504,-409.18,-142.578,-56.152,118726.149,334.8644506401724
806,1686016961.73,-33.203,-32.227,91.309,-44.434,118726.153,323.4636548715619
807,1686016961.73,-20.996,-268.066,-40.039,-29.297,118726.157,327.04748658809973
808,1686016961.74,-37.598,-786.133,-199.219,-52.246,118726.161,330.406130389033
809,1686016961.74,-54.199,-488.281,64.453,-81.543,118726.165,329.664808784687
810,1686016961.75,-55.176,-196.289,138.184,-71.289,118726.169,332.6175375122316
811,1686016961.75,-46.875,-510.742,-61.523,-45.898,118726.173,317.56026085887794
812,1686016961.75,-42.969,-620.605,-91.309,-46.875,118726.177,327.89316675026134
813,1686016961.76,-44.434,139.16,202.148,-63.477,118726.181,331.42124406051727
814,1686016961.76,-35.645,109.375,103.027,-52.734,118726.184,326.16844697990206
815,1686016961.76,-26.367,-42.969,98.145,-36.621,118726.188,322.2471508616896
816,1686016961.77,-30.762,206.543,178.223,-37.109,118726.188,327.2961651942284
817,1686016961.77,-40.527,255.859,117.676,-54.199,118726.192,330.89324465835364
818,1686016961.77,-39.551,-104.98,-85.938,-55.664,118726.196,327.72975197241976
819,1686016961.78,-35.156,-210.938,-50.293,-42.969,118726.2,328.1202464851016
820,1686016961.78,-29.297,-100.586,101.074,-43.945,118726.203,333.92521324261145
821,1686016961.79,-36.133,-242.188,30.273,-64.941,118726.207,329.7541431447594
822,1686016961.79,-39.551,-345.215,-52.246,-73.242,118726.211,328.5341706529717
823,1686016961.79,-26.855,-828.125,-229.492,-35.645,118726.215,320.7827299277492
824,1686016961.8,-15.625,-494.629,52.734,-14.16,118726.219,330.2619143130385
825,1686016961.8,-22.461,333.984,271.973,-28.32,118726.223,323.95369974270153
826,1686016961.8,-35.645,-8.789,16.113,-36.133,118726.227,333.19509076310686
827,1686016961.81,-31.738,-114.258,41.016,-32.227,118726.231,328.9927531210432
828,1686016961.81,-30.273,4.883,102.539,-27.344,118726.232,322.4457839572699
829,1686016961.82,-31.25,87.402,137.695,-34.668,118726.236,329.31829848251977
830,1686016961.82,-34.18,-311.035,-100.586,-42.48,118726.24,332.8064643772732
831,1686016961.82,-39.551,-642.09,-158.203,-35.645,118726.244,326.9851314801439
832,1686016961.83,-29.785,134.766,193.359,-17.578,118726.248,327.60062736587605
833,1686016961.83,-20.02,147.949,112.305,-12.695,118726.252,330.490374795216
834,1686016961.84,-21.973,-586.914,-217.773,-20.996,118726.256,330.5918881415067
835,1686016961.84,-25.391,-830.566,-166.016,-26.367,118726.26,326.1885672739809
836,1686016961.84,-19.531,23.926,276.855,-25.879,118726.263,337.02143210411185
837,1686016961.85,-12.207,369.141,177.246,-12.695,118726.267,324.645908987139
838,1686016961.85,-23.926,34.18,42.969,-20.996,118726.271,331.78549343684284
839,1686016961.85,-31.738,-3.906,75.195,-31.738,118726.275,326.70111316709296
840,1686016961.86,-26.367,265.625,153.32,-17.578,118726.292,322.83399629292427
841,1686016961.86,-24.414,240.723,86.914,-8.301,118726.296,324.1230985594898
842,1686016961.86,-24.414,-4.883,-7.812,-19.043,118726.299,333.9928344938445
843,1686016961.87,-28.32,25.879,68.848,-31.738,118726.303,329.89826126202865
844,1686016961.87,-15.137,129.883,84.473,-18.066,118726.307,321.45367381228397
845,1686016961.88,-9.766,-116.699,-60.059,-4.883,118726.311,332.3246707918399
846,1686016961.88,-29.785,-700.684,-220.703,-18.066,118726.315,324.38241825669064
847,1686016961.88,-35.645,-397.949,29.297,-33.691,118726.319,322.22123322974295
848,1686016961.89,-20.996,130.371,164.551,-26.367,118726.323,324.02446085293127
849,1686016961.89,-7.812,-277.344,-45.898,-5.371,118726.327,326.04925617111695
850,1686016961.9,-8.789,-441.895,-66.406,-9.277,118726.331,319.00711114896615
851,1686016961.9,-21.973,66.406,141.602,-38.086,118726.335,322.61921177548203
852,1686016961.9,-32.227,9.766,32.227,-44.434,118726.337,322.26943457401484
853,1686016961.9,-28.809,-609.375,-195.801,-26.855,118726.341,321.3694435106897
854,1686016961.91,-16.602,-620.605,-81.055,-9.766,118726.345,326.3128941597083
855,1686016961.91,-13.672,102.539,199.707,-20.996,118726.348,324.1499521863088
856,1686016961.92,-23.438,167.48,106.445,-38.574,118726.352,325.81088545528854
857,1686016961.92,-22.949,-313.965,-94.238,-27.344,118726.356,328.16796910330066
858,1686016961.92,-14.648,-344.238,29.785,-13.184,118726.36,328.38241996780886
859,1686016961.93,-15.137,146.973,222.168,-22.461,118726.364,325.89711705340807
860,1686016961.93,-20.996,223.633,80.078,-41.016,118726.368,331.2536453024727
861,1686016961.94,-14.648,-431.152,-151.367,-37.109,118726.372,326.57705530218107
862,1686016961.94,-5.859,-365.234,45.41,-15.137,118726.376,327.57466095675
863,1686016961.94,-12.695,122.559,136.719,-12.207,118726.38,325.24904711488307
864,1686016961.95,-21.484,-203.125,-96.68,-37.109,118726.397,325.89117339641405
865,1686016961.95,-27.344,-419.922,-92.773,-45.41,118726.401,326.25764872513764
866,1686016961.96,-24.902,-85.449,117.188,-23.926,118726.405,319.6735637414036
867,1686016961.96,-16.113,299.316,194.336,-28.809,118726.409,325.29919643581553
868,1686016961.96,-21.973,9.277,10.254,-52.246,118726.413,325.230037891282
869,1686016961.97,-40.039,-516.602,-185.547,-55.664,118726.416,313.77860304622334
870,1686016961.97,-35.645,-281.25,43.945,-31.25,118726.42,322.44414286131587
871,1686016961.98,-24.902,256.348,210.449,-19.043,118726.424,320.87120925590807
872,1686016961.98,-34.668,-185.059,-151.367,-35.156,118726.428,316.19525944059217
873,1686016961.98,-37.598,-669.922,-225.098,-43.945,118726.432,325.413756451803
874,1686016961.99,-28.32,-110.84,160.156,-28.32,118726.436,330.25081132180196
875,1686016961.99,-20.508,329.59,204.59,1.953,118726.44,328.190994067151
876,1686016962.01,-20.996,-96.68,17.578,-2.93,118726.428,326.7205280344475
877,1686016962.01,-32.227,-406.25,-68.848,-23.926,118726.432,321.367965835917
878,1686016962.02,-32.227,-196.777,32.715,-18.066,118726.435,329.1368775490638
879,1686016962.02,-25.879,98.633,162.598,3.906,118726.439,326.56711149218694
880,1686016962.02,-30.762,-253.418,-86.914,7.812,118726.443,320.25871499275144
881,1686016962.03,-34.18,-917.969,-334.961,-10.742,118726.447,325.37789585738966
882,1686016962.03,-31.738,-387.695,85.938,-13.184,118726.451,327.7496920945387
883,1686016962.03,-20.508,112.305,214.844,11.23,118726.455,321.77684983200464
884,1686016962.04,-19.043,-69.336,39.062,13.672,118726.459,326.04704009093246
885,1686016962.04,-25.879,-92.285,56.152,-4.395,118726.463,330.5900020264974
886,1686016962.05,-25.879,173.34,140.625,-20.02,118726.467,326.16874549617444
887,1686016962.05,-20.02,123.535,76.66,-14.648,118726.471,322.1032626418307
888,1686016962.05,-12.207,-420.41,-64.453,0.977,118726.486,324.30022678881886
889,1686016962.06,-20.508,-339.844,49.805,-12.695,118726.49,320.3295353419408
890,1686016962.06,-35.645,184.57,159.668,-32.227,118726.494,324.3409707600982
891,1686016962.06,-32.715,1.953,28.809,-11.719,118726.498,325.4384929250603
892,1686016962.07,-13.672,-151.855,-12.207,19.043,118726.502,318.2142338559086
893,1686016962.07,-13.672,-164.062,49.805,14.16,118726.505,331.5138902741027
894,1686016962.08,-37.598,-301.27,8.789,-11.23,118726.509,324.6048325243607
895,1686016962.08,-47.363,-375.0,-124.512,-20.996,118726.513,328.05149761859826
896,1686016962.08,-34.18,-840.332,-298.34,-2.93,118726.517,322.3447603917983
897,1686016962.09,-31.25,-494.141,35.645,-6.348,118726.521,326.97791147704373
898,1686016962.09,-41.992,229.492,241.211,-40.039,118726.525,332.6420154643041
899,1686016962.09,-47.852,-57.617,40.527,-46.387,118726.529,324.9869182805045
900,1686016962.1,-34.18,-304.199,49.805,-22.949,118726.517,324.515463239804
901,1686016962.1,-24.414,-48.828,147.461,-12.207,118726.521,316.06782297295723
902,1686016962.1,-31.25,277.832,169.922,-30.273,118726.525,321.84712390987136
903,1686016962.11,-30.273,-318.848,-127.441,-26.367,118726.529,328.30278459607615
904,1686016962.11,-18.555,-642.09,-152.344,-2.93,118726.533,321.36828907825134
905,1686016962.12,-14.16,-99.121,157.227,-0.488,118726.537,323.88613949785287
906,1686016962.12,-31.25,-127.93,67.383,-24.902,118726.541,325.5523774676244
907,1686016962.12,-41.992,-586.426,-100.586,-44.434,118726.545,325.335832909332
908,1686016962.13,-27.344,-395.02,54.688,-33.691,118726.548,322.4593641867055
909,1686016962.13,-20.508,303.711,227.539,-23.926,118726.552,322.9737941619385
910,1686016962.14,-26.855,358.887,121.094,-33.691,118726.556,320.4817915055643
911,1686016962.14,-31.25,-479.98,-258.789,-43.945,118726.56,325.9804253005972
912,1686016962.14,-36.621,-707.031,-166.992,-34.668,118726.563,323.83786680451374
913,1686016962.14,-25.391,216.309,273.438,-29.297,118726.567,320.4168594146204
914,1686016962.15,-22.949,224.609,109.863,-32.715,118726.571,327.09541392619184
915,1686016962.15,-34.668,-75.195,1.953,-47.363,118726.575,322.20423970758435
916,1686016962.16,-39.551,14.16,71.289,-51.27,118726.578,324.15894333091086
917,1686016962.16,-31.25,-36.621,47.363,-31.25,118726.582,328.8842194568902
918,1686016962.16,-20.508,-229.492,-5.859,-9.766,118726.586,328.29043430752404
919,1686016962.17,-31.25,-650.879,-150.391,-16.113,118726.59,324.27693261213676
920,1686016962.17,-41.016,-316.406,61.523,-33.691,118726.594,326.4128267626173
921,1686016962.18,-29.785,224.609,211.914,-15.625,118726.598,330.70271079722147
922,1686016962.18,-17.09,-195.801,-18.066,6.348,118726.602,328.7852697955118
923,1686016962.18,-29.297,-284.668,-40.039,-16.602,118726.606,327.029113186703
924,1686016962.19,-39.551,-119.629,45.41,-41.016,118726.608,319.3869421768354
925,1686016962.19,-34.668,-96.191,59.57,-26.855,118726.612,323.84910274399874
926,1686016962.2,-30.273,-395.02,-87.402,-6.348,118726.616,326.21686105192174
927,1686016962.2,-39.062,-754.883,-100.586,-14.648,118726.62,328.4491385822602
928,1686016962.2,-44.434,-155.762,160.645,-40.527,118726.623,323.266790899354
929,1686016962.21,-36.621,-67.383,70.312,-47.363,118726.627,317.26250893435895
930,1686016962.21,-23.926,-622.559,-117.188,-17.578,118726.631,315.4615402163059
931,1686016962.21,-20.996,-630.859,-73.242,-6.836,118726.635,327.20995895207284
932,1686016962.22,-35.156,158.691,220.703,-40.039,118726.639,321.19758281529516
933,1686016962.22,-41.992,164.551,83.984,-55.176,118726.643,322.87292723594874
934,1686016962.23,-40.039,-33.691,82.031,-41.992,118726.647,321.5476958757301
935,1686016962.23,-29.785,181.152,174.805,-25.391,118726.651,324.5895706360641
936,1686016962.23,-28.32,157.227,96.191,-35.156,118726.656,332.0543421617422
937,1686016962.24,-43.945,-176.758,-92.773,-49.805,118726.659,331.12322825345404
938,1686016962.24,-36.133,-383.301,-106.934,-35.156,118726.663,334.3821947730231
939,1686016962.24,-14.16,-26.367,136.719,-23.438,118726.667,320.7385688236737
940,1686016962.25,-16.602,294.922,145.508,-32.227,118726.671,319.5347321707214
941,1686016962.25,-28.32,-167.48,-160.645,-45.41,118726.675,324.8897118993827
942,1686016962.26,-31.25,-745.605,-257.324,-37.598,118726.679,326.37166984194937
943,1686016962.26,-20.508,-252.441,121.094,-33.691,118726.683,323.84979251068864
944,1686016962.26,-20.02,393.066,249.512,-28.809,118726.687,323.9754968796854
945,1686016962.27,-24.902,-76.66,-41.504,-22.949,118726.691,322.65972127498816
946,1686016962.27,-20.02,-263.672,-74.219,-27.832,118726.695,326.6897367073708
947,1686016962.28,-10.254,208.984,159.18,-15.625,118726.699,323.40733577912886
948,1686016962.28,-5.371,124.023,106.934,-11.23,118726.712,318.69131832269215
949,1686016962.28,-14.16,-522.949,-193.359,-22.461,118726.716,326.2289660521268
950,1686016962.28,-24.414,-696.777,-187.5,-25.391,118726.72,325.56268285619757
951,1686016962.29,-21.973,-229.98,110.352,-23.438,118726.724,324.7225681566727
952,1686016962.29,-19.531,91.797,165.527,-12.207,118726.728,327.01395761572576
953,1686016962.3,-31.25,-356.934,-112.305,-20.02,118726.732,325.3068181575659
954,1686016962.3,-38.574,-898.438,-265.137,-32.227,118726.736,319.085907489441
955,1686016962.3,-30.273,-130.371,170.898,-22.461,118726.739,325.12680986816616
956,1686016962.31,-20.02,260.254,211.426,-12.207,118726.743,323.5752620740552
957,1686016962.31,-17.09,68.359,119.629,-19.531,118726.747,327.2988856848052
958,1686016962.32,-23.926,65.918,122.07,-36.621,118726.751,330.15506446848826
959,1686016962.32,-27.344,211.914,113.281,-36.133,118726.755,318.58493513157583
960,1686016962.34,-17.09,127.93,71.777,-13.184,118726.758,330.7355933359115
961,1686016962.34,-18.066,-67.383,56.152,-12.695,118726.762,326.36435666052193
962,1686016962.34,-33.203,15.137,86.914,-36.621,118726.766,320.5575556296189
963,1686016962.35,-41.992,116.211,88.379,-48.828,118726.77,325.4814980761134
964,1686016962.35,-29.297,-29.785,27.344,-31.738,118726.774,327.76855711833326
965,1686016962.36,-21.973,-348.145,-68.359,-18.066,118726.778,329.47833200946894
966,1686016962.36,-24.902,-373.535,-28.809,-32.227,118726.781,322.7191423287025
967,1686016962.36,-39.062,-178.223,46.875,-50.293,118726.785,331.6363109897448
968,1686016962.37,-33.691,-155.762,24.414,-28.809,118726.789,323.94066208084627
969,1686016962.37,-15.137,-748.047,-193.848,4.395,118726.793,323.32060604734625
970,1686016962.38,-23.438,-397.949,62.012,-12.695,118726.797,323.59382406069517
971,1686016962.38,-32.715,251.465,218.262,-36.621,118726.801,324.26799443470975
972,1686016962.38,-29.297,-358.398,-62.988,-24.902,118726.803,327.00014474210565
973,1686016962.38,-16.602,-501.953,-55.664,-8.301,118726.807,324.93548182222213
974,1686016962.39,-24.414,186.523,180.664,-22.949,118726.811,322.6927773520606
975,1686016962.39,-38.574,176.758,108.398,-45.41,118726.815,322.81070211555135
976,1686016962.4,-47.363,-221.191,-32.715,-39.551,118726.818,328.35893020305605
977,1686016962.4,-31.25,-425.781,-31.738,-21.973,118726.822,323.56178971189064
978,1686016962.4,-16.113,-61.035,148.926,-21.973,118726.826,325.73484285387053
979,1686016962.41,-24.902,177.734,130.859,-33.203,118726.83,322.80910500042256
980,1686016962.41,-30.273,-541.016,-268.555,-35.645,118726.834,323.3917890502428
981,1686016962.42,-32.715,-812.5,-170.41,-23.438,118726.838,326.8990692985248
982,1686016962.42,-25.879,62.5,261.719,-16.602,118726.842,326.5291157923991
983,1686016962.42,-14.648,161.621,91.797,-26.855,118726.846,327.83552593336344
984,1686016962.43,-18.555,-223.633,9.766,-31.738,118726.848,324.9899548931943
985,1686016962.43,-28.32,-81.055,118.652,-25.391,118726.851,327.1110519728317
986,1686016962.43,-21.973,247.559,175.781,-15.625,118726.855,331.46105155857384
987,1686016962.44,-21.973,97.656,53.711,-22.461,118726.859,324.6562461889
988,1686016962.44,-37.598,-254.883,-87.402,-46.875,118726.863,327.55388091513066
989,1686016962.45,-37.598,-388.672,-85.449,-45.898,118726.867,322.3620011528193
990,1686016962.45,-22.949,-100.098,113.281,-25.391,118726.871,322.8353214573188
991,1686016962.45,-19.531,20.508,72.754,-20.996,118726.875,320.5927909093899
992,1686016962.46,-27.344,-634.277,-228.027,-33.203,118726.879,322.22534476650566
993,1686016962.46,-31.738,-343.75,55.664,-37.109,118726.883,329.2445349979068
994,1686016962.46,-29.297,227.051,232.422,-21.484,118726.887,326.23033055299993
995,1686016962.47,-28.809,-217.773,-47.363,-15.625,118726.891,323.7490419155303
996,1686016962.47,-25.879,-672.852,-195.312,-33.691,118726.893,323.03072512893607
997,1686016962.48,-29.297,-295.41,82.52,-46.387,118726.897,325.5928156051665
998,1686016962.48,-34.668,231.445,227.539,-35.645,118726.9,327.432924283844
999,1686016962.48,-35.156,-274.414,-83.008,-22.461,118726.904,325.4579006449568
1000,1686016962.49,-41.992,-634.766,-167.48,-37.598,118726.908,326.0919477472123
1001,1686016962.49,-40.039,-237.793,67.383,-52.246,118726.912,322.77494890880376
1002,1686016962.5,-37.598,-182.617,100.098,-38.086,118726.916,327.80608001984325
1003,1686016962.5,-35.156,-550.293,-82.031,-13.672,118726.92,329.10931695266515
1004,1686016962.5,-29.297,-641.602,-107.91,-16.113,118726.924,328.5902926591421
1005,1686016962.51,-34.668,137.695,211.426,-38.086,118726.928,326.81647498974155
1006,1686016962.51,-32.227,152.344,88.379,-35.645,118726.932,316.58171087614375
1007,1686016962.51,-27.832,-57.617,74.707,-18.555,118726.936,319.48541882018776
1008,1686016962.52,-20.508,150.879,163.574,-16.113,118726.941,319.0130935436956
1009,1686016962.52,-18.555,70.312,32.227,-34.18,118726.945,322.92577113920504
1010,1686016962.53,-26.855,-292.48,-164.062,-40.039,118726.948,326.7793515843115
1011,1686016962.53,-23.926,-339.844,-2.441,-21.973,118726.952,325.7916698605595
1012,1686016962.53,-21.973,16.602,178.711,-15.625,118726.956,328.05176457545105
1013,1686016962.54,-34.668,-53.711,-4.395,-40.039,118726.96,328.7687626759056
1014,1686016962.54,-47.852,-430.664,-148.438,-47.363,118726.964,323.1221008222912
1015,1686016962.54,-35.645,-687.012,-173.34,-15.137,118726.968,324.6981740507439
1016,1686016962.55,-29.297,-213.867,117.676,2.93,118726.972,330.9774410606917
1017,1686016962.55,-44.434,347.656,217.773,-22.949,118726.976,333.35606026017285
1018,1686016962.56,-43.457,-109.863,-29.785,-42.48,118726.98,330.4883730566965
1019,1686016962.56,-29.297,-221.191,7.812,-24.902,118726.984,334.74686670530326
1020,1686016962.56,-21.484,11.719,127.441,-2.93,118726.983,325.86224996853826
1021,1686016962.56,-25.879,-84.473,65.918,-11.719,118726.987,325.83861153084536
1022,1686016962.57,-32.715,-520.02,-178.711,-26.855,118726.991,323.70221584187544
1023,1686016962.57,-40.039,-696.777,-174.805,-23.438,118726.995,329.86002643520123
1024,1686016962.58,-28.809,-174.805,127.93,-14.16,118726.998,326.85202564983274
1025,1686016962.58,-21.973,-85.938,125.488,-13.672,118727.002,323.61779285437467
1026,1686016962.58,-33.691,-573.73,-180.176,-30.762,118727.006,327.1816244140592
1027,1686016962.59,-41.016,-846.68,-166.504,-40.039,118727.01,320.35956548330415
1028,1686016962.59,-33.691,-45.41,305.176,-27.832,118727.014,328.9816319787867
1029,1686016962.6,-15.625,279.297,189.941,-1.465,118727.018,328.20687383299025
1030,1686016962.6,-25.879,8.789,83.984,-19.043,118727.022,331.8393984878308
1031,1686016962.6,-42.48,37.109,139.648,-40.527,118727.026,334.4465672920993
1032,1686016962.61,-26.855,287.598,181.152,-16.602,118727.041,328.9515185707273
1033,1686016962.61,-20.508,199.707,94.727,-19.531,118727.045,328.6120715367007
1034,1686016962.61,-22.461,-46.875,-4.883,-33.691,118727.049,325.97308970437484
1035,1686016962.62,-20.02,64.453,78.613,-38.086,118727.053,318.36052515799526
1036,1686016962.62,-23.926,136.719,103.027,-20.02,118727.057,326.6975514888296
1037,1686016962.63,-19.043,-128.906,-68.848,6.836,118727.061,323.53985647492107
1038,1686016962.63,-23.438,-718.262,-256.348,-5.371,118727.065,335.10381263307545
1039,1686016962.63,-32.715,-505.859,18.066,-25.391,118727.069,330.2323369796949
1040,1686016962.64,-21.973,191.895,228.027,-19.531,118727.073,329.8591402376429
1041,1686016962.64,-10.254,-50.293,15.625,8.789,118727.076,325.3756829518386
1042,1686016962.64,-12.695,-382.812,-95.703,12.207,118727.08,332.46248792957647
1043,1686016962.65,-25.879,27.832,120.605,-16.113,118727.084,323.7122374422629
1044,1686016962.67,-33.203,33.203,87.402,-20.996,118727.088,325.615098004092
1045,1686016962.67,-26.855,-519.531,-121.094,6.348,118727.092,327.9896350326571
1046,1686016962.67,-25.391,-566.406,-76.172,15.625,118727.096,327.867743870931
1047,1686016962.68,-33.203,77.637,165.039,4.883,118727.1,331.2124868972305
1048,1686016962.68,-38.574,144.531,67.871,-1.953,118727.104,325.85299326578314
1049,1686016962.69,-32.227,-449.219,-84.961,5.859,118727.108,320.5971565414244
1050,1686016962.69,-24.902,-470.703,41.992,19.531,118727.112,323.57738461114536
1051,1686016962.69,-23.438,166.016,206.543,9.766,118727.116,331.4450316585472
1052,1686016962.7,-30.273,185.059,81.543,-4.883,118727.119,317.03417612366195
1053,1686016962.7,-38.086,-568.848,-239.746,-0.977,118727.123,328.07912040881524
1054,1686016962.7,-26.855,-577.637,-48.34,6.348,118727.127,339.40114609604706
1055,1686016962.71,-29.785,252.93,252.93,4.395,118727.131,327.9978428525578
1056,1686016962.71,-42.48,114.746,25.391,-20.02,118727.134,327.5880049656643
1057,1686016962.72,-30.762,-214.844,-26.367,-27.832,118727.138,326.3388313172596
1058,1686016962.72,-13.672,20.996,137.695,3.906,118727.142,327.0330472016439
1059,1686016962.72,-18.066,307.129,179.688,14.648,118727.146,325.1595768655677
1060,1686016962.73,-26.855,87.402,37.109,-0.488,118727.149,330.33970734956455
1061,1686016962.73,-31.738,-430.176,-174.805,0.0,118727.153,331.31788116826885
1062,1686016962.74,-24.902,-353.516,14.648,15.137,118727.157,326.1603819771497
1063,1686016962.74,-13.672,200.195,243.164,29.297,118727.161,326.96751553039417
1064,1686016962.74,-11.23,-35.156,-60.547,28.32,118727.165,329.83701732999583
1065,1686016962.75,-16.113,-725.586,-308.105,26.367,118727.169,323.54248980300713
1066,1686016962.75,-15.137,-285.156,86.426,22.461,118727.173,325.05447834781376
1067,1686016962.76,-3.906,263.672,243.652,30.762,118727.177,331.0801103065616
1068,1686016962.77,-6.836,-317.383,-80.078,33.203,118727.193,332.40618168362226
1069,1686016962.78,-16.602,-818.359,-208.008,18.555,118727.197,324.3741083525863
1070,1686016962.78,-22.461,-194.336,136.719,15.137,118727.201,329.80636921789915
1071,1686016962.78,-16.602,265.625,210.938,32.715,118727.205,331.76409786529234
1072,1686016962.79,-15.137,-251.953,-34.18,35.645,118727.208,329.13726254203624
1073,1686016962.79,-28.809,-715.332,-183.105,20.02,118727.212,329.185848592549
1074,1686016962.8,-31.738,-309.57,31.25,20.508,118727.216,328.4665475663217
1075,1686016962.8,-16.602,182.617,216.309,40.527,118727.22,332.60997837365784
1076,1686016962.8,-15.137,-25.879,80.566,47.852,118727.223,337.2786447511899
1077,1686016962.8,-12.207,-373.047,-122.07,53.711,118727.224,332.4780398938622
1078,1686016962.81,-16.113,106.445,135.254,40.039,118727.227,329.5214232559191
1079,1686016962.81,-27.344,-771.973,-201.66,40.527,118727.228,327.7622203415584
1080,1686016962.81,-33.691,-14.648,-3.906,36.133,118727.231,326.16290642686994
1081,1686016962.81,-32.715,-8.301,199.219,14.16,118727.232,332.8301431439918
1082,1686016962.81,-36.133,-279.297,-119.629,36.621,118727.235,323.67443949367447
1083,1686016962.82,-25.391,115.234,125.488,26.855,118727.236,321.71779393498554
1084,1686016962.82,-26.855,-332.52,9.766,43.945,118727.238,335.8541470404114
1085,1686016962.82,-34.18,-295.898,95.703,41.504,118727.242,332.1793164943837
1086,1686016962.83,-41.504,-152.832,106.934,24.414,118727.246,327.0564382797624
1087,1686016962.83,-28.809,-247.559,7.324,30.762,118727.25,323.1408683544456
1088,1686016962.83,-10.742,-349.121,-31.25,51.758,118727.254,329.04264148240554
1089,1686016962.84,-15.137,118.164,161.133,42.969,118727.258,331.8033388078286
1090,1686016962.84,-26.367,308.105,166.016,21.484,118727.262,323.27140082736594
1091,1686016962.84,-27.832,-232.91,-104.004,28.809,118727.266,326.62994045275946
1092,1686016962.85,-26.855,-924.316,-304.199,57.617,118727.268,324.7801311237384
1093,1686016962.85,-24.902,-340.82,93.262,57.129,118727.272,323.5372189088
1094,1686016962.85,-25.879,288.086,202.148,33.203,118727.276,327.73672420172727
1095,1686016962.86,-33.691,-345.215,-116.211,28.809,118727.279,331.835107584576
1096,1686016962.86,-30.273,-515.625,-46.387,37.598,118727.283,333.16021399097565
1097,1686016962.87,-21.484,-41.016,162.109,44.922,118727.287,327.81508083952536
1098,1686016962.87,-25.879,-74.707,121.094,38.086,118727.291,341.8778817537174
1099,1686016962.87,-36.133,-587.891,-169.922,24.902,118727.295,333.0247229841586
1100,1686016962.88,-34.668,-818.848,-144.531,31.738,118727.299,332.47884512640275
1101,1686016962.88,-16.602,32.227,298.828,53.223,118727.303,334.2497439803995
1102,1686016962.88,-11.719,279.297,157.227,51.758,118727.307,325.5306005492597
1103,1686016962.89,-24.414,-59.082,50.293,24.414,118727.311,322.66988431212184
1104,1686016962.89,-28.32,-70.801,150.879,19.043,118727.313,330.5862938046634
1105,1686016962.9,-23.438,163.574,166.504,23.438,118727.317,329.67467907245805
1106,1686016962.9,-21.973,138.672,64.453,27.344,118727.321,325.3241952884296
1107,1686016962.9,-28.32,-145.02,0.488,15.625,118727.325,325.53160408546194
1108,1686016962.91,-31.738,-56.152,45.41,6.348,118727.329,322.6286131241486
1109,1686016962.91,-23.438,-57.617,71.777,20.02,118727.332,325.67915979309674
1110,1686016962.92,-23.926,-213.867,29.297,33.691,118727.336,323.0449854760788
1111,1686016962.92,-36.621,-712.891,-210.449,20.996,118727.34,323.9368595969031
1112,1686016962.92,-37.109,-515.625,-6.836,-4.883,118727.344,331.058899744439
1113,1686016962.93,-29.297,245.605,253.906,1.953,118727.348,329.1543504503957
1114,1686016962.93,-22.461,-3.418,39.062,13.184,118727.352,329.710513062597
1115,1686016962.93,-22.949,-342.773,-87.402,-0.977,118727.356,324.16916483377616
1116,1686016962.94,-28.32,-247.07,37.109,-15.137,118727.371,328.09989005091523
1117,1686016962.94,-29.297,-21.973,164.062,-15.137,118727.375,323.3118252041934
1118,1686016962.94,-21.484,-232.91,-12.695,7.812,118727.379,331.1413811813691
1119,1686016962.95,-24.414,-495.605,-119.141,12.207,118727.383,324.1851888316522
1120,1686016962.95,-34.18,35.645,125.0,-6.836,118727.387,325.8695805946123
1121,1686016962.96,-37.598,-21.973,58.594,-8.301,118727.391,331.22969274032556
1122,1686016962.96,-29.297,-597.656,-121.094,6.836,118727.395,332.67250267722943
1123,1686016962.96,-21.484,-657.715,-75.195,7.324,118727.399,323.26742664953696
1124,1686016962.97,-29.785,117.676,219.238,-6.836,118727.402,332.78607860873177
1125,1686016962.97,-31.738,136.719,93.262,-5.859,118727.406,327.8810107232216
1126,1686016962.98,-22.949,-196.289,-12.207,10.254,118727.41,332.8959392174716
1127,1686016962.98,-22.949,20.02,101.562,22.461,118727.414,329.68944831836376
1128,1686016962.99,-25.391,272.949,145.996,8.301,118727.416,318.2254875656045
1129,1686016962.99,-25.391,49.316,2.93,0.0,118727.42,328.396686901639
1130,1686016962.99,-20.02,-228.516,-1.465,15.137,118727.424,319.7775789860784
1131,1686016963.0,-11.23,34.18,164.062,27.344,118727.428,325.9778610062161
1132,1686016963.0,-14.648,220.703,117.676,13.184,118727.432,330.7615715533916
1133,1686016963.01,-19.043,-246.582,-166.016,-3.906,118727.436,330.80998848985035
1134,1686016963.01,-8.301,-707.031,-238.281,13.672,118727.44,324.01301404816513
1135,1686016963.01,-9.277,-256.348,89.355,30.762,118727.444,326.7908275046867
1136,1686016963.02,-28.809,336.914,230.469,18.555,118727.447,332.74243818825886
1137,1686016963.02,-47.363,-101.562,-59.57,2.441,118727.451,330.781997956532
1138,1686016963.02,-43.945,-513.672,-166.016,-5.859,118727.455,329.6077478482982
1139,1686016963.03,-32.227,50.781,97.656,1.953,118727.461,328.58598440117294
1140,1686016963.03,-33.691,-0.977,137.207,-1.953,118727.459,338.83653885147015
1141,1686016963.03,-32.227,-552.734,-209.473,-15.137,118727.465,326.99885835295584
1142,1686016963.04,-32.227,-830.566,-257.812,-24.902,118727.469,327.5956308191237
1143,1686016963.04,-29.297,-135.254,160.156,-4.883,118727.473,325.628978071667
1144,1686016963.04,-27.344,290.527,210.938,-0.977,118727.477,330.6767179516591
1145,1686016963.05,-35.645,-436.035,-156.25,-17.578,118727.481,327.52645351287543
1146,1686016963.05,-38.086,-789.062,-118.164,-30.273,118727.485,331.2802028220597
1147,1686016963.05,-28.809,-14.648,249.023,-22.461,118727.489,325.9512340002138
1148,1686016963.06,-26.855,284.18,166.992,-7.812,118727.493,327.54979685124505
1149,1686016963.06,-37.598,-220.215,-38.086,-18.555,118727.497,329.63937911009657
1150,1686016963.07,-43.945,-278.32,35.645,-34.668,118727.5,332.72539306515296
1151,1686016963.07,-28.32,183.594,176.27,-27.344,118727.504,331.1037694313331
1152,1686016963.09,-9.766,138.672,94.238,-12.695,118727.509,331.54793137407324
1153,1686016963.09,-16.602,-19.043,45.898,-20.02,118727.513,323.92861251273683
1154,1686016963.1,-36.133,65.43,101.074,-40.039,118727.517,327.65599675735
1155,1686016963.1,-38.086,-98.145,-28.809,-38.086,118727.521,328.34004336633575
1156,1686016963.1,-23.926,-247.559,-66.895,-25.879,118727.525,329.4046983880604
1157,1686016963.11,-12.695,-626.465,-129.395,-20.508,118727.528,331.3967341396916
1158,1686016963.11,-26.367,-498.535,22.461,-32.227,118727.532,328.71424889598603
1159,1686016963.11,-35.156,137.207,220.703,-48.828,118727.536,329.11346349187676
1160,1686016963.12,-28.809,-130.371,0.488,-35.156,118727.54,333.3500833016166
1161,1686016963.12,-24.414,-384.277,-64.453,-13.672,118727.544,327.2611102362027
1162,1686016963.13,-27.832,61.035,155.273,-35.645,118727.548,328.51894091303967
1163,1686016963.13,-34.18,197.266,111.328,-56.152,118727.552,337.038902232707
1164,1686016963.13,-28.809,-283.691,-41.504,-40.527,118727.553,327.0119593761131
1165,1686016963.14,-17.09,-350.586,29.785,-26.367,118727.556,330.25648869120045
1166,1686016963.14,-20.996,147.461,177.246,-40.527,118727.56,325.4519724401844
1167,1686016963.14,-37.109,199.707,107.91,-64.941,118727.564,326.018538066968
1168,1686016963.15,-34.668,-381.348,-120.117,-59.082,118727.568,332.7065485688106
1169,1686016963.15,-24.414,-665.039,-83.984,-35.645,118727.572,323.1415559533346
1170,1686016963.16,-15.137,-241.699,134.277,-36.621,118727.576,323.05223532047637
1171,1686016963.16,-24.902,-132.324,104.492,-61.035,118727.58,327.8429186245904
1172,1686016963.16,-39.551,-596.191,-181.152,-64.453,118727.584,333.88447175569377
1173,1686016963.17,-25.879,-784.18,-136.719,-39.062,118727.588,335.227346303207
1174,1686016963.17,-15.137,59.082,302.246,-38.086,118727.592,328.9089127202973
1175,1686016963.18,-26.367,221.68,145.508,-50.781,118727.595,328.8552968369442
1176,1686016963.18,-36.133,-101.074,42.969,-61.523,118727.611,334.4817094824608
1177,1686016963.18,-22.949,35.645,145.996,-46.875,118727.615,335.34226411500237
1178,1686016963.18,-15.137,273.926,153.32,-26.855,118727.619,331.3254622440442
1179,1686016963.19,-21.973,78.125,47.852,-40.039,118727.623,327.7522217786894
1180,1686016963.19,-30.762,-235.352,-73.73,-55.176,118727.627,330.47945189354283
1181,1686016963.2,-29.785,-354.004,-83.008,-43.457,118727.631,327.6512645796971
1182,1686016963.2,-15.137,-76.66,114.258,-21.484,118727.635,332.3779888945607
1183,1686016963.2,-15.137,43.457,69.336,-20.996,118727.639,337.7713376514753
1184,1686016963.21,-30.762,-734.375,-297.363,-45.898,118727.642,320.80723164876434
1185,1686016963.21,-37.109,-556.641,-9.766,-53.711,118727.646,331.0875704232674
1186,1686016963.22,-31.25,238.77,286.133,-36.133,118727.65,326.192186300099
1187,1686016963.22,-31.25,-25.391,12.207,-32.715,118727.654,326.4291627829911
1188,1686016963.22,-40.527,-698.242,-277.832,-47.852,118727.642,332.4982083755557
1189,1686016963.22,-46.387,-377.93,-20.02,-58.594,118727.646,324.45068109135934
1190,1686016963.23,-35.645,236.328,226.074,-46.875,118727.65,329.23022718854276
1191,1686016963.23,-27.344,-228.027,-52.246,-31.738,118727.654,323.84076536432667
1192,1686016963.24,-30.762,-634.277,-187.5,-38.574,118727.658,323.1006097094809
1193,1686016963.24,-35.156,-325.195,39.062,-50.781,118727.662,335.4888542500428
1194,1686016963.24,-32.227,-203.125,100.098,-46.387,118727.666,331.15242517531897
1195,1686016963.25,-22.949,-518.066,-72.754,-34.668,118727.669,332.824527273655
1196,1686016963.25,-30.273,-561.035,-61.523,-38.574,118727.673,328.920382700336
1197,1686016963.26,-40.527,159.668,210.449,-59.57,118727.677,328.2730532316221
1198,1686016963.26,-25.391,180.176,103.516,-59.57,118727.681,327.5870941108931
1199,1686016963.26,-17.578,-433.594,-58.594,-32.227,118727.685,338.3156945478994
1200,1686016963.28,-21.973,-317.383,77.148,-38.574,118727.702,332.61264257567626
1201,1686016963.28,-27.344,263.184,183.594,-62.5,118727.706,331.13583983819206
1202,1686016963.29,-33.691,40.039,25.391,-55.664,118727.71,331.5243001928006
1203,1686016963.29,-26.367,-123.047,21.484,-39.551,118727.714,333.8971618641532
1204,1686016963.3,-18.555,146.484,146.973,-30.273,118727.718,323.53893643446025
1205,1686016963.3,-22.949,10.742,8.301,-33.691,118727.721,329.25885280892385
1206,1686016963.3,-23.926,-379.883,-229.004,-42.969,118727.725,328.4058588065934
1207,1686016963.31,-21.484,-715.332,-241.699,-29.297,118727.729,321.34461846599004
1208,1686016963.31,-8.789,-286.621,109.863,-14.16,118727.733,330.8787424171013
1209,1686016963.31,-13.184,-46.875,121.094,-21.973,118727.734,330.3683136818506
1210,1686016963.32,-5.859,284.18,218.262,-22.461,118727.737,320.6254267576412
1211,1686016963.32,-14.648,-145.508,75.195,-18.066,118727.738,324.40227664429096
1212,1686016963.32,-21.484,-526.367,-173.34,-23.926,118727.742,328.5401191539656
1213,1686016963.32,-21.484,-108.398,-29.297,-38.086,118727.741,330.6507160976781
1214,1686016963.32,-27.344,-204.102,1.953,-41.992,118727.745,327.40485398240963
1215,1686016963.32,-17.09,-818.848,-179.688,-14.16,118727.746,326.9806958117661
1216,1686016963.33,-4.883,-110.84,213.867,-11.23,118727.75,323.39257696728987
1217,1686016963.33,-1.465,-42.48,113.77,-7.812,118727.754,323.88994682759164
1218,1686016963.34,-16.602,-535.645,-44.434,-20.508,118727.758,332.7047543897609
1219,1686016963.34,-12.207,-295.898,78.613,-25.391,118727.762,327.71645143819615
1220,1686016963.34,-0.977,204.102,213.379,1.465,118727.766,332.4503481365832
1221,1686016963.35,-5.371,343.75,176.27,6.836,118727.77,326.0630204081269
1222,1686016963.35,-13.184,-398.438,-176.27,-0.977,118727.773,334.63203812367635
1223,1686016963.36,-15.625,-642.578,-134.277,-3.418,118727.777,332.5932200951716
1224,1686016963.36,-12.207,167.48,236.328,0.0,118727.791,322.76521575630085
1225,1686016963.36,-1.465,217.285,128.418,9.277,118727.795,331.0491479478548
1226,1686016963.36,-11.719,-17.578,29.785,-8.301,118727.799,327.8640559146733
1227,1686016963.37,-22.461,31.738,76.172,-17.09,118727.803,326.0789044478831
1228,1686016963.37,-20.508,-80.566,47.852,0.488,118727.807,327.5376802066628
1229,1686016963.38,-20.996,-212.402,42.969,15.625,118727.811,329.28780755597796
1230,1686016963.38,-19.043,-736.816,-211.426,14.16,118727.814,324.53476699677475
1231,1686016963.38,-26.855,-637.207,-95.215,-9.277,118727.818,325.6064382957189
1232,1686016963.39,-27.344,159.18,247.559,-14.648,118727.822,334.60837615137035
1233,1686016963.39,-9.766,52.734,122.559,4.883,118727.826,330.64207831359755
1234,1686016963.4,-4.883,-7.324,87.891,8.789,118727.83,334.8328048775148
1235,1686016963.4,-2.441,172.852,100.098,0.0,118727.834,328.83844501105995
1236,1686016963.4,-9.766,-22.949,-21.973,-10.742,118727.837,333.4695741477576
1237,1686016963.4,-8.789,-524.414,-165.527,0.977,118727.84,329.37487301444526
1238,1686016963.41,-13.184,-572.754,-93.262,6.348,118727.844,329.77649424415523
1239,1686016963.41,-40.527,109.375,189.453,-28.32,118727.848,324.09999644823415
1240,1686016963.42,-37.109,168.945,73.242,-35.156,118727.852,317.8543103985149
1241,1686016963.42,-25.391,-429.199,-116.699,-18.555,118727.856,329.89303482197886
1242,1686016963.42,-20.508,-565.43,0.488,-12.695,118727.86,329.6880658674429
1243,1686016963.43,-20.508,-106.445,152.344,-18.555,118727.864,332.3500885665536
1244,1686016963.43,-25.391,154.297,136.23,-37.598,118727.868,326.7229358857249
1245,1686016963.44,-26.367,-472.168,-158.691,-34.668,118727.872,326.93982211368717
1246,1686016963.44,-18.555,-619.141,-82.031,-19.531,118727.876,319.85064336632666
1247,1686016963.44,-20.996,188.477,228.516,-22.949,118727.88,329.4798454834049
1248,1686016963.46,-25.391,100.098,66.406,-33.203,118727.882,321.627957334133
1249,1686016963.46,-18.066,-231.445,-15.625,-30.273,118727.886,324.8302141660546
1250,1686016963.47,-21.484,-78.125,126.953,-17.578,118727.89,325.43650895073375
1251,1686016963.47,-19.531,228.516,183.105,-20.02,118727.894,324.17495299755274
1252,1686016963.48,-17.578,42.48,26.367,-35.645,118727.898,330.3065241831976
1253,1686016963.48,-28.32,-478.516,-177.246,-44.434,118727.902,327.9180399969118
1254,1686016963.48,-29.297,-316.895,6.348,-25.879,118727.906,332.1699720891234
1255,1686016963.49,-25.391,260.254,229.492,-17.09,118727.91,329.586105141631
1256,1686016963.49,-30.273,-29.297,-18.066,-34.668,118727.914,328.6654851284239
1257,1686016963.5,-39.062,-752.93,-284.18,-46.875,118727.917,326.5021178540318
1258,1686016963.5,-36.133,-361.328,64.453,-41.992,118727.921,321.12445597716265
1259,1686016963.5,-27.832,344.727,303.223,-22.949,118727.925,331.7856916429008
1260,1686016963.51,-30.762,-117.676,-45.41,-24.902,118727.927,334.7195346897884
1261,1686016963.51,-41.504,-886.719,-337.402,-42.969,118727.931,325.89644252938905
1262,1686016963.51,-48.34,-289.551,93.75,-40.527,118727.935,330.02067301020617
1263,1686016963.52,-42.48,270.508,251.465,-23.438,118727.939,334.60429130697923
1264,1686016963.52,-31.738,27.344,55.664,-33.203,118727.943,332.1823222838838
1265,1686016963.53,-36.133,-312.012,-120.605,-46.387,118727.947,327.99873003533685
1266,1686016963.53,-43.945,-320.312,-39.551,-41.504,118727.951,327.2679473197013
1267,1686016963.53,-41.016,120.117,199.707,-32.227,118727.954,328.10912410070483
1268,1686016963.54,-32.715,-354.004,-103.516,-15.625,118727.958,330.7115261777188
1269,1686016963.54,-37.109,-708.984,-155.762,-22.949,118727.962,324.6921270361843
1270,1686016963.54,-38.574,40.527,204.59,-43.457,118727.966,329.21018290314174
1271,1686016963.55,-27.832,88.867,106.934,-27.832,118727.97,327.42814947943765
1272,1686016963.55,-20.508,-161.621,89.844,-16.602,118727.975,325.6751681674219
1273,1686016963.56,-24.902,-8.789,159.668,-33.691,118727.979,326.49910285925495
1274,1686016963.56,-37.109,165.039,112.793,-52.246,118727.983,327.4370699649963
1275,1686016963.56,-38.574,18.555,43.945,-46.387,118727.987,334.0429937858702
1276,1686016963.57,-22.949,-321.289,14.16,-20.02,118727.991,334.6223791170003
1277,1686016963.57,-20.508,-400.879,41.992,-25.879,118727.995,323.7303830717092
1278,1686016963.58,-39.062,-112.305,109.375,-53.711,118727.999,329.53920888675077
1279,1686016963.58,-39.551,-60.059,69.824,-46.875,118728.002,330.4095067499661
1280,1686016963.58,-26.855,-613.77,-142.578,-24.414,118728.006,327.96962482604874
1281,1686016963.59,-22.949,-284.668,80.078,-29.297,118728.01,329.656703730428
1282,1686016963.59,-25.879,236.328,205.566,-46.387,118728.014,333.0596910985716
1283,1686016963.6,-36.133,-95.215,7.812,-43.945,118728.018,330.4539312039401
1284,1686016963.6,-24.414,-359.863,-10.254,-20.02,118728.018,328.52636570360505
1285,1686016963.6,-18.066,-117.188,114.258,-17.09,118728.022,324.92335765652587
1286,1686016963.6,-31.738,38.574,108.887,-36.621,118728.026,329.52778942376733
1287,1686016963.61,-38.086,-549.805,-180.664,-42.969,118728.029,331.5270601611794
1288,1686016963.61,-29.297,-801.758,-142.578,-23.438,118728.033,329.06416643342186
1289,1686016963.62,-15.625,-284.668,181.641,-5.371,118728.037,324.2976010965164
1290,1686016963.62,-19.043,-122.07,155.273,-20.508,118728.041,338.3296023085519
1291,1686016963.62,-29.297,-623.047,-122.07,-41.016,118728.045,331.9934658454314
1292,1686016963.63,-25.879,-719.238,-113.281,-29.785,118728.049,332.1984792114077
1293,1686016963.63,-21.973,164.062,302.246,-12.695,118728.053,323.5472132627094
1294,1686016963.64,-24.414,333.496,174.805,-14.648,118728.057,334.93746486101304
1295,1686016963.64,-33.203,-45.41,12.207,-32.715,118728.061,330.54854983270644
