,timestamps,TP9,AF7,AF8,TP10,Secondary Timestamp,emg_signal
0,1685917705.18,11.23,407.715,150.879,-13.184,19455.285,299.81504249489814
1,1685917705.19,-48.828,105.469,-70.312,-28.32,19455.289,307.73443150139286
2,1685917705.19,-58.105,-486.816,-286.621,-23.926,19455.292,300.35098070547576
3,1685917705.2,7.812,-246.582,-56.641,-14.648,19455.296,291.86837992605945
4,1685917705.2,36.133,360.84,150.391,-20.02,19455.3,295.8150607960844
5,1685917705.2,-21.484,112.305,-49.805,-24.902,19455.304,294.67137779862855
6,1685917705.21,-63.965,-609.863,-399.414,-15.625,19455.308,303.796483661917
7,1685917705.21,-18.555,-747.559,-336.914,-4.883,19455.312,303.4291852072099
8,1685917705.21,25.391,62.988,89.844,-18.066,19455.316,302.70496709602963
9,1685917705.22,-15.137,335.938,59.082,-34.668,19455.32,297.3323720130595
10,1685917705.22,-69.824,-362.305,-197.266,-36.621,19455.324,302.3249001574704
11,1685917705.23,-37.598,-281.738,-28.809,-18.555,19455.328,294.1480692189908
12,1685917705.23,20.508,424.805,148.438,-3.418,19455.341,297.50700860276635
13,1685917705.23,-7.812,256.348,-2.93,-21.484,19455.345,302.75369624245275
14,1685917705.24,-60.059,-46.387,-90.332,-32.227,19455.348,296.5308319502046
15,1685917705.24,-43.457,46.875,-20.02,-18.555,19455.352,297.67326050287346
16,1685917705.24,13.184,105.957,34.18,-10.742,19455.356,294.6198488158525
17,1685917705.25,18.066,-57.129,-40.039,-11.719,19455.36,307.55408962576894
18,1685917705.25,-47.363,-756.836,-401.367,-19.531,19455.364,310.82814935590426
19,1685917705.25,-68.359,-520.996,-214.355,-25.391,19455.368,294.74272087315455
20,1685917705.26,-3.418,321.777,149.902,-10.742,19455.372,299.79927991730744
21,1685917705.26,18.066,202.637,33.203,-16.602,19455.376,300.92973525062
22,1685917705.27,-41.016,63.477,-32.227,-46.875,19455.38,301.4227574409219
23,1685917705.27,-68.359,250.488,58.594,-47.363,19455.384,299.760944897838
24,1685917705.29,-23.438,300.781,87.402,-30.762,19455.386,301.8035860332366
25,1685917705.29,8.789,112.305,56.641,-36.133,19455.39,298.5854370253106
26,1685917705.3,-28.809,116.699,61.035,-51.27,19455.394,302.7604610846904
27,1685917705.3,-75.684,255.371,59.57,-57.129,19455.398,299.5286437719582
28,1685917705.3,-47.852,258.301,96.191,-41.016,19455.402,299.5257019533647
29,1685917705.31,2.93,-22.949,-25.879,-17.09,19455.406,304.5748460239547
30,1685917705.31,-14.648,-225.586,-157.227,-24.902,19455.41,295.5887509040034
31,1685917705.31,-71.777,-217.773,-166.504,-45.41,19455.414,302.32130382374277
32,1685917705.32,-67.383,-168.457,-170.898,-41.016,19455.417,300.6344392947967
33,1685917705.32,3.906,-535.645,-283.691,-13.672,19455.421,301.9632698746539
34,1685917705.33,13.672,-944.336,-358.887,-13.672,19455.425,298.00898941996866
35,1685917705.33,-42.48,-107.422,37.109,-37.109,19455.429,299.1094830554543
36,1685917705.33,-60.059,142.09,13.184,-34.18,19455.432,300.1805990643847
37,1685917705.34,-6.836,-3.418,-30.762,-21.484,19455.436,301.09108756531845
38,1685917705.34,21.973,362.793,129.395,-17.09,19455.44,299.85679550009075
39,1685917705.34,-20.508,426.27,99.121,-22.461,19455.443,299.5173331797107
40,1685917705.35,-34.18,88.379,-53.711,-8.789,19455.447,300.7941956716703
41,1685917705.35,-2.441,-247.559,-161.133,0.488,19455.451,301.86507033003664
42,1685917705.36,1.465,37.109,36.133,-23.926,19455.455,298.6499338333304
43,1685917705.36,-30.273,435.059,200.684,-44.922,19455.459,304.1835847793894
44,1685917705.36,-67.871,-69.824,-164.551,-44.922,19455.463,302.59427345592485
45,1685917705.37,-43.457,-888.184,-455.566,-12.695,19455.467,303.7263985168539
46,1685917705.37,20.02,-196.289,29.297,1.465,19455.471,301.03825363081575
47,1685917705.38,16.113,512.207,172.363,-2.441,19455.475,302.8466028254765
48,1685917705.38,-41.992,42.969,-79.59,-4.883,19455.476,299.1383720766056
49,1685917705.38,-50.293,-89.844,-64.453,-4.883,19455.48,302.10980185023465
50,1685917705.38,13.184,328.125,151.367,13.184,19455.484,301.1475689470843
51,1685917705.39,38.574,440.43,155.273,21.973,19455.488,300.0597347066975
52,1685917705.39,-9.277,114.258,-40.527,15.137,19455.492,305.44113597214516
53,1685917705.4,-35.156,-265.625,-244.629,23.438,19455.496,302.8130471942056
54,1685917705.4,16.113,-112.793,-102.051,43.945,19455.5,306.2467565623324
55,1685917705.4,54.199,199.219,126.465,51.27,19455.504,300.58978820268493
56,1685917705.41,7.812,-460.449,-220.215,43.945,19455.508,300.2297942926236
57,1685917705.41,-41.016,-863.77,-388.672,45.41,19455.512,299.76717449224094
58,1685917705.42,2.441,25.391,43.945,60.059,19455.515,296.4042516880072
59,1685917705.42,55.664,266.113,83.984,61.035,19455.519,301.726416357585
60,1685917705.42,27.344,-55.664,-1.953,46.875,19455.521,295.6599199590751
61,1685917705.43,-18.066,111.328,55.176,42.48,19455.525,300.60976412223243
62,1685917705.43,-10.254,359.863,128.418,38.086,19455.529,300.92463981152764
63,1685917705.43,43.457,204.102,42.969,41.992,19455.533,303.6055865921925
64,1685917705.44,41.504,-41.992,-43.457,41.992,19455.537,304.83076497544636
65,1685917705.44,-21.484,-163.574,-76.172,31.25,19455.541,302.3916423128979
66,1685917705.45,-34.668,-40.527,-38.574,30.273,19455.545,304.90425295911996
67,1685917705.45,26.367,9.766,-32.227,39.551,19455.548,303.4108401006951
68,1685917705.45,45.41,-490.234,-238.77,37.109,19455.552,305.4165367578577
69,1685917705.46,-12.207,-62.5,29.785,19.043,19455.556,303.8007472327729
70,1685917705.46,-60.547,319.336,104.492,4.883,19455.56,305.0562158412332
71,1685917705.46,-15.625,21.484,-24.414,13.184,19455.564,307.47263686302813
72,1685917705.47,34.668,138.184,50.781,19.043,19455.569,299.7239886722069
73,1685917705.47,-7.812,358.887,109.375,0.0,19455.573,306.67751656153723
74,1685917705.48,-61.035,28.809,-95.703,-12.207,19455.577,310.77505194128406
75,1685917705.48,-42.48,-432.129,-243.652,-2.441,19455.581,306.1322304837373
76,1685917705.48,16.113,-187.5,-19.531,5.371,19455.585,310.6971052583182
77,1685917705.49,-0.488,82.031,36.621,-4.883,19455.589,302.08293203874706
78,1685917705.49,-57.617,-97.168,-124.512,-17.578,19455.593,308.7326225020131
79,1685917705.5,-43.457,-578.125,-369.629,-3.418,19455.597,297.94710917366336
80,1685917705.5,20.508,-849.609,-357.422,18.066,19455.601,310.0976371963161
81,1685917705.5,31.738,80.078,74.707,1.465,19455.605,306.3217169468181
82,1685917705.51,-32.715,319.824,46.875,-21.973,19455.608,304.49655421440013
83,1685917705.51,-48.828,-32.715,-56.641,-13.184,19455.612,302.2482397599979
84,1685917705.51,23.926,244.629,93.75,3.906,19455.626,301.1973634713577
85,1685917705.52,46.387,545.41,154.297,-4.395,19455.63,303.6267406757621
86,1685917705.52,-13.672,223.633,-22.949,-25.391,19455.634,302.4967612150783
87,1685917705.52,-57.129,-72.754,-103.027,-24.414,19455.638,309.37787691148213
88,1685917705.53,-18.555,59.57,13.184,-1.465,19455.642,311.5240200229254
89,1685917705.53,28.809,46.875,30.762,4.395,19455.646,304.8516424733721
90,1685917705.54,-3.906,-213.379,-127.441,-7.324,19455.649,308.33598520928945
91,1685917705.54,-60.059,-848.145,-466.797,-5.371,19455.653,309.5524106057736
92,1685917705.54,-27.832,-416.992,-159.18,8.301,19455.657,306.5550113062994
93,1685917705.55,32.715,441.406,190.918,15.625,19455.661,300.96014490088925
94,1685917705.55,12.695,222.168,25.391,9.277,19455.665,312.15203360903274
95,1685917705.56,-49.805,7.812,-42.48,-7.812,19455.669,305.9667608371114
96,1685917705.56,-46.875,254.883,94.727,-8.301,19455.656,303.94168928574834
97,1685917705.56,12.695,366.699,116.211,5.859,19455.66,307.8891688798621
98,1685917705.56,22.949,105.469,-20.02,2.93,19455.664,302.53369254852856
99,1685917705.57,-34.668,85.938,-3.906,-19.043,19455.668,307.17543672277304
100,1685917705.57,-67.383,211.914,29.785,-34.18,19455.672,302.70692831611365
101,1685917705.58,-16.602,-5.859,-34.668,-21.484,19455.675,306.7834263920554
102,1685917705.58,13.184,-238.281,-95.703,-15.625,19455.679,308.8717714859223
103,1685917705.58,-38.574,-245.605,-101.074,-27.832,19455.683,311.635036746792
104,1685917705.59,-79.59,-253.418,-146.484,-31.738,19455.687,303.8424815558819
105,1685917705.59,-25.879,-95.703,-102.051,-17.09,19455.691,309.84132237074726
106,1685917705.6,20.02,-463.379,-234.375,-1.953,19455.695,305.3885552785819
107,1685917705.6,-20.996,-939.941,-385.742,-17.09,19455.699,303.7669789561111
108,1685917705.6,-66.895,-108.398,7.324,-35.156,19455.716,308.3842889629299
109,1685917705.61,-49.805,189.941,25.879,-18.555,19455.72,308.2159768602593
110,1685917705.61,18.066,95.703,-19.043,-13.672,19455.724,306.2574494702187
111,1685917705.61,16.602,373.535,97.168,-20.996,19455.728,310.0437816901538
112,1685917705.62,-43.457,352.051,73.242,-22.461,19455.732,305.6223742445779
113,1685917705.62,-47.363,-136.23,-198.242,-18.066,19455.736,310.9225665982614
114,1685917705.63,4.395,-596.68,-296.387,-4.395,19455.74,308.28001163016086
115,1685917705.63,22.949,-21.973,63.965,-12.207,19455.743,311.37548948984085
116,1685917705.63,-23.438,443.359,142.09,-24.414,19455.747,303.73310929717934
117,1685917705.64,-62.5,-39.062,-121.094,-25.391,19455.751,313.2727191638699
118,1685917705.64,-19.043,-173.828,-117.676,-13.184,19455.755,317.2920568259337
119,1685917705.64,27.344,335.938,145.508,-8.789,19455.759,313.6379628948313
120,1685917705.66,-21.484,456.055,118.164,-34.18,19455.775,312.8645935189134
121,1685917705.67,-77.148,-250.488,-193.848,-41.992,19455.779,305.4451859066597
122,1685917705.67,-35.156,-397.949,-190.918,-21.973,19455.783,306.96464528745673
123,1685917705.67,28.809,354.004,150.879,-21.973,19455.787,306.1115818724307
124,1685917705.68,-0.488,389.16,77.637,-42.969,19455.79,304.04369611244334
125,1685917705.68,-62.5,-197.754,-180.664,-41.992,19455.794,301.49991929480353
126,1685917705.69,-42.48,-330.078,-144.043,-21.973,19455.798,306.3630669292342
127,1685917705.69,13.672,-81.543,6.348,-12.695,19455.802,309.2064294385313
128,1685917705.69,5.859,23.926,53.223,-26.855,19455.806,310.635002892464
129,1685917705.7,-57.617,-513.184,-280.762,-44.434,19455.81,304.7694394215649
130,1685917705.7,-66.895,-736.328,-297.852,-41.504,19455.814,306.3379212575718
131,1685917705.7,2.93,222.168,164.062,-20.508,19455.818,309.2636714372592
132,1685917705.71,22.461,291.504,62.5,-10.254,19455.806,311.9269327932911
133,1685917705.71,-33.691,-200.195,-134.277,-34.668,19455.81,309.477608095226
134,1685917705.72,-68.848,-53.711,-32.715,-48.828,19455.814,307.6008848811614
135,1685917705.72,-23.926,361.816,157.227,-30.273,19455.818,308.33860471715127
136,1685917705.72,36.621,232.422,36.621,-13.672,19455.822,308.2398727267617
137,1685917705.73,-4.395,-174.805,-183.594,-21.484,19455.826,304.84434418226374
138,1685917705.73,-65.918,-156.25,-157.715,-32.715,19455.83,311.1383536431249
139,1685917705.73,-39.551,275.879,105.957,-27.344,19455.834,307.1766964713599
140,1685917705.74,20.996,120.117,-38.574,-2.93,19455.838,313.9387293440785
141,1685917705.74,9.277,-597.168,-304.688,0.0,19455.842,307.86909407735413
142,1685917705.75,-30.762,-156.25,-17.578,-17.09,19455.845,306.76610680704044
143,1685917705.75,-16.602,366.211,125.488,0.488,19455.849,307.920314199492
144,1685917705.75,29.785,-119.629,-99.121,20.02,19455.852,313.2025759653069
145,1685917705.76,33.203,-210.938,-128.906,12.207,19455.856,314.26692400086097
146,1685917705.76,-15.137,250.977,80.566,4.395,19455.859,308.83257608638866
147,1685917705.76,-40.039,16.113,-106.934,7.324,19455.863,309.01571996376
148,1685917705.77,7.324,-380.859,-218.262,7.812,19455.867,317.148646885109
149,1685917705.77,45.41,-378.418,-71.777,5.371,19455.871,315.9647309504454
150,1685917705.78,-4.883,-40.527,-6.836,-10.742,19455.875,315.6586022571638
151,1685917705.78,-52.734,-51.758,-125.977,-9.277,19455.879,313.5848210647
152,1685917705.78,-20.996,-606.934,-336.914,11.719,19455.883,323.1208864475246
153,1685917705.79,27.344,-796.387,-306.641,16.602,19455.887,319.21057188780645
154,1685917705.79,2.441,125.488,91.309,-3.418,19455.891,317.48377266633116
155,1685917705.8,-44.922,234.863,10.254,-25.879,19455.895,318.0871603420399
156,1685917705.8,-27.344,-41.504,-57.617,-23.926,19455.896,316.35686289952747
157,1685917705.8,22.461,313.965,137.207,-8.301,19455.9,322.9944964982475
158,1685917705.8,14.16,509.277,150.879,-5.371,19455.904,313.7369521836983
159,1685917705.81,-50.781,211.914,-8.789,-15.137,19455.908,322.9954062212983
160,1685917705.81,-50.293,-63.477,-106.934,-11.719,19455.912,319.44964994883975
161,1685917705.82,10.254,5.371,5.371,1.465,19455.916,314.9614872700825
162,1685917705.82,16.602,79.59,73.242,-13.184,19455.92,319.33691332321354
163,1685917705.82,-41.016,-157.715,-141.113,-20.996,19455.924,316.4494038993523
164,1685917705.83,-60.547,-817.383,-427.246,-1.465,19455.928,323.99793973472373
165,1685917705.83,7.324,-309.57,-50.293,13.184,19455.932,322.80991595856466
166,1685917705.84,55.176,506.348,180.664,11.23,19455.935,314.91944329254255
167,1685917705.84,-5.371,190.43,-6.348,-14.648,19455.939,320.7648946709433
168,1685917705.84,-71.289,-8.301,-18.066,-32.227,19455.941,321.5976910759984
169,1685917705.85,-24.902,297.852,116.211,-10.742,19455.945,330.6354212608125
170,1685917705.85,13.184,387.695,80.566,1.953,19455.949,328.2500925435788
171,1685917705.85,-17.09,149.414,-32.227,-11.23,19455.953,328.57556512677627
172,1685917705.86,-71.289,73.242,-44.434,-34.668,19455.957,327.61782653495567
173,1685917705.86,-62.988,-69.336,-86.914,-27.344,19455.961,321.5843691840364
174,1685917705.87,5.371,26.855,30.762,-10.254,19455.964,328.29089145452065
175,1685917705.87,-6.348,-351.074,-182.617,-9.277,19455.968,323.49331434018944
176,1685917705.87,-61.523,-1000.0,-461.426,-8.301,19455.972,320.65507687213403
177,1685917705.88,-59.082,-260.254,-77.637,-24.902,19455.976,324.4701094741178
178,1685917705.88,3.906,316.895,81.543,-21.973,19455.98,328.19694338099384
179,1685917705.88,16.602,-18.555,-76.66,-22.949,19455.984,327.983386492458
180,1685917705.89,-57.129,5.859,-9.277,-39.551,19455.986,327.43961563712105
181,1685917705.89,-75.195,298.34,85.449,-39.551,19455.99,330.65800853469494
182,1685917705.89,-29.297,144.043,-17.09,-27.344,19455.994,325.23147583763387
183,1685917705.9,5.859,46.875,-20.02,-24.414,19455.998,322.6397562903977
184,1685917705.9,-22.461,231.445,73.73,-37.109,19456.002,328.4400483856471
185,1685917705.91,-67.871,-21.484,-98.145,-52.246,19456.006,325.4943895503026
186,1685917705.91,-51.758,-361.328,-304.688,-51.758,19456.009,321.21439358513845
187,1685917705.91,-3.418,-609.375,-326.172,-22.949,19456.013,321.1129097131188
188,1685917705.92,-18.555,-169.434,-23.926,-29.785,19456.017,325.6400213914238
189,1685917705.92,-62.012,191.895,21.973,-40.527,19456.021,333.3893702053247
190,1685917705.92,-49.805,-267.09,-258.301,-38.574,19456.025,317.6627931357616
191,1685917705.93,2.441,-348.633,-217.285,-31.738,19456.029,327.80743751059185
192,1685917705.93,4.395,48.828,37.598,-27.832,19456.045,327.7086928145366
193,1685917705.94,-56.641,96.191,-66.406,-46.387,19456.048,328.1478174430786
194,1685917705.94,-56.152,-551.758,-427.734,-33.691,19456.052,325.49325623287615
195,1685917705.94,11.23,-655.273,-368.652,-10.742,19456.056,334.3787553883452
196,1685917705.95,29.785,18.555,-59.57,-6.348,19456.06,325.6278043153246
197,1685917705.95,-29.297,-234.375,-225.586,-34.668,19456.064,330.56749500814124
198,1685917705.96,-57.617,-798.828,-526.367,-39.551,19456.068,327.16370323159083
199,1685917705.96,1.465,-872.07,-477.539,2.93,19456.072,329.966501248997
200,1685917705.96,40.039,-261.719,-62.012,-8.789,19456.076,328.7370109321388
201,1685917705.97,-3.906,58.105,-25.879,-30.762,19456.08,328.7893367574031
202,1685917705.97,-53.223,-509.766,-343.262,-37.109,19456.084,329.75574044263385
203,1685917705.98,-31.25,-441.406,-166.504,-36.621,19456.088,327.83205469054434
204,1685917705.98,31.25,151.367,77.148,-20.996,19456.079,328.94583433977635
205,1685917705.98,15.137,-108.887,-151.855,-22.461,19456.083,325.3685698746283
206,1685917705.99,-68.359,-575.684,-343.75,-41.992,19456.087,331.42916010193164
207,1685917705.99,-64.941,-291.016,-217.773,-33.691,19456.091,328.21181790058336
208,1685917705.99,5.371,95.215,-68.359,-21.484,19456.095,333.4232476783123
209,1685917706.0,6.348,-336.914,-279.297,-24.902,19456.099,332.63256105437586
210,1685917706.0,-48.828,-740.723,-426.27,-26.855,19456.103,333.02410618642534
211,1685917706.0,-55.176,-290.527,-216.309,-27.344,19456.107,336.5249955975183
212,1685917706.01,-0.977,97.656,-57.617,-19.043,19456.11,329.6526746501581
213,1685917706.01,23.926,-140.137,-150.879,-19.531,19456.114,328.2369451365478
214,1685917706.02,-23.438,-364.746,-315.918,-27.832,19456.118,333.8768875989125
215,1685917706.02,-55.176,-97.656,-180.664,-27.344,19456.122,339.3733791317342
216,1685917706.04,-2.441,38.086,-70.312,-8.301,19456.136,340.7175939520956
217,1685917706.04,41.504,-146.484,-84.473,11.719,19456.14,337.3326310196458
218,1685917706.04,6.348,-164.551,-74.707,-0.977,19456.144,335.5945758153508
219,1685917706.05,-47.852,-126.953,-176.758,-23.438,19456.148,335.93850237137156
220,1685917706.05,-31.25,-340.332,-277.832,-20.508,19456.152,330.6542857397513
221,1685917706.06,32.227,-724.609,-397.461,16.113,19456.156,337.7107643146046
222,1685917706.06,25.391,-812.988,-427.246,15.625,19456.16,337.6300609166499
223,1685917706.06,-26.855,-479.492,-255.371,-18.555,19456.164,336.1386578220142
224,1685917706.07,-33.203,-493.652,-324.219,-20.02,19456.168,341.6339911677326
225,1685917706.07,16.602,-629.883,-290.039,6.836,19456.171,344.2099217106366
226,1685917706.08,36.133,-338.867,-61.035,13.672,19456.175,341.17065104881914
227,1685917706.08,-15.137,120.605,32.227,-1.465,19456.179,338.0848258144864
228,1685917706.08,-48.828,-118.164,-166.504,-20.02,19456.182,343.34601681720983
229,1685917706.09,19.043,-315.918,-153.32,-13.184,19456.185,341.21681437952736
230,1685917706.09,55.664,35.156,66.406,-12.207,19456.189,342.4897480773121
231,1685917706.09,2.441,204.59,50.293,-25.879,19456.193,340.95472909613113
232,1685917706.1,-27.832,-163.086,-194.336,-20.996,19456.197,342.0785661352608
233,1685917706.1,-8.301,-533.203,-334.473,-9.766,19456.201,341.69948727402027
234,1685917706.11,30.273,-442.871,-223.633,-6.836,19456.205,336.74438499983387
235,1685917706.11,15.137,-124.512,-65.43,-15.625,19456.209,344.3927329146554
236,1685917706.11,-35.156,-323.73,-236.328,-16.113,19456.213,334.96092219590076
237,1685917706.12,-34.668,-941.895,-517.09,-2.93,19456.217,339.2980650244745
238,1685917706.12,20.996,-395.996,-81.543,4.883,19456.221,336.07715164808917
239,1685917706.12,23.438,232.91,94.727,0.977,19456.225,338.20030665145555
240,1685917706.13,-47.852,-158.691,-131.836,-37.109,19456.226,338.7302625178587
241,1685917706.13,-48.34,-253.906,-112.305,-35.645,19456.23,340.24048560672793
242,1685917706.14,28.32,170.898,69.824,2.441,19456.234,337.45576725197543
243,1685917706.14,33.203,200.684,52.246,-6.348,19456.238,339.4359288562098
244,1685917706.14,-21.484,-210.449,-186.035,-19.531,19456.242,334.44384643067144
245,1685917706.15,-40.039,-566.406,-350.098,-15.625,19456.246,340.65332276514977
246,1685917706.15,13.184,-281.738,-117.188,-8.301,19456.25,333.58978473941175
247,1685917706.15,52.734,-23.438,5.371,-0.488,19456.254,332.78925427842387
248,1685917706.16,4.395,-577.148,-385.742,-7.812,19456.257,337.0360297845055
249,1685917706.16,-45.41,-1000.0,-622.559,-2.441,19456.261,337.21749440347344
250,1685917706.17,-9.766,-382.812,-152.344,0.0,19456.265,340.216104630633
251,1685917706.17,46.875,170.41,70.312,-9.766,19456.269,337.2660028293125
252,1685917706.17,8.789,-86.426,-132.324,-25.879,19456.272,334.579490869189
253,1685917706.18,-39.062,-65.918,-94.238,-32.227,19456.276,339.541860670472
254,1685917706.18,-12.207,119.141,29.785,-20.508,19456.279,339.0340604325623
255,1685917706.18,28.809,76.66,-2.441,-16.113,19456.283,340.3591685131611
256,1685917706.19,20.508,-25.391,-90.82,-20.996,19456.287,336.60933330920733
257,1685917706.19,-35.156,-261.719,-234.375,-37.109,19456.291,338.27617028503363
258,1685917706.2,-45.41,-227.051,-132.324,-36.133,19456.295,340.72307509258553
259,1685917706.2,22.949,-96.191,-53.223,-11.23,19456.299,332.81873638000155
260,1685917706.2,37.598,-563.477,-285.645,-8.789,19456.303,331.64713517526604
261,1685917706.21,-20.508,-163.574,-40.039,-28.32,19456.307,336.2758530909384
262,1685917706.21,-47.363,243.652,74.219,-24.414,19456.311,329.8557641278829
263,1685917706.22,-2.93,-186.523,-106.934,-7.324,19456.315,331.9115062536815
264,1685917706.22,32.227,-210.938,-98.145,-6.836,19456.316,331.5284101145794
265,1685917706.22,-1.953,244.141,81.543,-18.555,19456.32,328.0353694438526
266,1685917706.22,-46.875,197.754,58.105,-28.809,19456.324,333.2791443491257
267,1685917706.23,-36.621,-216.309,-85.449,-19.531,19456.328,328.6818861884712
268,1685917706.23,10.254,-98.145,-26.367,-21.484,19456.332,328.86334707846885
269,1685917706.24,3.418,34.668,23.926,-40.039,19456.336,329.5545754845774
270,1685917706.24,-50.781,-141.113,-87.891,-42.969,19456.34,334.76140632319
271,1685917706.24,-58.105,-570.312,-344.238,-36.621,19456.343,335.8398801388196
272,1685917706.25,0.0,-875.977,-359.863,-24.414,19456.347,334.81365417581765
273,1685917706.25,19.043,36.621,102.539,-17.578,19456.351,329.1831640362172
274,1685917706.26,-36.621,323.242,78.613,-24.414,19456.355,333.6150310122498
275,1685917706.26,-47.363,-6.836,-23.926,-31.25,19456.359,329.5415494551807
276,1685917706.26,-0.977,232.91,114.258,-28.809,19456.364,333.60360312934984
277,1685917706.27,14.16,529.297,167.969,-32.227,19456.368,335.23487138263437
278,1685917706.27,-27.344,137.207,-4.883,-34.18,19456.372,338.0590879199666
279,1685917706.28,-58.105,-345.215,-97.656,-38.086,19456.376,329.1752727357835
280,1685917706.28,-21.484,13.184,76.172,-31.738,19456.38,335.3304471446011
281,1685917706.28,21.973,160.156,97.168,-21.484,19456.384,333.1578104121719
282,1685917706.29,-12.695,-168.457,-49.316,-28.809,19456.388,339.6924532535952
283,1685917706.29,-64.453,-593.262,-219.727,-36.621,19456.392,340.497031931235
284,1685917706.29,-39.551,-120.117,28.32,-25.391,19456.395,332.47807420950204
285,1685917706.3,20.02,520.508,202.637,-13.184,19456.399,336.28135090881165
286,1685917706.3,2.441,235.84,43.457,-26.855,19456.403,332.8325616729265
287,1685917706.31,-65.918,11.23,3.418,-41.992,19456.407,332.47962988490747
288,1685917706.31,-63.965,289.551,147.949,-31.738,19456.406,325.07599813755576
289,1685917706.31,1.953,451.66,163.086,-18.066,19456.41,329.52392518143427
290,1685917706.32,8.301,201.66,109.863,-24.902,19456.414,330.0907349987739
291,1685917706.32,-41.016,110.352,92.773,-41.504,19456.418,329.78053759208535
292,1685917706.32,-57.129,122.559,27.832,-47.363,19456.422,332.188319491287
293,1685917706.33,-10.254,73.73,74.219,-34.668,19456.426,328.48653857264725
294,1685917706.33,23.926,-370.605,-98.633,-13.672,19456.43,333.76043629978665
295,1685917706.33,-21.973,-961.914,-335.938,-15.625,19456.434,333.7671671742973
296,1685917706.34,-53.711,-311.035,20.02,-25.879,19456.437,332.92391003786855
297,1685917706.34,-17.578,255.859,146.973,-11.719,19456.441,330.3545119772464
298,1685917706.35,18.555,6.836,18.066,-3.906,19456.445,328.1736529061314
299,1685917706.35,-3.906,148.926,100.098,-12.695,19456.449,328.5466117660056
300,1685917706.35,-51.27,461.426,147.461,-21.484,19456.466,333.24323646820625
301,1685917706.36,-31.25,196.777,53.223,-21.484,19456.47,334.25939688681405
302,1685917706.36,27.832,104.98,95.215,-13.184,19456.474,331.3198575200647
303,1685917706.36,17.578,451.66,222.168,-20.02,19456.478,329.0361513568107
304,1685917706.37,-41.992,416.016,162.598,-38.574,19456.482,329.931489151984
305,1685917706.37,-45.898,-50.781,-3.906,-30.762,19456.486,332.2476763661036
306,1685917706.38,14.648,-513.672,-117.188,-7.324,19456.49,336.9264108277295
307,1685917706.38,26.855,-195.801,41.016,-13.672,19456.494,324.8574504466139
308,1685917706.38,-24.902,373.047,197.754,-27.344,19456.497,329.26803621380503
309,1685917706.39,-47.852,35.645,-28.32,-23.926,19456.501,331.6667092901214
310,1685917706.39,-4.395,-183.105,-65.43,-7.812,19456.505,318.5250222694607
311,1685917706.4,32.715,455.078,228.027,-8.301,19456.509,326.3675260763956
312,1685917706.4,-9.766,547.363,183.105,-27.832,19456.511,323.4520279097476
313,1685917706.4,-56.152,133.789,68.359,-37.598,19456.515,333.58188378107104
314,1685917706.4,-23.438,125.0,121.582,-24.414,19456.519,325.8444861475258
315,1685917706.41,22.461,524.414,248.047,-14.16,19456.523,330.48552456566796
316,1685917706.41,-2.441,485.352,176.27,-20.996,19456.527,335.8418421715558
317,1685917706.42,-55.176,-72.266,-56.641,-29.297,19456.531,326.85073502903316
318,1685917706.42,-42.48,-193.848,-9.766,-24.902,19456.535,322.646194930154
319,1685917706.42,13.672,78.125,142.578,-9.277,19456.538,323.6826992413584
320,1685917706.43,5.859,199.219,147.949,-17.578,19456.542,324.4354185965222
321,1685917706.43,-58.594,-396.484,-166.016,-31.25,19456.546,329.9825568817929
322,1685917706.44,-69.336,-813.477,-274.902,-27.344,19456.55,328.9660076515035
323,1685917706.44,-0.977,268.555,226.074,-18.066,19456.554,327.4779449959627
324,1685917706.46,28.809,589.355,219.238,-15.625,19456.556,326.1503333122947
325,1685917706.46,-32.227,184.57,73.73,-30.762,19456.56,322.72955184048465
326,1685917706.46,-67.871,243.164,159.18,-35.156,19456.564,327.1637096288282
327,1685917706.47,-11.719,513.184,254.883,-19.531,19456.568,326.9269788439328
328,1685917706.47,31.738,433.594,154.297,-11.719,19456.572,319.14879039938853
329,1685917706.48,-17.09,-52.246,-19.531,-24.414,19456.576,319.87557571478203
330,1685917706.48,-65.918,-33.691,53.223,-34.18,19456.58,317.7054956977953
331,1685917706.48,-32.227,437.012,204.59,-26.367,19456.583,313.12370254749254
332,1685917706.49,10.742,245.117,71.289,-9.277,19456.587,324.4460498895405
333,1685917706.49,-8.789,-243.652,-56.152,-10.742,19456.591,323.6876213378817
334,1685917706.5,-49.805,185.059,163.574,-27.832,19456.595,322.8704623019844
335,1685917706.5,-52.246,455.566,179.688,-29.297,19456.599,320.4215067355836
336,1685917706.5,-0.977,58.105,24.902,-15.137,19456.601,321.9954653181558
337,1685917706.51,3.418,37.109,88.379,-16.113,19456.605,322.70855398785073
338,1685917706.51,-51.758,413.574,199.219,-26.855,19456.609,322.0684933780769
339,1685917706.51,-60.547,350.098,138.672,-25.391,19456.613,324.64267088478834
340,1685917706.52,-15.137,20.508,68.848,-20.996,19456.617,329.2728253544793
341,1685917706.52,8.789,-79.102,71.777,-25.391,19456.621,318.254096081218
342,1685917706.53,-32.227,84.473,119.629,-35.156,19456.624,318.49482402417476
343,1685917706.53,-67.383,135.254,120.117,-35.645,19456.628,322.88296880451435
344,1685917706.53,-27.832,-436.523,-128.906,-15.137,19456.632,319.75554160945615
345,1685917706.54,16.113,-793.457,-199.219,-2.441,19456.636,323.3062872570867
346,1685917706.54,-2.441,188.477,167.969,-10.254,19456.64,317.0175573142087
347,1685917706.54,-55.176,409.18,121.582,-20.996,19456.644,316.41554033287474
348,1685917706.55,-40.039,144.043,86.426,-13.184,19456.646,315.84767613794946
349,1685917706.55,22.949,471.68,210.938,-0.977,19456.65,319.0469695405407
350,1685917706.56,8.301,628.418,226.562,-18.555,19456.654,321.66643677879966
351,1685917706.56,-62.5,161.621,41.992,-35.645,19456.658,316.6811416586496
352,1685917706.56,-61.035,-265.625,-39.062,-29.785,19456.662,313.7819884338286
353,1685917706.57,-1.953,-83.008,100.098,-25.879,19456.666,314.06401013390274
354,1685917706.57,2.93,329.102,203.613,-27.832,19456.67,318.78181017238603
355,1685917706.57,-59.57,123.535,22.949,-37.598,19456.674,315.02735028552814
356,1685917706.58,-87.402,-538.086,-208.984,-39.551,19456.678,309.44948962862594
357,1685917706.58,-22.949,85.449,135.254,-24.414,19456.682,320.3639039448548
358,1685917706.59,10.742,669.434,253.418,-21.484,19456.686,316.64072210413985
359,1685917706.59,-37.598,273.438,79.102,-39.551,19456.689,317.1795256545862
360,1685917706.59,-80.078,-19.531,48.34,-43.457,19456.706,313.4118597973606
361,1685917706.6,-45.898,311.035,183.105,-18.066,19456.71,311.8297007843966
362,1685917706.6,6.348,514.16,197.266,0.977,19456.714,316.26345558571734
363,1685917706.6,-22.461,258.301,155.273,-13.184,19456.718,309.62046718115624
364,1685917706.61,-82.031,118.652,112.305,-27.344,19456.722,316.2832265603391
365,1685917706.61,-63.477,-7.812,62.012,-21.973,19456.726,313.46531586726536
366,1685917706.62,0.977,106.445,163.574,-13.184,19456.729,311.7207534352093
367,1685917706.62,-3.906,-292.48,-98.145,-14.16,19456.733,311.4277285447064
368,1685917706.62,-70.312,-1000.0,-437.5,-28.809,19456.737,315.47558654890753
369,1685917706.63,-69.336,-329.59,-17.578,-35.156,19456.741,317.5037028941929
370,1685917706.63,-3.906,391.602,182.129,-27.832,19456.745,308.7400272908161
371,1685917706.64,1.465,309.082,115.723,-29.785,19456.749,309.72082587163794
372,1685917706.64,-52.734,375.977,162.598,-39.062,19456.736,304.1061059762185
373,1685917706.64,-67.871,455.566,157.227,-35.645,19456.74,320.4477599443154
374,1685917706.64,-16.113,300.781,147.949,-22.949,19456.744,310.6153002577663
375,1685917706.65,6.348,208.984,165.527,-16.602,19456.748,308.7716096001523
376,1685917706.65,-39.551,333.008,137.207,-33.691,19456.752,312.099063385351
377,1685917706.66,-80.078,65.918,63.477,-48.34,19456.756,309.26192432989177
378,1685917706.66,-40.039,-224.121,-41.016,-29.297,19456.76,310.9721626240777
379,1685917706.66,18.555,-210.449,-33.691,-11.23,19456.763,304.55585662151384
380,1685917706.67,-8.301,18.555,102.539,-26.367,19456.767,313.19795759377274
381,1685917706.67,-67.871,267.578,145.02,-47.363,19456.771,312.80102642845026
382,1685917706.68,-56.641,26.855,-44.922,-32.715,19456.775,304.68827820725056
383,1685917706.68,0.0,-615.723,-208.008,-13.672,19456.779,308.2172858195898
384,1685917706.68,-7.812,37.598,143.555,-25.879,19456.795,312.92318685308385
385,1685917706.69,-69.336,477.051,179.688,-44.922,19456.798,308.600319734833
386,1685917706.69,-84.961,95.215,83.496,-47.852,19456.802,304.56422230779845
387,1685917706.69,-24.902,198.73,163.086,-35.645,19456.806,300.97832742278007
388,1685917706.7,2.441,458.984,187.988,-29.297,19456.81,296.40577111064994
389,1685917706.7,-51.758,163.086,107.422,-47.363,19456.814,301.3570293323586
390,1685917706.71,-83.984,-558.105,-208.984,-46.387,19456.818,303.8540908129459
391,1685917706.71,-36.133,-750.977,-235.84,-23.926,19456.822,301.3796038675378
392,1685917706.71,6.348,115.723,183.105,-22.949,19456.826,307.8329209973672
393,1685917706.72,-31.738,465.82,155.762,-37.598,19456.83,304.1085618063512
394,1685917706.72,-88.867,-343.75,-135.742,-47.363,19456.834,301.1042710197882
395,1685917706.72,-55.176,-441.895,-39.062,-33.691,19456.838,298.89160882338524
396,1685917706.73,11.23,419.434,206.055,-18.555,19456.84,298.11139415297316
397,1685917706.73,-10.254,420.41,119.141,-22.949,19456.844,299.5503793695805
398,1685917706.74,-63.477,-144.043,-72.266,-29.297,19456.848,300.41851540373494
399,1685917706.74,-52.734,-12.207,34.668,-28.32,19456.852,296.90704894913875
400,1685917706.74,-2.441,488.281,229.492,-20.508,19456.856,301.3413941573737
401,1685917706.75,-5.859,150.879,41.016,-19.531,19456.86,294.85264815799036
402,1685917706.75,-56.641,-449.219,-154.297,-28.32,19456.863,294.83387993663894
403,1685917706.75,-65.43,-69.336,60.547,-26.855,19456.867,293.9217188510576
404,1685917706.76,-3.418,461.426,199.219,-17.09,19456.871,293.44258846652275
405,1685917706.76,26.855,228.516,60.547,-13.184,19456.875,294.73295407983676
406,1685917706.77,-9.277,6.348,-0.977,-14.648,19456.879,295.8624951563256
407,1685917706.77,-43.457,273.438,124.023,-14.16,19456.883,291.53637391533607
408,1685917706.77,-24.414,342.285,151.367,-16.113,19456.885,291.3745305275064
409,1685917706.78,6.836,-18.555,35.156,-24.902,19456.889,291.06866808320865
410,1685917706.78,-24.414,-48.828,49.805,-37.598,19456.893,291.4183203891364
411,1685917706.78,-77.148,262.207,151.855,-44.434,19456.896,290.1020979345322
412,1685917706.79,-65.43,344.727,145.02,-40.039,19456.9,288.475829291179
413,1685917706.79,-17.09,-332.52,-138.672,-26.855,19456.904,289.30064689673765
414,1685917706.8,-26.855,-757.324,-192.383,-29.785,19456.908,290.71411708016495
415,1685917706.8,-75.684,-216.309,64.941,-49.805,19456.912,278.73770273816456
416,1685917706.8,-63.477,-17.09,60.059,-38.574,19456.916,285.0094882584587
417,1685917706.81,0.977,-416.992,-84.961,-12.695,19456.92,289.8022722677976
418,1685917706.81,11.23,-402.344,-46.875,-16.602,19456.924,284.099292452356
419,1685917706.82,-44.922,324.219,148.438,-34.668,19456.928,282.2511142936149
420,1685917706.83,-76.172,203.613,45.41,-31.25,19456.932,276.39987688401214
421,1685917706.84,-21.484,69.824,66.895,-22.461,19456.936,282.6347794948213
422,1685917706.84,12.695,359.863,176.27,-32.227,19456.94,281.22108234744275
423,1685917706.84,-40.039,392.578,138.672,-51.758,19456.943,287.2248718799485
424,1685917706.85,-82.031,-15.137,15.625,-44.922,19456.947,275.18068089406256
425,1685917706.85,-46.875,-660.645,-160.645,-20.508,19456.951,279.0020508054589
426,1685917706.86,18.066,-275.879,29.297,-12.695,19456.955,276.253624596691
427,1685917706.86,9.277,520.508,263.184,-20.996,19456.959,274.6131360905532
428,1685917706.86,-58.105,30.762,-30.273,-35.156,19456.963,272.4387399954333
429,1685917706.87,-43.945,-301.27,-116.699,-20.508,19456.967,278.2788021544523
430,1685917706.87,22.461,351.562,195.801,0.977,19456.971,281.61703401049
431,1685917706.88,6.836,516.113,180.176,-14.648,19456.975,275.3930856235197
432,1685917706.88,-61.523,47.852,-5.859,-34.18,19456.976,275.135254489276
433,1685917706.88,-64.453,-69.824,12.207,-30.273,19456.98,273.94283334981327
434,1685917706.88,-2.441,367.188,188.965,-15.625,19456.984,278.6383774965072
435,1685917706.89,12.695,471.68,181.641,-10.254,19456.988,278.6606572085392
436,1685917706.89,-37.109,84.473,59.082,-22.949,19456.992,275.4380290792205
437,1685917706.9,-59.57,-279.297,-36.621,-30.273,19456.996,276.864769566972
438,1685917706.9,-14.16,-210.449,7.324,-21.484,19457.0,278.10547276858716
439,1685917706.9,18.555,44.434,134.766,-17.578,19457.003,271.3224546341963
440,1685917706.91,-30.762,-414.062,-124.512,-29.785,19457.007,274.23893119324646
441,1685917706.91,-77.637,-1000.0,-433.105,-35.156,19457.011,270.90672954041855
442,1685917706.92,-37.598,-295.41,-5.859,-23.926,19457.015,272.42190603173987
443,1685917706.92,13.672,338.867,155.273,-18.555,19457.019,266.66073523568616
444,1685917706.92,-12.695,197.754,86.914,-41.992,19457.022,270.46871239111744
445,1685917706.93,-72.754,243.164,124.512,-60.547,19457.025,273.2211460822335
446,1685917706.93,-56.641,361.816,149.902,-41.992,19457.029,274.9001667951071
447,1685917706.93,9.277,268.066,141.602,-20.996,19457.033,270.3209117615172
448,1685917706.94,0.0,107.91,108.398,-29.297,19457.037,269.0983956702215
449,1685917706.94,-66.406,-33.691,65.43,-45.41,19457.041,276.6101505761075
450,1685917706.95,-72.754,-12.695,119.141,-29.297,19457.045,270.53527941251616
451,1685917706.95,-12.695,82.031,94.727,-11.23,19457.049,274.0411364577581
452,1685917706.95,3.418,-384.277,-130.371,-11.719,19457.053,274.41996906423293
453,1685917706.96,-37.109,-279.785,-8.301,-18.066,19457.057,270.2527771080323
454,1685917706.96,-63.477,217.285,161.621,-10.742,19457.061,279.2037407780987
455,1685917706.96,-17.09,0.488,4.395,7.812,19457.064,280.77180969435096
456,1685917706.97,17.578,-150.391,-19.043,-2.93,19457.066,275.83739132630376
457,1685917706.97,-32.715,375.0,191.406,-32.227,19457.07,278.3344567981134
458,1685917706.98,-85.449,334.961,129.883,-41.016,19457.074,273.59165624603736
459,1685917706.98,-51.758,52.734,44.434,-31.25,19457.078,282.0189671104312
460,1685917706.98,2.441,166.504,93.75,-16.113,19457.082,275.6566336374441
461,1685917706.99,-21.484,125.0,90.332,-21.973,19457.086,282.48687729718176
462,1685917706.99,-67.871,-59.082,59.57,-38.086,19457.089,275.5001744943607
463,1685917706.99,-57.617,-533.203,-184.57,-22.461,19457.093,279.87897900226994
464,1685917707.0,-11.23,-847.656,-265.137,-6.348,19457.097,277.16687254692795
465,1685917707.0,4.883,104.492,173.828,-15.625,19457.101,276.6864950523942
466,1685917707.01,-52.734,399.414,143.555,-34.668,19457.105,276.72310913308604
467,1685917707.01,-70.801,-68.848,-8.789,-36.133,19457.109,286.8227076003674
468,1685917707.01,-3.906,-91.797,56.641,-23.438,19457.113,288.43999251276443
469,1685917707.02,22.949,365.723,163.086,-27.344,19457.117,274.2393807962788
470,1685917707.02,-23.926,335.449,81.543,-30.273,19457.121,274.25115457569353
471,1685917707.02,-60.547,-173.828,-16.113,-28.809,19457.124,283.658890198307
472,1685917707.03,-37.109,64.453,116.699,-27.344,19457.128,282.4384754423773
473,1685917707.03,0.488,235.352,144.531,-32.227,19457.132,284.1533717026557
474,1685917707.04,-29.785,-109.863,-4.883,-42.969,19457.136,284.81387846322366
475,1685917707.04,-80.078,-567.383,-167.969,-44.434,19457.14,284.8829644298755
476,1685917707.04,-57.129,-148.438,45.898,-37.109,19457.144,283.2573151113087
477,1685917707.05,-2.93,481.445,212.402,-27.832,19457.148,280.58945878335686
478,1685917707.05,-11.23,233.887,79.102,-29.297,19457.152,286.48256469558106
479,1685917707.06,-65.43,33.691,47.363,-34.18,19457.156,285.9925763354751
480,1685917707.06,-69.336,268.555,136.719,-28.32,19457.17,293.8765590180499
481,1685917707.06,-8.301,422.363,176.27,-20.996,19457.174,292.6168435009443
482,1685917707.06,-5.371,41.992,71.289,-23.438,19457.178,292.77074016791454
483,1685917707.07,-58.594,-67.871,51.758,-40.039,19457.182,289.3137313480747
484,1685917707.07,-68.359,182.617,104.98,-37.109,19457.186,291.16676536597487
485,1685917707.08,-10.742,63.477,114.746,-16.602,19457.19,294.3074254641773
486,1685917707.08,5.371,-478.516,-125.0,-12.207,19457.194,291.83958333839837
487,1685917707.08,-50.781,-808.594,-228.027,-22.461,19457.198,287.39497949167367
488,1685917707.09,-76.172,-113.281,122.559,-27.344,19457.201,287.0022122711874
489,1685917707.09,-36.133,335.449,153.32,-10.742,19457.205,287.789210033163
490,1685917707.1,10.254,-127.441,3.906,4.883,19457.209,294.70297951490164
491,1685917707.1,-15.137,-128.418,86.426,-11.23,19457.213,287.12847641265597
492,1685917707.1,-63.477,377.93,196.289,-38.086,19457.216,290.7418860747793
493,1685917707.11,-49.316,232.422,104.492,-30.273,19457.22,293.41984204595633
494,1685917707.11,7.324,71.777,96.68,-10.254,19457.224,297.6273274405995
495,1685917707.11,1.953,299.805,145.996,-10.254,19457.228,292.06612842882015
496,1685917707.12,-52.734,302.246,119.629,-22.949,19457.232,293.1238642625774
497,1685917707.12,-58.594,-118.652,-5.371,-31.25,19457.235,292.35117927688583
498,1685917707.13,-13.184,-674.316,-170.898,-19.531,19457.239,302.43412332476873
499,1685917707.13,-0.977,-267.09,44.434,-18.555,19457.243,297.1896084349831
500,1685917707.13,-50.293,429.688,216.309,-37.598,19457.247,294.3288624566617
501,1685917707.14,-72.266,-66.895,-48.828,-32.715,19457.251,304.3318433148457
502,1685917707.14,-18.555,-295.898,-74.219,-14.648,19457.255,297.7773281600361
503,1685917707.14,15.625,378.418,215.82,-23.926,19457.259,299.5054917093204
504,1685917707.15,-32.227,460.938,172.852,-38.574,19457.26,296.6606613169173
505,1685917707.15,-69.824,8.789,39.062,-37.598,19457.264,295.3529985961978
506,1685917707.16,-35.156,-2.441,94.238,-23.926,19457.268,299.39930650998787
507,1685917707.16,13.672,439.941,259.277,-16.113,19457.272,296.77650809873023
508,1685917707.16,-6.348,451.172,191.406,-24.902,19457.276,300.3040672343276
509,1685917707.17,-66.895,-311.035,-71.777,-39.551,19457.28,301.5900660092493
510,1685917707.17,-50.293,-450.195,-13.672,-29.297,19457.284,300.31166352324345
511,1685917707.17,16.113,50.293,98.145,-8.789,19457.288,300.9775601016628
512,1685917707.18,8.789,46.875,89.355,-24.414,19457.292,298.0963508943304
513,1685917707.18,-67.383,-535.156,-192.871,-49.316,19457.296,299.80588157790027
514,1685917707.19,-77.148,-844.727,-318.359,-45.41,19457.299,303.68311460932085
515,1685917707.19,-7.324,66.895,136.23,-28.809,19457.303,304.0318741837058
516,1685917707.21,10.742,387.207,163.086,-20.02,19457.309,300.4679186404013
517,1685917707.22,-44.434,136.23,77.637,-35.645,19457.313,305.62824491955126
518,1685917707.22,-72.266,190.918,142.09,-39.551,19457.317,319.69054768449166
519,1685917707.22,-21.973,423.828,204.59,-22.461,19457.321,307.58787985599395
520,1685917707.23,12.695,291.992,141.113,-18.066,19457.325,304.03544827640746
521,1685917707.23,-35.645,-190.43,-23.438,-24.902,19457.329,304.5002097210417
522,1685917707.24,-72.266,-244.629,0.977,-32.715,19457.333,304.62797522790135
523,1685917707.24,-33.203,210.938,170.898,-20.996,19457.337,306.73342548760417
524,1685917707.24,11.719,208.984,89.844,-0.488,19457.34,306.32183865619777
525,1685917707.25,-11.719,-328.125,-49.316,-10.742,19457.344,301.1329669654209
526,1685917707.25,-67.383,-171.387,82.52,-30.762,19457.348,308.416017779618
527,1685917707.25,-2.441,14.648,3.418,-21.484,19457.351,308.34410273306054
528,1685917707.25,-63.965,281.25,179.688,-25.391,19457.352,301.8942662933647
529,1685917707.26,-2.441,-208.984,-51.27,-29.297,19457.355,302.6500946472614
530,1685917707.26,-61.035,230.957,145.02,-39.062,19457.359,303.88764854975426
531,1685917707.26,-64.453,255.371,134.277,-32.227,19457.363,309.45843829138715
532,1685917707.27,-5.371,96.191,147.461,-10.742,19457.367,309.22849726546764
533,1685917707.27,14.648,-92.285,76.172,-12.207,19457.371,308.2714312787578
534,1685917707.28,-31.25,1.953,75.684,-36.621,19457.374,313.8039376367266
535,1685917707.28,-60.059,69.824,113.77,-34.18,19457.378,307.5960181973482
536,1685917707.28,-22.461,-580.078,-176.758,-9.277,19457.382,314.03846170114394
537,1685917707.29,7.812,-564.941,-143.066,-7.324,19457.386,318.6365486593083
538,1685917707.29,-24.902,340.332,195.801,-33.203,19457.39,313.72027038232744
539,1685917707.3,-67.383,301.758,82.52,-43.945,19457.394,318.33090198198477
540,1685917707.3,-49.805,-451.66,-106.445,-30.762,19457.399,307.7002171591794
541,1685917707.3,1.465,-292.48,73.242,-20.996,19457.403,317.86196819562923
542,1685917707.31,-4.395,469.238,242.188,-35.156,19457.407,313.8653197113215
543,1685917707.31,-63.965,221.191,58.105,-45.898,19457.411,315.0504812317398
544,1685917707.31,-66.895,-266.113,-13.672,-34.18,19457.415,312.3011354740948
545,1685917707.32,-1.465,-176.758,52.734,-21.973,19457.419,312.22959255379993
546,1685917707.32,11.719,221.68,164.551,-26.855,19457.423,306.17952139035276
547,1685917707.32,-49.316,81.055,21.973,-39.551,19457.427,317.2704688081342
548,1685917707.33,-69.336,-563.477,-222.168,-38.574,19457.431,311.98074485913963
549,1685917707.33,-18.066,-75.684,85.449,-28.32,19457.435,304.97585389712856
550,1685917707.34,2.93,524.902,211.914,-40.039,19457.439,309.7536144082576
551,1685917707.34,-41.504,184.57,48.828,-54.199,19457.442,319.7735387931611
552,1685917707.34,-84.961,4.883,55.664,-56.152,19457.441,312.22087599027924
553,1685917707.35,-45.898,353.027,177.734,-41.504,19457.445,306.1186354536141
554,1685917707.35,0.0,448.73,183.105,-33.691,19457.449,312.56094404937585
555,1685917707.35,-38.086,58.105,83.008,-47.852,19457.453,315.2375327003034
556,1685917707.36,-83.984,-60.547,48.828,-48.828,19457.457,316.34166275764863
557,1685917707.36,-52.734,-49.805,52.734,-37.109,19457.461,319.02472002825897
558,1685917707.37,8.301,24.902,125.977,-28.809,19457.465,318.3473335413065
559,1685917707.37,-1.465,-346.68,-111.328,-31.738,19457.469,314.4632248831145
560,1685917707.37,-67.383,-1000.0,-469.238,-41.504,19457.473,314.30075237931226
561,1685917707.38,-65.43,-401.855,-91.309,-32.715,19457.476,311.756733275761
562,1685917707.38,3.906,325.195,160.645,-14.648,19457.48,315.8344026854408
563,1685917707.38,20.508,248.535,93.262,-18.555,19457.484,317.63631242187256
564,1685917707.39,-38.574,240.723,117.676,-36.133,19457.486,318.47604727634507
565,1685917707.39,-64.941,332.52,127.93,-34.18,19457.49,316.98511466732316
566,1685917707.4,-13.184,262.695,105.469,-21.973,19457.494,319.4294575107168
567,1685917707.4,15.137,81.055,103.027,-22.949,19457.498,318.95620257975014
568,1685917707.4,-24.414,170.41,113.77,-26.367,19457.502,309.0658699716522
569,1685917707.41,-60.059,-56.641,57.129,-30.273,19457.506,319.36426542297806
570,1685917707.41,-20.508,-199.707,3.418,-12.695,19457.51,318.00060933971696
571,1685917707.41,23.926,-728.516,-245.605,0.977,19457.513,310.4374876497667
572,1685917707.42,-4.883,-415.527,-46.387,-11.719,19457.517,319.35450090248247
573,1685917707.42,-47.363,390.625,165.039,-29.297,19457.521,312.8715588996638
574,1685917707.43,-29.297,41.016,-4.395,-29.297,19457.525,315.08696757732514
575,1685917707.43,24.414,111.328,83.984,-14.16,19457.529,312.8601162742039
576,1685917707.43,19.043,385.254,166.504,-16.602,19457.56,317.6309993101652
577,1685917707.44,-38.086,267.09,116.211,-28.32,19457.564,312.8230427696841
578,1685917707.44,-51.27,-5.859,46.387,-26.855,19457.567,314.5640223248405
579,1685917707.44,8.789,92.773,120.605,-7.812,19457.571,317.97616811746343
580,1685917707.45,27.344,424.805,199.219,-9.277,19457.575,322.06117056645434
581,1685917707.45,-37.109,187.012,85.938,-28.809,19457.579,312.6954708455569
582,1685917707.46,-73.242,-528.32,-204.59,-36.621,19457.583,317.1646162718909
583,1685917707.46,-32.227,-746.582,-205.078,-26.367,19457.587,317.6230271033984
584,1685917707.46,7.812,-98.633,124.023,-18.066,19457.591,317.2099053437382
585,1685917707.47,-24.414,146.973,116.699,-30.273,19457.595,313.09812994633927
586,1685917707.47,-81.055,-534.18,-228.516,-42.48,19457.599,310.82644974638526
587,1685917707.48,-50.781,-604.98,-176.27,-25.879,19457.603,313.73489562744254
588,1685917707.48,13.672,408.203,222.656,-18.555,19457.591,309.57554834884843
589,1685917707.48,-9.277,370.117,106.445,-37.109,19457.595,314.71388306482777
590,1685917707.48,-73.73,34.18,34.18,-46.875,19457.599,316.5435629769456
591,1685917707.49,-64.941,223.145,131.836,-33.691,19457.603,316.0068424111959
592,1685917707.49,2.441,467.773,217.285,-10.742,19457.607,316.16891535203587
593,1685917707.5,5.859,64.941,31.738,-10.254,19457.61,317.0204409064751
594,1685917707.5,-53.223,-268.066,-66.895,-30.762,19457.614,315.11356713676196
595,1685917707.5,-63.965,106.934,112.305,-34.18,19457.618,315.13858382920483
596,1685917707.51,-3.418,464.355,212.891,-17.578,19457.622,318.9409057377873
597,1685917707.51,14.648,179.199,12.207,-14.16,19457.626,310.3875858389985
598,1685917707.52,-43.945,-350.586,-136.719,-30.762,19457.63,316.83352283206807
599,1685917707.52,-81.055,-194.824,43.945,-36.621,19457.634,315.125270208186
600,1685917707.52,-39.062,257.812,197.754,-29.297,19457.635,317.74009046260113
601,1685917707.53,7.812,-38.574,-32.227,-20.996,19457.639,316.55125228698256
602,1685917707.53,-24.902,-450.684,-183.594,-36.133,19457.642,320.42276409922715
603,1685917707.54,-72.266,120.605,148.438,-47.852,19457.646,311.26189114378894
604,1685917707.54,-45.898,302.246,130.371,-23.438,19457.65,315.4476144414385
605,1685917707.54,-1.465,-60.059,-26.367,-13.184,19457.654,317.59438267206366
606,1685917707.55,-17.578,-109.863,16.113,-35.156,19457.658,309.8780957949832
607,1685917707.55,-69.336,-73.73,20.996,-60.547,19457.662,315.2961811519607
608,1685917707.55,-63.965,-119.629,4.883,-44.922,19457.666,317.6877716075983
609,1685917707.56,-12.695,-491.211,-153.809,-17.09,19457.67,312.9471799814437
610,1685917707.56,-10.254,-685.059,-182.129,-26.367,19457.674,312.4333948509421
611,1685917707.57,-57.129,190.918,154.785,-43.945,19457.678,316.6247241108343
612,1685917707.58,-75.684,258.301,59.57,-35.156,19457.682,315.5865031777815
613,1685917707.59,-21.973,-94.238,7.324,-17.09,19457.686,312.0296177948822
614,1685917707.59,5.859,96.191,128.906,-15.625,19457.69,318.5703718599784
615,1685917707.59,-38.574,410.156,166.992,-34.18,19457.694,315.41095376507764
616,1685917707.6,-78.125,160.645,8.301,-42.48,19457.698,317.86624470314496
617,1685917707.6,-49.805,-627.441,-232.422,-28.32,19457.702,306.3073277570759
618,1685917707.61,-8.789,-347.168,-4.395,-27.344,19457.705,317.05698521170376
619,1685917707.61,-28.32,477.051,217.773,-43.457,19457.709,314.0739905645856
620,1685917707.61,-75.684,18.066,-63.965,-42.48,19457.713,314.7863065185779
621,1685917707.62,-52.246,-359.863,-152.832,-22.461,19457.717,319.04279439731135
622,1685917707.62,5.371,257.324,146.484,-12.695,19457.721,319.416761230331
623,1685917707.62,-6.836,492.676,186.523,-30.273,19457.725,313.9173478867824
624,1685917707.63,-65.918,82.031,22.949,-38.086,19457.726,317.5219616977782
625,1685917707.63,-68.359,-27.832,43.457,-26.855,19457.73,313.8523581808849
626,1685917707.64,-7.324,358.398,185.059,-20.508,19457.734,317.7138337594602
627,1685917707.64,5.371,439.941,158.691,-11.719,19457.738,311.9311018266557
628,1685917707.64,-39.551,-91.797,-40.039,-13.672,19457.742,316.6989243757002
629,1685917707.65,-65.43,-412.598,-124.512,-27.832,19457.746,311.19673254261505
630,1685917707.65,-31.25,-186.523,15.625,-34.18,19457.75,312.1831458280808
631,1685917707.65,6.836,56.152,113.77,-25.391,19457.754,311.5669099992088
632,1685917707.66,-31.738,-468.262,-193.848,-20.02,19457.758,314.00390985506175
633,1685917707.66,-66.895,-833.008,-339.844,-21.484,19457.761,314.47046458730057
634,1685917707.67,-18.066,78.125,118.652,-7.812,19457.765,308.57427253598917
635,1685917707.67,27.832,421.387,157.227,2.93,19457.769,320.82795985755337
636,1685917707.67,0.488,0.977,-38.574,-7.324,19457.771,326.09699646260486
637,1685917707.68,-39.551,26.367,30.762,-8.789,19457.775,313.53631876102327
638,1685917707.68,-14.16,395.02,168.457,8.789,19457.779,316.95870895699795
639,1685917707.68,34.668,338.379,124.512,8.301,19457.783,315.0754552239964
640,1685917707.69,22.461,126.465,61.523,-4.395,19457.787,319.55661770574625
641,1685917707.69,-31.738,-46.387,20.996,-4.883,19457.791,314.41071994812734
642,1685917707.7,-40.039,-144.531,7.812,0.488,19457.795,316.44632083910386
643,1685917707.7,1.953,-71.777,10.742,8.301,19457.799,316.49916680261435
644,1685917707.7,11.23,-661.621,-220.703,8.301,19457.803,318.2375604175846
645,1685917707.71,-31.738,-370.605,-23.438,-10.742,19457.807,313.73357598480845
646,1685917707.71,-46.875,408.691,181.641,-19.043,19457.81,311.10592036914164
647,1685917707.72,5.859,127.93,18.066,-2.441,19457.814,319.04917839456823
648,1685917707.72,38.574,192.871,80.566,0.977,19457.816,309.6349735306274
649,1685917707.72,-3.418,451.172,158.691,-17.578,19457.82,314.1059554650924
650,1685917707.72,-50.781,352.539,117.188,-28.809,19457.824,315.54304499658565
651,1685917707.73,-21.973,98.145,45.41,-8.789,19457.828,318.59651327356954
652,1685917707.73,34.668,163.086,91.797,2.93,19457.832,317.26929768635813
653,1685917707.74,7.812,109.375,60.547,-12.207,19457.836,312.1423110960993
654,1685917707.74,-57.617,-50.781,24.414,-23.926,19457.84,315.2728640500976
655,1685917707.74,-52.734,-503.418,-191.406,-11.23,19457.844,313.83881573680543
656,1685917707.75,10.742,-870.117,-301.758,2.93,19457.847,315.04296969705086
657,1685917707.75,18.066,-171.387,42.48,-2.93,19457.851,317.7900514526334
658,1685917707.76,-38.574,157.227,69.824,-11.719,19457.855,316.5586380794709
659,1685917707.76,-40.039,-120.605,-50.293,-7.812,19457.859,318.58715404442836
660,1685917707.76,29.297,137.207,93.75,7.812,19457.861,318.44798694816393
661,1685917707.77,44.434,604.492,233.398,6.348,19457.865,312.8500321239471
662,1685917707.77,-27.344,304.199,50.293,-12.695,19457.869,315.4478522272572
663,1685917707.77,-66.406,11.23,-10.254,-16.602,19457.873,312.09050627150714
664,1685917707.78,-23.438,199.707,132.324,-6.836,19457.877,313.1162661303788
665,1685917707.78,15.625,186.523,123.535,-7.812,19457.881,320.94791125171724
666,1685917707.79,-21.484,-140.137,-30.762,-15.625,19457.884,315.789571459589
667,1685917707.79,-77.637,-607.422,-193.848,-20.508,19457.888,317.4043524175287
668,1685917707.79,-49.805,-145.508,51.27,-13.184,19457.892,310.00409608817546
669,1685917707.8,19.043,518.555,216.797,1.465,19457.896,318.38682121813207
670,1685917707.8,5.371,268.066,59.082,-1.953,19457.9,313.8596260776866
671,1685917707.8,-55.176,-7.812,-36.133,-21.484,19457.904,316.0722115569803
672,1685917707.81,-48.34,13.672,67.383,-24.414,19457.909,322.3167927670369
673,1685917707.81,13.184,366.211,201.172,1.953,19457.913,317.38675426032904
674,1685917707.82,16.113,42.969,-11.23,-7.324,19457.917,316.6923660748034
675,1685917707.82,-41.504,-282.227,-106.445,-34.668,19457.921,320.6393343653806
676,1685917707.82,-60.059,99.121,55.176,-30.762,19457.925,316.59302202456894
677,1685917707.83,-7.324,99.121,96.191,-20.996,19457.929,314.31694939354855
678,1685917707.83,8.789,-409.18,-131.348,-18.066,19457.933,321.4628357194449
679,1685917707.84,-50.293,-806.641,-307.617,-27.832,19457.937,315.1340475555665
680,1685917707.84,-77.148,-158.203,24.414,-32.227,19457.941,322.85487098783017
681,1685917707.84,-35.156,252.441,97.168,-16.602,19457.944,314.6578697974383
682,1685917707.85,5.371,-219.727,-46.875,-13.672,19457.948,319.8221784320622
683,1685917707.85,-18.066,-139.16,54.688,-23.438,19457.952,316.7317069464153
684,1685917707.85,-65.43,257.324,100.586,-37.109,19457.969,317.10047642770206
685,1685917707.86,-38.574,49.316,10.742,-27.344,19457.973,318.85575010051303
686,1685917707.86,21.973,-98.145,46.875,-11.719,19457.977,318.7484845303368
687,1685917707.86,2.93,89.844,118.652,-21.484,19457.981,314.6126589183477
688,1685917707.87,-57.129,338.867,124.023,-42.48,19457.985,312.340716059563
689,1685917707.87,-59.082,34.668,3.906,-32.715,19457.989,313.4173004449563
690,1685917707.88,3.418,-769.043,-302.246,0.0,19457.993,315.0280692070889
691,1685917707.88,20.02,-473.145,-140.137,-6.348,19457.996,323.5727299753318
692,1685917707.88,-40.527,376.465,157.715,-38.574,19458.0,321.33028696160676
693,1685917707.89,-67.871,67.871,6.836,-37.109,19458.004,313.8683222973365
694,1685917707.89,-7.812,47.363,62.5,-24.414,19458.008,313.50456682843685
695,1685917707.9,22.461,419.922,177.734,-27.344,19458.012,316.2706627601633
696,1685917707.91,-29.785,400.879,122.559,-30.273,19458.012,322.33971569840185
697,1685917707.92,-69.336,20.996,3.418,-41.016,19458.015,310.62673346834055
698,1685917707.92,-24.902,22.949,64.941,-23.438,19458.019,313.0862295745011
699,1685917707.92,29.785,408.203,176.758,0.0,19458.023,315.68674581986005
700,1685917707.93,-7.324,339.844,118.164,-17.578,19458.027,320.82150590065066
701,1685917707.93,-70.801,-229.98,-97.656,-26.855,19458.031,316.84876893974484
702,1685917707.94,-47.852,-447.266,-165.527,-16.113,19458.035,318.24651678767697
703,1685917707.94,11.23,-135.254,6.348,-20.508,19458.039,313.4448159882157
704,1685917707.94,-6.348,17.578,94.238,-46.875,19458.043,319.87373673387054
705,1685917707.95,-71.289,-506.348,-224.121,-59.082,19458.047,310.3240664332806
706,1685917707.95,-72.266,-977.051,-400.391,-37.598,19458.051,312.7154588471984
707,1685917707.96,11.23,-46.387,117.188,-24.414,19458.055,316.888717206884
708,1685917707.96,33.203,435.547,137.207,-28.32,19458.057,309.60874839933723
709,1685917707.96,-34.18,115.234,0.488,-40.527,19458.061,310.25344745427316
710,1685917707.96,-71.289,159.668,99.121,-53.223,19458.065,313.2435316925889
711,1685917707.97,-20.996,417.48,191.406,-40.527,19458.068,314.424147355687
712,1685917707.97,21.973,377.441,139.648,-24.902,19458.072,311.57364177629717
713,1685917707.98,-20.996,-121.094,-60.059,-33.691,19458.076,310.3222660592753
714,1685917707.98,-60.059,-171.387,-22.461,-40.527,19458.08,311.34910042410576
715,1685917707.98,-15.625,71.777,78.125,-33.691,19458.084,318.34138745854995
716,1685917707.99,38.574,-82.031,-53.223,-17.578,19458.088,315.7817510380348
717,1685917707.99,-3.418,-733.887,-310.059,-27.344,19458.092,306.22757572012
718,1685917708.0,-73.242,-421.875,-72.266,-47.852,19458.096,318.5589365109042
719,1685917708.0,-58.105,308.594,137.695,-37.598,19458.1,323.22738347331995
720,1685917708.0,4.395,148.926,46.387,-24.902,19458.101,317.1368242054852
721,1685917708.01,0.977,182.129,83.984,-40.039,19458.105,317.67010536613805
722,1685917708.01,-53.223,369.141,120.117,-59.57,19458.109,320.21197436513324
723,1685917708.01,-62.988,305.176,122.07,-49.805,19458.113,317.3686330575312
724,1685917708.02,-6.348,45.41,29.785,-27.344,19458.117,318.67758365481194
725,1685917708.02,22.949,-176.27,-14.16,-22.461,19458.121,319.4646112919911
726,1685917708.03,-26.367,-44.434,65.918,-31.738,19458.125,314.3921340035604
727,1685917708.03,-60.059,61.523,69.824,-36.133,19458.128,312.32559105983006
728,1685917708.03,-23.438,-522.949,-217.773,-16.113,19458.132,313.4801109236001
729,1685917708.04,10.742,-873.535,-323.242,0.488,19458.136,309.91016752496535
730,1685917708.04,-19.531,-206.543,36.133,-22.949,19458.14,314.3385867198419
731,1685917708.04,-60.059,103.027,61.523,-32.227,19458.144,311.7476079559551
732,1685917708.05,-29.785,-142.09,-73.242,-13.184,19458.155,311.8299985360696
733,1685917708.05,17.578,122.07,85.449,-8.301,19458.159,313.6142213525728
734,1685917708.06,-0.488,500.977,188.477,-13.672,19458.163,321.18016316503554
735,1685917708.06,-47.852,197.266,39.551,-17.09,19458.167,313.0634516716331
736,1685917708.06,-47.852,-3.906,-10.254,-7.812,19458.171,313.2555016824215
737,1685917708.07,10.742,45.41,53.223,0.0,19458.174,314.4851177892092
738,1685917708.07,26.855,66.406,77.637,-12.695,19458.178,312.3385149335493
739,1685917708.07,-44.434,-154.785,-63.965,-29.297,19458.182,313.59122121514673
740,1685917708.08,-69.336,-626.465,-242.188,-28.809,19458.186,317.59488824683297
741,1685917708.08,2.441,-51.27,71.289,-13.184,19458.19,313.640729072174
742,1685917708.09,34.668,544.922,224.121,-6.348,19458.194,316.8903640303516
743,1685917708.09,-22.461,212.891,39.551,-22.949,19458.198,316.2294977405199
744,1685917708.09,-63.965,-143.555,-74.219,-38.574,19458.194,316.3479265643097
745,1685917708.1,-20.508,-2.441,71.777,-24.414,19458.198,318.303383059877
746,1685917708.1,29.297,419.434,194.824,-8.789,19458.202,316.0647067181778
747,1685917708.1,-19.043,-20.02,-61.035,-20.02,19458.206,318.3748893395703
748,1685917708.11,-71.289,-365.723,-134.277,-31.25,19458.21,312.8719332535707
749,1685917708.11,-38.086,-171.387,-10.742,-13.672,19458.214,314.6377961241727
750,1685917708.12,13.672,-0.488,84.961,-0.488,19458.218,313.9474847228166
751,1685917708.12,-3.418,-352.539,-144.531,-11.719,19458.222,311.1339525825049
752,1685917708.12,-66.895,-995.605,-390.137,-25.879,19458.226,317.4071689862986
753,1685917708.13,-59.57,-231.445,22.461,-25.391,19458.229,316.9174115829867
754,1685917708.13,1.953,334.961,126.465,-13.184,19458.233,309.43792709555186
755,1685917708.14,9.766,229.004,75.195,-19.531,19458.237,321.1115726501268
756,1685917708.14,-44.922,291.016,99.609,-41.992,19458.236,310.13624183946627
757,1685917708.14,-66.406,370.117,105.469,-40.039,19458.24,316.5409462912381
758,1685917708.14,-7.324,234.375,73.242,-23.926,19458.244,313.98898664643116
759,1685917708.15,9.766,-59.57,11.719,-26.367,19458.248,310.198235744007
760,1685917708.15,-28.32,55.664,63.477,-41.504,19458.252,313.6844298539915
761,1685917708.16,-62.012,-44.922,-53.223,-36.133,19458.256,316.96955427685793
762,1685917708.16,-33.203,-234.375,-110.352,-22.461,19458.26,314.115826081276
763,1685917708.16,14.648,-713.379,-263.672,-17.09,19458.263,318.0763385963698
764,1685917708.17,-9.277,-465.82,-145.996,-39.062,19458.267,311.18050507625173
765,1685917708.17,-54.199,329.102,158.691,-52.734,19458.271,316.391788861394
766,1685917708.18,-46.387,71.289,36.133,-35.645,19458.275,316.37542038049367
767,1685917708.18,19.043,95.215,41.016,-23.926,19458.279,307.6363520923359
768,1685917708.18,14.16,380.371,131.348,-18.555,19458.281,309.9923818629645
769,1685917708.19,-52.734,299.805,100.098,-34.668,19458.285,313.8114064281123
770,1685917708.19,-63.477,-45.898,-31.738,-37.109,19458.289,311.9195695611668
771,1685917708.19,-5.859,41.016,42.969,-9.277,19458.293,313.4307022901762
772,1685917708.2,18.555,324.707,145.508,-14.648,19458.297,315.67700522159504
773,1685917708.2,-41.016,-13.184,-47.363,-36.133,19458.301,307.65446457678894
774,1685917708.21,-67.871,-627.93,-356.445,-22.949,19458.305,316.26648071315316
775,1685917708.21,-18.555,-904.785,-382.812,-4.883,19458.309,311.6581318061593
776,1685917708.21,26.367,-185.547,21.973,-10.254,19458.312,310.9895554446718
777,1685917708.22,-13.184,285.645,102.539,-17.578,19458.316,312.77481672074566
778,1685917708.22,-60.059,-387.695,-150.879,-18.555,19458.32,310.67506849623754
779,1685917708.22,-15.137,-335.449,-39.062,1.465,19458.324,312.45293767913364
780,1685917708.23,36.133,418.457,204.102,16.602,19458.341,311.5146590798879
781,1685917708.23,0.488,231.934,33.691,-3.418,19458.344,315.9988281341024
782,1685917708.24,-69.824,-187.988,-134.766,-33.203,19458.348,315.85103653392906
783,1685917708.24,-50.781,-45.898,5.371,-21.973,19458.352,308.1174655773474
784,1685917708.24,19.531,215.332,92.285,-4.395,19458.356,313.7036846261599
785,1685917708.25,13.184,-103.027,-98.633,-22.949,19458.36,312.6399492930722
786,1685917708.25,-53.711,-735.352,-350.098,-23.926,19458.364,317.305420454428
787,1685917708.25,-64.941,-437.988,-145.996,-17.578,19458.368,316.7645779338199
788,1685917708.26,3.906,8.301,28.809,-5.859,19458.372,310.7840506038379
789,1685917708.26,24.414,-368.164,-262.695,0.977,19458.376,322.02833668235473
790,1685917708.27,-34.18,-580.566,-364.746,-18.066,19458.38,315.22371619475894
791,1685917708.27,-71.289,-114.746,-20.02,-33.691,19458.383,314.1956907441745
792,1685917708.27,-29.297,-106.934,-119.629,-18.066,19458.385,309.8438528354629
793,1685917708.28,10.742,-397.949,-241.699,-6.836,19458.389,305.7059375703033
794,1685917708.28,-24.902,-227.051,-74.707,-32.715,19458.393,308.8526195434574
795,1685917708.28,-69.824,-60.547,-78.125,-35.156,19458.397,307.4480598756652
796,1685917708.29,-37.598,-66.895,-149.414,-4.883,19458.401,318.01015880884063
797,1685917708.29,24.414,-515.137,-273.926,3.906,19458.405,312.3952311640827
798,1685917708.3,-9.766,-578.613,-258.301,-22.461,19458.409,310.56409605497186
799,1685917708.3,-59.57,-362.793,-268.066,-31.738,19458.413,314.89926858189494
800,1685917708.3,-51.758,-472.656,-321.289,-28.809,19458.417,316.2788544002937
801,1685917708.31,-4.883,-729.492,-451.172,-8.789,19458.42,309.90483335183984
802,1685917708.31,11.23,-772.949,-443.848,-21.484,19458.424,315.9048151572995
803,1685917708.32,-45.898,-364.258,-238.77,-54.688,19458.428,312.8296405529034
804,1685917708.33,-83.984,-370.605,-325.195,-42.48,19458.431,309.71103167353976
805,1685917708.34,-20.996,-527.344,-303.711,-43.945,19458.435,314.58454959750105
806,1685917708.34,23.926,-293.457,-128.906,-24.414,19458.439,313.3086912495827
807,1685917708.34,-46.387,-59.082,-174.316,-37.109,19458.443,316.63593099957643
808,1685917708.35,-92.773,-389.16,-376.953,-70.801,19458.447,318.47409631552995
809,1685917708.35,-51.27,-786.133,-468.262,-61.523,19458.451,314.29191352805066
810,1685917708.36,-0.977,-539.551,-311.523,-41.504,19458.455,313.8505259508197
811,1685917708.36,-9.277,-81.543,-191.406,-40.527,19458.459,315.7569987153607
812,1685917708.36,-47.363,-467.285,-437.988,-32.715,19458.463,309.249231695555
813,1685917708.37,-40.527,-811.035,-528.32,-33.691,19458.467,313.5608635676128
814,1685917708.37,14.648,-265.625,-219.727,-25.879,19458.471,316.7333427228293
815,1685917708.38,4.395,-60.547,-245.605,-25.391,19458.474,309.9945455949039
816,1685917708.38,-57.129,-472.168,-372.07,-40.527,19458.479,307.49149387474426
817,1685917708.38,-56.152,-780.273,-424.316,-42.48,19458.483,312.5767871079825
818,1685917708.39,7.324,-519.043,-323.242,-36.621,19458.487,310.5504022974456
819,1685917708.39,11.23,-161.621,-219.238,-31.738,19458.491,315.7126288807599
820,1685917708.39,-46.387,-553.223,-452.637,-46.875,19458.495,312.3409183429148
821,1685917708.4,-63.477,-1000.0,-563.965,-38.574,19458.499,321.7101274640467
822,1685917708.4,-6.348,-639.16,-337.891,-24.414,19458.503,312.3671273766519
823,1685917708.4,6.348,-341.309,-246.094,-25.391,19458.507,316.76841017601856
824,1685917708.41,-45.41,-751.953,-547.363,-30.762,19458.511,314.84457016224076
825,1685917708.41,-73.73,-978.027,-614.746,-41.016,19458.514,310.7073956114138
826,1685917708.42,-43.945,-430.176,-258.301,-28.32,19458.518,319.2619758831741
827,1685917708.42,7.324,-150.391,-261.719,-16.602,19458.522,310.94774922539807
828,1685917708.42,-2.441,-307.129,-306.152,-18.066,19458.521,316.97105101797774
829,1685917708.43,-50.781,-241.211,-247.07,-25.391,19458.525,309.33544593773206
830,1685917708.43,-32.715,-90.82,-203.125,-27.832,19458.529,308.60116876607486
831,1685917708.43,18.555,-174.316,-244.141,-8.789,19458.533,315.8716275497149
832,1685917708.44,0.488,-481.934,-333.008,-14.648,19458.537,308.22427300050026
833,1685917708.44,-67.871,-636.719,-367.676,-45.41,19458.541,315.5179591251216
834,1685917708.45,-80.078,-430.176,-266.602,-40.039,19458.545,315.9903503379292
835,1685917708.45,-10.254,-250.977,-245.605,-24.414,19458.549,312.55266845967884
836,1685917708.45,10.742,-833.496,-529.297,-21.484,19458.552,319.47114720908166
837,1685917708.46,-38.574,-617.676,-350.586,-22.461,19458.556,311.84169585912053
838,1685917708.46,-59.082,4.883,-145.508,-27.832,19458.56,313.58610902386783
839,1685917708.46,-0.977,-196.777,-188.965,-20.508,19458.564,321.2079966431757
840,1685917708.47,30.762,-173.828,-100.586,-19.043,19458.566,313.5716083265175
841,1685917708.47,-16.113,65.43,-19.043,-27.344,19458.57,308.8815162412912
842,1685917708.48,-55.664,-25.391,-70.801,-38.086,19458.574,310.0160881045026
843,1685917708.48,-15.137,-221.191,-133.789,-32.227,19458.578,317.57275369602473
844,1685917708.48,36.621,-62.5,-0.488,-23.926,19458.582,318.3090070159013
845,1685917708.49,-5.859,-84.473,-60.059,-41.992,19458.586,318.2402448204582
846,1685917708.49,-46.875,-389.16,-254.883,-54.688,19458.589,317.5917970516362
847,1685917708.49,-25.391,-702.148,-397.949,-30.762,19458.593,311.9513212531476
848,1685917708.5,4.395,-991.699,-434.57,-2.93,19458.597,318.58053568501396
849,1685917708.5,7.812,-211.426,4.395,-8.789,19458.601,316.37495397123985
850,1685917708.51,-33.691,237.793,68.848,-40.039,19458.605,316.62023361187994
851,1685917708.51,-42.969,-123.535,-38.086,-41.992,19458.609,309.0245007731249
852,1685917708.53,11.23,113.77,96.68,-10.742,19458.626,312.9747624346642
853,1685917708.53,31.25,476.074,160.645,-22.461,19458.63,309.8427075403684
854,1685917708.54,-18.066,262.207,33.691,-52.246,19458.634,309.65582217130844
855,1685917708.54,-47.363,-57.129,-43.457,-52.734,19458.638,308.5838475533843
856,1685917708.54,-13.184,114.258,75.195,-17.09,19458.642,316.1224742834014
857,1685917708.55,26.367,156.25,103.027,-16.602,19458.646,310.5994520117601
858,1685917708.55,-20.508,-60.059,-3.418,-49.316,19458.65,314.4541337263469
859,1685917708.55,-62.5,-562.012,-171.875,-24.902,19458.654,315.1724661168884
860,1685917708.56,-22.461,280.762,163.574,-33.203,19458.656,317.76727176708926
861,1685917708.56,-19.531,-199.219,37.598,-9.766,19458.658,315.5495173638268
862,1685917708.56,23.438,492.188,184.57,-15.137,19458.66,317.9050651387775
863,1685917708.56,22.461,356.934,186.035,-9.766,19458.662,321.4210462112958
864,1685917708.56,21.973,220.215,86.914,-18.066,19458.664,313.7847516253277
865,1685917708.57,12.207,-124.512,-37.598,-20.02,19458.665,317.6292855263205
866,1685917708.57,-28.32,153.32,97.168,-35.645,19458.668,309.97814238282973
867,1685917708.57,-26.855,-287.598,-100.586,-41.504,19458.669,314.8991711865987
868,1685917708.57,-41.016,312.988,135.742,-46.387,19458.672,307.3256664872248
869,1685917708.58,13.184,145.02,90.82,-16.113,19458.676,311.87617113591494
870,1685917708.58,34.18,-133.789,25.879,-6.348,19458.68,310.3167914669981
871,1685917708.58,-22.949,-192.383,36.621,-21.973,19458.684,309.55591466883834
872,1685917708.59,-47.363,29.297,122.07,-14.648,19458.687,312.1767845856675
873,1685917708.59,-0.488,443.359,220.703,-6.836,19458.691,313.84707668719744
874,1685917708.6,46.387,-109.375,-49.805,3.418,19458.695,314.84062577510485
875,1685917708.6,15.625,-757.324,-217.285,2.441,19458.699,312.948011123803
876,1685917708.62,-47.852,-79.59,125.488,-10.742,19458.73,308.15996098257625
877,1685917708.62,-32.715,287.109,147.949,-21.973,19458.734,314.557187509281
878,1685917708.62,27.344,122.559,134.277,-19.531,19458.738,310.0023781182168
879,1685917708.63,30.762,394.043,267.578,-25.879,19458.742,313.3482129081539
880,1685917708.63,-33.203,599.121,219.727,-42.969,19458.746,312.77207775366657
881,1685917708.64,-57.129,192.871,109.863,-24.414,19458.75,315.350283186586
882,1685917708.64,-3.418,-311.523,28.809,4.883,19458.754,314.3352788256907
883,1685917708.64,26.367,143.555,171.875,-18.066,19458.757,310.59891372027676
884,1685917708.65,-14.648,598.145,203.125,-31.25,19458.761,320.0705808029821
885,1685917708.65,-25.391,636.719,227.051,-41.504,19458.761,316.13107738402255
886,1685917708.65,-53.711,207.031,84.961,-50.293,19458.765,311.2879754611937
887,1685917708.65,-53.223,234.375,70.801,-37.109,19458.765,317.56301795540753
888,1685917708.66,-16.113,-21.484,53.711,-21.484,19458.768,314.16355601746005
889,1685917708.66,-11.23,228.516,154.785,-31.738,19458.769,312.37205994757227
890,1685917708.66,36.621,252.441,178.223,-16.113,19458.772,315.52719155440735
891,1685917708.66,18.066,605.469,263.672,-14.648,19458.773,315.3982792883447
892,1685917708.66,4.883,510.742,230.469,-38.086,19458.776,309.60628286531596
893,1685917708.67,-54.688,-295.898,-149.414,-37.109,19458.78,314.1584096086685
894,1685917708.67,-43.457,-690.43,-197.754,-14.648,19458.784,316.03299861267953
895,1685917708.67,20.508,49.805,157.715,-23.438,19458.788,315.49813435757426
896,1685917708.68,25.879,218.75,140.137,-49.316,19458.792,312.6089343263308
897,1685917708.68,-35.645,-191.895,-15.625,-49.316,19458.796,311.37561613260164
898,1685917708.69,-41.016,-86.426,82.52,-31.25,19458.8,315.2785364731704
899,1685917708.69,15.137,510.742,241.211,-8.789,19458.804,315.5699200471465
900,1685917708.71,24.414,538.086,214.844,-15.625,19458.806,313.5486530944724
901,1685917708.71,-33.203,-371.094,-147.949,-28.32,19458.81,319.02250428264824
902,1685917708.72,-65.918,-567.871,-142.09,-35.156,19458.814,313.56564679276215
903,1685917708.72,-3.906,485.84,270.02,-34.18,19458.818,315.6465812508234
904,1685917708.72,26.855,473.633,155.762,-17.578,19458.822,314.59833098914373
905,1685917708.73,-20.508,-29.297,35.645,-16.602,19458.826,314.8628362303414
906,1685917708.73,-62.988,-138.672,32.227,-31.25,19458.829,315.1258762922845
907,1685917708.73,-25.879,203.613,157.227,-28.32,19458.833,317.14540687812774
908,1685917708.74,35.645,363.281,134.766,-16.602,19458.837,312.01750895757544
909,1685917708.74,-21.484,-436.523,-131.836,-33.203,19458.841,316.700237506712
910,1685917708.75,-71.777,-157.715,60.059,-58.594,19458.845,312.46237809421217
911,1685917708.75,-23.438,571.289,211.914,-57.617,19458.849,311.3100098842167
912,1685917708.75,33.691,290.527,60.547,-33.203,19458.851,311.5685810457157
913,1685917708.76,26.367,226.562,100.586,-34.18,19458.855,314.8540206966303
914,1685917708.76,-40.527,422.363,184.57,-33.203,19458.859,314.7330805173012
915,1685917708.76,-45.898,390.137,145.996,-1.465,19458.863,311.5919514616007
916,1685917708.77,23.926,221.68,156.738,6.348,19458.867,312.896603489583
917,1685917708.77,28.32,40.039,96.191,-27.344,19458.871,308.2763858124319
918,1685917708.78,-30.762,93.262,77.148,-60.547,19458.875,310.7170748511695
919,1685917708.78,-64.941,110.352,83.496,-56.641,19458.879,315.8505700093905
920,1685917708.78,-34.18,-387.695,-131.836,-34.668,19458.882,316.52957240203733
921,1685917708.79,-1.953,-1000.0,-356.934,-33.691,19458.886,313.2105250022629
922,1685917708.79,-42.48,-282.715,5.371,-51.27,19458.89,320.05991150228635
923,1685917708.8,-91.309,333.984,109.375,-65.43,19458.894,313.12360432654225
924,1685917708.8,-58.594,119.141,15.625,-62.5,19458.896,317.7865556907328
925,1685917708.8,-1.465,434.082,166.992,-51.758,19458.9,312.2907591010435
926,1685917708.8,-17.09,625.0,178.223,-43.945,19458.904,317.36675852677837
927,1685917708.81,-73.242,331.055,25.391,-58.105,19458.908,306.6049236343009
928,1685917708.81,-72.266,27.832,-48.34,-52.734,19458.912,315.69311314124934
929,1685917708.82,2.93,-9.766,36.133,-23.926,19458.916,314.21814088043425
930,1685917708.82,13.672,187.012,135.742,-26.367,19458.92,313.30904924983014
931,1685917708.82,-52.246,149.414,17.578,-50.781,19458.924,306.2428752978223
932,1685917708.83,-67.383,-520.996,-248.535,-55.176,19458.928,315.9117158015989
933,1685917708.83,-7.812,-65.43,40.039,-39.062,19458.932,314.33707748464496
934,1685917708.84,18.555,465.82,190.43,-36.621,19458.935,316.0244861338046
935,1685917708.84,-28.809,-120.605,-104.98,-45.898,19458.939,308.4970059179118
936,1685917708.84,-69.336,-257.324,-144.531,-40.039,19458.941,316.58449883640486
937,1685917708.85,-22.461,386.719,177.734,-25.391,19458.945,315.21703396093966
938,1685917708.85,25.879,566.406,164.551,-23.926,19458.949,313.8561421464777
939,1685917708.85,-13.672,252.441,62.988,-33.203,19458.953,312.1369054874659
940,1685917708.86,-61.035,161.621,36.133,-40.527,19458.957,319.64602113263106
941,1685917708.86,-37.109,72.266,12.695,-33.203,19458.961,318.360576505974
942,1685917708.87,18.066,176.27,118.652,-16.602,19458.964,315.6625163762175
943,1685917708.87,6.348,-267.578,-139.16,-20.508,19458.968,319.17219367362475
944,1685917708.87,-61.523,-937.012,-387.207,-38.574,19458.972,312.9085628195711
945,1685917708.88,-64.941,-32.227,65.43,-32.227,19458.976,305.62737665993126
946,1685917708.88,2.441,509.277,148.438,-14.648,19458.98,313.1605205206215
947,1685917708.88,0.488,350.586,93.75,-21.973,19458.984,314.47506541574285
948,1685917708.89,-58.105,307.617,96.191,-42.48,19458.99,312.96995615125496
949,1685917708.89,-61.035,195.312,66.895,-32.715,19458.994,315.7990729468728
950,1685917708.9,-10.254,281.25,106.445,-12.695,19458.997,316.6490885181721
951,1685917708.9,19.043,169.434,80.078,-21.484,19459.001,319.07683981588383
952,1685917708.9,-21.973,253.418,113.77,-36.133,19459.005,321.39987461541085
953,1685917708.91,-64.453,213.867,57.129,-35.156,19459.009,311.3758082099913
954,1685917708.91,-31.738,-54.199,-25.391,-24.414,19459.013,316.0955202921954
955,1685917708.92,24.902,-320.312,-125.488,-18.555,19459.017,313.47590813884005
956,1685917708.92,-9.766,115.234,67.871,-35.645,19459.021,311.9172076600669
957,1685917708.92,-73.242,553.711,153.809,-41.992,19459.025,312.92661218998353
958,1685917708.93,-50.293,182.129,-7.812,-25.391,19459.029,314.3717932820804
959,1685917708.93,11.23,240.723,76.66,-15.625,19459.033,312.75342740423935
960,1685917708.93,2.441,631.348,191.895,-24.902,19459.047,310.93881073952923
961,1685917708.94,-63.965,561.035,111.328,-36.133,19459.051,323.34120892511294
962,1685917708.94,-68.848,171.387,13.184,-29.297,19459.055,309.8558194014952
963,1685917708.94,-7.812,66.406,35.156,-16.602,19459.059,309.38411246949465
964,1685917708.95,4.395,249.512,71.777,-20.996,19459.063,313.2207567174232
965,1685917708.95,-55.664,207.031,47.363,-41.992,19459.067,310.8607290664145
966,1685917708.96,-83.008,-375.0,-198.73,-40.039,19459.071,315.86285333234684
967,1685917708.96,-38.574,-975.098,-397.461,-15.137,19459.075,313.62710324005724
968,1685917708.96,6.348,-88.379,56.641,-22.461,19459.079,308.22555800218754
969,1685917708.97,-26.855,586.426,154.297,-41.992,19459.083,316.64469978192056
970,1685917708.97,-69.824,171.875,-45.898,-35.645,19459.087,315.73455611860146
971,1685917708.98,-30.762,325.684,106.445,-16.113,19459.09,311.2257208277267
972,1685917708.98,7.324,668.945,205.566,-26.367,19459.09,314.6577546992911
973,1685917708.98,-23.926,510.254,96.68,-62.012,19459.094,316.47694077600113
974,1685917708.98,-77.637,205.566,22.949,-68.359,19459.098,315.215439202357
975,1685917708.99,-77.637,338.379,91.797,-52.246,19459.102,308.86765099755223
976,1685917708.99,-27.344,594.727,177.246,-41.504,19459.106,313.401564147352
977,1685917709.0,-22.461,265.625,51.758,-50.293,19459.11,311.1874004171963
978,1685917709.0,-82.031,-434.57,-207.031,-63.477,19459.114,314.97092515127633
979,1685917709.0,-91.797,-215.82,-27.832,-59.57,19459.118,318.11080184956336
980,1685917709.01,-23.438,564.453,240.723,-41.992,19459.122,313.2387743611734
981,1685917709.01,1.465,342.285,7.324,-29.297,19459.126,307.36831815754005
982,1685917709.02,-58.594,-272.949,-148.438,-45.41,19459.129,317.2812825946079
983,1685917709.02,-94.727,161.621,119.629,-58.105,19459.133,313.04094863966753
984,1685917709.04,-41.016,545.898,156.25,-37.109,19459.136,315.1794738192891
985,1685917709.04,4.395,333.984,56.641,-26.367,19459.14,309.60819702717833
986,1685917709.04,-30.273,245.117,39.551,-43.457,19459.144,315.4995106001818
987,1685917709.05,-79.102,356.934,71.777,-50.293,19459.148,308.5921181864687
988,1685917709.05,-50.781,386.23,85.938,-37.598,19459.152,321.5322384157864
989,1685917709.06,-8.789,-118.164,-87.891,-25.391,19459.156,311.5074807885342
990,1685917709.06,-32.227,-162.109,-19.043,-32.715,19459.159,312.03457319755
991,1685917709.06,-86.426,110.352,27.344,-45.41,19459.163,309.29717131911696
992,1685917709.07,-76.172,-31.738,-39.551,-39.551,19459.167,303.7184962779847
993,1685917709.07,-6.836,-425.293,-198.242,-13.672,19459.171,306.14393516687625
994,1685917709.08,-3.418,-790.527,-331.055,-9.766,19459.175,309.07183674063907
995,1685917709.08,-60.059,94.727,52.734,-32.715,19459.179,304.222758158721
996,1685917709.1,-75.684,354.004,40.039,-33.691,19459.196,319.0543296587414
997,1685917709.1,-31.25,153.32,36.133,-21.484,19459.2,307.82035533480337
998,1685917709.1,-11.23,489.258,168.945,-21.484,19459.204,317.8713809834054
999,1685917709.11,-59.082,575.684,115.723,-34.18,19459.208,316.7697292870392
1000,1685917709.11,-92.285,259.277,0.977,-38.574,19459.212,315.39469279405574
1001,1685917709.12,-45.898,-147.949,-167.48,-20.508,19459.216,323.88027643675343
1002,1685917709.12,6.348,27.832,-33.203,0.977,19459.22,312.3257339437552
1003,1685917709.12,-18.066,494.629,157.227,-9.277,19459.224,318.49962898497563
1004,1685917709.13,-53.711,-301.27,-291.504,-9.766,19459.226,312.7950166629072
1005,1685917709.13,-66.895,131.836,-107.422,-25.879,19459.228,315.5006895319263
1006,1685917709.13,-54.688,-377.441,-261.23,-7.812,19459.23,313.45128696549915
1007,1685917709.13,-37.598,-538.086,-321.289,-7.324,19459.231,314.69987684493157
1008,1685917709.14,7.324,352.539,152.344,4.883,19459.234,316.4755590533583
1009,1685917709.14,26.855,-0.488,22.949,7.812,19459.235,312.9715855152787
1010,1685917709.14,27.344,500.977,120.117,5.371,19459.238,316.6371487809111
1011,1685917709.14,5.859,361.328,99.121,-0.977,19459.239,314.6425766372186
1012,1685917709.14,-43.945,67.871,-106.445,-12.207,19459.242,312.85611486881004
1013,1685917709.15,-75.684,-310.059,-277.832,-18.555,19459.246,321.39390359155317
1014,1685917709.15,-17.09,-18.066,-54.688,-7.812,19459.25,308.2885147883334
1015,1685917709.15,12.207,137.207,0.488,-4.395,19459.254,307.06427253446213
1016,1685917709.16,-33.203,-309.57,-240.234,-17.09,19459.258,315.7198501757328
1017,1685917709.16,-71.777,-171.387,-86.426,-23.926,19459.261,312.7753775069816
1018,1685917709.17,-37.598,260.254,99.121,-10.254,19459.265,314.2422966086881
1019,1685917709.17,11.23,402.344,73.73,2.441,19459.269,321.404677730894
1020,1685917709.17,-23.926,-359.375,-333.008,-3.906,19459.275,317.27523086425845
1021,1685917709.18,-82.031,-899.414,-509.277,-14.648,19459.279,318.5375177942969
1022,1685917709.18,-45.898,-126.953,-88.379,-5.371,19459.283,313.1728086523904
1023,1685917709.18,20.508,232.91,37.109,5.859,19459.287,309.0746352263289
1024,1685917709.19,2.441,-69.336,-166.504,-2.93,19459.291,312.6988714430837
1025,1685917709.19,-61.035,-277.832,-306.152,-17.578,19459.295,317.034730146643
1026,1685917709.2,-64.453,-61.523,-99.609,-17.09,19459.299,310.83309063935604
1027,1685917709.2,-10.254,102.051,-13.184,-6.348,19459.302,312.60469962977686
1028,1685917709.2,-4.395,-417.48,-277.344,-12.207,19459.306,317.84401861780793
1029,1685917709.21,-62.988,-106.934,-57.617,-37.598,19459.31,316.1599669192752
1030,1685917709.21,-81.055,330.078,30.762,-39.062,19459.314,309.6404185483143
1031,1685917709.22,-24.902,26.367,-127.93,-12.207,19459.318,312.7664077069479
1032,1685917709.23,9.766,91.797,-49.805,-3.418,19459.331,316.84229824223667
1033,1685917709.24,-21.484,357.422,35.156,-13.184,19459.335,308.2576023958496
1034,1685917709.24,-63.477,233.887,-27.832,-24.414,19459.339,303.29119574591266
1035,1685917709.24,-33.691,-15.625,-74.707,-10.254,19459.343,312.69867829636695
1036,1685917709.25,18.066,-104.98,-109.375,7.324,19459.347,322.15486957510285
1037,1685917709.25,-8.301,-144.043,-207.031,-16.113,19459.351,317.89427567328795
1038,1685917709.26,-62.012,-201.66,-254.395,-36.133,19459.355,309.42357203155865
1039,1685917709.26,-55.176,-536.621,-392.09,-16.602,19459.359,317.0715516299839
1040,1685917709.26,9.277,223.145,-16.602,2.93,19459.361,320.3653504634024
1041,1685917709.26,-2.441,-1000.0,-583.008,-2.93,19459.363,316.12819318562447
1042,1685917709.27,22.949,459.473,120.605,-2.93,19459.365,320.1416179244849
1043,1685917709.27,7.324,-410.645,-176.27,-13.184,19459.367,318.4489313472959
1044,1685917709.27,-47.363,205.566,-56.641,-26.367,19459.369,318.5391956509202
1045,1685917709.27,-40.039,242.188,25.391,-21.973,19459.37,320.5704674235684
1046,1685917709.27,-75.195,-54.688,-187.988,-26.855,19459.373,311.2545988667355
1047,1685917709.28,-56.641,6.836,-176.27,-14.648,19459.374,310.34710628672406
1048,1685917709.28,-19.043,145.508,-18.066,-4.883,19459.377,307.515335138364
1049,1685917709.28,14.648,135.254,-92.285,-0.977,19459.381,314.1372226184397
1050,1685917709.29,-29.785,-239.258,-330.078,-19.531,19459.385,319.99839193004334
1051,1685917709.29,-75.195,-468.75,-353.516,-24.414,19459.389,313.84230969752235
1052,1685917709.29,-36.621,-58.594,-106.445,-13.184,19459.392,308.5033846749009
1053,1685917709.3,18.066,407.715,110.352,-17.578,19459.396,314.35163663075423
1054,1685917709.3,-4.883,69.824,-165.039,-23.926,19459.4,310.8696000947264
1055,1685917709.3,-61.523,-816.895,-559.57,-21.484,19459.404,309.0560455481998
1056,1685917709.31,-46.875,-414.062,-185.059,-20.508,19459.406,312.3920075953538
1057,1685917709.31,17.578,313.477,77.637,-0.977,19459.41,313.2948081800619
1058,1685917709.32,18.555,71.289,-80.078,-4.883,19459.414,313.62710400194607
1059,1685917709.32,-43.945,-48.828,-173.828,-30.273,19459.418,312.43100999572096
1060,1685917709.32,-67.871,47.852,-233.887,-24.902,19459.422,315.06149170659825
1061,1685917709.33,-5.859,-21.973,-238.77,-13.672,19459.426,308.0879063263382
1062,1685917709.33,22.949,-495.605,-365.234,-12.695,19459.43,310.0060471623121
1063,1685917709.33,-35.156,-848.145,-459.961,-26.855,19459.434,321.2505093921991
1064,1685917709.34,-70.801,-285.156,-228.516,-25.879,19459.437,309.55959378910717
1065,1685917709.34,-32.227,125.977,-139.648,-4.883,19459.441,307.35570917570675
1066,1685917709.35,0.977,-504.883,-383.301,-1.953,19459.445,315.1779140504991
1067,1685917709.35,-24.414,-674.805,-340.332,-11.23,19459.449,311.98195498998973
1068,1685917709.35,-63.477,188.965,57.617,-25.879,19459.466,316.80787589663754
1069,1685917709.36,-47.363,163.574,-36.133,-25.391,19459.47,316.52949057282547
1070,1685917709.36,-0.977,28.32,-81.543,-12.207,19459.474,313.92598884339816
1071,1685917709.36,-10.254,290.039,45.41,-17.09,19459.478,306.2928712793776
1072,1685917709.37,-65.43,252.441,-16.602,-30.273,19459.482,319.3375874781138
1073,1685917709.37,-72.754,-144.043,-255.859,-32.227,19459.486,314.5907073683332
1074,1685917709.38,-19.531,-643.066,-351.074,-19.043,19459.49,312.2616753922068
1075,1685917709.38,-0.488,-199.219,-31.738,-15.625,19459.494,320.7894264522338
1076,1685917709.38,-53.711,363.77,93.75,-31.738,19459.498,310.34810217809326
1077,1685917709.39,-72.754,-17.09,-208.008,-31.738,19459.501,311.11101781145527
1078,1685917709.39,-13.184,-64.941,-218.75,-20.508,19459.505,314.774403140801
1079,1685917709.4,16.113,275.391,31.25,-20.02,19459.509,311.4468906403154
1080,1685917709.4,-26.367,50.781,-154.785,-26.855,19459.51,304.89983063552734
1081,1685917709.4,-75.684,-507.812,-425.781,-28.32,19459.514,316.0136295769242
1082,1685917709.41,-35.645,-462.402,-285.156,-12.695,19459.518,313.45223634156605
1083,1685917709.41,23.926,234.375,59.082,-0.488,19459.522,311.33223656764324
1084,1685917709.41,-8.301,319.824,12.695,-10.254,19459.526,313.2446732474294
1085,1685917709.42,-71.777,-254.883,-270.02,-27.344,19459.53,317.9161700756545
1086,1685917709.42,-54.688,-373.535,-268.555,-20.508,19459.533,315.97001761226556
1087,1685917709.42,3.906,-54.688,-128.906,-15.625,19459.537,314.74644084847824
1088,1685917709.43,-5.371,19.531,-156.25,-21.484,19459.541,309.18874650682363
1089,1685917709.43,-58.594,-529.297,-421.387,-27.344,19459.545,308.87294794995535
1090,1685917709.44,-69.824,-770.996,-456.543,-32.715,19459.549,314.4246376303475
1091,1685917709.44,-3.906,182.617,63.477,-20.02,19459.553,315.8435975854818
1092,1685917709.46,18.066,361.328,24.414,-24.414,19459.562,317.66976178823785
1093,1685917709.46,-53.223,62.012,-141.113,-41.992,19459.566,313.16446435896387
1094,1685917709.46,-77.148,-43.945,-183.594,-29.297,19459.57,311.8136621419844
1095,1685917709.47,-18.066,53.223,-107.422,-17.09,19459.574,317.36105900341505
1096,1685917709.47,10.254,225.098,-1.465,-24.902,19459.578,312.60129907427427
1097,1685917709.48,-37.598,-488.77,-315.918,-37.109,19459.582,313.8307563979869
1098,1685917709.48,-86.914,-522.461,-292.969,-47.363,19459.586,313.50875768346236
1099,1685917709.48,-46.875,249.512,1.953,-42.48,19459.589,314.57106606461923
1100,1685917709.49,9.277,115.723,-62.988,-19.531,19459.593,307.3307252667752
1101,1685917709.49,-20.508,-269.043,-201.172,-22.949,19459.597,310.89887098846253
1102,1685917709.5,-69.824,103.516,26.855,-34.18,19459.601,311.81352026854614
1103,1685917709.5,-56.152,279.785,25.879,-30.273,19459.605,316.58203800074665
1104,1685917709.5,-0.488,63.965,-70.801,-23.926,19459.602,317.92151269380366
1105,1685917709.51,-4.395,113.281,-40.527,-31.25,19459.606,317.34965684947684
1106,1685917709.51,-62.5,286.621,0.0,-48.34,19459.609,315.3655210151592
1107,1685917709.51,-68.359,218.262,-18.555,-42.48,19459.613,313.2502997017943
1108,1685917709.52,-13.672,-39.062,-102.539,-17.578,19459.617,315.0950108298781
1109,1685917709.52,5.371,-209.473,-207.031,-11.23,19459.621,318.3423463297076
1110,1685917709.53,-43.945,-218.262,-256.348,-37.598,19459.625,311.6448204375939
1111,1685917709.53,-66.406,-182.129,-233.398,-43.945,19459.629,311.80464299663595
1112,1685917709.53,-20.508,-484.375,-312.012,-19.043,19459.633,312.836668662129
1113,1685917709.54,10.254,-1000.0,-501.465,-7.324,19459.637,318.1970648474458
1114,1685917709.54,-28.809,-385.742,-153.32,-20.508,19459.641,316.5055665241528
1115,1685917709.54,-70.801,229.98,14.648,-40.527,19459.645,313.938922085555
1116,1685917709.55,-46.875,-9.277,-145.508,-31.25,19459.646,315.5156841488633
1117,1685917709.55,6.348,241.211,5.859,-18.066,19459.65,311.9027897862798
1118,1685917709.56,-10.742,476.562,110.352,-35.156,19459.654,314.1467706053717
1119,1685917709.56,-76.172,202.637,-46.875,-38.574,19459.658,312.78784251330836
1120,1685917709.56,-68.848,-17.09,-149.902,-25.391,19459.662,310.487400124689
1121,1685917709.57,-0.488,-16.602,-59.082,-21.484,19459.666,312.928447162296
1122,1685917709.57,-4.395,146.484,30.762,-25.391,19459.67,313.89208243752665
1123,1685917709.57,-63.477,111.816,-145.508,-41.992,19459.674,316.4679990473293
1124,1685917709.58,-76.66,-782.227,-518.066,-32.227,19459.678,315.9026031929184
1125,1685917709.58,-24.414,-449.707,-184.082,-17.09,19459.682,320.5370280833917
1126,1685917709.59,4.395,519.043,168.457,-21.484,19459.685,315.56294072602196
1127,1685917709.59,-46.875,180.176,-63.965,-39.551,19459.689,308.8899284128575
1128,1685917709.61,-81.055,-76.66,-165.039,-43.457,19459.706,311.6578508770903
1129,1685917709.61,-40.039,313.477,72.266,-25.879,19459.71,310.0190602923149
1130,1685917709.62,4.395,475.098,104.004,-28.809,19459.714,306.9940321005708
1131,1685917709.62,-27.344,128.906,-61.523,-43.457,19459.718,310.3882764523587
1132,1685917709.62,-72.754,-55.176,-118.164,-47.363,19459.722,316.0102669810717
1133,1685917709.63,-48.34,-71.777,-133.301,-32.227,19459.726,304.17287622666373
1134,1685917709.63,0.977,60.059,-101.562,-30.273,19459.729,315.69827677878305
1135,1685917709.63,-7.812,-333.984,-303.711,-35.645,19459.733,312.83663847140065
1136,1685917709.64,-51.758,74.707,-2.93,-48.34,19459.736,312.5631841109637
1137,1685917709.64,-64.453,-956.543,-447.754,-45.898,19459.737,312.04250388031596
1138,1685917709.64,-62.012,433.594,123.047,-50.781,19459.74,312.0317420462073
1139,1685917709.64,-64.453,-145.508,-11.719,-53.223,19459.741,303.68942600987407
1140,1685917709.64,-5.859,288.574,37.598,-35.156,19459.744,315.4624445171308
1141,1685917709.65,-0.488,325.684,72.754,-35.645,19459.745,314.4450838674161
1142,1685917709.65,23.926,206.055,27.832,-21.484,19459.748,312.1537936910904
1143,1685917709.65,5.859,-65.43,-102.051,-34.18,19459.749,310.0956246484281
1144,1685917709.65,-21.484,371.094,84.473,-37.598,19459.752,310.6572002154573
1145,1685917709.66,-67.871,107.91,-32.227,-47.852,19459.755,308.36856067038036
1146,1685917709.66,-25.879,-138.672,-116.699,-20.996,19459.759,318.24985085563765
1147,1685917709.66,24.902,-44.922,-59.082,-7.324,19459.763,311.7652726884168
1148,1685917709.67,-10.742,297.852,74.219,-25.879,19459.767,313.1015959793802
1149,1685917709.67,-67.383,476.074,126.465,-34.668,19459.771,311.7475404940064
1150,1685917709.68,-54.688,74.707,-100.098,-31.25,19459.775,305.3161741576598
1151,1685917709.68,2.93,-433.594,-270.02,-22.949,19459.779,312.58055138723205
1152,1685917709.68,0.0,63.477,32.715,-30.273,19459.784,314.7692812462609
1153,1685917709.69,-59.57,196.289,-19.531,-45.41,19459.788,318.0169423504591
1154,1685917709.69,-67.871,-349.609,-276.855,-31.25,19459.792,313.265620691672
1155,1685917709.7,-2.93,-150.879,-113.77,-20.508,19459.796,313.8763188085772
1156,1685917709.7,3.418,420.41,120.605,-30.273,19459.8,314.6416302625993
1157,1685917709.7,-66.895,193.848,-24.414,-41.504,19459.804,307.0870205694643
1158,1685917709.71,-81.055,-468.262,-324.219,-43.945,19459.808,313.09411015665665
1159,1685917709.71,-27.832,-716.797,-290.039,-20.996,19459.812,307.0339098681706
1160,1685917709.71,14.16,146.973,128.906,-16.602,19459.816,317.42154267237197
1161,1685917709.72,-26.367,547.852,110.84,-26.367,19459.819,312.1217444576329
1162,1685917709.72,-77.637,-248.535,-174.805,-24.414,19459.823,307.39409630403327
1163,1685917709.73,-38.574,-236.328,-24.414,-19.043,19459.827,312.1040149952888
1164,1685917709.73,17.578,628.906,227.539,-8.789,19459.844,310.3934275077501
1165,1685917709.73,-0.977,495.605,57.617,-20.02,19459.847,307.8896602348168
1166,1685917709.74,-59.082,149.902,-23.438,-27.832,19459.851,311.03494099136043
1167,1685917709.74,-55.664,107.91,1.465,-12.207,19459.855,309.96375392311666
1168,1685917709.74,6.348,204.59,39.062,-6.348,19459.859,312.8829143659665
1169,1685917709.75,0.977,196.777,23.926,-20.508,19459.863,311.1663014565883
1170,1685917709.75,-65.43,-655.273,-403.32,-35.645,19459.867,310.1928052710888
1171,1685917709.75,-75.684,-595.215,-289.551,-34.18,19459.871,311.19426369432387
1172,1685917709.76,-10.742,460.449,173.828,-22.461,19459.875,308.381465467357
1173,1685917709.76,11.23,388.184,45.41,-22.461,19459.879,312.61737411132924
1174,1685917709.77,-49.805,143.555,-58.594,-33.203,19459.883,306.86548166658673
1175,1685917709.77,-82.52,351.562,50.781,-37.598,19459.886,311.02663285890395
1176,1685917709.77,-28.32,429.688,80.078,-24.414,19459.901,312.18193236930324
1177,1685917709.78,7.324,228.516,-2.93,-18.066,19459.905,310.368419574721
1178,1685917709.78,-31.738,169.434,4.395,-32.715,19459.909,306.53206449891576
1179,1685917709.78,-66.895,338.867,80.566,-28.32,19459.913,308.24587228974053
1180,1685917709.79,-32.715,354.98,51.758,-21.973,19459.917,307.94212374416446
1181,1685917709.79,8.789,-210.449,-164.551,-26.367,19459.921,310.8128411207139
1182,1685917709.8,-11.719,-458.496,-249.023,-32.227,19459.924,313.6413313538967
1183,1685917709.8,-60.059,-216.797,-212.402,-50.293,19459.928,308.7560118621196
1184,1685917709.8,-50.293,-91.309,-187.5,-38.086,19459.932,306.47539028865907
1185,1685917709.81,9.766,-419.434,-341.797,-13.184,19459.936,303.89695577223006
1186,1685917709.81,4.395,-941.406,-430.664,-15.625,19459.94,318.61814745899704
1187,1685917709.82,-50.293,-131.348,3.418,-27.344,19459.944,311.3162827918376
1188,1685917709.83,-64.453,284.668,0.488,-16.602,19459.931,308.21288505457045
1189,1685917709.84,-2.93,128.906,-39.062,-4.395,19459.935,312.57864580641154
1190,1685917709.84,27.832,382.324,91.309,-11.719,19459.939,315.32773859393734
1191,1685917709.84,-27.832,468.262,72.754,-37.598,19459.943,311.56508873029725
1192,1685917709.85,-69.336,206.543,-28.32,-34.668,19459.947,310.8197207708926
1193,1685917709.85,-33.203,-183.594,-175.293,-25.391,19459.951,311.69888015198444
1194,1685917709.86,13.672,58.594,-11.23,-34.18,19459.955,313.8322081050249
1195,1685917709.86,-13.672,508.789,144.531,-32.227,19459.958,311.44306634005255
1196,1685917709.86,-64.941,44.922,-184.082,-28.32,19459.962,308.7089865625808
1197,1685917709.87,-41.504,-311.035,-240.723,-19.531,19459.966,304.8570054544883
1198,1685917709.87,19.531,264.16,82.031,-2.93,19459.97,316.06897689615136
1199,1685917709.88,4.883,596.68,124.023,-12.207,19459.974,311.22928928247984
1200,1685917709.89,-56.152,-5.859,-209.473,-28.32,19459.991,310.687369075723
1201,1685917709.9,-56.641,-783.691,-455.078,-21.973,19459.995,303.4867632077472
1202,1685917709.9,10.742,-40.039,21.973,-20.508,19459.999,312.00199045026085
1203,1685917709.9,29.785,551.758,121.094,-23.438,19460.003,305.46132338793603
1204,1685917709.91,-26.367,114.746,-126.953,-36.621,19460.007,312.16748075433173
1205,1685917709.91,-57.129,-286.133,-294.434,-48.828,19460.011,313.0037974523895
1206,1685917709.92,-4.883,-46.875,-102.051,-34.668,19460.015,308.83565948105394
1207,1685917709.92,19.043,243.164,37.109,-33.203,19460.019,313.820641174684
1208,1685917709.92,-13.672,-145.508,-170.41,-42.969,19460.035,311.024626208415
1209,1685917709.92,-37.598,-406.738,-355.469,-53.223,19460.023,311.45560245927254
1210,1685917709.93,-67.383,-45.898,-82.031,-42.48,19460.039,313.7115250664264
1211,1685917709.93,-80.078,-939.453,-479.492,-48.828,19460.026,318.3012297149429
1212,1685917709.93,-53.223,348.633,69.824,-32.227,19460.043,307.1533288885094
1213,1685917709.93,-37.109,-77.637,-20.996,-33.691,19460.03,304.5770176135073
1214,1685917709.93,4.883,279.785,12.207,-25.391,19460.047,310.01736994918065
1215,1685917709.94,15.625,314.453,30.273,-36.133,19460.034,315.8821526842385
1216,1685917709.94,-9.766,83.008,-90.82,-34.668,19460.051,307.2834828122912
1217,1685917709.94,-75.684,-79.59,-215.332,-51.758,19460.054,314.10062385295225
1218,1685917709.95,-69.336,24.414,-117.676,-45.41,19460.058,307.1811610038598
1219,1685917709.95,-2.441,122.07,-40.039,-25.391,19460.062,309.012366318153
1220,1685917709.95,5.371,-79.102,-156.25,-21.484,19460.066,305.6086959344559
1221,1685917709.96,-46.875,165.527,-44.922,-29.785,19460.07,313.1583907467341
1222,1685917709.96,-62.5,371.582,62.5,-30.273,19460.074,316.78857627015356
1223,1685917709.96,-22.461,7.324,-165.527,-22.461,19460.078,311.4473247881784
1224,1685917709.97,2.441,-549.316,-389.16,-14.16,19460.07,312.15536088419805
1225,1685917709.97,-32.227,-117.676,-92.773,-21.973,19460.074,311.7356957854634
1226,1685917709.98,-69.824,28.809,-200.684,-31.738,19460.078,309.1887124083425
1227,1685917709.98,-39.551,-439.941,-369.629,-17.09,19460.081,315.12095021453877
1228,1685917709.98,8.301,-260.254,-167.48,-11.23,19460.085,311.64502357998913
1229,1685917709.99,-15.625,33.203,-116.211,-30.273,19460.089,309.4911389578185
1230,1685917709.99,-68.359,-79.59,-252.93,-37.109,19460.093,317.18430666554724
1231,1685917710.0,-58.105,-566.406,-409.18,-19.043,19460.097,310.00950388511575
1232,1685917710.0,-9.277,-716.309,-375.488,-16.113,19460.101,309.3260839150557
1233,1685917710.0,-7.812,215.332,17.578,-32.715,19460.105,308.7604164609894
1234,1685917710.01,-56.152,473.145,10.254,-39.062,19460.109,311.39285079234907
1235,1685917710.01,-72.754,-427.734,-355.957,-31.25,19460.113,314.0208790600638
1236,1685917710.01,-21.484,-422.852,-180.176,-19.043,19460.111,314.5612207872922
1237,1685917710.02,1.465,527.344,154.785,-26.855,19460.115,307.10761708782337
1238,1685917710.02,-46.387,341.309,-48.34,-40.527,19460.119,315.8157323564783
1239,1685917710.02,-77.637,44.434,-133.789,-45.898,19460.123,310.4539153518915
1240,1685917710.03,-41.992,124.023,-35.156,-35.645,19460.127,311.0816517307662
1241,1685917710.03,-9.277,121.582,-4.395,-27.832,19460.131,310.0873462939023
1242,1685917710.04,-35.156,38.574,-127.93,-36.133,19460.134,306.5207979264892
1243,1685917710.04,-73.242,-682.617,-494.141,-39.551,19460.138,308.3930706590334
1244,1685917710.04,-44.434,-565.43,-305.664,-32.715,19460.142,313.28989406414996
1245,1685917710.05,6.348,443.359,125.488,-30.762,19460.146,311.2494870674848
1246,1685917710.05,-8.789,301.758,-49.316,-39.062,19460.15,314.3690127192201
1247,1685917710.06,-61.035,41.016,-200.684,-45.898,19460.154,317.91241787745827
1248,1685917710.06,-53.711,312.988,-7.324,-32.715,19460.156,313.10808569384494
1249,1685917710.06,5.859,425.293,39.551,-14.648,19460.16,308.0543583310885
1250,1685917710.06,8.301,144.531,-94.238,-25.879,19460.164,313.58352587778694
1251,1685917710.07,-50.781,80.078,-73.73,-39.551,19460.168,310.61182231443587
1252,1685917710.07,-72.754,209.961,-33.203,-43.945,19460.172,311.4956155174686
1253,1685917710.08,-12.695,115.723,-162.109,-28.809,19460.176,311.9483428875646
1254,1685917710.08,15.137,-430.176,-358.887,-13.184,19460.18,307.6135744836145
1255,1685917710.08,-34.18,-788.574,-433.594,-28.809,19460.184,304.87969685202665
1256,1685917710.09,-64.453,-315.43,-246.582,-30.273,19460.188,312.3659349483413
1257,1685917710.09,-17.09,229.004,-24.414,-11.719,19460.192,304.79567278497774
1258,1685917710.1,24.414,-292.48,-273.438,-11.23,19460.195,310.4271904446939
1259,1685917710.1,-18.066,-692.871,-415.039,-23.926,19460.199,310.687203052507
1260,1685917710.1,-64.453,183.594,-27.832,-34.668,19460.215,310.41170204769946
1261,1685917710.11,-39.062,235.84,-64.453,-23.438,19460.219,304.97819303060356
1262,1685917710.11,19.043,125.977,-76.172,-3.906,19460.223,309.8650442438359
1263,1685917710.11,11.23,331.055,48.828,-7.324,19460.227,313.2902193795293
1264,1685917710.12,-43.457,272.949,-59.57,-21.484,19460.231,309.29051020251364
1265,1685917710.12,-47.363,-77.637,-285.156,-18.066,19460.235,317.1993192130068
1266,1685917710.13,3.906,-591.309,-338.379,-1.465,19460.239,307.7922693471835
1267,1685917710.13,14.648,-196.777,-39.062,-9.277,19460.242,307.45226207748846
1268,1685917710.13,-40.527,363.281,37.109,-31.25,19460.246,307.27828346072886
1269,1685917710.14,-72.266,-117.188,-318.848,-33.691,19460.25,309.8431057429122
1270,1685917710.14,-15.137,-237.793,-253.906,-17.578,19460.254,314.05090677698274
1271,1685917710.14,20.508,308.594,97.168,-11.23,19460.258,309.061716983246
1272,1685917710.16,-25.879,404.785,25.391,-24.902,19460.262,314.1432991967719
1273,1685917710.17,-66.406,-133.301,-234.863,-27.832,19460.266,309.8274098661136
1274,1685917710.17,-28.809,-236.328,-232.422,-16.602,19460.269,310.02232637039276
1275,1685917710.17,15.625,318.359,39.062,-14.648,19460.273,297.7485706579461
1276,1685917710.18,-15.137,361.328,-33.203,-23.438,19460.277,311.99083896226205
1277,1685917710.18,-69.336,-386.23,-360.352,-31.738,19460.281,312.6506197832334
1278,1685917710.19,-50.781,-643.066,-377.93,-23.926,19460.285,307.3389330045751
1279,1685917710.19,11.23,-109.375,-190.918,-20.02,19460.289,308.6497961558833
1280,1685917710.19,3.906,24.414,-199.707,-32.715,19460.293,310.19434494971915
1281,1685917710.2,-61.523,-527.832,-462.891,-43.945,19460.297,312.04537911439337
1282,1685917710.2,-68.359,-694.336,-406.738,-30.762,19460.301,306.2038107092778
1283,1685917710.2,0.0,207.031,61.035,-22.461,19460.305,308.92026327484245
1284,1685917710.21,10.742,230.469,-87.891,-29.297,19460.306,310.2437533857167
1285,1685917710.21,-50.781,-262.695,-305.664,-41.992,19460.31,306.3920786604336
1286,1685917710.22,-79.59,-103.516,-192.871,-42.969,19460.314,304.7553126195157
1287,1685917710.22,-23.926,340.82,30.762,-29.297,19460.318,307.67262415724474
1288,1685917710.22,13.184,259.766,-27.344,-19.531,19460.322,312.65021900368146
1289,1685917710.23,-31.25,-191.406,-290.527,-37.109,19460.326,310.64396832454645
1290,1685917710.23,-75.684,-212.402,-276.855,-48.828,19460.33,309.9138724390216
1291,1685917710.23,-37.598,250.977,-37.109,-32.715,19460.334,319.7492847966728
1292,1685917710.24,16.602,232.422,-60.547,-17.09,19460.338,314.7783331098617
1293,1685917710.24,-19.531,-544.922,-372.559,-22.461,19460.342,307.6252805172101
1294,1685917710.25,-75.195,-292.969,-131.836,-40.039,19460.345,307.67020892912353
1295,1685917710.25,-62.5,340.332,73.73,-40.527,19460.349,308.54584954987513
