,timestamps,TP9,AF7,AF8,TP10,Secondary Timestamp,emg_signal
0,1686620990.56,-14.648,370.605,67.871,-40.039,368.46,370.04831000004407
1,1686620990.57,37.598,907.715,57.617,6.348,368.464,375.79815622620004
2,1686620990.57,-61.035,627.441,-19.531,-66.895,368.468,374.0482905188981
3,1686620990.58,-138.672,31.25,5.371,-124.023,368.472,370.93923400497033
4,1686620990.58,-59.57,235.352,56.152,-52.734,368.476,366.0125908246426
5,1686620990.58,24.414,449.219,41.992,14.648,368.48,365.3912014515405
6,1686620990.59,-27.832,305.176,2.441,-33.203,368.484,372.21601036561367
7,1686620990.59,-112.793,-592.773,-3.906,-103.516,368.488,369.68359842332404
8,1686620990.6,-72.754,-630.371,165.527,-74.219,368.492,372.624457470689
9,1686620990.6,20.996,664.551,138.184,10.742,368.496,372.4109366495368
10,1686620990.6,4.395,781.25,-4.883,6.348,368.499,367.0773170063325
11,1686620990.61,-85.938,373.535,37.598,-83.496,368.503,366.2883068303024
12,1686620990.61,-98.145,538.086,48.828,-105.469,368.509,368.1016776440148
13,1686620990.62,1.465,633.789,21.484,-21.484,368.513,370.36473639676996
14,1686620990.62,37.109,366.211,25.391,10.254,368.517,367.4597476283511
15,1686620990.62,-58.594,181.641,53.711,-81.543,368.521,369.01682226803024
16,1686620990.63,-100.098,413.574,53.711,-122.559,368.525,367.4246025925908
17,1686620990.63,-13.672,488.281,35.156,-27.832,368.528,362.7194782028571
18,1686620990.64,38.086,177.246,28.32,34.668,368.532,366.57674437220845
19,1686620990.64,-36.621,-233.398,120.605,-34.18,368.536,366.20715803500724
20,1686620990.64,-98.145,323.242,95.703,-108.398,368.54,370.91453013908426
21,1686620990.65,-37.109,695.801,32.227,-51.27,368.544,361.39126436704674
22,1686620990.65,41.992,489.746,25.391,26.855,368.548,370.3013038955392
23,1686620990.65,-98.145,627.441,24.414,-106.445,368.563,359.2994652084195
24,1686620990.66,-6.836,560.059,7.812,-23.438,368.552,364.8590308297063
25,1686620990.66,-72.754,517.09,36.133,-68.848,368.567,360.3060968337045
26,1686620990.66,16.113,388.672,40.527,25.879,368.571,367.34152571242794
27,1686620990.67,6.836,539.551,22.461,18.066,368.575,361.92775229139045
28,1686620990.67,-91.797,287.109,10.742,-79.102,368.579,359.2147385018463
29,1686620990.67,-104.004,41.504,42.48,-97.656,368.583,361.8772801068231
30,1686620990.68,-5.859,-420.898,15.137,8.789,368.587,359.86535869748
31,1686620990.68,24.414,-869.629,40.039,48.34,368.591,352.02457537535554
32,1686620990.68,-62.012,102.051,65.43,-45.898,368.595,361.26434362387135
33,1686620990.69,-107.91,529.297,14.648,-86.426,368.598,362.7530795336063
34,1686620990.69,-24.902,432.129,76.66,-11.719,368.602,361.59438501738975
35,1686620990.7,47.363,833.984,63.965,32.227,368.606,364.14254878091043
36,1686620990.72,-18.555,826.66,-3.906,-37.109,368.612,358.30901151418584
37,1686620990.72,-107.91,362.793,-8.301,-111.816,368.616,354.24895075142865
38,1686620990.72,-66.895,314.453,47.363,-75.684,368.62,356.02607582724033
39,1686620990.73,17.578,733.398,45.898,-8.789,368.624,350.60900396433885
40,1686620990.73,-19.531,791.992,-7.324,-43.457,368.628,352.3985142540276
41,1686620990.74,-127.441,58.105,-18.555,-127.441,368.632,357.33829819688475
42,1686620990.74,-124.023,-521.973,80.078,-109.375,368.635,353.6972454487747
43,1686620990.74,-10.254,183.594,107.91,-12.695,368.639,356.9855162307368
44,1686620990.75,12.207,779.785,14.16,-8.301,368.643,350.213661374212
45,1686620990.75,-89.355,163.086,-38.574,-97.168,368.647,354.9343621135668
46,1686620990.76,-122.07,-162.598,67.871,-119.141,368.651,353.46600318878393
47,1686620990.76,-30.762,553.711,71.777,-39.062,368.655,352.7447591799306
48,1686620990.76,1.465,750.0,-1.465,-8.301,368.656,360.98884207347237
49,1686620990.76,-80.078,266.602,-22.461,-82.52,368.66,359.0102043695372
50,1686620990.77,-138.672,226.074,3.418,-128.418,368.664,351.4280246263412
51,1686620990.77,-64.453,548.34,31.25,-65.43,368.667,349.5784801813221
52,1686620990.78,12.207,595.703,22.461,-5.859,368.671,340.24545248726855
53,1686620990.78,-50.781,57.617,29.297,-53.711,368.675,348.30405841565124
54,1686620990.78,-125.488,-235.352,33.691,-131.348,368.679,355.18590074195373
55,1686620990.79,-69.824,7.324,42.48,-88.379,368.683,350.9211587297601
56,1686620990.79,31.738,405.273,23.438,11.719,368.687,347.5772498951399
57,1686620990.79,-1.953,-425.293,-47.852,-4.883,368.691,354.2141545596372
58,1686620990.8,-110.352,-991.211,46.387,-102.051,368.695,356.41912572352174
59,1686620990.8,-87.402,140.137,99.121,-106.445,368.699,348.0186935114043
60,1686620990.81,17.09,658.691,25.879,-13.184,368.702,347.15315136535565
61,1686620990.81,25.879,519.531,32.227,2.441,368.706,344.679194241571
62,1686620990.81,-67.871,540.527,27.832,-88.379,368.71,349.43719775456054
63,1686620990.82,-96.191,507.812,25.879,-113.281,368.714,344.88337599949614
64,1686620990.82,2.93,422.363,44.434,-17.578,368.718,351.7894956925419
65,1686620990.83,36.621,236.816,67.383,24.414,368.722,351.0920299214066
66,1686620990.83,-48.828,243.164,51.27,-63.477,368.725,346.1274370793876
67,1686620990.83,-112.305,481.934,20.508,-133.301,368.729,341.8233661344313
68,1686620990.84,-42.48,121.094,13.184,-56.641,368.733,350.4132946115372
69,1686620990.84,35.645,-142.578,116.211,20.508,368.737,352.45607914100503
70,1686620990.84,-20.996,504.883,73.73,-42.48,368.741,339.87887988331806
71,1686620990.85,-107.422,342.773,2.441,-118.164,368.745,348.7309185178638
72,1686620990.85,-81.543,-181.152,23.438,-72.266,368.745,354.6571036563472
73,1686620990.85,13.184,263.672,69.336,10.254,368.749,344.3223970359601
74,1686620990.86,6.836,753.418,26.367,-13.184,368.753,344.8783116878675
75,1686620990.86,-93.262,417.969,-4.883,-103.027,368.757,339.1322878768886
76,1686620990.86,-99.121,-53.223,62.012,-98.633,368.761,348.48004031581496
77,1686620990.87,9.277,84.961,73.242,1.465,368.765,343.80275689057817
78,1686620990.87,31.25,316.895,37.598,20.02,368.769,343.84541982005544
79,1686620990.88,-68.848,106.445,-14.648,-76.66,368.773,345.651864887479
80,1686620990.88,-113.281,-737.305,-10.742,-107.422,368.777,345.19518748353687
81,1686620990.88,-24.902,-540.039,186.035,-29.297,368.781,342.78442398030876
82,1686620990.89,40.039,672.363,112.793,9.277,368.784,337.2512354847739
83,1686620990.89,-26.855,615.723,-21.484,-51.27,368.788,336.7766872422397
84,1686620990.9,-96.68,229.492,38.086,-109.863,368.792,342.8723552335623
85,1686620990.9,-36.133,508.301,47.363,-50.781,368.796,344.6861728897579
86,1686620990.9,49.316,630.371,7.812,33.691,368.8,341.0477908726185
87,1686620990.91,-0.488,243.652,17.09,-7.812,368.804,348.5530046874907
88,1686620990.91,-94.238,-13.184,60.059,-100.098,368.808,346.23660656400796
89,1686620990.92,-64.941,63.965,56.641,-76.172,368.812,344.66676846319166
90,1686620990.92,39.551,423.34,61.523,26.367,368.816,345.5098478785458
91,1686620990.92,19.531,290.039,20.508,13.672,368.82,343.0072972464783
92,1686620990.93,-91.797,-310.547,109.375,-84.961,368.824,346.36454583827674
93,1686620990.93,-87.402,278.32,92.285,-80.566,368.828,339.54548655788426
94,1686620990.94,18.555,688.965,18.555,11.719,368.832,343.68486599167517
95,1686620990.94,45.898,384.277,1.465,46.875,368.835,338.76008771157746
96,1686620990.94,-44.922,377.441,0.0,-34.668,368.835,346.40959080341383
97,1686620990.94,-81.055,484.375,33.691,-84.473,368.839,330.07848647315126
98,1686620990.95,5.371,451.66,36.133,-5.371,368.843,338.64010283338814
99,1686620990.95,65.43,350.098,39.062,54.199,368.847,342.4001231744494
100,1686620990.96,-8.789,256.348,7.324,-17.578,368.851,337.289641457066
101,1686620990.96,-87.402,-50.781,-5.371,-85.938,368.855,334.13655516576455
102,1686620990.96,-32.715,-84.961,44.434,-37.109,368.859,338.7909563684117
103,1686620990.97,39.551,-507.812,14.648,36.621,368.863,341.9754141711182
104,1686620990.97,-1.465,-958.008,37.109,11.23,368.867,335.6535475146769
105,1686620990.97,-83.984,-48.34,58.594,-83.008,368.87,341.644724047388
106,1686620990.98,-59.082,405.273,28.32,-72.266,368.874,343.7786232892089
107,1686620990.98,47.852,409.668,77.637,23.438,368.878,332.4007264987279
108,1686620990.99,45.41,756.836,52.246,20.02,368.894,339.7283580337631
109,1686620990.99,-65.918,617.676,1.465,-69.336,368.897,334.61443906722275
110,1686620990.99,-79.102,187.5,16.113,-75.684,368.901,340.89603867819795
111,1686620991.0,32.227,306.152,76.66,16.113,368.905,337.3785064560982
112,1686620991.0,65.918,575.195,43.457,45.41,368.909,328.16095175078135
113,1686620991.01,-24.902,272.949,-2.441,-24.902,368.913,341.7022054863739
114,1686620991.01,-81.055,-255.371,26.855,-79.59,368.917,335.0180344274953
115,1686620991.01,-15.625,-590.82,123.047,-21.484,368.921,341.6330527442945
116,1686620991.02,62.988,198.242,131.348,38.086,368.925,340.8903062684929
117,1686620991.02,4.883,674.805,10.742,-20.996,368.929,339.01378492947975
118,1686620991.02,-98.145,-0.488,-16.113,-89.355,368.933,335.10427319929346
119,1686620991.03,60.547,604.004,83.008,38.086,368.954,340.96076499113724
120,1686620991.03,-50.781,-57.617,87.402,-42.48,368.936,344.6678446975272
121,1686620991.03,43.457,611.816,5.859,9.766,368.958,346.35466504107234
122,1686620991.04,-52.734,43.457,0.0,-71.289,368.962,337.12612064293984
123,1686620991.04,-47.363,126.465,48.828,-62.012,368.966,337.93119258736175
124,1686620991.04,38.574,420.898,40.039,27.344,368.97,341.018466454703
125,1686620991.05,39.551,205.078,20.02,44.922,368.974,343.60704641755314
126,1686620991.05,-64.453,-626.465,-17.578,-39.062,368.977,339.4839548999954
127,1686620991.06,-92.285,-774.414,83.984,-72.754,368.981,338.63428933490684
128,1686620991.06,3.418,303.223,111.328,-10.254,368.985,343.03954398859497
129,1686620991.06,39.551,521.973,0.0,21.484,368.989,335.54421203443826
130,1686620991.07,-28.32,-41.016,30.762,-42.969,368.993,342.9992737261699
131,1686620991.07,-81.543,94.727,67.383,-95.215,368.997,329.78415747444075
132,1686620991.09,-24.414,508.301,36.133,-38.086,368.986,336.64943374213925
133,1686620991.09,49.316,384.277,4.395,38.086,368.99,335.103007035519
134,1686620991.1,-3.906,-53.223,55.176,-4.395,368.994,348.3646001308387
135,1686620991.1,-88.867,136.23,53.223,-88.379,368.998,348.1546716984328
136,1686620991.1,-41.504,419.922,33.203,-50.293,369.002,340.9662022863339
137,1686620991.11,51.27,140.625,45.41,38.086,369.006,338.8639211137175
138,1686620991.11,27.344,-114.746,66.895,17.578,369.009,339.1058516401264
139,1686620991.12,-62.012,188.477,43.457,-76.172,369.013,343.30783019456186
140,1686620991.12,-61.523,303.223,33.203,-75.684,369.017,342.6382215920406
141,1686620991.12,25.879,90.332,40.527,13.184,369.021,343.80868273578943
142,1686620991.13,46.387,181.641,51.27,33.691,369.025,343.91861892527294
143,1686620991.13,-38.574,363.281,39.062,-35.156,369.029,342.7500723522362
144,1686620991.13,-78.613,156.25,21.484,-72.754,369.031,340.84597340174037
145,1686620991.14,5.859,-402.344,12.207,7.812,369.034,343.3601577027256
146,1686620991.14,73.73,-283.203,109.863,68.359,369.038,341.2848735881843
147,1686620991.15,4.883,421.875,60.059,-12.695,369.042,341.14041602232544
148,1686620991.15,-73.73,163.086,-23.926,-83.984,369.046,346.38996329102827
149,1686620991.15,-24.902,-502.441,28.32,-24.414,369.05,347.8126726797953
150,1686620991.16,54.688,-221.68,66.895,45.898,369.054,350.14319031319906
151,1686620991.16,18.555,254.883,58.594,5.859,369.058,340.0217630806092
152,1686620991.16,-79.102,176.27,4.395,-70.312,369.062,346.02023205152017
153,1686620991.17,-56.152,-623.047,13.672,-37.109,369.066,341.3580530954858
154,1686620991.17,55.176,-192.871,149.902,50.781,369.07,345.3021438261589
155,1686620991.18,52.246,660.156,65.43,32.227,369.073,349.0660259677515
156,1686620991.18,-49.805,276.855,-10.742,-54.199,369.077,347.8080457510346
157,1686620991.18,-62.5,74.219,70.312,-59.082,369.081,343.0758826725796
158,1686620991.19,31.738,395.508,65.43,20.508,369.085,334.19404404507884
159,1686620991.19,59.082,389.648,20.508,46.875,369.089,347.8037380292999
160,1686620991.2,-36.621,-51.758,12.695,-39.062,369.092,338.1005604633583
161,1686620991.2,-97.168,-481.445,49.316,-92.773,369.096,332.6178102443187
162,1686620991.2,4.395,-52.246,98.145,-7.812,369.1,339.39374372347436
163,1686620991.21,100.098,566.895,43.945,69.824,369.104,341.8395975857198
164,1686620991.21,-5.859,33.203,-22.949,-16.602,369.108,343.1760549235311
165,1686620991.22,-120.605,-528.809,119.629,-104.98,369.112,333.4382837212633
166,1686620991.22,-54.688,256.348,127.93,-42.969,369.116,344.88809773697636
167,1686620991.22,33.203,653.32,20.996,36.621,369.12,340.87705850768594
168,1686620991.22,-0.488,188.477,-1.465,8.301,369.12,336.16634352487057
169,1686620991.23,-90.82,132.324,36.621,-74.219,369.124,337.90088426097464
170,1686620991.23,-75.684,368.164,66.895,-60.547,369.128,345.4476815517339
171,1686620991.24,16.113,450.195,47.363,21.973,369.132,335.70588595387085
172,1686620991.24,9.766,134.766,30.762,17.578,369.136,347.9033261660375
173,1686620991.24,-80.078,-188.477,24.902,-64.941,369.14,347.9506477384658
174,1686620991.25,-103.516,-181.152,31.25,-81.055,369.144,342.26171632850287
175,1686620991.25,-8.789,-45.898,35.645,6.348,369.148,346.231492550066
176,1686620991.26,34.18,-596.191,-8.301,47.852,369.152,336.8944877377346
177,1686620991.26,-49.316,-996.094,51.758,-43.945,369.156,346.4268256886611
178,1686620991.26,-100.586,-100.586,87.402,-97.656,369.16,332.7102803507278
179,1686620991.27,-17.578,209.961,48.34,-5.371,369.163,339.7724140096991
180,1686620991.27,62.988,158.691,81.543,70.312,369.167,340.2810132101642
181,1686620991.28,8.301,536.621,46.387,12.695,369.171,342.01040779112526
182,1686620991.28,-71.289,435.547,12.207,-63.965,369.175,338.6674247677036
183,1686620991.28,-25.391,163.086,45.898,-20.508,369.179,337.06924274552864
184,1686620991.29,73.242,326.172,69.824,68.848,369.183,345.27772357385226
185,1686620991.29,48.34,235.352,27.832,47.363,369.187,347.22038403725867
186,1686620991.29,-57.129,16.113,16.602,-59.57,369.191,336.4596842734118
187,1686620991.3,-55.176,-201.172,25.879,-55.664,369.195,341.38527743682613
188,1686620991.3,37.598,-499.023,132.324,53.711,369.199,345.9999049413603
189,1686620991.31,43.457,278.32,115.723,61.523,369.203,342.63204806565653
190,1686620991.31,-41.504,586.914,1.465,-35.156,369.206,345.6956204983499
191,1686620991.31,18.066,64.453,103.027,25.879,369.211,345.11074234095213
192,1686620991.31,-69.336,-68.848,1.953,-51.758,369.21,337.58138082082496
193,1686620991.32,71.289,687.5,58.594,46.387,369.215,341.782779719684
194,1686620991.32,-2.441,502.93,-12.695,-28.809,369.218,339.5169635936079
195,1686620991.33,-71.777,36.621,24.414,-83.496,369.222,339.66159580611264
196,1686620991.33,-0.488,183.105,42.48,-16.602,369.226,346.67165297325545
197,1686620991.33,78.125,241.211,27.344,65.918,369.23,338.87556831713846
198,1686620991.34,14.16,86.426,11.719,21.484,369.234,338.5348823485375
199,1686620991.34,-88.867,-690.43,16.113,-60.547,369.238,338.6173349767766
200,1686620991.34,-47.852,-678.223,159.18,-30.762,369.242,332.06973926775504
201,1686620991.35,64.453,578.613,130.859,58.594,369.246,346.6820465732502
202,1686620991.35,42.969,581.055,14.648,41.016,369.25,340.48188357724
203,1686620991.36,-64.453,-32.227,26.855,-59.082,369.254,342.7029643696875
204,1686620991.36,-69.824,223.633,60.059,-63.965,369.269,342.0309769456415
205,1686620991.36,28.32,673.34,49.316,30.762,369.272,344.9066765583033
206,1686620991.37,44.434,436.035,-2.441,54.688,369.276,349.48551393561263
207,1686620991.37,-37.109,-79.59,37.109,-13.672,369.28,346.18564228270577
208,1686620991.38,-65.918,125.0,59.57,-46.875,369.284,350.67398919353116
209,1686620991.38,-11.719,278.32,35.645,8.301,369.288,350.12216709025887
210,1686620991.38,20.996,-0.488,33.203,56.641,369.292,343.86217860075806
211,1686620991.39,-48.828,-430.664,114.258,-6.836,369.296,353.02129255283825
212,1686620991.39,-110.352,63.965,105.469,-84.473,369.3,354.38973991919204
213,1686620991.4,-36.621,479.98,49.316,-25.391,369.304,347.8352002535464
214,1686620991.4,63.477,322.266,38.574,61.523,369.308,351.74461962842764
215,1686620991.4,37.109,362.305,20.508,33.203,369.312,350.22536076309297
216,1686620991.4,-47.852,401.855,48.828,-35.645,369.302,349.5528579252519
217,1686620991.41,-13.672,230.469,32.715,2.93,369.306,340.0531312727711
218,1686620991.41,90.332,-175.781,-13.184,101.074,369.309,353.96435273474845
219,1686620991.42,86.914,132.324,41.504,91.309,369.313,350.9291465991121
220,1686620991.42,-10.254,291.992,15.625,6.348,369.317,348.7890061602839
221,1686620991.42,-24.902,-128.418,2.441,2.441,369.321,343.1520106918586
222,1686620991.43,62.5,-701.172,28.32,91.797,369.325,348.1030201701336
223,1686620991.43,99.609,-544.434,111.328,118.164,369.329,350.4745568757126
224,1686620991.44,28.809,380.371,73.73,39.551,369.333,353.27093935547236
225,1686620991.44,-26.855,265.137,9.277,-7.324,369.337,342.56922185786016
226,1686620991.44,50.293,50.781,101.074,66.895,369.341,353.67823163888005
227,1686620991.45,113.77,507.812,88.379,130.371,369.345,344.49314763327646
228,1686620991.46,41.992,584.473,8.301,61.523,369.362,361.3324653588204
229,1686620991.47,-35.645,163.086,21.973,-13.184,369.365,346.50729628275684
230,1686620991.47,20.508,116.211,86.426,34.668,369.369,354.3295939058239
231,1686620991.48,106.445,410.645,49.805,115.234,369.373,356.8537995237092
232,1686620991.48,61.523,294.922,39.551,76.172,369.377,359.0969712349521
233,1686620991.48,-44.922,-256.836,37.598,-8.301,369.381,359.050280273056
234,1686620991.49,-23.926,-871.094,61.035,15.137,369.385,348.84012906114367
235,1686620991.49,91.309,-5.859,154.297,96.68,369.389,355.33919009899756
236,1686620991.5,94.727,617.676,55.176,85.938,369.393,353.25322386348165
237,1686620991.5,-12.207,111.328,3.418,-1.953,369.397,347.34421242929767
238,1686620991.5,-37.109,146.484,61.035,-16.602,369.401,360.5132346354701
239,1686620991.51,52.734,549.805,81.055,80.078,369.405,358.214672688397
240,1686620991.51,88.867,589.844,41.504,118.652,369.405,361.42193282021253
241,1686620991.51,6.836,74.219,3.418,29.785,369.409,352.7081088557909
242,1686620991.52,-52.246,22.949,46.875,-36.133,369.413,355.4690594757352
243,1686620991.52,27.832,394.043,73.73,28.32,369.417,359.8925647680253
244,1686620991.52,100.098,394.531,46.875,91.309,369.421,354.36505498029715
245,1686620991.53,36.621,-170.41,41.992,36.621,369.425,350.5782715031448
246,1686620991.53,-46.387,-424.316,52.734,-30.273,369.429,361.39785929929974
247,1686620991.54,-3.418,-166.504,62.988,9.277,369.433,362.55396139318685
248,1686620991.54,87.402,70.312,61.523,83.496,369.437,354.06498518460626
249,1686620991.54,50.781,-600.586,22.949,68.359,369.44,369.07375852381904
250,1686620991.55,-50.293,-891.113,106.934,-21.973,369.444,363.506388243119
251,1686620991.55,-33.691,89.844,131.348,-20.508,369.448,366.61555924051476
252,1686620991.57,74.707,446.289,49.316,77.148,369.467,357.07472848406064
253,1686620991.57,78.125,355.957,66.895,73.242,369.47,352.7132739144598
254,1686620991.58,-18.555,390.625,48.828,-22.949,369.474,364.60696627787485
255,1686620991.58,-48.34,331.543,41.016,-50.781,369.478,355.5063145582769
256,1686620991.59,36.133,216.797,57.617,31.738,369.482,366.0458229907688
257,1686620991.59,83.984,39.551,66.895,79.102,369.486,363.77760524222407
258,1686620991.59,9.766,73.73,83.984,19.043,369.49,363.1903770073967
259,1686620991.6,-56.152,305.176,59.57,-41.504,369.494,358.1246882464937
260,1686620991.6,-19.043,-186.523,22.949,-15.625,369.495,359.79281861651623
261,1686620991.6,9.766,-73.242,30.762,14.648,369.498,364.67716802493595
262,1686620991.6,70.801,42.48,107.422,63.965,369.499,368.49853747542954
263,1686620991.6,91.797,-550.293,127.441,90.332,369.502,359.8451796738391
264,1686620991.61,57.129,544.434,73.73,48.34,369.503,361.71962286803256
265,1686620991.61,42.969,140.137,121.582,31.738,369.506,359.5892000027721
266,1686620991.61,-34.18,295.41,30.273,-24.902,369.507,360.44344109744463
267,1686620991.61,-47.852,383.301,24.414,-50.781,369.509,355.2274236916267
268,1686620991.62,-52.734,-146.484,80.078,-34.18,369.511,357.4635781631218
269,1686620991.62,44.922,-90.332,100.586,46.387,369.515,359.6384958277955
270,1686620991.62,68.848,127.93,82.52,63.965,369.519,358.38167106091566
271,1686620991.63,-33.203,-75.684,42.969,-36.621,369.523,362.0286953304502
272,1686620991.63,-72.266,-570.312,80.566,-78.125,369.527,353.0103292544409
273,1686620991.63,22.949,55.176,160.156,6.836,369.531,364.81474400729235
274,1686620991.64,80.078,725.586,94.238,55.176,369.534,356.10303012241087
275,1686620991.64,0.488,303.711,6.836,-12.207,369.538,365.1038594336779
276,1686620991.64,-76.66,-826.172,33.203,-69.336,369.542,360.31407179345115
277,1686620991.65,-9.766,-676.758,206.055,-26.855,369.546,361.373194942543
278,1686620991.65,87.402,498.047,168.945,47.363,369.55,364.58819583563417
279,1686620991.66,42.969,472.656,25.879,21.484,369.554,364.43325244944333
280,1686620991.66,-54.688,95.215,57.129,-58.105,369.558,366.37756806119836
281,1686620991.66,-27.832,-19.043,95.215,-31.25,369.562,359.88818598425473
282,1686620991.67,70.312,300.781,100.586,52.734,369.565,353.5693859544522
283,1686620991.67,54.199,210.449,37.598,46.875,369.569,365.73701416626056
284,1686620991.68,-52.734,-463.867,118.652,-37.109,369.573,369.26184011806566
285,1686620991.68,-55.176,117.188,152.344,-51.758,369.577,365.0008059286305
286,1686620991.68,43.457,595.703,83.496,43.457,369.581,357.6943868110986
287,1686620991.69,62.988,291.016,54.199,74.219,369.585,361.29100503523586
288,1686620991.69,-23.438,264.16,49.316,-14.648,369.585,361.70045654542344
289,1686620991.69,-62.012,381.348,60.059,-65.43,369.589,358.45256614212815
290,1686620991.7,15.137,227.051,41.016,13.672,369.593,355.54669819742486
291,1686620991.7,64.453,-145.02,15.625,75.195,369.596,353.10251240253154
292,1686620991.7,4.883,-2.441,49.805,8.301,369.6,353.5058039777563
293,1686620991.71,-64.941,-34.18,62.012,-66.406,369.604,370.6207212975114
294,1686620991.71,-21.484,-116.699,54.688,-18.555,369.608,365.92958238199157
295,1686620991.72,62.988,-574.707,27.832,70.801,369.612,366.0942380406883
296,1686620991.72,38.086,-666.504,135.254,36.133,369.616,370.9393393416967
297,1686620991.72,-45.898,258.301,99.609,-62.988,369.62,362.54407838632704
298,1686620991.73,-29.785,353.027,31.738,-37.598,369.624,373.4508139227311
299,1686620991.73,62.012,259.277,97.168,54.199,369.628,367.10897853907466
300,1686620991.74,56.152,541.504,71.777,41.992,369.643,374.3768151347655
301,1686620991.74,-37.598,493.164,23.438,-52.246,369.647,372.58595076646924
302,1686620991.74,-58.105,182.617,35.156,-64.941,369.651,375.16211949387883
303,1686620991.75,33.203,259.766,104.98,40.039,369.655,380.2836825376633
304,1686620991.75,75.684,462.402,65.918,75.195,369.659,370.58120672525644
305,1686620991.76,-2.441,203.125,33.691,-10.254,369.663,373.1849546354448
306,1686620991.76,-68.848,-313.965,35.156,-69.336,369.667,377.5750951147114
307,1686620991.76,0.977,-852.051,68.848,-3.418,369.671,384.7094259330106
308,1686620991.77,87.891,61.035,138.184,56.641,369.675,380.4922108225535
309,1686620991.77,24.414,603.027,40.039,-0.488,369.678,385.01444068481624
310,1686620991.78,-63.965,19.043,2.93,-71.777,369.682,387.67449426739756
311,1686620991.78,-25.391,163.574,75.195,-31.25,369.686,393.96455949286417
312,1686620991.79,58.594,607.422,65.43,51.758,369.69,398.02954151777186
313,1686620991.8,44.434,492.188,25.879,29.785,369.694,400.34852199115113
314,1686620991.8,-50.293,-97.168,23.926,-49.805,369.698,389.8262276154376
315,1686620991.81,-46.387,51.758,63.477,-44.922,369.702,400.26381151653203
316,1686620991.81,58.594,422.852,63.965,45.41,369.706,407.5416014100691
317,1686620991.81,65.918,155.762,23.926,56.641,369.71,405.16329533293793
318,1686620991.82,-43.457,-625.0,-13.672,-27.832,369.714,407.63278867565396
319,1686620991.82,-73.242,-776.855,117.188,-57.617,369.718,400.6279336043863
320,1686620991.82,26.367,194.824,159.18,20.02,369.722,404.65271678043393
321,1686620991.83,66.895,472.168,13.184,68.848,369.726,402.72620605139787
322,1686620991.83,-16.113,-348.145,19.531,-3.418,369.729,403.41783834203943
323,1686620991.84,-83.984,-82.52,85.449,-78.125,369.733,413.9111677119083
324,1686620991.84,-16.602,471.191,69.336,-18.066,369.736,409.71009578395666
325,1686620991.84,72.266,474.609,39.062,56.152,369.74,407.23468244220714
326,1686620991.85,22.949,393.555,42.48,3.418,369.744,410.17136872100684
327,1686620991.85,-66.406,358.887,41.504,-74.219,369.748,419.450046989975
328,1686620991.86,-26.855,377.441,33.691,-28.32,369.752,415.3162319339272
329,1686620991.86,66.406,179.199,53.223,68.359,369.756,405.83398463446093
330,1686620991.86,46.387,11.23,55.664,46.387,369.76,421.62891764610475
331,1686620991.87,-57.129,157.227,54.688,-62.012,369.764,420.41151595338926
332,1686620991.87,-55.176,338.867,55.664,-68.359,369.767,410.2104047012431
333,1686620991.87,41.992,-25.391,18.066,34.18,369.771,422.6969527628363
334,1686620991.88,48.34,-523.438,69.336,59.082,369.775,425.0251577991456
335,1686620991.88,-44.922,113.281,79.59,-26.855,369.779,419.3812099851094
336,1686620991.88,-82.031,363.77,27.344,-69.336,369.78,422.218141568045
337,1686620991.89,6.348,-129.395,4.395,10.742,369.784,418.6798944235898
338,1686620991.89,70.801,83.496,62.5,60.547,369.788,413.09280235157365
339,1686620991.9,-3.906,520.996,52.246,-20.02,369.792,414.2706002306762
340,1686620991.9,-79.59,222.168,4.395,-80.566,369.796,417.50153975544094
341,1686620991.9,-11.719,-403.809,56.641,-5.371,369.8,416.01102307558045
342,1686620991.91,77.637,-179.199,82.52,68.848,369.804,406.689656996359
343,1686620991.91,32.715,181.641,49.805,16.602,369.808,412.5435025351944
344,1686620991.92,-59.082,139.16,12.207,-71.777,369.812,416.3733036466736
345,1686620991.92,-41.504,-548.828,24.414,-41.504,369.816,417.49867988370903
346,1686620991.92,60.547,-136.719,144.531,47.852,369.82,413.3009522109664
347,1686620991.93,64.453,762.207,64.453,41.992,369.823,415.20439766995474
348,1686620991.93,-43.457,309.082,-6.836,-47.363,369.828,413.8523225893428
349,1686620991.94,-59.082,-42.48,80.566,-55.664,369.832,412.7387034185252
350,1686620991.94,52.246,435.547,97.168,40.527,369.836,404.64558373075755
351,1686620991.94,81.543,722.656,44.922,68.359,369.839,417.9099915357564
352,1686620991.95,-14.648,216.797,18.555,-14.16,369.843,401.61143355895234
353,1686620991.95,-57.617,-391.602,66.895,-41.504,369.847,412.7090507664575
354,1686620991.95,16.602,-70.801,99.609,28.32,369.851,416.9828834976443
355,1686620991.96,72.754,599.609,52.734,66.406,369.855,417.2064394010059
356,1686620991.96,7.324,143.555,5.371,-0.488,369.859,416.6151490004645
357,1686620991.97,-70.312,-530.273,127.441,-62.5,369.863,406.04002161692614
358,1686620991.97,-12.207,187.5,128.418,-11.23,369.867,411.5196137729804
359,1686620991.97,78.125,611.816,42.969,69.336,369.871,410.4237716779474
360,1686620991.97,36.133,252.441,25.879,34.18,369.87,402.9732717747127
361,1686620991.98,-54.688,175.293,34.18,-50.781,369.874,414.4854326422201
362,1686620991.98,-23.438,362.793,63.477,-29.297,369.878,413.2967616322284
363,1686620991.99,84.473,304.688,23.926,55.664,369.882,412.0825536363734
364,1686620991.99,72.754,-187.988,-19.531,58.594,369.886,404.24827230855925
365,1686620991.99,-31.738,-284.18,22.461,-34.668,369.89,411.046409668002
366,1686620992.0,-51.27,-103.516,55.664,-58.105,369.894,407.9195233534047
367,1686620992.0,47.363,83.008,56.152,41.016,369.898,403.84440551117433
368,1686620992.0,79.59,-435.059,25.879,83.496,369.902,405.8301619150308
369,1686620992.01,-11.23,-625.977,125.488,-4.883,369.905,399.1262923327578
370,1686620992.01,-67.871,293.945,104.492,-71.289,369.909,410.36789744620694
371,1686620992.02,-0.977,483.398,27.344,2.93,369.913,401.31479966061477
372,1686620992.02,68.359,386.23,55.664,76.172,369.918,407.3613090414767
373,1686620992.02,12.207,551.758,41.504,16.602,369.922,397.7961986010654
374,1686620992.03,-77.148,471.68,22.949,-68.848,369.926,408.6864948301375
375,1686620992.03,-35.645,279.785,39.551,-31.738,369.93,408.27130543615016
376,1686620992.04,72.754,370.605,78.125,62.012,369.934,403.54860070582106
377,1686620992.04,40.039,206.543,26.855,37.109,369.938,406.1003846818093
378,1686620992.04,-65.43,10.742,30.762,-53.711,369.941,401.688644699212
379,1686620992.05,-46.875,-183.105,43.945,-32.227,369.945,404.1066075708242
380,1686620992.05,54.688,-689.941,74.219,69.824,369.949,394.5330727523302
381,1686620992.06,73.73,180.176,115.234,70.801,369.953,396.5753315499243
382,1686620992.06,-20.02,622.559,30.762,-24.414,369.957,403.4442655902227
383,1686620992.06,35.645,367.676,64.941,27.832,369.961,397.19711939407154
384,1686620992.06,-59.082,90.332,16.113,-55.664,369.961,392.3120751117106
385,1686620992.07,89.355,746.094,51.27,72.754,369.964,394.37254414495686
386,1686620992.07,4.883,455.078,20.508,-5.371,369.968,387.79690464768487
387,1686620992.08,-72.266,-50.781,29.785,-71.777,369.972,395.9914128068268
388,1686620992.08,-0.488,125.977,57.617,-6.836,369.976,392.2566867567758
389,1686620992.08,83.984,246.094,55.664,66.895,369.98,406.8165699785375
390,1686620992.09,28.32,79.59,29.785,12.695,369.984,389.86109053911844
391,1686620992.09,-71.289,-649.902,-5.371,-62.988,369.988,393.0680073054
392,1686620992.1,-35.156,-834.961,114.746,-30.273,369.992,392.74805047695725
393,1686620992.1,69.336,332.031,154.297,57.129,369.996,389.6943019673458
394,1686620992.1,48.828,586.426,15.137,45.41,370.0,382.00269139829777
395,1686620992.11,-60.059,-112.305,77.148,-45.41,370.003,395.4172122856296
396,1686620992.11,-60.059,258.301,110.84,-43.945,370.019,380.2636888785279
397,1686620992.12,50.293,713.867,57.129,45.898,370.023,379.3910756966565
398,1686620992.12,68.359,558.594,24.414,60.059,370.026,385.11025934940636
399,1686620992.12,-19.531,333.008,33.203,-34.668,370.03,381.2287526141572
400,1686620992.13,-66.406,310.059,58.594,-78.125,370.034,373.3855566025418
401,1686620992.13,11.23,258.789,37.109,17.09,370.038,368.1480522867667
402,1686620992.13,71.777,4.395,24.414,75.195,370.042,378.7144798067966
403,1686620992.14,-3.906,-396.973,86.426,2.441,370.046,375.17474362545084
404,1686620992.14,-68.848,123.047,85.449,-63.965,370.05,380.74569581097734
405,1686620992.15,-2.441,506.348,49.805,-1.465,370.054,366.860488938325
406,1686620992.15,77.637,234.375,22.461,76.66,370.058,372.87159390472607
407,1686620992.15,30.762,83.984,27.832,39.062,370.062,380.0241810772351
408,1686620992.15,-60.059,258.301,54.688,-44.434,370.051,378.0249159530169
409,1686620992.16,-36.133,389.16,32.227,-27.832,370.055,375.0799558735673
410,1686620992.16,60.059,17.09,-19.531,62.5,370.059,365.3829763903838
411,1686620992.17,62.988,185.059,24.414,57.617,370.063,367.92554775994785
412,1686620992.17,-27.344,376.465,31.25,-34.668,370.067,373.70007510890656
413,1686620992.17,-40.527,-4.395,12.695,-49.805,370.071,376.48609133449145
414,1686620992.18,53.711,-529.785,21.484,51.27,370.075,374.96135018848196
415,1686620992.18,88.379,-332.52,121.094,93.262,370.079,376.2293386731506
416,1686620992.18,6.348,490.723,67.871,-1.953,370.083,378.02074183172886
417,1686620992.19,-51.758,297.852,-13.672,-53.223,370.087,379.2073732541939
418,1686620992.19,22.461,-155.273,103.516,26.855,370.09,379.2193461639705
419,1686620992.2,97.168,452.148,105.469,98.633,370.094,376.12048031527974
420,1686620992.21,27.832,750.977,0.0,38.574,370.111,380.07852297980395
421,1686620992.22,-63.965,192.871,-0.488,-48.34,370.115,376.5528903484342
422,1686620992.22,-4.395,-54.199,79.59,0.0,370.119,383.6840250271303
423,1686620992.23,92.285,477.051,76.172,85.938,370.123,378.1258461557708
424,1686620992.23,55.176,714.844,18.555,49.316,370.127,382.5761064870291
425,1686620992.23,-49.805,-32.227,-2.441,-42.48,370.13,389.00837321443623
426,1686620992.24,-46.387,-800.293,77.148,-31.25,370.134,374.26536333010637
427,1686620992.24,62.988,166.504,133.789,56.641,370.138,387.71990740426304
428,1686620992.24,70.312,748.535,47.852,58.105,370.142,378.09317665007313
429,1686620992.25,-34.668,177.734,-4.395,-37.598,370.146,391.21433171101313
430,1686620992.25,-51.758,104.004,29.297,-59.082,370.15,387.1416128063533
431,1686620992.26,45.898,476.562,65.43,29.297,370.154,384.349876657214
432,1686620992.26,87.402,547.363,37.109,71.777,370.156,389.3411618085966
433,1686620992.26,-3.418,72.266,-0.977,-9.766,370.16,385.64216617094826
434,1686620992.27,-62.988,52.246,41.016,-66.895,370.163,388.1555648086831
435,1686620992.27,26.367,368.164,41.992,13.184,370.167,388.7511704161587
436,1686620992.28,101.562,294.922,1.953,87.402,370.171,389.0428643220853
437,1686620992.28,10.254,-440.43,-9.766,24.902,370.175,382.473896641002
438,1686620992.28,-95.703,-686.035,51.27,-76.172,370.179,389.2246154891673
439,1686620992.29,-39.551,-59.57,74.707,-37.109,370.183,383.90917695908604
440,1686620992.29,61.523,290.527,10.254,62.012,370.187,384.92645622300034
441,1686620992.29,18.555,-429.199,0.488,26.855,370.191,388.92891739232226
442,1686620992.3,-82.52,-375.488,88.379,-67.383,370.195,392.622266842893
443,1686620992.3,-65.918,399.902,61.035,-60.059,370.199,382.96943460330493
444,1686620992.31,32.715,435.059,20.02,34.18,370.202,386.4636080622019
445,1686620992.31,37.109,338.867,42.48,43.945,370.206,387.31132646983525
446,1686620992.31,-53.223,401.855,46.875,-46.875,370.21,374.0471496954332
447,1686620992.32,-81.543,384.277,34.18,-80.566,370.214,386.57870569653005
448,1686620992.32,11.23,233.887,23.926,6.836,370.218,369.84301236423323
449,1686620992.33,70.312,49.316,38.574,59.57,370.222,380.74849695027484
450,1686620992.33,-6.836,-114.258,38.574,-15.625,370.225,371.2719619235775
451,1686620992.33,-77.148,-77.148,42.969,-71.777,370.229,375.23543845181956
452,1686620992.34,-2.93,-185.059,29.785,3.906,370.233,367.61330240432056
453,1686620992.34,67.383,-701.66,56.641,78.613,370.237,368.0783252402206
454,1686620992.34,17.09,84.473,85.449,16.113,370.241,365.6627215900515
455,1686620992.35,-61.523,454.102,32.227,-64.941,370.245,365.27182003321593
456,1686620992.35,-32.715,50.781,19.043,-29.297,370.246,368.2701631834577
457,1686620992.35,59.082,419.922,62.5,59.57,370.249,370.396325747515
458,1686620992.36,44.922,642.09,43.457,45.898,370.253,369.04788110781743
459,1686620992.36,-46.387,306.641,11.23,-49.805,370.257,356.9473863712512
460,1686620992.36,-50.293,-198.73,58.594,-60.547,370.261,352.18972619787996
461,1686620992.37,49.316,-112.305,67.383,34.18,370.265,351.37197117955026
462,1686620992.37,72.266,132.812,37.598,65.918,370.269,354.67285140843427
463,1686620992.38,-23.926,0.977,20.508,-21.973,370.273,347.43082743891824
464,1686620992.38,-71.777,-741.699,4.883,-54.688,370.277,343.6276077212638
465,1686620992.38,12.695,-772.461,135.254,26.855,370.281,343.76103682174636
466,1686620992.39,74.219,417.48,120.605,68.359,370.285,343.69063131517623
467,1686620992.39,-2.441,455.566,2.441,-7.324,370.288,337.0293207601507
468,1686620992.4,-78.125,-222.168,111.816,-69.336,370.292,327.7404713192946
469,1686620992.4,-11.23,247.559,118.164,-13.672,370.296,328.8195041197787
470,1686620992.4,69.336,683.105,40.039,63.477,370.3,325.46731746544253
471,1686620992.41,20.02,423.34,11.719,24.902,370.304,329.46944610186614
472,1686620992.41,-73.242,147.949,26.367,-66.406,370.308,327.55440677785805
473,1686620992.42,-48.34,-50.781,61.523,-38.574,370.312,316.4258754570062
474,1686620992.42,52.246,187.012,66.406,50.293,370.316,319.1402668006751
475,1686620992.42,38.086,125.977,18.555,39.551,370.32,313.1115601548937
476,1686620992.43,-62.5,-510.742,96.191,-53.223,370.323,314.03946585211673
477,1686620992.43,-67.383,50.781,104.492,-68.359,370.327,310.7874099861066
478,1686620992.44,29.297,510.254,42.969,17.578,370.331,314.4167920485997
479,1686620992.44,53.711,157.227,15.137,38.574,370.335,309.9304538219081
480,1686620992.44,-32.715,-109.863,12.207,-38.086,370.338,310.5139452730523
481,1686620992.44,-74.219,155.273,58.105,-83.008,370.342,295.4356317744664
482,1686620992.45,6.836,366.699,38.086,-10.742,370.346,309.10171771111
483,1686620992.45,67.383,-56.152,-30.273,61.035,370.35,300.56035485220025
484,1686620992.46,-3.906,-86.426,22.949,-10.254,370.353,295.19763800515227
485,1686620992.46,-82.031,-82.031,42.969,-84.473,370.357,298.7225569972794
486,1686620992.46,-22.949,-148.438,36.621,-20.508,370.361,293.46123435698337
487,1686620992.47,56.641,-583.984,7.812,64.941,370.365,303.39064606654057
488,1686620992.47,20.996,-734.375,86.426,24.414,370.369,299.8482100382968
489,1686620992.48,-59.57,120.605,86.914,-68.848,370.373,295.83770502776594
490,1686620992.48,-34.668,260.254,35.156,-44.434,370.377,297.58953048949917
491,1686620992.48,59.082,194.336,82.52,44.922,370.381,301.6473179780126
492,1686620992.49,60.059,479.98,48.828,34.668,370.394,303.3302669346149
493,1686620992.49,-25.879,435.059,11.23,-48.34,370.398,297.86637989977396
494,1686620992.49,-51.27,0.0,23.438,-50.781,370.402,301.58086785340174
495,1686620992.5,35.645,16.602,89.355,33.691,370.406,297.60662058750205
496,1686620992.5,76.172,423.828,54.688,69.824,370.41,301.46986124314043
497,1686620992.51,-9.766,188.477,6.348,-7.812,370.413,291.8597052861536
498,1686620992.51,-74.707,-376.953,17.09,-60.059,370.417,293.38759603190107
499,1686620992.51,-4.883,-767.578,84.961,12.207,370.421,298.3419250335197
500,1686620992.52,75.195,132.324,106.934,63.477,370.425,295.2824994200874
501,1686620992.52,20.02,573.73,20.02,5.859,370.429,298.5966032035765
502,1686620992.52,-70.312,-40.039,8.789,-63.477,370.433,294.9794546731038
503,1686620992.53,-31.25,-65.918,64.941,-31.25,370.437,294.10475854878644
504,1686620992.53,67.871,442.871,77.148,61.035,370.438,302.84914618497595
505,1686620992.53,45.898,437.012,23.926,42.48,370.442,300.3959405153934
506,1686620992.54,-66.406,-147.949,-1.465,-54.688,370.446,300.3352834922184
507,1686620992.54,-60.547,-41.992,49.316,-45.898,370.45,307.11003709721814
508,1686620992.54,44.922,248.047,52.734,50.781,370.454,297.6910258139944
509,1686620992.55,59.082,23.438,1.465,59.082,370.458,298.2454682474514
510,1686620992.55,-40.527,-677.734,-14.648,-19.531,370.462,307.13917167547737
511,1686620992.56,-73.73,-823.242,95.703,-40.527,370.465,301.7616012548693
512,1686620992.56,21.484,28.809,121.582,34.18,370.469,303.3372038380351
513,1686620992.56,72.754,308.105,17.09,75.684,370.473,301.6225594898088
514,1686620992.57,-9.277,-561.523,-1.465,0.977,370.477,314.9900536745775
515,1686620992.57,-69.824,-288.086,79.59,-62.988,370.481,304.17717898918875
516,1686620992.59,1.465,454.102,63.477,-6.348,370.486,303.14873384447696
517,1686620992.59,82.52,406.738,25.879,70.801,370.49,307.2262029730316
518,1686620992.6,30.762,208.496,27.832,27.344,370.494,313.5648163811185
519,1686620992.6,-64.453,208.008,38.574,-61.035,370.498,316.69258155473113
520,1686620992.6,-25.879,354.492,32.715,-21.484,370.501,314.55018558376685
521,1686620992.61,71.777,10.254,34.668,84.473,370.505,316.3016124147384
522,1686620992.61,51.27,-356.934,111.816,62.988,370.509,313.6941401339524
523,1686620992.62,-41.016,-67.871,70.312,-28.32,370.513,307.82248610080876
524,1686620992.62,-42.48,-61.035,32.715,-21.973,370.517,301.20673075694106
525,1686620992.62,51.27,-183.594,62.012,64.453,370.521,315.9145463288076
526,1686620992.63,65.43,-119.629,101.074,78.125,370.525,308.72208663157124
527,1686620992.63,-24.902,259.766,58.594,-12.695,370.529,319.2700259252466
528,1686620992.63,-64.453,188.477,30.273,-53.223,370.53,313.26294624053725
529,1686620992.64,25.879,-8.789,49.316,31.738,370.534,316.94021816172875
530,1686620992.64,89.355,300.781,57.129,86.426,370.538,317.0918176804325
531,1686620992.65,14.648,478.027,41.992,16.602,370.542,323.60738627049597
532,1686620992.65,-58.105,101.562,8.789,-39.551,370.546,326.4660598133979
533,1686620992.65,1.465,-560.059,20.02,19.531,370.55,320.1114237370884
534,1686620992.66,95.215,-334.473,66.406,84.473,370.554,322.05363177003943
535,1686620992.66,57.617,90.332,57.617,43.945,370.558,323.6304650126107
536,1686620992.66,-33.691,41.504,18.066,-36.621,370.561,318.511958812708
537,1686620992.67,-10.254,-630.859,38.574,-0.488,370.565,325.9509828478474
538,1686620992.67,76.172,-486.328,130.859,84.473,370.569,324.1266730442321
539,1686620992.68,66.895,400.879,70.801,61.035,370.573,328.9107505885839
540,1686620992.68,-27.832,193.359,-3.906,-31.738,370.577,323.5510286123277
541,1686620992.68,-27.832,-343.262,128.906,-38.574,370.581,327.6196558076552
542,1686620992.69,83.008,185.059,119.629,64.453,370.585,326.7306405073461
543,1686620992.69,107.91,585.449,25.391,87.402,370.589,317.24621717813733
544,1686620992.7,10.742,204.102,-12.207,-9.766,370.593,323.86071762031867
545,1686620992.7,-42.48,-345.215,7.324,-41.504,370.597,315.5192173951988
546,1686620992.7,35.645,-154.297,93.75,49.805,370.6,326.50308022040576
547,1686620992.71,115.723,395.996,64.453,113.77,370.604,329.4972276994774
548,1686620992.71,44.434,1.953,0.977,42.969,370.608,327.0077826805516
549,1686620992.72,-40.039,-562.988,128.906,-39.551,370.612,324.672863379814
550,1686620992.72,32.227,100.586,125.977,5.371,370.616,333.029667239888
551,1686620992.72,119.141,491.211,40.527,91.797,370.62,332.4215654005307
552,1686620992.72,69.824,24.902,2.441,56.152,370.622,323.5974625985738
553,1686620992.73,-25.879,-290.039,22.461,-38.086,370.626,323.27135742229785
554,1686620992.73,2.441,61.035,77.637,-15.137,370.63,331.87887624389487
555,1686620992.74,103.516,360.84,44.922,86.426,370.634,334.5301466410643
556,1686620992.74,86.914,-217.285,-27.344,89.355,370.637,332.9107918233017
557,1686620992.74,-2.441,-533.203,23.926,2.93,370.641,324.17283163640053
558,1686620992.75,-14.648,-294.922,69.336,-10.742,370.645,328.57849215763946
559,1686620992.75,56.641,-144.531,50.293,72.266,370.649,338.21365124638703
560,1686620992.76,95.215,-614.746,28.809,115.234,370.653,330.46041450649386
561,1686620992.76,21.973,-729.004,125.0,25.879,370.657,321.1093276580484
562,1686620992.76,-32.715,61.035,106.934,-38.574,370.661,330.076793801714
563,1686620992.77,48.34,250.488,26.367,51.27,370.665,328.67075134242566
564,1686620992.77,131.836,258.301,70.312,122.559,370.667,332.51586326531697
565,1686620992.78,65.918,373.047,37.598,60.547,370.671,324.6591900714939
566,1686620992.78,-21.484,231.445,13.184,-20.508,370.675,325.53588107454516
567,1686620992.78,27.344,-19.531,41.016,28.809,370.679,331.3078425584637
568,1686620992.79,122.07,13.184,84.961,119.141,370.683,332.3090308368867
569,1686620992.79,104.98,20.508,41.016,96.191,370.686,331.0760896426372
570,1686620992.79,12.207,-134.277,29.785,12.695,370.69,340.7266324257657
571,1686620992.8,10.742,-342.773,41.016,17.578,370.694,326.98610401909707
572,1686620992.8,98.145,-853.027,62.988,110.84,370.698,337.78613752055725
573,1686620992.81,122.07,-35.645,107.422,115.723,370.702,345.3272828890109
574,1686620992.81,30.762,416.016,32.715,26.855,370.706,336.383917897232
575,1686620992.81,84.473,137.207,69.824,96.191,370.71,337.59165106228875
576,1686620992.81,-9.766,-95.703,26.855,9.766,370.71,330.3044279376922
577,1686620992.82,135.254,504.395,62.988,132.812,370.714,343.8325238511736
578,1686620992.82,57.617,310.547,21.973,59.57,370.718,337.54975392856363
579,1686620992.83,-4.395,-134.277,31.25,4.395,370.722,335.5357775894366
580,1686620992.83,63.965,-35.645,52.734,64.453,370.726,334.34049623932026
581,1686620992.83,147.949,4.883,34.18,147.949,370.73,335.53054863947335
582,1686620992.84,106.934,-144.531,30.762,106.445,370.734,338.29303255535325
583,1686620992.84,10.742,-782.227,-21.484,29.785,370.738,340.7492317416225
584,1686620992.84,40.527,-1000.0,68.848,65.918,370.742,340.4338442789264
585,1686620992.85,152.344,76.172,153.32,151.367,370.745,343.9110073844535
586,1686620992.85,138.184,456.055,49.805,129.883,370.749,330.87899822216843
587,1686620992.86,34.18,62.988,54.688,40.527,370.753,332.382449494455
588,1686620992.86,33.203,261.719,87.402,41.504,370.768,342.7403511144244
589,1686620992.86,129.395,550.781,55.176,126.953,370.772,341.8377796550589
590,1686620992.87,151.367,398.926,18.555,146.484,370.776,348.1703858568869
591,1686620992.87,63.477,116.699,43.457,59.082,370.78,346.49187134306754
592,1686620992.88,18.555,126.465,47.363,20.996,370.784,340.78378704296745
593,1686620992.88,101.074,99.121,49.805,101.562,370.788,351.3548785087646
594,1686620992.88,154.785,-134.277,48.34,146.973,370.792,353.64280302036804
595,1686620992.89,79.102,-560.547,82.52,71.289,370.796,346.2959474345549
596,1686620992.89,9.277,-199.219,75.684,0.977,370.799,344.5442372133762
597,1686620992.9,71.289,17.09,55.176,68.848,370.803,342.61154971925407
598,1686620992.9,163.086,-100.098,50.781,161.621,370.807,348.37500396958944
599,1686620992.9,125.977,39.062,55.664,124.512,370.811,344.7298473161551
600,1686620992.9,34.18,267.578,46.875,33.203,370.813,355.8584763578049
601,1686620992.91,49.316,188.477,33.691,60.547,370.817,359.23656334402233
602,1686620992.91,148.438,42.48,35.645,156.738,370.821,356.47876776332316
603,1686620992.92,146.973,306.152,47.363,143.066,370.825,341.0681626545333
604,1686620992.92,45.898,242.188,11.23,48.34,370.829,351.2410864975126
605,1686620992.92,29.785,-229.98,7.812,43.457,370.833,348.86681648131827
606,1686620992.93,122.07,-760.254,3.418,134.766,370.837,355.4917276517344
607,1686620992.93,161.133,-566.406,113.77,165.527,370.841,355.08426335711454
608,1686620992.94,82.031,272.461,87.891,77.148,370.844,354.10499148433615
609,1686620992.94,27.344,144.043,11.719,20.508,370.848,355.5044064667421
610,1686620992.94,121.094,-98.633,84.961,113.77,370.852,350.80726529837114
611,1686620992.95,187.5,59.57,75.195,181.641,370.856,351.6987979613071
612,1686620992.95,119.629,248.535,19.531,108.887,370.86,363.6631728884824
613,1686620992.96,41.504,1.465,2.441,35.156,370.864,361.8444209249533
614,1686620992.96,90.82,-360.352,124.023,81.055,370.867,364.35751583311713
615,1686620992.96,188.965,194.336,105.957,166.504,370.871,354.4233785399013
616,1686620992.97,149.414,452.148,0.488,135.254,370.875,360.61545811188694
617,1686620992.97,41.504,-224.609,0.0,43.457,370.879,359.2137994327718
618,1686620992.98,58.105,-565.918,127.93,61.523,370.883,355.67185844400524
619,1686620992.98,165.039,235.352,120.117,158.691,370.887,363.7397084573604
620,1686620992.98,156.25,501.953,8.789,156.25,370.891,361.63330260114253
621,1686620992.99,53.223,-28.32,-0.488,62.988,370.895,366.7932624508968
622,1686620992.99,39.551,-98.145,49.805,41.016,370.899,354.2169737325821
623,1686620993.0,141.602,307.129,51.27,132.812,370.903,363.840117716697
624,1686620993.01,188.477,414.062,29.785,174.316,370.906,364.602270082164
625,1686620993.01,103.516,-142.09,-7.812,95.215,370.91,363.5753292130854
626,1686620993.02,37.109,-365.723,36.621,41.504,370.914,350.3581609527268
627,1686620993.02,106.445,196.777,90.82,110.352,370.918,368.7845564922386
628,1686620993.02,180.664,339.355,9.277,177.246,370.921,367.7864030222153
629,1686620993.03,112.305,-527.832,-49.316,128.906,370.925,352.65134050209747
630,1686620993.03,16.602,-877.441,109.863,56.641,370.929,366.80417659074357
631,1686620993.04,70.312,-88.379,128.906,88.379,370.933,364.53553445920636
632,1686620993.04,168.945,321.289,16.113,165.039,370.937,362.60738676658565
633,1686620993.04,135.742,-356.934,0.977,148.926,370.941,368.4404695117391
634,1686620993.05,47.363,-178.711,41.992,72.754,370.945,371.3593464615446
635,1686620993.05,55.664,301.758,49.316,77.148,370.949,362.5093535752533
636,1686620993.06,155.273,243.164,42.48,159.18,370.952,360.98468721206063
637,1686620993.06,173.34,226.074,28.809,162.109,370.956,360.9985657955603
638,1686620993.06,85.938,249.023,16.113,70.312,370.96,371.23280031662756
639,1686620993.07,49.805,186.523,17.578,41.504,370.964,362.1265159315543
640,1686620993.07,134.766,28.32,23.438,132.324,370.968,371.7447929367442
641,1686620993.08,186.523,-156.25,22.461,176.27,370.972,356.4919999676003
642,1686620993.08,102.539,-238.281,20.996,96.191,370.975,359.09161578715
643,1686620993.08,35.645,33.203,34.668,37.109,370.979,358.59933230692684
644,1686620993.09,93.262,-143.555,8.789,107.91,370.983,356.94958087975834
645,1686620993.09,158.691,-711.914,68.848,184.082,370.987,361.16379566350605
646,1686620993.1,115.723,37.109,82.52,125.488,370.991,354.57564440116033
647,1686620993.1,62.5,-103.027,6.836,73.73,370.995,354.187200924613
648,1686620993.1,29.785,310.059,14.648,38.086,370.995,355.924616094556
649,1686620993.1,152.344,168.945,23.438,149.414,370.999,360.4855827387395
650,1686620993.11,130.371,476.074,27.832,119.629,371.003,365.2522276500976
651,1686620993.11,37.109,242.188,-6.836,32.227,371.007,366.70746815003844
652,1686620993.12,36.621,-275.879,-7.324,36.621,371.011,358.7077320882746
653,1686620993.12,129.883,-296.875,26.855,135.254,371.015,364.19005833243597
654,1686620993.12,149.902,-72.754,28.809,152.832,371.019,362.8227757085567
655,1686620993.13,59.57,-147.461,-1.465,59.57,371.023,354.2474285365647
656,1686620993.13,5.371,-794.922,-23.438,27.832,371.027,364.66788668689327
657,1686620993.13,87.891,-1000.0,40.527,117.676,371.03,356.819412678017
658,1686620993.14,168.457,104.492,74.707,166.992,371.034,361.10923948515716
659,1686620993.14,98.633,414.551,-5.371,91.797,371.038,363.88961098223194
660,1686620993.15,22.461,-1.953,12.207,24.902,371.042,351.8473516780513
661,1686620993.15,90.332,271.973,43.457,83.984,371.046,352.1637530428817
662,1686620993.15,170.41,549.316,16.602,158.203,371.05,357.9048963294012
663,1686620993.16,116.211,326.66,-18.555,109.375,371.054,352.2739038658417
664,1686620993.16,20.02,4.395,6.348,19.531,371.058,359.7942409248786
665,1686620993.17,37.598,-114.746,13.672,40.527,371.062,352.57096159886777
666,1686620993.17,136.23,40.039,21.973,130.859,371.066,357.15105873054154
667,1686620993.17,128.906,-62.5,6.348,127.93,371.069,352.0525485962585
668,1686620993.18,24.902,-562.5,58.105,40.039,371.073,352.64406456017394
669,1686620993.18,8.789,-216.309,38.086,17.578,371.077,353.2742404473088
670,1686620993.18,110.84,213.867,16.602,101.562,371.081,348.0124671996675
671,1686620993.19,144.531,70.801,-10.742,135.742,371.085,354.9241004092273
672,1686620993.19,55.664,-19.531,-6.348,53.223,371.086,356.0534962991491
673,1686620993.19,5.371,225.098,9.766,0.0,371.089,352.44747566302493
674,1686620993.2,71.289,247.559,-1.953,71.777,371.093,343.23036955086764
675,1686620993.2,123.535,145.02,-21.484,125.488,371.097,358.4834917234871
676,1686620993.2,55.176,142.09,-21.973,58.594,371.101,358.3557819687013
677,1686620993.21,-26.367,-109.863,-15.625,-5.859,371.105,356.50888985474035
678,1686620993.21,32.715,-237.793,-10.254,50.293,371.109,353.6379605742637
679,1686620993.22,108.398,-656.738,-41.504,127.441,371.113,359.4016537000978
680,1686620993.22,61.523,-758.789,35.156,90.82,371.117,351.5638101455405
681,1686620993.22,-20.996,130.371,28.32,4.883,371.121,362.94130869398145
682,1686620993.23,0.977,294.434,-28.32,21.973,371.125,354.6469205284644
683,1686620993.23,101.074,178.711,22.461,113.281,371.129,364.7072451157728
684,1686620993.24,106.445,216.309,2.441,107.422,371.134,351.2548701740568
685,1686620993.24,14.648,254.883,-21.484,14.648,371.138,353.913128351059
686,1686620993.24,-17.578,32.715,-31.25,-5.371,371.142,356.08991225404606
687,1686620993.25,67.871,-183.105,52.734,77.637,371.146,364.988021007207
688,1686620993.25,114.746,274.902,17.578,113.77,371.149,351.9534932541052
689,1686620993.26,29.785,166.504,-44.922,30.762,371.153,349.2909611226451
690,1686620993.26,-41.992,-415.527,-26.855,-22.461,371.157,351.7008225153745
691,1686620993.26,27.344,-616.699,71.289,41.992,371.161,356.2815331587023
692,1686620993.27,105.469,263.184,56.641,108.887,371.165,356.42017539749406
693,1686620993.27,53.711,513.672,-38.086,56.152,371.169,356.78322782941575
694,1686620993.28,-25.879,-23.926,-28.809,-21.484,371.173,351.5458112027482
695,1686620993.28,97.168,516.113,18.555,87.891,371.189,354.0963588149555
696,1686620993.28,14.648,76.66,11.719,12.695,371.177,363.47825084910903
697,1686620993.28,69.336,488.281,-32.715,66.406,371.193,366.0015645076749
698,1686620993.29,-30.273,-200.684,-62.5,-20.508,371.197,355.6300006993626
699,1686620993.29,-24.414,-239.746,24.414,-8.789,371.201,351.0294259077793
700,1686620993.3,76.172,269.043,22.461,84.961,371.204,363.83825908227476
701,1686620993.3,85.938,87.891,-24.414,89.355,371.208,354.833506587413
702,1686620993.3,-18.555,-708.496,-68.848,0.0,371.212,362.2605400091579
703,1686620993.31,-63.477,-1000.0,23.926,-28.809,371.216,346.93246930049355
704,1686620993.31,29.785,-6.348,97.168,40.039,371.22,354.56454818685734
705,1686620993.31,91.309,513.672,-1.465,86.914,371.224,361.44673933192666
706,1686620993.32,16.113,156.25,8.789,26.367,371.228,362.05048306898567
707,1686620993.32,-59.57,179.199,13.184,-37.598,371.232,352.62949206829234
708,1686620993.34,5.371,342.773,7.812,5.371,371.236,350.4904515183553
709,1686620993.34,92.773,343.262,-12.695,69.336,371.24,356.5505641809998
710,1686620993.35,35.156,159.668,-5.859,11.23,371.244,359.2766799255646
711,1686620993.35,-57.617,157.227,14.648,-65.918,371.248,365.0637496004114
712,1686620993.36,-16.602,204.102,-8.301,-22.949,371.252,352.67980397611257
713,1686620993.36,77.148,-71.777,-14.16,62.5,371.256,370.94123851972796
714,1686620993.36,48.34,-435.547,19.531,40.039,371.259,363.7962821752069
715,1686620993.37,-49.805,-255.371,35.156,-64.941,371.263,359.68234498386875
716,1686620993.37,-49.316,137.207,7.812,-61.523,371.267,359.6344749150612
717,1686620993.37,44.434,-112.793,-14.16,46.387,371.271,358.6648354250908
718,1686620993.38,66.406,-491.699,88.867,61.035,371.275,365.9782046001383
719,1686620993.38,-16.602,13.184,54.688,-40.039,371.279,364.21418079261264
720,1686620993.38,-57.129,165.527,-17.578,-78.613,371.28,354.1449154968295
721,1686620993.39,21.973,-76.172,-5.371,-0.977,371.284,366.61670905379555
722,1686620993.39,74.707,156.738,0.488,52.734,371.288,363.4922352608075
723,1686620993.4,-2.441,341.309,-1.465,-20.02,371.292,360.95437264599826
724,1686620993.4,-80.566,38.086,-21.973,-81.543,371.296,359.4002815167901
725,1686620993.4,-33.203,-582.52,-43.457,-21.484,371.3,354.87516771865404
726,1686620993.41,51.758,-393.066,6.836,49.316,371.304,360.4571075187566
727,1686620993.41,4.395,-37.109,15.625,-9.766,371.308,361.23448765425513
728,1686620993.42,-93.75,-208.008,-31.25,-93.75,371.312,360.411890775009
729,1686620993.42,-76.172,-862.793,-7.324,-63.965,371.316,359.24393194626106
730,1686620993.42,35.645,-643.066,126.465,10.742,371.32,366.8104651385287
731,1686620993.43,38.574,362.305,44.922,5.371,371.323,364.17726705465685
732,1686620993.43,-78.125,175.293,-36.133,-83.984,371.327,363.62651974270955
733,1686620993.44,-104.004,-79.59,39.062,-101.074,371.331,368.286718457815
734,1686620993.44,-0.488,348.633,26.855,-8.301,371.335,370.0953950108828
735,1686620993.44,38.086,540.039,-4.395,33.203,371.339,369.0250111279489
736,1686620993.45,-56.641,127.93,-13.672,-46.875,371.343,365.36487194468276
737,1686620993.45,-116.699,-380.371,20.996,-102.539,371.347,367.79996837050084
738,1686620993.45,-35.645,-155.762,60.547,-33.203,371.351,362.0167835529778
739,1686620993.46,39.062,410.645,10.254,22.949,371.355,360.7804602369154
740,1686620993.46,-28.32,7.812,-32.715,-34.18,371.358,364.41307088399367
741,1686620993.47,-119.141,-621.094,81.543,-105.469,371.362,373.5596264946662
742,1686620993.47,-69.824,-201.66,55.176,-78.613,371.366,356.2926538708152
743,1686620993.47,24.902,198.242,10.742,8.789,371.37,366.7864932557881
744,1686620993.47,-16.602,-78.613,-19.531,-32.227,371.37,368.66123638066415
745,1686620993.48,-125.0,-220.215,-3.418,-122.559,371.374,359.442533766511
746,1686620993.48,-102.051,156.738,25.391,-104.492,371.378,361.1509160099714
747,1686620993.49,-0.488,308.105,12.207,-15.137,371.382,374.4392815136399
748,1686620993.49,-5.859,11.719,-13.184,2.93,371.386,368.86984290151764
749,1686620993.49,-107.91,-306.641,-10.254,-92.773,371.39,367.1511906043064
750,1686620993.5,-139.16,-311.035,23.926,-123.535,371.394,366.0249447232781
751,1686620993.5,-41.504,-132.324,9.766,-37.109,371.398,367.33324265746626
752,1686620993.5,1.465,-618.164,-32.715,3.418,371.402,372.6689001785535
753,1686620993.51,-82.52,-760.742,66.406,-86.426,371.406,363.83749359934365
754,1686620993.51,-132.324,56.641,49.805,-136.719,371.409,365.36388769702876
755,1686620993.52,-60.059,250.977,-4.883,-57.617,371.413,368.51073338582484
756,1686620993.52,17.09,179.199,28.809,6.348,371.419,371.95410342281355
757,1686620993.53,-38.574,149.414,12.207,-51.27,371.423,367.4545202234633
758,1686620993.53,-132.812,212.402,0.0,-137.207,371.427,365.4684387909919
759,1686620993.53,-102.051,63.965,-3.418,-94.238,371.431,377.60257326819095
760,1686620993.54,-3.418,-103.516,69.336,-1.465,371.435,365.9774361259854
761,1686620993.54,-32.715,-5.859,29.785,-46.875,371.439,375.8572552031718
762,1686620993.54,-145.996,-71.289,-12.207,-151.367,371.443,363.28245285774545
763,1686620993.55,-137.207,-287.109,5.371,-136.23,371.446,365.28900244533634
764,1686620993.55,-27.832,-490.723,98.633,-39.062,371.45,360.79736407419006
765,1686620993.56,-9.277,267.578,74.219,-33.691,371.454,363.9118246129985
766,1686620993.56,-120.117,383.301,-17.09,-127.93,371.458,363.7972870464332
767,1686620993.56,-69.824,151.367,25.391,-93.75,371.46,375.2985030459691
768,1686620993.56,-163.086,-118.652,-0.488,-162.598,371.462,366.36029232987795
769,1686620993.57,-26.367,510.254,7.324,-59.082,371.464,375.53884493382185
770,1686620993.57,-115.723,297.852,9.277,-126.953,371.468,369.4299807932208
771,1686620993.58,-186.035,-292.48,-7.324,-188.477,371.472,367.654858898577
772,1686620993.58,-112.793,-274.902,27.344,-131.836,371.476,360.14853308012357
773,1686620993.58,-28.809,43.457,16.602,-57.129,371.48,369.2485692217084
774,1686620993.59,-89.355,-62.012,-35.645,-114.746,371.484,358.5366510335539
775,1686620993.59,-196.289,-737.305,-57.129,-203.125,371.488,371.0130010480248
776,1686620993.6,-166.504,-1000.0,17.09,-164.551,371.491,372.0222993766269
777,1686620993.6,-58.594,-0.488,81.543,-79.102,371.495,373.1032720619471
778,1686620993.6,-74.707,482.91,5.371,-109.863,371.499,368.57817927621977
779,1686620993.61,-179.199,119.629,8.789,-190.918,371.503,368.30780855975377
780,1686620993.61,-186.523,246.094,18.066,-181.152,371.507,362.31667162421775
781,1686620993.62,-91.797,500.0,12.207,-100.586,371.511,369.9289479349083
782,1686620993.62,-71.777,421.875,-11.23,-82.031,371.515,371.33990305667703
783,1686620993.62,-162.109,188.477,-6.836,-155.273,371.519,366.8782987396348
784,1686620993.63,-188.965,172.363,12.207,-192.871,371.523,367.2479678885759
785,1686620993.63,-104.492,114.258,23.438,-114.746,371.527,367.57013320071906
786,1686620993.63,-57.617,-85.449,0.0,-56.641,371.531,368.5607236680069
787,1686620993.64,-130.371,-765.625,4.395,-120.605,371.535,369.94855510275926
788,1686620993.64,-197.266,-235.352,54.688,-195.312,371.539,370.88685423748063
789,1686620993.65,-143.066,461.426,27.344,-152.344,371.543,367.98387402988703
790,1686620993.65,-65.43,246.582,0.0,-75.684,371.546,366.6206320851076
791,1686620993.65,-104.98,292.48,-1.953,-122.559,371.55,369.9371441246381
792,1686620993.65,-200.195,361.328,1.953,-207.031,371.563,364.0741536673341
793,1686620993.66,-169.922,229.98,-2.441,-179.199,371.567,367.9400729245523
794,1686620993.66,-71.289,6.348,-13.184,-87.891,371.571,371.59466278435093
795,1686620993.67,-81.055,185.059,-4.883,-94.727,371.575,378.73024525181273
796,1686620993.67,-184.57,166.992,-23.926,-185.547,371.579,368.3383071225395
797,1686620993.67,-208.984,-147.461,-3.418,-204.102,371.582,370.5708566935541
798,1686620993.68,-113.281,-692.871,-17.09,-118.164,371.586,379.73692311077
799,1686620993.68,-77.637,-794.922,58.594,-84.473,371.59,375.95753041362155
800,1686620993.68,-157.715,112.305,57.129,-174.316,371.594,373.99158071652147
801,1686620993.69,-215.82,-31.25,-24.902,-224.121,371.598,369.3833887624218
802,1686620993.69,-139.648,-379.395,77.148,-144.531,371.602,368.6075153943548
803,1686620993.7,-65.43,329.102,70.312,-85.938,371.606,368.64748298172367
804,1686620993.71,-124.512,556.641,-18.066,-140.137,371.611,370.08885405563694
805,1686620993.72,-211.426,118.652,-8.301,-212.891,371.615,371.45078000571294
806,1686620993.72,-165.039,51.758,35.156,-178.711,371.619,371.068344478548
807,1686620993.73,-59.57,414.062,41.992,-86.426,371.623,365.3292653722222
808,1686620993.73,-85.449,554.199,-3.906,-108.887,371.627,372.6103753642442
809,1686620993.73,-191.895,-110.84,-18.066,-200.195,371.631,371.1687181250035
810,1686620993.74,-191.406,-528.809,131.836,-187.988,371.635,377.79086985010093
811,1686620993.74,-87.402,266.113,103.027,-108.398,371.639,371.6448896524754
812,1686620993.74,-85.938,544.434,-13.672,-113.77,371.642,384.71312885178855
813,1686620993.75,-174.805,17.578,-5.371,-189.941,371.646,368.5390885960902
814,1686620993.75,-183.105,-94.727,33.691,-198.73,371.65,374.9504963277657
815,1686620993.76,-108.887,139.648,50.781,-132.324,371.654,374.53716313674477
816,1686620993.76,-72.266,310.059,16.113,-94.727,371.656,376.3050679778292
817,1686620993.76,-150.879,-104.98,-36.621,-160.645,371.659,371.6391338554825
818,1686620993.77,-212.891,-229.004,42.48,-215.82,371.663,375.2858686201578
819,1686620993.77,-139.16,333.008,47.363,-144.531,371.667,375.2817544490421
820,1686620993.78,-65.43,392.578,-3.906,-76.172,371.671,371.73170007666283
821,1686620993.78,-133.301,-312.012,-39.551,-133.301,371.675,372.8566277136759
822,1686620993.78,-220.703,-532.715,12.695,-213.379,371.679,364.6363781676896
823,1686620993.79,-167.969,21.484,80.566,-173.828,371.683,368.466982237606
824,1686620993.79,-72.266,342.285,12.207,-92.773,371.687,376.76412071394833
825,1686620993.79,-107.422,-416.016,-4.883,-118.652,371.691,373.91911321660024
826,1686620993.8,-198.242,-449.707,86.426,-206.055,371.695,371.1341665882128
827,1686620993.8,-193.359,214.844,68.359,-204.102,371.699,372.0984823216795
828,1686620993.81,-105.957,366.211,27.832,-110.352,371.704,380.3625240156496
829,1686620993.81,-84.473,278.32,14.648,-89.355,371.708,374.28780523629837
830,1686620993.82,-180.664,79.102,3.906,-175.293,371.712,363.46622533913705
831,1686620993.82,-218.262,241.699,11.719,-202.637,371.715,369.7632226114984
832,1686620993.82,-123.535,251.465,-0.488,-114.746,371.719,373.96579873249425
833,1686620993.83,-75.684,-175.781,17.578,-69.336,371.723,378.6231723372073
834,1686620993.83,-148.438,-69.824,41.992,-145.996,371.727,369.3709971519018
835,1686620993.83,-213.379,343.262,15.625,-204.102,371.731,368.6305233913579
836,1686620993.84,-157.227,45.41,4.883,-141.113,371.735,374.09986932702986
837,1686620993.84,-83.008,-313.477,107.422,-69.336,371.739,375.6756552724686
838,1686620993.85,-119.629,368.164,64.941,-123.535,371.743,373.87652970212343
839,1686620993.85,-195.801,44.922,14.648,-184.082,371.745,373.757046209105
840,1686620993.85,-216.797,406.25,-7.812,-216.309,371.747,374.13599378487487
841,1686620993.85,-84.961,348.145,40.527,-96.191,371.749,371.4015937762671
842,1686620993.86,-94.727,598.633,26.855,-112.793,371.753,377.77190298583406
843,1686620993.86,-197.266,307.617,-7.812,-200.195,371.757,375.1829105475272
844,1686620993.86,-207.52,-184.57,0.0,-198.242,371.761,363.35598924669523
845,1686620993.87,-116.211,-110.84,42.48,-108.887,371.764,379.2276996211337
846,1686620993.87,-89.355,114.258,37.598,-95.703,371.768,374.0667235696353
847,1686620993.88,-173.34,-8.789,7.324,-181.641,371.772,370.365951452884
848,1686620993.88,-222.168,-711.426,-26.855,-217.285,371.776,372.6955370298892
849,1686620993.88,-145.02,-988.77,57.617,-136.23,371.78,367.3027420028837
850,1686620993.89,-57.129,245.117,101.074,-81.055,371.784,371.5886286389669
851,1686620993.89,-122.07,628.906,-8.301,-149.902,371.788,368.425102789376
852,1686620993.9,-219.238,189.941,31.25,-217.285,371.792,371.7253124339304
853,1686620993.9,-160.156,451.172,45.41,-165.527,371.796,376.32323838240995
854,1686620993.9,-68.359,719.238,16.113,-82.52,371.8,371.2272171649194
855,1686620993.91,-109.375,498.535,12.695,-117.676,371.804,377.16401984611633
856,1686620993.91,-208.008,184.57,18.066,-205.078,371.808,365.9941768975983
857,1686620993.92,-190.918,29.297,33.203,-179.199,371.812,374.94610368451174
858,1686620993.92,-89.355,260.254,67.871,-89.355,371.816,370.60566336849985
859,1686620993.92,-89.355,162.598,12.695,-98.145,371.82,370.10959724564134
860,1686620993.93,-193.359,-778.32,-1.953,-191.895,371.824,378.019318050841
861,1686620993.93,-203.613,-99.609,82.031,-215.82,371.827,369.1252127481767
862,1686620993.94,-105.469,722.656,45.898,-123.047,371.831,374.7997424256549
863,1686620993.94,-77.148,396.973,-5.859,-91.309,371.835,368.83863400154945
864,1686620993.95,-165.039,376.953,10.742,-185.547,371.85,370.9046316644191
865,1686620993.96,-221.68,492.676,27.832,-242.188,371.854,377.44563369917927
866,1686620993.96,-138.672,485.352,27.832,-155.762,371.858,366.98721727427096
867,1686620993.97,-64.941,344.727,13.184,-82.031,371.862,363.664441571324
868,1686620993.97,-125.488,266.602,-1.465,-137.207,371.866,369.19198505999924
869,1686620993.97,-200.195,30.762,37.598,-203.613,371.87,368.93390477234743
870,1686620993.98,-147.949,27.344,53.711,-160.156,371.874,361.5885275891561
871,1686620993.98,-62.988,-418.457,-8.301,-64.453,371.878,364.07117069199984
872,1686620993.98,-88.379,-689.453,75.684,-82.52,371.882,363.5236090143891
873,1686620993.99,-53.711,536.621,73.73,-81.055,371.894,375.7144248562561
874,1686620993.99,-168.457,162.109,70.312,-178.711,371.886,381.4304140497658
875,1686620993.99,-150.879,806.641,1.953,-168.945,371.898,363.3998273642246
876,1686620993.99,-164.062,145.508,11.23,-180.664,371.889,368.84753055087015
877,1686620993.99,-179.688,273.438,3.418,-183.594,371.902,374.4037431849309
878,1686620994.0,-65.918,-130.371,80.078,-85.938,371.893,370.62303131977626
879,1686620994.0,-90.82,78.125,120.605,-95.703,371.906,376.6675437297678
880,1686620994.0,-41.992,639.16,90.82,-59.57,371.91,370.14244940417666
881,1686620994.01,-117.188,443.848,-16.113,-132.812,371.914,364.1224989827764
882,1686620994.01,-179.199,-84.961,43.945,-187.5,371.917,372.35046344235917
883,1686620994.01,-104.98,165.039,116.699,-122.07,371.921,365.0237081225356
884,1686620994.02,-26.855,709.473,63.965,-55.664,371.925,368.74914213344056
885,1686620994.02,-90.82,773.438,5.859,-115.234,371.929,366.1824725344819
886,1686620994.02,-182.129,55.176,-6.348,-182.129,371.933,364.3796657009646
887,1686620994.03,-128.906,-359.863,94.727,-129.883,371.937,366.7458281915666
888,1686620994.04,-29.297,294.434,99.609,-55.176,371.943,368.28381307472534
889,1686620994.05,-54.688,585.449,16.113,-76.66,371.946,367.6345576452008
890,1686620994.05,-160.645,27.344,-18.066,-162.598,371.95,366.8703786610693
891,1686620994.06,-163.086,70.312,64.941,-159.668,371.954,370.7165985112683
892,1686620994.06,-54.199,541.992,65.43,-61.523,371.958,368.5623360920175
893,1686620994.06,-42.48,387.695,16.113,-45.41,371.962,372.1303136799391
894,1686620994.07,-151.367,-418.457,12.207,-128.906,371.966,367.67781740263166
895,1686620994.07,-179.199,-565.918,119.141,-166.504,371.97,369.69535831159243
896,1686620994.08,-70.312,591.309,109.375,-86.914,371.974,371.6500527736599
897,1686620994.08,-9.277,687.5,5.859,-23.926,371.978,375.28939428701676
898,1686620994.08,-89.355,-13.184,69.336,-94.238,371.982,361.1434716996342
899,1686620994.09,-161.621,263.184,82.52,-168.945,371.986,365.5193011027488
900,1686620994.09,-91.309,661.133,47.363,-104.004,371.986,363.997288689598
901,1686620994.09,-16.113,614.746,26.855,-23.438,371.99,371.0052530292688
902,1686620994.1,-81.543,314.941,16.113,-74.219,371.994,362.9843126656732
903,1686620994.1,-170.898,110.84,54.199,-159.668,371.998,373.9650291442673
904,1686620994.11,-124.512,406.25,50.781,-131.836,372.002,361.3918570889569
905,1686620994.11,-38.574,233.398,19.531,-48.828,372.006,369.68026626442673
906,1686620994.11,-58.105,-107.422,86.914,-57.129,372.01,368.5659530509194
907,1686620994.12,-149.414,233.887,60.547,-148.926,372.014,372.03291486580787
908,1686620994.12,-167.48,504.883,25.391,-166.992,372.018,364.2471929784814
909,1686620994.12,-70.312,165.039,8.789,-75.195,372.022,370.10645508629744
910,1686620994.13,-30.273,-646.973,35.156,-41.016,372.025,366.95372623627827
911,1686620994.13,-117.676,15.137,77.148,-129.883,372.029,364.18086786915507
912,1686620994.13,-173.34,470.703,36.621,-174.805,372.03,370.00221649764404
913,1686620994.14,-84.473,182.617,29.297,-96.191,372.034,368.6684112348371
914,1686620994.14,-19.043,522.461,51.27,-41.992,372.038,364.89170107751795
915,1686620994.15,-84.473,669.922,27.344,-100.586,372.042,367.86819091536046
916,1686620994.15,-152.344,295.41,-5.371,-159.668,372.046,358.90699689843143
917,1686620994.15,-100.586,-120.605,11.719,-99.121,372.05,371.4496208443429
918,1686620994.16,-9.277,91.309,53.223,-15.137,372.054,359.1798320922259
919,1686620994.16,-41.016,237.793,47.852,-49.805,372.058,363.10618769827926
920,1686620994.16,-135.254,92.773,27.832,-141.113,372.062,373.54676205675236
921,1686620994.17,-116.699,-610.84,-8.789,-114.258,372.066,357.9071337169381
922,1686620994.17,-15.625,-783.203,94.727,-17.09,372.069,368.1816063722542
923,1686620994.18,-8.789,467.773,107.422,-23.926,372.073,364.534438868688
924,1686620994.18,-110.352,608.887,-6.348,-120.117,372.077,363.77644371441005
925,1686620994.18,-133.789,247.559,50.293,-140.625,372.081,369.3936539120464
926,1686620994.19,-38.574,590.332,68.359,-52.246,372.085,371.51852670633633
927,1686620994.19,-1.465,829.59,28.809,-17.09,372.089,369.0293803777647
928,1686620994.2,-90.332,474.121,-6.348,-107.91,372.093,367.3139673139029
929,1686620994.2,-159.18,-83.008,32.715,-163.574,372.097,363.9648765391684
930,1686620994.2,-82.52,160.156,92.285,-78.125,372.101,370.8388080373088
931,1686620994.21,-5.371,697.266,62.012,-18.066,372.105,359.9802607733323
932,1686620994.21,-74.707,180.664,0.0,-81.543,372.109,368.3135615813447
933,1686620994.22,-166.504,-803.711,27.832,-153.32,372.113,365.5894414387309
934,1686620994.22,-104.492,-23.438,111.816,-105.957,372.116,368.5530046495346
935,1686620994.22,-9.277,678.223,62.012,-17.578,372.12,362.14659663940887
936,1686620994.22,-39.551,338.867,5.859,-44.434,372.12,351.1425733936231
937,1686620994.23,-132.812,326.66,19.531,-145.508,372.124,367.10404969577144
938,1686620994.23,-125.488,504.395,45.41,-136.23,372.128,365.351633381717
939,1686620994.24,-24.414,597.656,49.316,-36.621,372.132,364.6025219736735
940,1686620994.24,-18.066,271.484,8.789,-29.297,372.136,371.4991877993529
941,1686620994.24,-120.605,-15.625,25.879,-120.117,372.14,358.22884112787415
942,1686620994.25,-145.996,-37.109,45.41,-138.672,372.144,366.8905627856908
943,1686620994.25,-45.41,144.531,23.438,-47.852,372.148,360.37404107132994
944,1686620994.26,3.418,-339.844,-18.066,4.395,372.152,367.4790823301233
945,1686620994.26,-72.754,-669.922,86.426,-70.312,372.155,361.61071488274996
946,1686620994.26,-138.184,115.723,66.406,-139.648,372.159,376.5845150630923
947,1686620994.27,-69.336,220.703,23.926,-67.383,372.163,365.94469796185155
948,1686620994.27,3.906,127.93,103.516,3.418,372.167,361.41694830374854
949,1686620994.28,-46.875,601.562,69.824,-55.664,372.171,367.58700480701674
950,1686620994.28,-131.348,614.258,11.719,-135.742,372.175,361.868561269434
951,1686620994.28,-98.633,356.934,29.297,-100.098,372.179,358.28701067438726
952,1686620994.29,-5.371,488.281,65.43,-22.949,372.183,367.71376363346707
953,1686620994.29,-26.367,359.375,34.668,-42.969,372.187,357.40741503372914
954,1686620994.29,-127.93,119.629,13.672,-135.254,372.191,361.5481083642792
955,1686620994.3,-136.719,-93.75,17.09,-135.254,372.194,366.0224931088205
956,1686620994.3,-39.062,-335.938,106.934,-41.992,372.198,364.833243043979
957,1686620994.31,-11.719,481.445,91.309,-33.691,372.202,359.0814839452918
958,1686620994.31,-97.656,683.105,2.93,-116.211,372.206,366.3999135034299
959,1686620994.31,-137.207,214.355,23.438,-137.207,372.21,368.07698357602334
960,1686620994.32,-51.27,369.141,43.457,-58.594,372.212,362.4831420385966
961,1686620994.32,11.23,504.883,39.062,-11.719,372.216,369.3189982042303
962,1686620994.32,-67.871,415.527,16.113,-78.125,372.219,373.99975786441263
963,1686620994.33,-143.066,-69.824,-17.578,-135.742,372.223,359.44619651604467
964,1686620994.33,-73.73,-20.996,48.828,-75.195,372.227,365.97215110074535
965,1686620994.34,7.324,255.859,59.57,-7.812,372.231,357.6469385967362
966,1686620994.34,-37.598,247.559,22.949,-54.688,372.235,368.2278838086348
967,1686620994.34,-122.559,-494.141,-20.508,-121.582,372.239,365.7263663260933
968,1686620994.35,-83.984,-760.742,107.422,-93.75,372.243,362.9266799829259
969,1686620994.35,31.738,526.367,137.207,-6.348,372.247,364.02779362240807
970,1686620994.35,8.789,756.836,15.137,-20.508,372.251,364.3271698992524
971,1686620994.36,-104.492,283.691,53.223,-117.676,372.255,368.9309401186735
972,1686620994.36,-107.91,449.219,63.477,-110.352,372.268,362.90323200631644
973,1686620994.36,-4.395,732.422,34.668,-13.672,372.272,359.63995082367694
974,1686620994.37,19.043,647.949,11.23,-0.488,372.276,365.9194466450441
975,1686620994.37,-75.684,252.441,14.648,-83.984,372.28,368.79255509246127
976,1686620994.38,-117.676,83.984,43.945,-117.676,372.284,357.6114336885699
977,1686620994.38,-33.691,291.016,53.711,-31.738,372.288,356.59757125053704
978,1686620994.38,26.855,202.637,8.301,25.879,372.292,368.1467627955893
979,1686620994.39,-47.363,-610.84,13.184,-38.086,372.296,350.6893142225128
980,1686620994.39,-113.281,-102.051,99.121,-111.816,372.3,366.5657770033743
981,1686620994.4,-43.945,700.684,57.617,-62.988,372.303,362.93148902683373
982,1686620994.4,44.434,529.785,13.672,23.438,372.307,359.4334573416391
983,1686620994.4,-1.465,526.855,26.367,-20.996,372.311,363.94968362661217
984,1686620994.4,-99.121,537.598,27.832,-109.863,372.313,354.43195875480853
985,1686620994.41,-77.637,451.172,36.133,-81.055,372.317,363.6615397760574
986,1686620994.41,22.949,333.496,18.555,18.066,372.321,352.2640144677643
987,1686620994.42,25.879,512.695,27.344,27.832,372.325,355.6464426074566
988,1686620994.42,-77.148,409.18,6.836,-58.594,372.329,360.89538318399633
989,1686620994.42,-87.402,-15.625,-4.883,-76.172,372.333,352.4919915940226
990,1686620994.43,7.812,-455.078,-2.93,8.789,372.337,366.27563804714987
991,1686620994.43,36.621,-562.5,87.891,35.645,372.341,356.8114813232691
992,1686620994.44,-43.945,165.039,66.895,-52.734,372.345,360.6117573454364
993,1686620994.44,-97.168,350.098,-5.859,-92.285,372.348,355.7076347584913
994,1686620994.44,-32.227,-220.703,24.902,-10.742,372.352,358.9734834092272
995,1686620994.45,41.992,395.996,70.312,39.062,372.356,359.0056986554236
996,1686620994.46,-9.766,888.184,14.16,-33.203,372.36,354.88031039667226
997,1686620994.47,-101.562,422.852,0.488,-110.84,372.364,357.81252421874194
998,1686620994.47,-58.105,305.176,39.551,-60.059,372.368,358.774833020566
999,1686620994.48,31.738,618.652,33.691,27.344,372.372,361.7305496864698
1000,1686620994.48,-3.906,749.512,-4.883,0.0,372.376,356.7384893932662
1001,1686620994.48,-101.562,70.312,-23.926,-79.102,372.38,355.51091833651145
1002,1686620994.49,-94.727,-399.414,130.371,-62.5,372.384,368.8973868181994
1003,1686620994.49,4.395,433.594,132.324,21.973,372.388,362.20148530116046
1004,1686620994.5,9.766,840.332,-0.977,20.996,372.392,355.0487655146588
1005,1686620994.5,-85.938,158.691,0.977,-71.777,372.396,351.5242942928213
1006,1686620994.5,-104.492,-174.805,114.746,-87.402,372.399,348.7281216963563
1007,1686620994.51,-10.742,596.191,88.379,-1.953,372.403,356.6793001173105
1008,1686620994.51,30.762,824.707,5.371,35.156,372.406,359.8599029510136
1009,1686620994.51,-44.434,270.508,-7.812,-42.48,372.409,351.00150804048485
1010,1686620994.52,-101.074,225.586,19.043,-102.539,372.413,358.48323013256226
1011,1686620994.52,-26.855,578.613,55.176,-30.273,372.417,356.8211887434269
1012,1686620994.52,58.105,589.844,1.953,46.387,372.421,362.0996448766182
1013,1686620994.53,0.488,-114.258,-51.27,-2.441,372.425,355.32732179746085
1014,1686620994.53,-95.215,-330.566,18.555,-84.473,372.429,361.60693467263354
1015,1686620994.54,-57.129,243.164,78.613,-53.711,372.433,358.82755538107676
1016,1686620994.54,30.762,620.605,23.438,24.902,372.437,360.56869644398415
1017,1686620994.54,-5.371,-154.297,-4.395,2.441,372.441,357.80573948021214
1018,1686620994.55,-104.004,-223.633,89.355,-88.867,372.445,357.4171242995031
1019,1686620994.55,-95.703,426.758,36.133,-87.891,372.448,349.6788321572089
1020,1686620994.56,5.859,307.129,22.461,8.301,372.452,357.3964927151677
1021,1686620994.56,27.344,201.66,106.934,21.973,372.456,359.302599253659
1022,1686620994.56,-68.359,526.367,54.199,-78.613,372.46,356.3815173573277
1023,1686620994.57,-107.422,567.383,14.648,-108.887,372.464,356.6414599249814
1024,1686620994.57,-21.484,422.852,26.367,-18.066,372.468,357.5741752360806
1025,1686620994.58,31.738,264.16,41.016,35.645,372.472,357.7142424968992
1026,1686620994.58,-37.109,312.012,67.383,-28.809,372.476,352.2090568582252
1027,1686620994.58,-97.656,582.031,31.738,-94.238,372.48,346.7385797054048
1028,1686620994.59,-37.598,190.918,2.93,-28.32,372.484,357.65818569010116
1029,1686620994.59,34.668,-239.258,96.68,56.641,372.487,346.0973036308642
1030,1686620994.6,-3.418,512.695,75.195,2.93,372.491,361.7168124843484
1031,1686620994.6,-81.543,637.695,-0.488,-86.426,372.495,358.02848121644837
1032,1686620994.6,-59.082,224.609,4.395,-66.895,372.497,354.0285902154281
1033,1686620994.6,41.016,429.688,29.785,35.645,372.501,348.590002672142
1034,1686620994.61,27.344,501.953,38.086,27.832,372.505,359.3691356497082
1035,1686620994.61,-82.52,402.832,4.395,-84.961,372.509,353.2986907926659
1036,1686620994.62,-95.703,-93.262,-34.18,-93.262,372.513,346.70406179522496
1037,1686620994.62,5.371,-78.613,33.691,1.465,372.517,343.40290475060857
1038,1686620994.62,33.203,290.039,49.805,25.879,372.521,365.9507129918378
1039,1686620994.63,-56.152,291.504,0.977,-52.246,372.525,356.7788522971421
1040,1686620994.63,-104.004,-461.426,-28.32,-90.332,372.529,359.74608072421404
1041,1686620994.64,-17.578,-569.824,107.422,-14.16,372.532,361.3624571252577
1042,1686620994.64,55.176,694.824,99.609,46.387,372.536,363.67147899598933
1043,1686620994.64,-13.184,565.918,-6.348,-16.113,372.54,364.8877543373966
1044,1686620994.65,-84.961,242.188,45.898,-89.355,372.543,355.0515958213992
1045,1686620994.65,-24.414,651.855,63.965,-41.504,372.546,354.6935851638436
1046,1686620994.65,60.547,881.348,30.762,39.551,372.55,358.35827654730116
1047,1686620994.66,20.02,645.508,-1.465,1.953,372.554,345.60329774020175
1048,1686620994.66,-71.777,239.746,27.344,-70.312,372.558,361.84297718138816
1049,1686620994.67,-57.617,118.652,41.992,-34.668,372.562,354.3092799543046
1050,1686620994.67,41.016,384.766,47.363,41.504,372.566,363.611583477421
1051,1686620994.67,43.945,330.566,4.883,37.598,372.57,365.0648372184336
1052,1686620994.68,-64.941,-596.68,7.812,-58.105,372.574,357.6509134441613
1053,1686620994.68,-75.195,-8.789,109.375,-76.172,372.578,357.81558133699446
1054,1686620994.68,31.25,873.047,68.359,15.137,372.582,353.6510304543461
1055,1686620994.69,48.34,607.91,2.441,43.457,372.586,358.27055182692334
1056,1686620994.69,-41.992,557.129,4.395,-33.691,372.6,355.39018517740277
1057,1686620994.69,-90.332,595.703,27.344,-79.59,372.604,356.2074102153623
1058,1686620994.7,-16.602,563.965,50.293,-10.742,372.607,360.71345511831737
1059,1686620994.7,47.852,450.195,15.625,52.246,372.611,366.2382069186409
1060,1686620994.7,-19.043,387.207,-4.883,-7.324,372.615,359.6562485929024
1061,1686620994.71,-88.379,84.961,8.301,-70.312,372.619,348.628633630725
1062,1686620994.71,-40.527,51.758,39.062,-23.438,372.623,355.8054741877299
1063,1686620994.72,35.645,-309.082,-6.836,44.922,372.627,352.33351423362143
1064,1686620994.72,1.953,-846.68,10.254,4.883,372.631,358.4789759144744
1065,1686620994.72,-78.125,99.121,83.496,-77.148,372.635,351.1776792537321
1066,1686620994.73,-56.152,622.559,30.273,-65.918,372.639,356.7791888667206
1067,1686620994.73,40.527,467.285,52.734,13.184,372.643,362.899933673784
1068,1686620994.74,50.781,795.41,62.5,38.574,372.643,355.93734639317563
1069,1686620994.74,-44.434,758.301,5.371,-44.922,372.647,368.72044707831014
1070,1686620994.74,-73.242,396.973,8.789,-75.684,372.651,357.07110895895477
1071,1686620994.75,22.461,442.871,64.941,24.902,372.655,361.49191657813753
1072,1686620994.75,71.777,669.922,24.414,72.754,372.659,364.94671857923674
1073,1686620994.76,-16.113,345.703,-12.207,-3.906,372.663,359.4777492038628
1074,1686620994.76,-85.938,-120.117,22.949,-75.195,372.667,357.61696650359164
1075,1686620994.76,-15.625,-96.68,107.91,-20.02,372.671,365.24031710296805
1076,1686620994.77,70.801,556.152,72.754,70.801,372.675,356.7865324466397
1077,1686620994.77,8.301,667.48,-7.324,11.719,372.679,361.6069287145725
1078,1686620994.78,-88.379,-110.84,-7.812,-74.219,372.682,361.544864897504
1079,1686620994.78,54.199,409.668,96.191,53.711,372.688,357.09934493772613
1080,1686620994.78,-46.875,-647.461,90.332,-31.738,372.686,358.6218402432124
1081,1686620994.78,42.48,805.664,-5.859,41.016,372.692,361.5125050796597
1082,1686620994.79,-62.5,131.348,-8.789,-55.664,372.696,366.11656860830374
1083,1686620994.79,-68.848,311.035,42.48,-62.988,372.7,367.4758662533827
1084,1686620994.8,33.203,597.168,41.016,27.344,372.704,362.05995246274335
1085,1686620994.8,53.711,356.445,-5.371,47.363,372.708,365.6500918624405
1086,1686620994.8,-48.828,-450.195,-56.641,-38.086,372.712,361.6858234864201
1087,1686620994.81,-91.309,-627.441,122.559,-71.289,372.716,364.78322723019994
1088,1686620994.81,5.371,521.973,130.859,5.859,372.719,370.94515442865475
1089,1686620994.81,67.383,726.562,-0.488,51.27,372.723,368.2630003362473
1090,1686620994.82,-9.277,219.727,85.938,-10.742,372.727,364.5432256803987
1091,1686620994.82,-83.984,305.176,57.617,-72.266,372.731,365.1491680244626
1092,1686620994.84,-18.555,398.438,-3.418,-12.695,372.736,358.0661784669638
1093,1686620994.84,66.895,217.773,18.066,66.406,372.739,364.02052959923157
1094,1686620994.85,15.137,21.484,94.727,12.695,372.743,366.7431113611318
1095,1686620994.85,-77.637,310.059,65.43,-70.312,372.747,363.19483579534784
1096,1686620994.86,-42.969,531.738,3.906,-38.086,372.751,368.863206858415
1097,1686620994.86,58.594,208.008,12.695,56.152,372.755,362.64355644095826
1098,1686620994.86,44.922,-271.484,82.031,52.246,372.759,359.21000601980893
1099,1686620994.87,-47.363,189.941,64.941,-40.527,372.763,370.45740276108063
1100,1686620994.87,-60.059,532.227,22.949,-54.688,372.767,371.62132703642186
1101,1686620994.87,37.109,291.504,52.246,34.668,372.771,366.97518881423395
1102,1686620994.88,64.453,390.625,66.406,61.035,372.775,363.3057471779673
1103,1686620994.88,-39.062,569.824,25.879,-32.227,372.778,370.51878173271257
1104,1686620994.88,-79.102,395.508,13.184,-73.242,372.78,365.9309265598642
1105,1686620994.89,5.859,202.637,20.508,9.277,372.784,371.4145037441741
1106,1686620994.89,59.57,354.492,16.113,63.965,372.788,379.38246132534863
1107,1686620994.9,-8.301,254.395,14.16,-7.324,372.792,368.09707138013255
1108,1686620994.9,-87.891,182.129,8.789,-79.59,372.796,370.70595490812934
1109,1686620994.9,-24.902,-389.648,-11.719,-10.742,372.8,360.7961750854834
1110,1686620994.91,66.895,-602.051,89.844,68.359,372.804,361.53518909088245
1111,1686620994.91,30.762,255.859,98.633,16.113,372.808,373.5449979674135
1112,1686620994.92,-61.523,457.031,-3.418,-64.453,372.812,374.8055564937373
1113,1686620994.92,-50.781,-345.703,2.93,-32.227,372.816,376.41230436395307
1114,1686620994.92,53.223,107.91,111.816,48.34,372.819,375.2316351502731
1115,1686620994.93,55.176,910.156,45.41,37.109,372.823,369.76530381277325
1116,1686620994.93,-42.969,467.773,-3.906,-48.34,372.827,371.81065329866226
1117,1686620994.94,-61.035,205.566,54.688,-63.965,372.831,371.4733809146138
1118,1686620994.94,39.062,571.777,62.5,23.926,372.835,379.16289922530024
1119,1686620994.94,83.008,752.441,15.137,59.082,372.839,374.36822789592566
1120,1686620994.95,-11.23,339.355,-35.645,-25.391,372.843,380.7519794879687
1121,1686620994.95,-71.777,-114.746,22.949,-75.195,372.847,367.31045084641914
1122,1686620994.95,7.812,-43.945,61.035,4.883,372.851,375.264884725391
1123,1686620994.96,79.102,418.945,64.941,75.684,372.855,373.87035635086437
1124,1686620994.96,14.16,243.164,4.395,19.043,372.859,371.7154227420689
1125,1686620994.97,-79.59,-784.18,6.836,-52.734,372.863,371.5795775156468
1126,1686620994.97,-19.531,-26.855,103.027,-2.93,372.866,374.16435317119397
1127,1686620994.97,78.613,850.098,45.41,86.914,372.87,366.5441113182071
1128,1686620994.97,36.621,449.219,-26.855,38.086,372.87,380.0479214482914
1129,1686620994.98,-55.176,315.918,3.906,-54.688,372.874,373.8673462929812
1130,1686620994.98,-32.715,461.426,38.574,-23.438,372.878,376.84137084610603
1131,1686620994.99,66.406,538.574,34.18,62.988,372.882,372.8413407940371
1132,1686620994.99,65.43,234.375,-6.836,61.523,372.886,374.0104348643092
1133,1686620994.99,-35.645,-61.523,0.488,-33.203,372.89,378.8195830538126
1134,1686620995.0,-67.871,-81.055,30.762,-61.035,372.894,377.682970041233
1135,1686620995.0,28.809,101.074,37.109,32.227,372.898,376.3373423224545
1136,1686620995.0,80.566,-345.215,-29.297,82.031,372.902,372.7216972870852
1137,1686620995.01,-4.883,-947.754,21.484,3.418,372.906,367.4291214534928
1138,1686620995.01,-58.594,40.527,97.656,-62.988,372.909,376.0880298606162
1139,1686620995.02,21.973,627.93,36.621,12.695,372.913,377.2438536697976
1140,1686620995.05,98.633,491.211,49.805,87.891,372.947,384.18941879981594
1141,1686620995.06,50.781,709.961,38.086,32.227,372.951,381.03227492511644
1142,1686620995.06,-42.969,616.699,11.23,-36.133,372.955,377.19171006852855
1143,1686620995.06,-10.742,413.574,25.879,0.977,372.959,379.8136375649025
1144,1686620995.06,45.898,213.379,92.285,40.527,372.96,379.1442430863578
1145,1686620995.07,90.332,453.125,49.805,85.938,372.963,383.3116404109789
1146,1686620995.07,102.051,769.043,66.895,83.984,372.964,377.1389762889013
1147,1686620995.07,68.359,317.383,31.25,76.172,372.966,379.34742334419815
1148,1686620995.07,18.066,583.008,-14.648,6.836,372.968,379.72740802268925
1149,1686620995.07,-38.574,151.367,21.973,-16.602,372.97,380.9486884067266
1150,1686620995.08,-63.965,-136.719,-32.715,-58.105,372.972,378.12854608368076
1151,1686620995.08,-40.039,-78.613,17.578,-23.926,372.974,375.7936275306494
1152,1686620995.08,1.953,-1.953,56.152,5.859,372.976,376.3609356362535
1153,1686620995.08,53.711,-321.777,98.145,70.801,372.978,376.32689112456484
1154,1686620995.08,90.332,398.926,62.012,86.914,372.98,381.9470633435018
1155,1686620995.09,88.379,514.648,91.797,90.82,372.982,377.29961941041313
1156,1686620995.09,41.016,175.293,1.465,45.41,372.984,377.97291290201764
1157,1686620995.09,7.812,597.168,-3.906,1.953,372.986,378.19130550292374
1158,1686620995.09,-55.664,-208.984,28.809,-41.016,372.988,380.7683811510517
1159,1686620995.09,-40.039,-55.176,14.16,-32.715,372.99,383.7104755704202
1160,1686620995.1,-25.879,176.758,69.336,-19.531,372.992,375.9837082520562
1161,1686620995.1,73.242,798.34,54.688,76.172,372.995,387.5768172960771
1162,1686620995.1,61.035,584.473,-3.906,74.219,372.999,384.02608819338644
1163,1686620995.11,-38.574,-271.973,24.902,-18.555,373.003,386.5036769968017
1164,1686620995.11,-42.48,4.883,70.801,-33.691,373.009,380.7115669093112
1165,1686620995.12,58.594,382.812,43.945,63.965,373.013,375.44483818200285
1166,1686620995.12,84.961,264.16,27.344,90.332,373.017,376.9427461018873
1167,1686620995.12,-11.23,-620.117,-10.254,12.207,373.021,381.1533315394685
1168,1686620995.13,-59.082,-907.227,95.215,-36.621,373.025,390.88101245568066
1169,1686620995.13,40.527,170.898,112.793,30.762,373.029,379.15974086382266
1170,1686620995.14,101.074,306.152,22.949,96.191,373.033,377.03240737038044
1171,1686620995.14,15.625,-252.441,58.594,30.762,373.036,380.5661156762624
1172,1686620995.14,-55.664,325.195,85.449,-41.992,373.04,374.4313173744447
1173,1686620995.15,8.789,733.398,46.875,12.207,373.044,372.1639054879948
1174,1686620995.15,91.309,495.117,33.203,94.727,373.048,378.6782885845402
1175,1686620995.15,-44.922,614.746,36.621,-33.203,373.063,376.53566473080866
1176,1686620995.16,49.316,563.477,34.668,58.594,373.052,386.0353262969474
1177,1686620995.16,-25.391,483.887,23.438,-10.742,373.067,384.4526211992063
1178,1686620995.16,70.312,338.379,21.484,79.59,373.071,389.3905575152159
1179,1686620995.17,77.148,435.059,27.344,73.242,373.075,377.12411492121623
1180,1686620995.17,-9.766,164.551,2.441,-10.254,373.079,388.7654454827813
1181,1686620995.17,-26.855,-20.996,36.133,-23.438,373.083,372.3739562605051
1182,1686620995.18,65.43,-375.488,-3.418,75.195,373.087,381.48529622779466
1183,1686620995.18,92.285,-896.484,36.133,106.934,373.091,382.09343254562236
1184,1686620995.18,13.184,43.457,95.215,3.418,373.094,383.6844599692631
1185,1686620995.19,-33.691,568.848,32.715,-50.781,373.098,390.291566083499
1186,1686620995.19,30.762,346.68,72.266,18.066,373.102,385.8876885583749
1187,1686620995.2,91.797,703.125,62.988,83.008,373.106,373.9247648046814
1188,1686620995.21,30.273,752.93,-0.977,29.785,373.111,381.07570714328943
1189,1686620995.22,-52.246,314.941,4.395,-46.875,373.115,377.3889953542121
1190,1686620995.22,-11.23,216.797,67.383,-0.488,373.118,384.858450946602
1191,1686620995.23,80.078,579.59,55.176,80.566,373.122,377.6445545260669
1192,1686620995.23,59.082,674.805,14.648,51.27,373.126,385.1693953195624
1193,1686620995.23,-39.551,-26.367,-0.977,-34.18,373.13,379.9583072149241
1194,1686620995.24,-40.039,-610.84,84.473,-21.484,373.134,392.72753591189746
1195,1686620995.24,62.5,99.609,126.953,66.406,373.138,379.2186080282452
1196,1686620995.24,78.125,746.094,24.902,66.406,373.142,388.7324857567998
1197,1686620995.25,-26.367,200.684,-13.672,-23.926,373.146,386.4880861317473
1198,1686620995.25,-68.848,-260.254,92.285,-53.711,373.15,383.99626757004114
1199,1686620995.26,30.762,436.523,84.473,23.438,373.154,388.0442131596993
1200,1686620995.26,81.055,701.66,15.137,68.848,373.155,389.15604708118974
1201,1686620995.26,-6.836,228.516,-4.883,6.836,373.159,383.2527385893276
1202,1686620995.27,-80.566,172.363,11.719,-59.082,373.163,386.9974053817039
1203,1686620995.27,-11.23,430.664,35.645,-8.301,373.167,384.767401753013
1204,1686620995.28,68.848,461.426,8.301,69.336,373.171,388.8575087634886
1205,1686620995.28,5.859,-156.25,-47.852,23.926,373.175,382.4427811070346
1206,1686620995.28,-85.938,-386.23,12.207,-63.477,373.179,382.58987036790785
1207,1686620995.29,-43.945,38.086,64.941,-37.598,373.183,393.0560208861416
1208,1686620995.29,55.176,426.27,11.23,47.363,373.187,386.1092136934496
1209,1686620995.29,29.297,-338.867,-37.598,37.598,373.191,384.3923198225053
1210,1686620995.3,-62.012,-703.613,84.961,-46.875,373.194,375.6936643569092
1211,1686620995.3,-53.223,425.293,86.914,-52.734,373.198,376.3361192650581
1212,1686620995.31,48.34,703.125,6.836,41.992,373.202,375.92882049771026
1213,1686620995.31,70.801,462.402,34.668,64.453,373.206,387.73711544580806
1214,1686620995.31,-18.555,538.574,23.438,-24.414,373.21,376.3381578305625
1215,1686620995.32,-53.223,525.879,15.137,-65.918,373.214,378.22784899910084
1216,1686620995.32,28.809,406.738,14.16,22.949,373.218,385.33061082228056
1217,1686620995.33,79.59,166.992,25.391,78.125,373.222,390.14915148243296
1218,1686620995.33,0.488,106.445,41.016,-3.418,373.226,387.5306485759541
1219,1686620995.33,-69.336,386.719,20.02,-68.848,373.23,379.3912893016513
1220,1686620995.34,-9.277,115.723,4.883,-0.488,373.234,385.22862217064716
1221,1686620995.34,65.918,-319.336,78.125,76.172,373.237,388.327868019613
1222,1686620995.34,16.602,399.902,62.012,24.414,373.241,390.5163415690245
1223,1686620995.35,-77.637,434.57,-25.391,-64.453,373.245,379.5771631975659
1224,1686620995.35,-54.199,-116.699,5.371,-39.062,373.246,385.8727620156814
1225,1686620995.35,44.434,205.566,80.566,55.176,373.249,383.6542877533283
1226,1686620995.36,38.574,672.363,33.691,41.504,373.253,386.538821595217
1227,1686620995.36,-63.965,466.309,-19.531,-51.758,373.257,384.1024733699714
1228,1686620995.36,-76.66,-37.598,-7.324,-52.734,373.261,382.1733559066463
1229,1686620995.37,24.414,4.395,26.855,39.062,373.265,377.4810345878308
1230,1686620995.37,58.594,229.004,39.062,64.941,373.269,381.97053312544926
1231,1686620995.38,-27.344,194.824,-0.488,-24.414,373.273,371.5959057612872
1232,1686620995.38,-78.613,-558.594,-39.062,-59.082,373.277,378.03196567722193
1233,1686620995.38,8.789,-677.246,105.957,26.855,373.281,381.68501072875506
1234,1686620995.39,73.73,640.137,100.586,62.988,373.285,385.69496955892316
1235,1686620995.39,-1.465,711.914,-21.973,-10.254,373.289,383.65279940299394
1236,1686620995.4,-82.52,221.191,22.461,-83.008,373.294,385.92725580122317
1237,1686620995.4,-30.273,423.34,38.086,-35.156,373.298,376.5870522633257
1238,1686620995.4,55.176,483.398,22.949,48.34,373.302,391.357946444794
1239,1686620995.41,11.23,228.027,0.488,19.531,373.306,385.9176747204792
1240,1686620995.41,-83.496,-55.664,43.945,-65.918,373.309,385.1819328972734
1241,1686620995.42,-61.035,0.977,40.039,-57.617,373.313,390.5731406147056
1242,1686620995.42,40.039,391.113,34.18,33.691,373.317,387.9419929857213
1243,1686620995.42,45.898,371.582,-8.789,41.504,373.321,377.6491036869003
1244,1686620995.43,-58.594,-360.352,30.762,-53.711,373.325,387.7109959729257
1245,1686620995.43,-78.613,225.586,63.477,-68.359,373.329,387.55125886731645
1246,1686620995.44,20.508,746.094,19.531,27.344,373.333,389.2719974418103
1247,1686620995.44,-9.277,335.938,-3.418,-1.953,373.336,384.80292681359447
1248,1686620995.44,58.594,387.695,6.836,64.453,373.337,377.00955191259277
1249,1686620995.44,-65.43,410.156,10.254,-55.664,373.339,379.973939096115
1250,1686620995.45,5.859,404.297,22.949,9.766,373.343,383.00570641535853
1251,1686620995.45,83.496,277.832,-2.441,74.219,373.347,388.00409186435616
1252,1686620995.46,13.672,226.074,-9.277,14.648,373.351,386.83732110096884
1253,1686620995.46,-71.777,-16.113,21.484,-50.781,373.355,390.54268791940103
1254,1686620995.46,-9.277,-6.348,22.461,2.93,373.359,383.93194089213426
1255,1686620995.47,70.312,-359.375,-23.438,74.707,373.363,373.6156996268239
1256,1686620995.47,22.949,-922.852,18.066,34.668,373.367,386.1127131066424
1257,1686620995.47,-45.898,3.906,65.918,-51.27,373.371,382.06423036024796
1258,1686620995.48,-32.715,524.902,15.625,-46.875,373.375,381.74852012872526
1259,1686620995.48,48.828,441.895,63.965,40.527,373.379,381.5559203753206
1260,1686620995.49,54.688,775.879,44.434,45.41,373.382,387.04231132941806
1261,1686620995.49,-41.016,653.809,-24.902,-51.758,373.386,381.3183455184364
1262,1686620995.49,-63.965,270.996,-3.418,-68.359,373.39,382.2410756353142
1263,1686620995.5,29.785,321.289,56.641,26.367,373.394,384.53939973565855
1264,1686620995.5,78.125,592.285,26.855,70.312,373.398,375.74938595011423
1265,1686620995.51,-7.812,313.477,-16.602,-7.324,373.402,379.0842791565069
1266,1686620995.51,-74.219,-235.84,-1.465,-61.523,373.406,380.88161963138265
1267,1686620995.51,-7.324,-603.027,71.777,6.836,373.41,382.77974619405774
1268,1686620995.52,77.637,301.27,101.562,76.172,373.414,384.97326073112697
1269,1686620995.52,33.203,791.504,3.418,27.832,373.418,391.4184589424266
1270,1686620995.52,-67.871,124.512,10.254,-43.457,373.421,384.30408704267745
1271,1686620995.53,-33.203,-8.789,88.867,-18.066,373.425,379.27885700179456
1272,1686620995.53,72.266,589.355,48.34,65.43,373.426,386.4244308460569
1273,1686620995.53,48.34,623.535,-3.418,57.617,373.43,377.5887787259185
1274,1686620995.54,-61.523,62.012,-10.254,-39.062,373.434,391.0710980823341
1275,1686620995.54,-57.617,124.512,23.926,-44.434,373.438,380.9284061040659
1276,1686620995.54,39.062,323.242,20.508,34.18,373.441,381.48048192285944
1277,1686620995.55,57.129,197.754,-0.488,44.434,373.445,376.44435699969324
1278,1686620995.55,-39.062,-525.391,-63.477,-34.668,373.449,371.43887917654854
1279,1686620995.56,-95.215,-882.812,53.223,-68.359,373.453,379.14018969158377
1280,1686620995.56,-6.836,342.285,87.891,2.93,373.457,371.44947019088147
1281,1686620995.56,49.316,674.805,-15.625,53.223,373.461,384.4078757313161
1282,1686620995.57,-21.484,77.148,67.383,-7.812,373.465,382.2334217698508
1283,1686620995.57,-86.914,239.746,66.895,-71.289,373.469,381.004679549911
1284,1686620995.61,-33.203,583.984,26.855,-22.461,373.504,391.56009523177664
1285,1686620995.61,52.734,475.098,23.438,49.805,373.508,375.78193612742683
1286,1686620995.62,6.836,139.16,28.809,9.277,373.512,386.2341405219996
1287,1686620995.62,-86.426,233.398,19.043,-82.031,373.516,384.96211844786836
1288,1686620995.62,-50.781,416.992,18.066,-52.246,373.52,382.4034763373736
1289,1686620995.63,38.086,88.379,-9.766,39.062,373.524,387.7169558051986
1290,1686620995.63,20.996,-522.461,20.996,30.273,373.527,370.8299197585989
1291,1686620995.63,-65.918,30.273,48.828,-64.941,373.531,382.95544077107394
1292,1686620995.64,-69.336,402.344,6.348,-76.66,373.535,373.8854662120475
1293,1686620995.64,34.18,231.934,16.113,22.949,373.539,373.24580687239035
1294,1686620995.65,69.824,400.879,33.203,55.664,373.543,375.8916794225531
1295,1686620995.65,-21.973,389.16,-4.883,-31.738,373.547,377.6847982609325
