,timestamps,TP9,AF7,AF8,TP10,Secondary Timestamp,emg_signal
0,1686714389.33,91.797,253.418,148.926,128.418,469.23,372.51684127779816
1,1686714389.34,-21.973,-440.918,-175.293,-58.105,469.234,367.11517598547545
2,1686714389.34,-140.137,-693.359,-222.168,-189.941,469.237,365.28688366535425
3,1686714389.35,-41.992,22.461,131.836,-30.273,469.241,365.3359701446773
4,1686714389.35,83.008,167.969,90.82,144.043,469.245,365.3370911537741
5,1686714389.35,-1.953,-328.125,-96.68,0.488,469.249,368.49982824214044
6,1686714389.36,-149.902,-616.699,-155.273,-199.219,469.253,365.81830434736537
7,1686714389.36,-104.98,-416.992,-39.062,-92.773,469.257,365.6645687855479
8,1686714389.36,53.711,-58.594,95.703,117.188,469.261,363.2687701862691
9,1686714389.37,44.434,-551.758,-251.465,65.918,469.265,368.5836355908096
10,1686714389.37,-108.398,-843.262,-303.711,-163.574,469.269,366.1084063304286
11,1686714389.38,-121.094,-304.688,46.387,-164.062,469.273,361.05047728600323
12,1686714389.38,28.809,-311.523,-26.367,75.684,469.276,367.1843956775533
13,1686714389.38,59.57,-390.625,-22.461,102.539,469.279,365.2042908078105
14,1686714389.39,-79.59,-123.047,57.129,-128.418,469.283,364.39275003094184
15,1686714389.39,-122.07,48.34,75.195,-184.57,469.287,366.6791466477079
16,1686714389.4,-0.488,-99.609,35.645,34.18,469.291,360.84465624962536
17,1686714389.4,79.102,-384.766,-64.453,145.996,469.295,366.98665547679894
18,1686714389.4,-26.855,-293.945,20.508,-40.039,469.299,370.2222493274995
19,1686714389.41,-146.484,58.105,131.836,-193.359,469.303,367.70144282975
20,1686714389.41,-62.5,-385.254,-115.723,-21.484,469.307,362.6037556526797
21,1686714389.41,70.801,-723.145,-199.707,150.391,469.311,369.6401318755372
22,1686714389.42,18.066,-34.18,119.141,-1.953,469.315,372.30084963752716
23,1686714389.42,-116.699,58.105,88.379,-197.266,469.319,367.2244256238351
24,1686714389.43,-89.844,-252.441,-33.691,-113.281,469.329,368.9885194072608
25,1686714389.43,57.617,-294.922,-20.02,109.863,469.333,367.5451358340074
26,1686714389.44,55.664,-93.75,103.516,78.125,469.337,375.22799460658587
27,1686714389.44,-101.562,-3.906,68.848,-158.691,469.341,366.6863686057235
28,1686714389.44,-136.23,-469.238,-101.074,-159.668,469.345,357.08957857219593
29,1686714389.45,15.137,-601.074,-31.25,67.871,469.349,365.5117018996252
30,1686714389.45,81.055,-309.082,18.555,105.957,469.352,356.54851545023996
31,1686714389.46,-41.504,-291.504,-6.836,-112.305,469.356,373.4230622010759
32,1686714389.46,-133.301,-770.508,-301.27,-183.594,469.36,362.05988531857685
33,1686714389.46,-33.203,-792.969,-267.578,7.812,469.364,368.4409559368534
34,1686714389.47,80.566,59.57,181.152,106.934,469.368,363.9479776132959
35,1686714389.47,-14.648,51.758,21.973,-57.617,469.372,368.3259861887072
36,1686714389.48,-151.367,-255.371,-58.105,-213.867,469.38,358.77807068545843
37,1686714389.49,-78.125,12.695,114.746,-75.684,469.384,364.1139975688887
38,1686714389.49,74.219,282.227,171.387,117.676,469.387,362.13699046247194
39,1686714389.5,30.762,-27.832,27.344,14.16,469.391,365.23697901440846
40,1686714389.5,-118.652,-510.742,-189.453,-179.688,469.395,355.05393968015414
41,1686714389.5,-108.398,-532.715,-150.391,-112.793,469.399,361.7738581523853
42,1686714389.51,32.715,-130.371,108.398,92.285,469.403,373.8846424936812
43,1686714389.51,63.477,-229.98,-76.172,89.844,469.407,365.0945410142499
44,1686714389.51,-33.203,-61.035,65.918,-93.75,469.418,358.5701201970676
45,1686714389.52,-87.402,-921.875,-398.438,-119.141,469.411,361.42805027467807
46,1686714389.52,-135.742,86.914,88.379,-204.102,469.422,365.9017557929343
47,1686714389.52,-146.973,-366.211,28.32,-179.199,469.415,362.6963320627605
48,1686714389.52,-47.852,66.406,80.566,-19.531,469.426,365.4230198217339
49,1686714389.52,-2.93,246.582,197.266,38.086,469.419,362.9433872322541
50,1686714389.53,79.59,-51.27,109.375,135.742,469.43,362.711830304052
51,1686714389.53,79.102,16.602,97.656,121.094,469.423,357.90132987876086
52,1686714389.53,3.906,-26.855,113.77,-20.508,469.434,356.75565714209046
53,1686714389.53,-132.324,-238.281,-40.527,-179.688,469.438,362.90041194202917
54,1686714389.54,-82.52,-504.883,-112.793,-49.805,469.442,361.6213274086112
55,1686714389.54,52.734,-556.641,-89.844,132.812,469.445,360.32937235788154
56,1686714389.54,30.762,-499.023,-25.879,45.41,469.449,360.1016757221015
57,1686714389.55,-121.094,-163.086,57.129,-179.199,469.453,373.05792813446146
58,1686714389.55,-117.188,-78.613,34.668,-142.578,469.457,364.99972947046024
59,1686714389.56,36.133,-760.254,-288.574,105.957,469.461,359.9775418784889
60,1686714389.56,62.012,-757.812,-214.355,109.863,469.454,353.54326344624735
61,1686714389.56,-77.148,47.852,169.434,-141.602,469.458,358.8425558471765
62,1686714389.57,-150.879,-165.039,-28.32,-189.453,469.462,353.08572901698477
63,1686714389.57,-23.438,-595.703,-124.023,31.738,469.466,367.8540902964072
64,1686714389.58,77.148,-140.137,83.008,113.77,469.47,354.7946016406845
65,1686714389.58,-26.855,-48.34,56.152,-76.172,469.474,358.42892940308946
66,1686714389.58,-142.578,-640.625,-214.355,-180.176,469.478,363.4024758752185
67,1686714389.59,-63.477,-735.352,-192.871,-9.766,469.482,356.35698184732377
68,1686714389.59,69.336,-11.23,163.574,128.906,469.486,351.80467043620007
69,1686714389.59,8.789,56.641,70.801,-15.625,469.49,359.50827716883015
70,1686714389.6,-133.789,-600.586,-189.941,-185.547,469.494,351.9796224436956
71,1686714389.6,-93.75,-520.508,-95.215,-88.379,469.497,360.1217510463899
72,1686714389.6,59.57,212.402,194.824,111.328,469.514,364.52758627529755
73,1686714389.61,55.664,208.496,126.465,61.035,469.518,353.9946288680812
74,1686714389.61,-95.703,-200.684,-17.09,-151.367,469.522,355.8617327708007
75,1686714389.62,-120.605,-125.977,54.688,-140.625,469.526,353.9657382257421
76,1686714389.62,34.668,141.602,147.461,83.496,469.53,352.9525614111028
77,1686714389.62,69.824,-69.824,82.031,106.934,469.533,360.25322493664083
78,1686714389.63,-84.473,-722.656,-291.504,-100.098,469.537,349.3575430483844
79,1686714389.63,-166.504,-820.801,-271.973,-169.922,469.541,352.4000620089847
80,1686714389.64,-41.992,13.184,192.871,-1.465,469.545,352.2150643094764
81,1686714389.64,78.613,173.828,111.328,120.117,469.549,354.1844399290974
82,1686714389.64,-19.531,-173.828,17.09,-53.223,469.553,356.69350709863926
83,1686714389.65,-152.832,-222.656,-21.484,-199.707,469.557,353.69994054318903
84,1686714389.65,-78.613,-70.801,74.219,-44.922,469.559,349.38906236151666
85,1686714389.66,65.918,-21.484,70.801,144.043,469.563,354.04104367325664
86,1686714389.66,22.949,-366.699,-72.266,31.738,469.567,360.1614025343795
87,1686714389.66,-125.977,-187.012,42.48,-182.617,469.571,359.1170896797258
88,1686714389.67,-95.703,81.543,115.723,-104.98,469.575,350.7579413797245
89,1686714389.67,68.848,-331.055,-69.336,138.672,469.579,354.7454322730898
90,1686714389.68,66.406,-636.23,-168.945,101.562,469.582,356.43105928099874
91,1686714389.68,-84.473,-100.586,97.656,-145.02,469.586,355.25819895731365
92,1686714389.68,-111.328,116.699,98.145,-150.391,469.59,356.24852025124505
93,1686714389.69,29.785,-203.613,5.859,73.242,469.594,355.975187687679
94,1686714389.69,78.125,-167.48,76.172,112.793,469.598,347.78801743283935
95,1686714389.69,-48.34,104.004,119.629,-103.027,469.602,351.3571475881073
96,1686714389.71,-132.324,0.488,92.773,-192.871,469.606,354.4781839442981
97,1686714389.71,-20.996,-170.898,43.945,-5.859,469.61,353.3623601574516
98,1686714389.72,88.379,-287.598,-18.555,129.395,469.613,358.44272877495405
99,1686714389.72,-9.277,-209.961,22.461,-40.039,469.617,350.6819567835636
100,1686714389.72,-144.043,-55.664,57.129,-208.984,469.621,348.21118777765923
101,1686714389.73,-83.008,-581.543,-213.379,-43.945,469.625,353.6662271224186
102,1686714389.73,49.805,-906.738,-283.691,155.273,469.629,347.3363665984247
103,1686714389.74,26.855,-432.617,19.531,29.785,469.633,356.2360904020268
104,1686714389.74,-102.051,-190.43,4.395,-180.176,469.637,360.7064373412286
105,1686714389.74,-108.887,-638.672,-206.543,-110.352,469.641,350.5373461150617
106,1686714389.75,39.551,-435.059,0.488,110.352,469.645,353.0623293089001
107,1686714389.75,73.73,245.117,207.52,89.355,469.649,353.3089831413734
108,1686714389.77,-68.848,-65.918,-10.742,-132.812,469.665,344.07182635937136
109,1686714389.77,-124.023,-286.621,-38.086,-173.34,469.669,345.99366103622145
110,1686714389.78,12.207,69.336,127.441,46.387,469.673,353.07227879246574
111,1686714389.78,90.332,292.969,176.758,130.859,469.676,350.80952817664553
112,1686714389.79,-32.715,-103.027,-15.625,-68.359,469.68,345.2838637945601
113,1686714389.79,-139.16,-578.613,-218.262,-170.898,469.684,352.01948270395235
114,1686714389.79,-39.551,-500.0,-66.406,10.254,469.688,354.84118933926345
115,1686714389.8,92.773,-83.496,156.738,146.484,469.692,352.4360665954779
116,1686714389.8,16.113,-290.527,-96.68,-1.465,469.696,350.72981060502383
117,1686714389.8,-127.93,-936.035,-395.02,-172.852,469.7,357.6421663981059
118,1686714389.81,-74.707,-392.09,40.039,-79.102,469.704,340.4265374812239
119,1686714389.81,86.426,41.016,151.855,130.859,469.708,349.76297784837266
120,1686714389.81,54.688,-159.668,12.207,68.359,469.711,356.9123602333813
121,1686714389.82,-110.84,-217.285,0.977,-155.273,469.715,347.87345204930483
122,1686714389.82,-112.793,-37.598,67.383,-132.812,469.719,349.95182300772603
123,1686714389.83,38.574,71.289,106.934,104.492,469.723,349.7493474579144
124,1686714389.83,84.961,-140.625,68.359,120.117,469.727,355.12471353156866
125,1686714389.83,-60.547,-473.633,-48.34,-113.77,469.731,352.5217578737028
126,1686714389.84,-140.137,-518.555,-87.891,-168.457,469.734,350.83192698264236
127,1686714389.84,-7.324,-476.074,-26.367,49.316,469.738,352.0599559840976
128,1686714389.84,78.125,-681.641,-254.395,162.598,469.74,348.6363868589582
129,1686714389.84,84.473,-427.734,-21.484,149.902,469.742,349.17632755959727
130,1686714389.85,10.254,-981.934,-340.332,15.137,469.744,352.6677694642734
131,1686714389.85,-24.902,-172.363,37.109,-48.34,469.746,359.2582652330484
132,1686714389.85,-121.582,-265.625,95.703,-214.355,469.747,339.91251063005
133,1686714389.85,-135.742,2.93,77.148,-184.57,469.75,352.2791932367098
134,1686714389.86,-91.309,-147.949,32.227,-119.141,469.751,353.4128377116661
135,1686714389.86,-43.457,-45.41,76.172,-20.02,469.754,347.19271349743667
136,1686714389.86,54.199,-206.055,0.977,102.051,469.755,353.523758696651
137,1686714389.86,56.152,-101.074,63.477,49.805,469.759,347.7485950605481
138,1686714389.87,-103.027,-307.617,-43.457,-172.852,469.763,351.1914914209817
139,1686714389.87,-122.559,-605.469,-179.199,-154.297,469.767,354.98114897401337
140,1686714389.88,32.227,-393.066,-47.363,72.754,469.771,349.2667149694288
141,1686714389.88,69.336,120.117,158.691,98.145,469.775,347.71067303368164
142,1686714389.88,-71.777,-99.121,53.223,-127.93,469.779,355.94464950439277
143,1686714389.89,-146.484,-637.207,-209.961,-200.684,469.783,348.26875394787135
144,1686714389.89,-24.414,-917.48,-297.363,10.254,469.785,340.87379578643504
145,1686714389.89,76.172,-208.984,79.102,108.398,469.789,342.48342468701753
146,1686714389.9,-33.203,96.68,120.605,-71.289,469.793,358.13616857163254
147,1686714389.9,-158.691,-207.52,4.883,-209.961,469.796,357.13326764127976
148,1686714389.9,-80.566,-76.172,73.73,-57.617,469.8,352.8092157008523
149,1686714389.91,52.734,-64.453,92.285,128.906,469.804,345.38249135352925
150,1686714389.91,5.859,-273.438,35.645,16.602,469.808,351.5861389360477
151,1686714389.92,-148.926,-745.605,-289.551,-178.223,469.812,352.45373903249134
152,1686714389.92,-143.555,-859.375,-300.293,-111.328,469.816,358.32955106808606
153,1686714389.92,22.461,-15.625,177.246,88.867,469.82,348.2129691683271
154,1686714389.93,48.34,129.395,109.375,62.988,469.824,353.76582797292394
155,1686714389.93,-99.609,-175.781,5.859,-149.414,469.828,348.41104298076556
156,1686714389.96,-143.066,-188.477,39.062,-164.551,469.875,344.61602388620526
157,1686714389.97,2.441,-8.789,122.07,39.551,469.879,350.19080090285024
158,1686714389.97,83.008,14.648,79.102,101.562,469.883,350.06727185560067
159,1686714389.98,-52.246,-364.258,-51.27,-108.887,469.887,345.0491580795266
160,1686714389.98,-122.559,-213.379,46.387,-191.406,469.89,349.4280144152413
161,1686714389.98,4.395,-137.207,84.473,22.949,469.894,361.0948038296855
162,1686714389.98,-99.609,99.609,132.324,-175.293,469.886,352.41028880838707
163,1686714389.99,91.797,-406.25,-58.594,140.625,469.898,346.2806942984845
164,1686714389.99,-109.863,62.988,114.746,-126.953,469.889,357.00414477842634
165,1686714389.99,-3.418,-679.199,-191.895,-27.344,469.902,353.1342888136184
166,1686714389.99,32.715,-94.238,103.027,98.145,469.893,354.15799686095687
167,1686714390.0,-138.672,-167.969,87.402,-210.938,469.906,351.69242371529265
168,1686714390.0,65.918,-262.695,38.086,104.004,469.897,345.0166721795549
169,1686714390.0,-79.59,162.109,145.996,-79.59,469.91,352.45462037431724
170,1686714390.0,-75.684,-163.086,48.828,-123.535,469.901,352.607161641121
171,1686714390.0,71.289,-63.965,70.312,128.418,469.914,352.7304981426008
172,1686714390.0,-132.324,-261.719,3.906,-168.945,469.905,347.07287709341136
173,1686714390.01,48.828,-37.109,117.676,37.598,469.918,352.0319414745994
174,1686714390.01,6.348,-526.367,-80.566,53.711,469.909,357.5751307006968
175,1686714390.01,83.008,-525.391,-40.527,127.93,469.913,352.1457807862288
176,1686714390.02,-39.551,-218.262,78.125,-80.078,469.917,339.84515483186755
177,1686714390.02,-128.418,-55.176,43.457,-196.289,469.921,351.8361147292699
178,1686714390.02,16.602,166.016,178.711,-25.391,469.935,342.704734719693
179,1686714390.02,-34.18,-660.645,-201.66,2.93,469.925,348.35029731396344
180,1686714390.03,83.008,-508.789,-44.434,149.414,469.928,351.92821748857017
181,1686714390.03,-133.301,-150.391,-35.156,-208.984,469.938,346.59784491065255
182,1686714390.03,-97.656,-449.707,-103.516,-100.098,469.942,354.74410023236334
183,1686714390.04,63.477,33.203,144.043,100.586,469.946,349.75088189183913
184,1686714390.04,38.086,173.828,129.883,21.973,469.95,358.99008641758564
185,1686714390.04,-125.488,-452.148,-170.898,-188.965,469.954,353.6622494885572
186,1686714390.05,-142.578,-988.281,-479.492,-139.648,469.958,350.61926118091316
187,1686714390.05,-0.488,-1000.0,-377.441,86.426,469.962,366.1353087048742
188,1686714390.06,52.246,-344.727,34.668,83.496,469.966,346.16220285886254
189,1686714390.06,-77.637,-84.473,63.477,-137.695,469.97,350.32753559069357
190,1686714390.06,-146.484,-231.934,24.414,-194.824,469.974,357.63405027691164
191,1686714390.07,-7.324,175.781,197.754,11.719,469.978,347.95596124463157
192,1686714390.1,98.633,296.875,197.266,126.953,469.995,348.7209803759521
193,1686714390.1,-9.766,-53.711,55.176,-64.941,469.998,352.52992553162414
194,1686714390.11,-121.094,-177.734,17.578,-204.102,470.002,350.25249483896727
195,1686714390.11,-37.109,75.195,124.023,-32.715,470.006,352.6194854820611
196,1686714390.12,95.215,187.012,141.602,141.113,470.01,346.99861526414725
197,1686714390.12,23.438,-239.258,-25.391,12.695,470.014,354.66538318808483
198,1686714390.12,-140.137,-579.102,-103.516,-189.453,470.018,356.2993090341663
199,1686714390.13,-103.516,-402.344,-5.859,-108.887,470.022,355.8478988664009
200,1686714390.13,34.668,25.879,112.793,58.105,470.024,356.90129755853815
201,1686714390.13,60.547,-112.305,116.211,115.234,470.026,354.8022253084005
202,1686714390.13,87.891,-133.789,71.777,118.652,470.028,359.18311505625144
203,1686714390.13,65.43,-597.656,-208.496,87.402,470.03,356.66373038047095
204,1686714390.14,-50.781,41.016,112.305,-101.562,470.032,361.3812049251284
205,1686714390.14,-90.82,-962.891,-352.051,-147.461,470.034,354.53687049355864
206,1686714390.14,-129.395,102.051,120.605,-193.359,470.036,357.9244298011668
207,1686714390.14,-116.211,-184.57,95.703,-176.27,470.038,359.14766244042914
208,1686714390.14,-11.23,-53.711,68.359,12.207,470.04,351.3300364886368
209,1686714390.15,81.543,-381.348,-30.762,144.531,470.044,352.18144909244876
210,1686714390.15,-8.789,-249.512,47.852,-45.898,470.048,356.6317220387923
211,1686714390.16,-132.324,94.238,126.953,-205.078,470.052,363.48687005384176
212,1686714390.16,-74.219,-252.441,-40.039,-34.18,470.056,355.127278839184
213,1686714390.16,53.223,-314.453,-4.883,141.602,470.059,360.2084055778348
214,1686714390.17,15.625,95.215,135.742,12.695,470.063,359.1959106961314
215,1686714390.17,-124.023,-168.945,41.016,-185.547,470.067,360.92261525469377
216,1686714390.18,-116.699,-675.781,-210.938,-103.516,470.083,366.0731911156283
217,1686714390.18,28.32,-881.836,-270.02,120.605,470.086,359.9689247167506
218,1686714390.18,38.086,-164.551,139.16,65.43,470.09,357.8687635183044
219,1686714390.19,-103.516,56.641,106.934,-150.391,470.094,358.3422987954627
220,1686714390.19,-130.859,-255.859,-40.527,-158.691,470.098,355.157227190319
221,1686714390.2,13.184,-275.879,47.852,50.781,470.102,364.1873253163564
222,1686714390.2,83.008,-243.652,62.012,114.746,470.106,355.11779883582074
223,1686714390.2,-41.992,-284.668,17.09,-94.238,470.11,367.22188573158047
224,1686714390.21,-139.648,-757.324,-280.273,-178.223,470.114,359.61889936039955
225,1686714390.21,-43.945,-856.934,-291.016,18.066,470.118,354.04168675009043
226,1686714390.21,69.824,-62.012,128.906,136.719,470.122,366.11745830388577
227,1686714390.22,-11.23,-75.684,38.574,-23.438,470.125,359.96025859781906
228,1686714390.22,-138.672,-464.844,-42.48,-193.848,470.12,363.51499920990847
229,1686714390.22,-69.336,-300.781,52.734,-67.871,470.124,367.7275870351664
230,1686714390.23,80.566,57.617,155.273,123.535,470.128,363.9811001049292
231,1686714390.23,59.082,-30.762,34.18,32.715,470.132,365.53065319655246
232,1686714390.24,-87.891,-406.25,-94.238,-167.48,470.136,367.5868170995785
233,1686714390.24,-104.492,-402.832,12.695,-118.652,470.14,368.7137534254015
234,1686714390.24,35.645,-93.262,150.879,110.352,470.144,368.5266720658198
235,1686714390.25,70.312,-118.652,-5.859,107.91,470.148,364.3099926118168
236,1686714390.25,-76.66,-858.398,-322.754,-107.91,470.151,367.86434698400507
237,1686714390.26,-139.648,-391.602,39.551,-176.27,470.155,356.96220652499545
238,1686714390.26,11.719,225.098,184.082,29.297,470.159,370.4715028412057
239,1686714390.26,119.141,-114.258,43.945,146.973,470.163,359.7282848324906
240,1686714390.26,6.348,-198.73,51.27,-45.41,470.16,357.89062408695617
241,1686714390.27,-129.395,58.105,111.816,-193.359,470.164,365.0111944594148
242,1686714390.27,-54.688,85.449,100.586,-34.18,470.168,361.0833495269737
243,1686714390.28,81.055,-62.5,96.191,142.578,470.172,366.9423796221477
244,1686714390.28,34.18,-265.137,44.434,16.113,470.176,357.57554183297816
245,1686714390.28,-108.398,-400.879,-60.059,-172.852,470.18,361.8585548251893
246,1686714390.29,-76.66,-382.324,3.906,-62.5,470.184,352.1247272616285
247,1686714390.29,78.125,-655.762,-165.039,178.223,470.188,367.10108990960947
248,1686714390.3,50.293,-1000.0,-351.562,123.535,470.192,349.9066850599978
249,1686714390.3,-98.145,-331.055,48.828,-122.559,470.196,350.94430921227496
250,1686714390.3,-98.633,22.949,113.77,-104.492,470.2,354.00852011604366
251,1686714390.31,62.012,-93.75,83.496,135.742,470.203,354.55445690667415
252,1686714390.32,116.211,169.922,157.715,157.227,470.22,357.77567489261725
253,1686714390.33,-19.043,164.551,110.84,-55.176,470.224,354.8283651552283
254,1686714390.33,-92.285,-205.566,-17.578,-112.305,470.228,353.3140002456615
255,1686714390.34,20.996,-204.102,-0.488,89.355,470.232,350.12298071437584
256,1686714390.34,107.91,182.617,152.344,205.078,470.236,353.1485991020094
257,1686714390.34,16.602,-39.551,100.586,24.902,470.24,358.24465295507486
258,1686714390.35,-95.703,-623.047,-183.105,-125.0,470.243,359.6222407872846
259,1686714390.35,-39.062,-919.434,-309.082,18.066,470.247,367.893728311759
260,1686714390.36,96.191,-221.68,127.93,166.016,470.251,361.52696764703114
261,1686714390.36,73.73,183.594,177.246,142.09,470.263,355.9172329748085
262,1686714390.36,55.664,300.781,207.52,36.621,470.255,359.7382879913118
263,1686714390.36,76.66,224.609,131.836,102.539,470.267,369.1916480632165
264,1686714390.36,-78.613,-139.648,14.648,-114.746,470.271,362.14096027809586
265,1686714390.36,-96.191,-219.238,-23.438,-150.879,470.259,358.24847045037984
266,1686714390.37,-104.98,-180.176,23.926,-116.211,470.275,367.13947133028677
267,1686714390.37,-84.473,-332.52,29.297,-70.801,470.263,357.86640574103683
268,1686714390.37,31.25,58.105,142.578,98.633,470.279,355.6838641710264
269,1686714390.38,79.102,-130.859,58.105,147.461,470.282,355.86001268748066
270,1686714390.38,-56.641,-616.699,-159.18,-58.105,470.286,369.73996775804795
271,1686714390.38,-131.348,-600.098,-75.684,-157.227,470.29,376.18805916432507
272,1686714390.39,-17.09,-52.734,122.559,21.973,470.294,374.40086923382097
273,1686714390.39,85.449,2.93,106.445,152.344,470.298,376.8069254708819
274,1686714390.39,-11.719,-671.875,-253.906,0.977,470.302,372.4161027690246
275,1686714390.4,-145.508,-1000.0,-407.715,-168.457,470.306,388.2990711849216
276,1686714390.4,-78.613,-248.535,104.98,-59.57,470.308,385.0385640168893
277,1686714390.4,65.918,20.996,129.395,137.695,470.312,386.87887003859095
278,1686714390.41,38.086,-203.125,11.23,43.945,470.316,382.03305819805956
279,1686714390.41,-95.215,-8.789,101.074,-163.574,470.32,383.2672089371251
280,1686714390.42,-74.707,144.531,137.207,-104.004,470.324,390.1933068732617
281,1686714390.42,70.801,-220.703,-21.973,137.695,470.327,404.38656542351015
282,1686714390.42,78.613,-733.887,-180.176,134.766,470.331,389.14882571885596
283,1686714390.43,-58.594,-280.762,44.434,-112.305,470.335,392.97492990395153
284,1686714390.43,-99.121,99.609,145.02,-150.391,470.339,395.96094939339196
285,1686714390.44,21.484,-203.613,21.484,73.73,470.343,394.12626237184435
286,1686714390.44,81.055,-164.062,58.105,142.09,470.347,398.5363892839672
287,1686714390.44,-30.762,66.895,116.699,-70.312,470.351,397.2737707422492
288,1686714390.46,-118.652,-261.719,-28.32,-170.41,470.354,403.6238509263917
289,1686714390.46,-22.461,-539.062,-56.641,15.137,470.358,407.01118323881786
290,1686714390.47,82.031,-239.746,86.914,156.25,470.362,420.8248382066915
291,1686714390.47,10.254,104.004,142.09,2.93,470.366,405.944825183448
292,1686714390.48,-108.887,20.508,107.422,-184.082,470.37,414.71099244768794
293,1686714390.48,-62.012,-573.242,-188.965,-60.547,470.374,421.52669956112413
294,1686714390.48,64.941,-855.469,-232.91,152.832,470.378,414.86999450578026
295,1686714390.49,41.504,-325.195,125.0,46.387,470.382,420.71417907562085
296,1686714390.49,-99.609,-134.277,50.293,-176.27,470.386,429.86949078649553
297,1686714390.49,-108.398,-651.367,-198.73,-123.535,470.39,418.9772256132239
298,1686714390.5,22.461,-433.594,24.902,84.961,470.393,425.84258041558735
299,1686714390.5,47.852,287.598,240.234,77.148,470.397,410.45011283041924
300,1686714390.5,-76.172,-77.148,6.836,-133.301,470.399,422.53638815330964
301,1686714390.51,-132.324,-359.863,-55.664,-189.453,470.403,422.8857886972336
302,1686714390.51,-11.719,-168.457,73.242,20.996,470.407,427.27773288546643
303,1686714390.52,63.477,40.039,159.18,114.746,470.411,430.0214028782175
304,1686714390.52,-48.828,-127.93,11.23,-89.355,470.415,423.87731031278344
305,1686714390.52,-150.879,-732.422,-230.469,-213.379,470.419,426.08646017185055
306,1686714390.53,-62.988,-454.59,1.953,-47.852,470.423,419.2317068136274
307,1686714390.53,58.594,206.055,234.375,107.422,470.427,421.56277647811874
308,1686714390.54,2.93,-243.164,-93.262,-2.441,470.431,424.99010121879274
309,1686714390.54,-134.277,-831.543,-290.039,-175.293,470.435,427.5612779560666
310,1686714390.54,-100.098,-143.066,104.98,-104.492,470.438,432.4105050556129
311,1686714390.55,42.48,224.121,175.293,108.887,470.442,424.47477101503864
312,1686714390.55,27.832,-93.262,60.547,63.477,470.445,424.46489133991713
313,1686714390.55,-112.793,-182.617,30.762,-160.156,470.449,428.0484731617571
314,1686714390.56,-116.699,9.766,97.656,-144.043,470.453,426.9719027323755
315,1686714390.56,27.832,104.492,125.0,76.66,470.456,428.77150971684335
316,1686714390.56,55.664,-74.707,105.957,101.074,470.46,424.61396816543476
317,1686714390.57,-68.848,-417.969,-13.672,-105.469,470.464,433.09542862641854
318,1686714390.57,-131.836,-540.039,-119.629,-187.5,470.468,423.0098270495913
319,1686714390.58,-12.695,-375.488,33.691,4.883,470.472,420.1117387498881
320,1686714390.58,77.148,-661.621,-169.434,138.672,470.476,426.9071422618861
321,1686714390.58,-35.645,-1000.0,-367.188,-45.898,470.48,422.2273082460458
322,1686714390.59,-138.672,-355.469,33.203,-222.168,470.484,415.7817775144865
323,1686714390.59,-56.152,-10.742,118.164,-66.895,470.488,418.99313512950806
324,1686714390.59,74.707,-106.445,99.121,127.441,470.489,423.49899875244864
325,1686714390.6,23.926,115.723,129.395,-0.488,470.493,412.0197164968624
326,1686714390.6,-116.211,131.348,104.492,-209.961,470.497,413.70445540762813
327,1686714390.61,-103.516,-125.0,36.621,-124.023,470.501,417.69205692695056
328,1686714390.61,36.133,-166.992,57.617,94.727,470.505,418.1025144423576
329,1686714390.61,53.711,-207.031,57.129,62.012,470.509,414.6401090263197
330,1686714390.62,-88.379,-239.746,53.223,-158.691,470.513,413.9233352691252
331,1686714390.62,-130.371,-428.223,-93.75,-165.527,470.517,416.42430090209393
332,1686714390.62,-6.836,-938.965,-295.41,73.73,470.52,409.4923327147907
333,1686714390.63,45.898,-283.691,98.633,103.516,470.524,404.1172181378985
334,1686714390.63,-63.477,138.184,150.879,-117.188,470.528,399.21169448132883
335,1686714390.64,-144.043,-432.129,-62.988,-209.961,470.532,415.8692011243918
336,1686714390.64,-33.691,-312.5,44.434,-34.18,470.535,408.47621432125726
337,1686714390.64,82.031,248.535,209.473,103.516,470.538,403.3801833659197
338,1686714390.65,-17.09,145.02,115.234,-51.758,470.542,400.70142631189793
339,1686714390.65,-149.902,-227.539,-33.691,-217.773,470.546,409.4012943740187
340,1686714390.66,-75.195,-220.215,34.18,-81.543,470.55,405.1758792287819
341,1686714390.66,82.52,-172.852,71.777,124.512,470.554,397.6281446296043
342,1686714390.66,46.875,-263.672,41.504,20.508,470.558,397.2073304464707
343,1686714390.67,-115.723,-734.863,-271.484,-174.316,470.562,396.13631260946397
344,1686714390.67,-127.93,-868.164,-297.363,-120.605,470.566,393.86197060034186
345,1686714390.67,17.578,-52.246,149.414,67.383,470.57,396.3695388932574
346,1686714390.68,41.992,-7.324,86.426,70.312,470.574,401.56566566396015
347,1686714390.68,-99.121,-441.406,-12.695,-138.184,470.578,393.3114281677199
348,1686714390.68,-125.977,-168.457,84.961,-179.199,470.579,404.98185576112417
349,1686714390.69,11.23,264.648,185.547,33.691,470.583,401.4207916455563
350,1686714390.69,80.078,32.715,77.637,117.188,470.587,400.56514065446027
351,1686714390.7,-41.992,-310.547,-41.504,-91.309,470.591,403.98341400094876
352,1686714390.7,-141.113,-133.789,40.527,-214.355,470.595,389.54626208342575
353,1686714390.7,-44.922,-204.59,47.363,-27.832,470.598,401.04040780585837
354,1686714390.71,59.082,-498.047,-84.961,130.371,470.602,398.4878759981964
355,1686714390.71,-26.855,-768.555,-226.562,-25.879,470.606,398.71525627379606
356,1686714390.72,-151.367,-312.5,22.949,-229.004,470.61,401.12292271890226
357,1686714390.72,-90.82,75.684,133.789,-114.258,470.614,400.36807709909857
358,1686714390.72,54.199,-118.652,59.082,111.816,470.618,396.0067422299607
359,1686714390.73,24.902,-137.207,57.617,30.762,470.622,391.58143606678067
360,1686714390.73,-130.371,-154.785,-2.441,-190.43,470.629,396.29734769425346
361,1686714390.74,-130.371,-351.074,-37.109,-146.973,470.633,394.365341994788
362,1686714390.74,8.301,-550.781,-22.949,74.219,470.637,399.66111533780554
363,1686714390.74,41.016,-339.844,52.734,82.52,470.641,405.74578381719556
364,1686714390.75,-72.266,-23.926,65.43,-126.953,470.645,395.6190987737333
365,1686714390.75,-129.883,-305.664,-30.762,-183.105,470.649,392.09722763572336
366,1686714390.76,-15.137,-749.512,-216.797,33.691,470.653,394.9238897522893
367,1686714390.76,59.57,-785.645,-186.035,126.953,470.657,398.83494442004223
368,1686714390.76,-46.387,-69.824,155.762,-90.82,470.661,394.5330009333965
369,1686714390.77,-145.996,-37.109,63.477,-215.82,470.665,395.35108963739583
370,1686714390.77,-65.43,-466.309,-39.062,-51.27,470.669,405.3101227125065
371,1686714390.77,54.199,-144.043,124.023,117.188,470.672,389.93149065302094
372,1686714390.77,-4.883,232.91,181.641,-18.555,470.685,390.72064937161434
373,1686714390.78,-151.367,-126.953,-9.277,-216.309,470.689,386.67284071710833
374,1686714390.78,-121.582,-317.383,-40.039,-124.023,470.693,397.1073206570119
375,1686714390.79,29.785,-133.789,93.262,95.215,470.696,391.9918587877875
376,1686714390.79,21.973,-77.637,137.207,50.293,470.7,399.4356084366866
377,1686714390.79,-106.934,-399.414,-63.477,-160.645,470.704,397.6716403941615
378,1686714390.8,-128.906,-1000.0,-416.016,-130.859,470.708,395.9055158469475
379,1686714390.8,4.395,-563.477,-100.098,65.918,470.712,397.12798920632974
380,1686714390.8,70.312,196.289,196.289,91.309,470.716,396.34945920646174
381,1686714390.81,-57.129,-132.812,17.578,-105.957,470.72,393.2162697992804
382,1686714390.81,-138.672,-265.625,41.504,-193.359,470.724,384.1594140023902
383,1686714390.82,-20.996,151.367,174.316,0.977,470.728,394.9782452612886
384,1686714390.83,74.219,172.363,127.93,128.906,470.73,385.16572292140944
385,1686714390.84,-19.531,-183.105,17.09,-38.086,470.734,393.4315162937409
386,1686714390.84,-130.859,-251.953,28.809,-185.547,470.738,385.7052283554765
387,1686714390.85,-63.477,36.133,133.301,-55.176,470.741,389.85322124938835
388,1686714390.85,65.43,130.859,132.324,125.488,470.745,388.2569370865396
389,1686714390.85,18.066,-340.332,-49.805,30.273,470.749,389.0627496191968
390,1686714390.86,-126.465,-645.02,-129.395,-179.688,470.753,390.63517302973355
391,1686714390.86,-112.305,-502.441,-29.297,-117.676,470.757,392.51828049376445
392,1686714390.86,38.574,-283.691,112.305,104.492,470.761,388.14547630657927
393,1686714390.87,51.758,-631.348,-196.289,86.426,470.765,379.2866451751592
394,1686714390.87,-92.285,-974.121,-363.281,-146.973,470.769,384.35330328135746
395,1686714390.88,-123.535,-246.094,103.516,-192.871,470.773,386.4194615370329
396,1686714390.88,12.207,58.594,152.344,35.645,470.774,382.2295397057276
397,1686714390.88,78.613,-83.496,78.125,104.98,470.778,380.70811719271626
398,1686714390.89,-34.668,39.062,110.352,-95.215,470.782,393.6993650445112
399,1686714390.89,-114.746,58.594,108.398,-186.523,470.786,383.5589739941095
400,1686714390.9,-11.23,-101.562,54.688,-0.488,470.79,377.31751297404435
401,1686714390.9,81.543,-372.07,-4.395,126.953,470.794,387.4502840203491
402,1686714390.9,-5.371,-248.535,52.734,-54.199,470.798,375.81274465568924
403,1686714390.91,-123.535,-9.277,106.934,-207.52,470.802,381.5234758028805
404,1686714390.91,-73.73,-373.535,-98.633,-44.922,470.806,380.1309119360448
405,1686714390.91,61.523,-975.098,-341.309,164.551,470.809,382.770554122643
406,1686714390.92,44.434,-437.012,3.418,54.688,470.813,381.1635951511975
407,1686714390.92,-107.422,109.375,149.414,-186.035,470.817,382.9127137593605
408,1686714390.92,-110.352,-231.934,-21.484,-138.672,470.82,378.09906493122406
409,1686714390.93,31.25,-111.328,91.797,80.078,470.824,376.7868860860535
410,1686714390.93,48.34,254.395,203.613,71.777,470.827,378.9520894677589
411,1686714390.94,-88.867,65.43,94.727,-140.137,470.831,376.1160285051724
412,1686714390.94,-152.832,-241.211,53.223,-170.41,470.835,381.90070744867114
413,1686714390.94,-24.902,-342.773,63.477,41.016,470.839,379.04811927501305
414,1686714390.95,62.012,-313.965,46.387,113.281,470.843,374.8590808041758
415,1686714390.95,-33.203,-296.875,32.227,-81.543,470.847,370.9073758106252
416,1686714390.96,-130.371,-748.047,-276.855,-187.988,470.851,370.40963349745556
417,1686714390.96,-55.664,-807.617,-197.754,-27.832,470.855,375.3400799020545
418,1686714390.96,61.035,-0.488,217.285,102.539,470.859,376.74533083007685
419,1686714390.97,-6.348,-105.957,22.949,-31.25,470.863,370.8088883279173
420,1686714390.97,-143.555,-569.336,-128.418,-205.566,470.865,374.2133923203951
421,1686714390.97,-97.168,-170.898,77.148,-114.258,470.869,375.324694803122
422,1686714390.98,57.129,292.48,219.727,92.285,470.872,375.7373418887214
423,1686714390.98,39.551,-2.441,43.945,37.598,470.876,367.5681328617286
424,1686714390.98,-97.656,-325.195,-92.773,-173.828,470.88,370.79218006425987
425,1686714390.99,-120.117,-393.555,-24.414,-145.996,470.884,379.13891415046936
426,1686714390.99,10.254,-91.309,163.574,67.383,470.888,366.23246425776716
427,1686714391.0,69.824,-150.391,-25.391,96.191,470.892,372.42884127085017
428,1686714391.0,-69.336,-774.414,-314.941,-113.77,470.896,369.7504530299927
429,1686714391.0,-142.578,-276.367,77.637,-199.707,470.9,363.75914015456885
430,1686714391.01,-17.578,173.828,188.965,11.719,470.904,368.93913085655356
431,1686714391.01,72.754,-57.129,84.961,127.93,470.908,362.5298370568855
432,1686714391.02,-18.555,-146.484,74.219,-56.152,470.911,365.57089230285203
433,1686714391.02,-131.348,-142.09,22.461,-190.918,470.915,364.12148107313374
434,1686714391.02,-69.336,-260.742,-5.859,-36.621,470.919,362.5418187486881
435,1686714391.03,50.781,-460.938,-4.395,137.695,470.923,367.3618429437674
436,1686714391.03,6.348,-409.18,13.184,8.789,470.926,369.71835896199747
437,1686714391.04,-120.117,-358.398,-46.387,-183.594,470.93,368.0322124702346
438,1686714391.04,-89.355,-403.32,31.738,-88.867,470.934,365.5490448600048
439,1686714391.04,54.688,-644.531,-125.0,132.324,470.938,358.8693754209883
440,1686714391.05,42.48,-858.398,-250.977,79.59,470.942,362.32229132311846
441,1686714391.05,-93.262,-124.512,93.262,-164.062,470.946,368.05335629847616
442,1686714391.05,-108.887,-33.203,70.312,-152.344,470.95,357.17362086257094
443,1686714391.06,23.926,-163.086,59.57,81.543,470.954,361.0686542951565
444,1686714391.06,77.148,149.414,171.387,118.164,470.955,360.43455192801815
445,1686714391.06,-45.41,181.152,138.672,-102.051,470.959,355.8622074930303
446,1686714391.07,-129.395,-163.574,-10.742,-183.105,470.963,358.23757728547156
447,1686714391.07,-20.996,-261.719,-16.602,14.648,470.967,352.2679829887999
448,1686714391.08,80.566,-114.258,69.824,148.926,470.971,348.57300567138896
449,1686714391.08,-16.113,-308.105,25.391,-16.602,470.975,343.1172642851985
450,1686714391.08,-123.535,-618.164,-175.293,-177.734,470.979,346.77654424689143
451,1686714391.09,-63.965,-945.312,-325.195,-30.762,470.982,352.62840087914856
452,1686714391.09,64.453,-390.137,39.062,133.789,470.986,351.72525898807726
453,1686714391.09,48.828,176.758,173.828,24.414,470.99,344.0110052877749
454,1686714391.1,-87.891,-182.617,14.16,-166.992,470.994,344.0984527007467
455,1686714391.1,-77.148,-242.676,46.387,-105.469,470.998,343.4537956882211
456,1686714391.1,58.594,160.645,166.016,101.562,471.013,343.872423671473
457,1686714391.11,58.105,163.086,134.277,65.918,471.017,343.9541875355002
458,1686714391.11,-84.473,-220.215,-16.602,-156.25,471.021,339.06526058180276
459,1686714391.12,-113.77,-244.141,11.23,-173.34,471.025,342.87374498777206
460,1686714391.12,15.137,76.172,135.254,56.641,471.029,334.3092337925508
461,1686714391.12,67.383,-74.707,103.027,116.699,471.033,344.4716080837446
462,1686714391.13,-65.43,-677.734,-246.094,-76.172,471.037,337.4823666345688
463,1686714391.13,-167.48,-938.965,-395.996,-193.848,471.041,334.0230887270807
464,1686714391.14,-66.406,-299.316,79.102,-42.969,471.045,331.01876194950717
465,1686714391.14,43.457,128.418,171.875,109.863,471.049,329.8369331182976
466,1686714391.14,-21.484,-406.738,-86.914,-35.645,471.053,328.3376543782734
467,1686714391.15,-136.719,-441.895,-24.414,-215.82,471.056,329.11128528816573
468,1686714391.15,-76.66,127.93,166.016,-92.285,471.06,328.50924060303635
469,1686714391.15,62.988,95.703,104.492,121.582,471.063,319.75092156038147
470,1686714391.16,29.297,-473.145,-89.355,41.016,471.067,327.5827414650368
471,1686714391.16,-111.816,-336.914,10.742,-182.617,471.071,327.078883891114
472,1686714391.16,-115.234,109.863,164.551,-141.602,471.075,328.99669094573517
473,1686714391.17,33.203,-258.301,-34.18,97.168,471.079,327.1023810771057
474,1686714391.17,62.012,-623.535,-116.211,95.215,471.083,321.36415695922256
475,1686714391.18,-78.125,-181.641,111.328,-145.508,471.087,319.7607452467352
476,1686714391.18,-122.07,144.043,142.578,-187.012,471.091,317.6486880842676
477,1686714391.18,-9.766,-334.961,-92.773,41.992,471.095,315.9458206175637
478,1686714391.19,60.059,-625.488,-137.207,132.812,471.099,320.89405687323614
479,1686714391.19,-26.367,-28.32,143.066,-73.73,471.102,316.51415115469246
480,1686714391.21,-119.629,51.758,104.98,-193.359,471.118,317.5074738876865
481,1686714391.21,-47.852,-206.055,67.383,-21.484,471.122,316.89639525102456
482,1686714391.22,57.617,-79.102,130.371,135.254,471.126,309.23361514673996
483,1686714391.22,5.859,139.648,139.16,-13.672,471.13,317.60225210508327
484,1686714391.22,-113.281,-45.41,27.832,-190.918,471.134,319.4170744649829
485,1686714391.23,-78.613,-415.039,-82.52,-75.195,471.138,317.68809406577424
486,1686714391.23,59.57,-474.609,-10.254,134.277,471.142,315.28692502461473
487,1686714391.24,40.039,-328.125,33.691,68.848,471.146,321.5560854017447
488,1686714391.24,-108.887,-198.242,10.254,-158.691,471.149,325.3942471714825
489,1686714391.24,-119.629,-689.453,-284.668,-124.512,471.153,308.8355077034159
490,1686714391.25,22.461,-735.352,-240.723,88.867,471.157,315.0947325125591
491,1686714391.25,62.012,37.598,189.941,85.938,471.161,315.5647874739267
492,1686714391.26,-57.617,-262.207,-28.32,-112.793,471.152,311.7061973887625
493,1686714391.26,-112.305,-603.516,-120.117,-170.898,471.156,312.1778331064276
494,1686714391.26,11.23,-84.961,132.812,27.832,471.16,323.1118503618485
495,1686714391.27,91.309,313.965,184.57,137.207,471.164,326.1215556834366
496,1686714391.27,-17.09,-63.477,-5.859,-43.457,471.168,320.8598415066185
497,1686714391.28,-124.512,-586.914,-232.422,-185.059,471.171,315.62391026374644
498,1686714391.28,-46.875,-500.488,-54.688,-28.809,471.175,323.0433861929807
499,1686714391.28,83.008,112.793,234.863,142.09,471.179,318.12703758180646
500,1686714391.29,29.297,-187.012,-93.75,21.484,471.183,321.2856251439451
501,1686714391.29,-119.141,-829.102,-365.234,-179.199,471.187,321.57612929082944
502,1686714391.3,-96.191,-183.594,90.82,-115.234,471.191,328.29557141733954
503,1686714391.3,54.688,252.441,202.148,102.051,471.195,323.15195870203604
504,1686714391.3,49.805,-160.156,36.621,72.266,471.198,322.46890234376957
505,1686714391.3,-91.309,-304.688,9.277,-147.949,471.202,327.0638211672543
506,1686714391.31,-123.535,-191.895,24.902,-162.598,471.206,327.76104751500856
507,1686714391.31,-0.977,-226.562,27.832,52.246,471.209,326.23714835260296
508,1686714391.32,43.457,-461.426,-52.246,109.375,471.213,333.26129626388934
509,1686714391.32,-81.543,-685.059,-128.906,-109.863,471.217,322.5860110630188
510,1686714391.32,-157.715,-535.156,-120.605,-213.379,471.221,326.3224682667893
511,1686714391.33,-42.48,-313.477,32.227,-10.742,471.225,327.58106461202806
512,1686714391.33,54.199,-591.797,-140.625,138.672,471.229,329.3890868714782
513,1686714391.34,-35.156,-864.258,-298.828,-44.922,471.233,338.56491738090625
514,1686714391.34,-138.184,-129.395,62.988,-229.004,471.237,330.001418538855
515,1686714391.34,-63.477,5.371,92.285,-64.941,471.241,327.5776354689994
516,1686714391.34,67.383,-105.957,84.961,126.465,471.242,334.7790586015495
517,1686714391.35,13.184,120.117,131.348,5.371,471.246,328.78800987352173
518,1686714391.35,-135.254,117.188,105.469,-203.125,471.25,334.2432443124246
519,1686714391.36,-112.793,-117.676,-2.93,-120.117,471.254,335.4018213580351
520,1686714391.36,23.438,-254.395,-50.781,91.797,471.258,335.0483751953351
521,1686714391.36,30.273,-254.883,29.297,53.711,471.262,328.5543743156463
522,1686714391.37,-88.379,-354.492,-9.766,-143.555,471.266,341.86937483802126
523,1686714391.37,-127.441,-594.238,-191.895,-158.203,471.27,326.8116801811469
524,1686714391.38,-14.16,-915.039,-282.715,55.176,471.274,340.02451759472086
525,1686714391.38,53.711,-307.617,71.777,102.539,471.278,335.9037581059527
526,1686714391.38,-43.457,189.941,144.043,-104.492,471.282,337.587836984277
527,1686714391.39,-132.812,-183.105,-12.207,-199.219,471.285,346.7617257903762
528,1686714391.39,-41.504,-101.562,78.125,-12.207,471.285,342.3231098475206
529,1686714391.39,68.359,314.453,208.496,134.766,471.289,336.4156241684604
530,1686714391.4,-4.883,197.754,103.516,-19.531,471.293,334.5127960643604
531,1686714391.4,-127.441,-377.441,-73.242,-194.824,471.297,340.35066488779813
532,1686714391.41,-89.355,-379.395,15.625,-90.82,471.301,343.23863721325307
533,1686714391.41,44.434,-141.113,73.242,114.258,471.305,342.77375039933366
534,1686714391.41,17.09,-313.965,2.93,40.039,471.309,342.4914039715475
535,1686714391.42,-127.441,-723.633,-313.477,-155.762,471.313,337.17209633688265
536,1686714391.42,-130.859,-1000.0,-432.617,-109.863,471.316,343.5096480014081
537,1686714391.42,16.113,-288.086,56.641,68.848,471.32,352.59668093873233
538,1686714391.43,52.734,152.832,116.699,68.848,471.324,344.9821362462598
539,1686714391.43,-83.984,-214.844,-55.176,-140.137,471.328,340.7481633900334
540,1686714391.44,-136.719,-115.723,28.809,-191.895,471.33,349.52567749526605
541,1686714391.44,-6.836,229.004,158.691,23.438,471.334,350.4845190481452
542,1686714391.44,74.219,98.145,55.176,116.211,471.338,350.9838157409993
543,1686714391.45,-29.785,-173.34,-24.902,-69.336,471.342,342.42381032846697
544,1686714391.45,-123.047,-129.395,21.484,-191.895,471.346,349.4740742792473
545,1686714391.46,-38.086,-193.359,18.555,-25.879,471.35,346.78658396902864
546,1686714391.46,72.754,-413.086,-64.453,140.625,471.354,354.9824110161813
547,1686714391.46,5.371,-728.516,-231.934,0.488,471.358,345.47463426946473
548,1686714391.47,-123.047,-333.008,-10.742,-201.66,471.361,346.5251643680816
549,1686714391.47,-83.984,69.336,116.211,-103.516,471.365,361.4759407550377
550,1686714391.47,60.547,-227.539,-13.184,124.023,471.369,350.3631443240744
551,1686714391.48,48.34,-344.727,-9.277,62.012,471.373,351.4832071751967
552,1686714391.48,-93.75,1.953,88.379,-175.293,471.389,356.38921635955813
553,1686714391.48,-104.98,47.363,90.82,-155.273,471.393,359.2344156142212
554,1686714391.49,28.32,-235.84,22.461,75.684,471.397,357.03442349235047
555,1686714391.49,64.453,-176.758,38.086,102.539,471.401,356.42726992872326
556,1686714391.5,-55.664,12.695,53.711,-110.84,471.405,353.1777147637552
557,1686714391.5,-112.305,-303.711,-85.938,-179.688,471.408,354.4438876433447
558,1686714391.5,0.977,-799.805,-316.895,34.18,471.412,361.8991529753511
559,1686714391.51,77.637,-767.09,-227.539,152.344,471.416,369.68151944189833
560,1686714391.51,-5.859,-54.688,109.375,-61.523,471.42,364.73489561712825
561,1686714391.51,-104.98,-52.734,11.719,-212.402,471.424,361.782953478104
562,1686714391.52,-42.48,-303.223,-13.184,-45.41,471.428,358.5695158466083
563,1686714391.52,68.359,32.715,155.762,128.906,471.432,368.727247847147
564,1686714391.52,13.184,149.414,93.262,3.418,471.433,354.65969857495935
565,1686714391.53,-117.188,-372.559,-203.613,-180.664,471.437,360.56046482375103
566,1686714391.53,-101.562,-595.703,-152.832,-101.074,471.441,357.27811403708915
567,1686714391.54,40.039,-27.344,145.996,98.145,471.445,352.7550869787883
568,1686714391.54,54.688,192.871,84.961,51.758,471.449,364.5088116274646
569,1686714391.54,-90.332,-495.117,-285.645,-151.367,471.453,354.879616951952
570,1686714391.55,-139.648,-768.066,-285.156,-143.555,471.457,361.5175057399589
571,1686714391.55,-13.184,-73.242,103.516,52.246,471.46,363.8198939024453
572,1686714391.56,49.316,286.133,172.852,105.469,471.464,360.0755143347248
573,1686714391.56,-59.57,-247.07,-86.426,-88.379,471.468,358.2437374016703
574,1686714391.56,-132.812,-516.602,-159.668,-186.035,471.472,356.1940798453992
575,1686714391.57,-25.391,-15.137,83.008,-6.348,471.476,359.70034733154785
576,1686714391.58,76.66,162.109,143.066,133.301,471.48,359.3365282902878
577,1686714391.59,-5.371,-175.293,9.277,-27.344,471.484,358.7572564254276
578,1686714391.59,-118.652,-316.406,-45.898,-192.383,471.488,362.4467903111012
579,1686714391.6,-54.199,-232.91,-8.301,-50.293,471.492,358.92620771618624
580,1686714391.6,79.59,-232.422,32.227,148.438,471.496,363.72728008256195
581,1686714391.6,32.715,-592.285,-228.027,58.105,471.5,361.758331145107
582,1686714391.61,-97.656,-933.105,-413.574,-150.879,471.504,359.87510737043783
583,1686714391.61,-78.613,-531.738,-116.211,-119.629,471.508,370.87254081696443
584,1686714391.62,59.57,-41.992,50.781,98.633,471.512,360.1298030478561
585,1686714391.62,76.172,-475.586,-166.992,106.934,471.515,363.50764145406924
586,1686714391.62,-69.824,-581.055,-147.461,-115.234,471.519,359.6365826915892
587,1686714391.63,-113.281,95.703,158.691,-159.668,471.523,359.65367867533456
588,1686714391.63,13.184,19.531,77.148,66.406,471.524,357.85092470559977
589,1686714391.63,72.266,-126.953,14.16,139.648,471.528,360.8915183417504
590,1686714391.64,-35.156,14.648,70.801,-65.43,471.532,358.35089057422243
591,1686714391.64,-121.094,51.27,88.867,-179.688,471.536,363.14475296621583
592,1686714391.64,-27.344,-141.602,6.836,5.371,471.54,367.93456094319015
593,1686714391.65,73.73,-411.133,-70.801,167.969,471.544,356.79013841255886
594,1686714391.65,-10.742,-466.797,-89.355,-0.488,471.548,365.58607985837335
595,1686714391.66,-135.742,-278.809,-11.719,-199.219,471.552,354.58302906817823
596,1686714391.66,-79.59,-370.117,-104.492,-75.195,471.556,358.90720960553034
597,1686714391.66,49.316,-902.344,-333.008,148.926,471.56,362.3456052947955
598,1686714391.67,26.855,-376.953,42.969,46.387,471.564,366.6330128606313
599,1686714391.67,-100.586,78.613,98.633,-184.082,471.567,364.7782416336753
600,1686714391.67,-103.027,-274.414,-68.848,-135.742,471.57,363.921967281488
601,1686714391.68,26.367,-150.391,62.5,77.148,471.574,359.45291329277046
602,1686714391.68,52.246,187.012,128.418,68.359,471.578,360.5643684643426
603,1686714391.69,-71.289,2.93,22.461,-141.113,471.582,363.6127247389371
604,1686714391.69,-116.699,-291.504,-88.379,-179.199,471.585,370.67014681106036
605,1686714391.69,7.812,-338.379,-38.574,30.762,471.589,364.1713971243682
606,1686714391.7,75.684,-289.551,22.949,123.535,471.593,368.1789579442599
607,1686714391.7,-36.621,-415.039,-113.281,-75.195,471.597,367.3693519357484
608,1686714391.7,-139.648,-804.199,-413.086,-194.336,471.601,365.77428797436687
609,1686714391.71,-68.359,-1000.0,-417.48,-23.438,471.605,366.99858399902183
610,1686714391.71,52.734,-240.234,92.285,109.375,471.609,371.0671488211134
611,1686714391.72,-3.906,84.473,72.266,-25.879,471.613,366.8171254563549
612,1686714391.72,-131.348,-320.312,-127.93,-204.59,471.615,372.4583954379735
613,1686714391.72,-96.191,-123.535,45.898,-112.793,471.618,356.140942407081
614,1686714391.73,47.363,260.742,181.152,105.957,471.622,367.8541849026584
615,1686714391.73,45.41,37.109,37.598,54.199,471.626,369.647521434098
616,1686714391.74,-99.609,-293.457,-145.508,-165.039,471.63,364.225301989225
617,1686714391.74,-134.766,-429.199,-182.129,-161.133,471.634,368.83468818708553
618,1686714391.74,-2.93,-189.941,59.57,50.293,471.638,367.8726746703576
619,1686714391.75,62.012,-180.664,-48.828,97.168,471.642,367.8589455378396
620,1686714391.75,-64.941,-758.789,-322.754,-110.352,471.646,370.83556599161034
621,1686714391.75,-139.648,-301.758,52.246,-205.078,471.65,372.4690353332275
622,1686714391.76,-24.414,157.227,149.902,-0.977,471.654,359.864844661697
623,1686714391.76,57.617,-231.445,-1.465,126.953,471.658,368.42473562041295
624,1686714391.78,-28.809,-327.637,-22.949,-58.594,471.676,369.7740868904218
625,1686714391.78,-123.535,-29.297,63.477,-209.473,471.68,372.91684928543526
626,1686714391.79,-47.363,54.688,91.797,-57.617,471.684,377.7434339421658
627,1686714391.79,78.125,-318.359,-9.766,133.301,471.688,371.6009936895722
628,1686714391.8,20.02,-460.449,-81.055,19.531,471.691,366.4045494866895
629,1686714391.8,-117.188,-378.418,-170.898,-181.152,471.695,371.70180998402645
630,1686714391.8,-99.609,-396.484,-101.562,-100.098,471.699,371.28919887026797
631,1686714391.81,41.016,-645.996,-226.562,136.23,471.703,375.4502923923455
632,1686714391.81,67.871,116.211,125.977,98.145,471.707,367.3033482127884
633,1686714391.81,47.852,-897.949,-340.82,97.656,471.707,366.56102681138884
634,1686714391.81,-87.402,-236.328,19.043,-161.621,471.711,368.9658589009832
635,1686714391.81,-50.781,81.055,52.246,-107.422,471.711,370.3673511598176
636,1686714391.82,-113.281,-82.52,9.766,-171.875,471.715,376.88237151556336
637,1686714391.82,-126.465,-413.086,-194.824,-191.895,471.714,365.9866508027609
638,1686714391.82,17.09,-193.848,-28.32,50.293,471.719,370.35106690071603
639,1686714391.82,-21.973,-479.492,-132.812,-4.883,471.718,365.4910531648073
640,1686714391.83,78.125,20.996,124.512,125.0,471.722,379.71866365513756
641,1686714391.83,2.441,-105.469,-9.766,-33.203,471.726,368.3430466016307
642,1686714391.83,-112.793,-705.078,-344.238,-191.406,471.73,370.2029963372703
643,1686714391.84,-68.848,-586.914,-191.406,-70.312,471.734,375.0751741257604
644,1686714391.84,61.035,78.125,161.133,114.258,471.738,363.45743339442953
645,1686714391.84,30.762,263.672,135.254,22.461,471.742,377.02638680211436
646,1686714391.85,-111.328,-384.766,-218.262,-173.828,471.746,366.6654376712002
647,1686714391.85,-116.211,-882.812,-385.742,-125.0,471.75,375.49270783956575
648,1686714391.85,26.855,-121.582,58.105,66.406,471.763,372.56252830984886
649,1686714391.86,59.57,217.773,113.77,60.547,471.766,374.9608926319385
650,1686714391.86,-81.543,-213.379,-74.219,-165.527,471.77,377.8479710441085
651,1686714391.87,-132.812,-219.238,-20.02,-196.289,471.774,375.6940679111397
652,1686714391.87,-0.977,-76.172,37.598,36.133,471.778,370.9619637691972
653,1686714391.87,64.941,-205.078,10.742,103.516,471.782,371.6057976620534
654,1686714391.88,-42.969,-598.145,-290.039,-77.148,471.786,376.521987287021
655,1686714391.88,-142.09,-1000.0,-550.293,-168.457,471.79,379.12294480007006
656,1686714391.88,-53.223,-449.219,-89.355,-23.438,471.794,382.51094157446096
657,1686714391.89,68.848,153.32,100.586,120.605,471.798,373.53059457919414
658,1686714391.89,3.906,-101.074,-30.762,-20.02,471.802,371.694394908724
659,1686714391.9,-117.676,-172.363,15.137,-214.355,471.806,379.72683581062586
660,1686714391.9,-76.66,157.227,114.258,-106.445,471.81,379.509617959604
661,1686714391.9,55.176,101.562,50.293,110.352,471.814,374.7097524416006
662,1686714391.91,39.062,-160.156,-47.363,42.969,471.817,370.77894460839974
663,1686714391.91,-104.492,-20.996,16.113,-182.617,471.821,373.15755362991246
664,1686714391.92,-119.141,120.117,71.289,-158.691,471.825,376.5394592506354
665,1686714391.92,25.391,-228.027,-56.152,79.102,471.829,371.8845034897465
666,1686714391.92,59.082,-661.133,-245.117,96.68,471.833,373.6107907559103
667,1686714391.93,-79.59,-466.309,-154.785,-148.926,471.837,381.29592315553464
668,1686714391.93,-143.066,-19.043,84.961,-212.891,471.841,375.6932575109274
669,1686714391.93,-19.043,-246.582,-62.5,21.973,471.845,374.9356025132406
670,1686714391.94,65.43,-582.031,-202.148,131.348,471.849,380.22063499797747
671,1686714391.94,-37.109,-39.551,100.098,-75.195,471.853,384.1452069202493
672,1686714391.96,-134.277,54.688,72.266,-208.984,471.857,381.989899179872
673,1686714391.96,-48.828,-187.012,-20.508,-39.062,471.86,389.4823717145001
674,1686714391.97,73.242,-38.086,49.316,128.418,471.864,391.95681737477844
675,1686714391.97,17.09,163.574,88.379,-9.277,471.868,381.07060434463483
676,1686714391.98,-111.328,-47.852,3.418,-196.777,471.872,378.54069894065447
677,1686714391.98,-78.613,-425.781,-104.98,-96.68,471.876,382.8368533808215
678,1686714391.98,58.105,-479.98,-60.059,115.723,471.88,384.1734565778762
679,1686714391.99,54.199,-255.859,19.043,53.223,471.884,379.56292706775855
680,1686714391.99,-75.195,-172.363,-12.695,-166.992,471.888,380.1133063355046
681,1686714391.99,-105.469,-700.684,-365.234,-140.137,471.892,391.33672658938536
682,1686714392.0,7.324,-954.102,-371.094,66.895,471.896,383.34174774893484
683,1686714392.0,53.223,-169.434,84.961,74.219,471.899,383.85542407510707
684,1686714392.0,-66.406,-53.223,-24.902,-128.906,471.899,382.5947191814205
685,1686714392.01,-137.695,-386.23,-146.484,-196.777,471.903,381.75324605485616
686,1686714392.01,-17.09,-55.664,55.664,-3.906,471.907,376.16917113433965
687,1686714392.02,87.891,261.719,165.039,110.84,471.911,378.9831536789047
688,1686714392.02,-11.23,-52.246,-25.391,-52.734,471.915,378.5859625423921
689,1686714392.02,-130.371,-594.238,-292.969,-189.453,471.919,381.23115810648306
690,1686714392.03,-60.547,-432.617,-93.75,-50.781,471.922,391.0022348955086
691,1686714392.03,63.477,166.992,174.805,118.164,471.926,381.30768150201794
692,1686714392.04,17.09,-177.246,-121.094,18.555,471.93,382.7267094463134
693,1686714392.04,-117.188,-810.547,-382.812,-180.664,471.934,384.1681215094247
694,1686714392.04,-100.586,-255.371,14.648,-144.531,471.938,373.67011114274567
695,1686714392.05,42.969,183.105,138.672,87.891,471.942,390.6031103284643
696,1686714392.05,52.246,-411.621,-162.109,95.703,471.944,379.55881484151644
697,1686714392.05,-92.773,-634.277,-190.918,-135.742,471.948,392.79376388337664
698,1686714392.06,-123.535,-57.129,66.406,-170.898,471.952,382.04951399924477
699,1686714392.06,14.16,109.375,76.66,51.758,471.956,372.95864228852565
700,1686714392.06,74.707,-120.605,-31.25,113.77,471.96,383.23266168186973
701,1686714392.07,-42.969,-433.105,-185.059,-98.145,471.964,378.80251418923655
702,1686714392.07,-129.395,-551.27,-230.957,-204.102,471.968,374.70961183787534
703,1686714392.08,-25.879,-363.281,-53.223,-10.254,471.972,381.51956231749267
704,1686714392.08,73.73,-624.512,-260.254,142.578,471.975,385.3318507106667
705,1686714392.08,-15.137,-885.742,-393.555,-24.902,471.979,375.6579419274027
706,1686714392.09,-129.883,-210.938,35.156,-215.82,471.983,370.62639484382663
707,1686714392.09,-71.289,-42.969,20.02,-76.66,471.987,368.6288790205279
708,1686714392.09,57.617,-140.137,-21.973,129.883,471.989,377.48524684851424
709,1686714392.1,19.043,60.547,80.566,28.32,471.993,378.7650531410898
710,1686714392.1,-122.559,-60.059,-31.738,-183.594,471.997,380.6810439600607
711,1686714392.11,-104.004,-401.367,-172.852,-118.652,472.001,379.9140488627902
712,1686714392.11,39.551,-494.141,-115.234,111.328,472.005,379.676441498201
713,1686714392.11,51.758,-318.848,-43.457,102.051,472.008,368.1680613366778
714,1686714392.12,-85.449,-373.535,-148.926,-134.766,472.012,376.347664180048
715,1686714392.12,-134.766,-695.312,-322.266,-174.805,472.016,376.3879351722198
716,1686714392.12,-16.113,-752.441,-302.246,38.574,472.02,372.2798359858735
717,1686714392.13,64.941,-55.176,89.844,114.746,472.024,372.3035805608889
718,1686714392.13,-31.738,195.801,102.539,-79.102,472.028,374.20277577191297
719,1686714392.14,-130.371,-303.711,-97.168,-196.777,472.032,381.1969292872874
720,1686714392.14,-39.551,-271.484,-25.879,-26.855,472.034,373.37696088011336
721,1686714392.14,71.289,201.66,123.047,134.277,472.038,373.58475440170275
722,1686714392.15,-1.953,116.211,17.578,-5.859,472.042,373.6335964295124
723,1686714392.15,-128.418,-264.16,-119.141,-191.406,472.046,376.7136978511493
724,1686714392.16,-91.797,-251.953,-43.457,-89.844,472.05,372.73930258234816
725,1686714392.16,46.387,-153.32,5.859,118.164,472.054,374.8762763553795
726,1686714392.16,30.273,-275.391,-43.945,47.363,472.058,376.89428223584054
727,1686714392.17,-110.84,-681.641,-378.906,-159.18,472.062,377.6866124732883
728,1686714392.17,-125.0,-1000.0,-508.789,-123.047,472.066,377.7918288945846
729,1686714392.17,19.531,-364.258,-23.926,63.965,472.069,379.0409102364971
730,1686714392.18,65.918,97.656,72.754,78.125,472.073,367.57475691462105
731,1686714392.18,-68.848,-157.715,-45.898,-118.164,472.077,377.28601355550853
732,1686714392.18,-138.672,-68.848,26.367,-188.477,472.092,368.51640020581493
733,1686714392.19,-18.555,210.449,109.863,6.348,472.096,369.65778344283734
734,1686714392.19,72.754,55.176,32.715,124.512,472.1,369.98249357341984
735,1686714392.2,-39.551,-205.566,-69.824,-54.199,472.104,361.9487969004373
736,1686714392.2,-137.695,-118.652,-28.32,-190.918,472.108,376.12166595542135
737,1686714392.2,-44.434,-201.172,-3.418,-23.926,472.112,372.8095336056595
738,1686714392.21,64.453,-404.297,-127.93,141.113,472.116,364.1512110934437
739,1686714392.21,4.883,-838.867,-364.746,13.184,472.12,369.306240338633
740,1686714392.22,-129.883,-607.91,-131.836,-193.359,472.124,373.75155805808555
741,1686714392.22,-96.191,86.426,141.602,-114.258,472.127,370.54884574804595
742,1686714392.22,60.059,-190.43,-72.754,123.047,472.131,365.47658565961916
743,1686714392.23,63.477,-465.82,-176.27,73.242,472.135,363.2954562934118
744,1686714392.23,-75.195,-14.648,27.832,-164.551,472.124,367.29734616206196
745,1686714392.23,-109.375,32.715,41.504,-154.785,472.128,364.3523871488481
746,1686714392.24,19.043,-97.656,14.648,69.336,472.132,367.3841000139361
747,1686714392.24,81.543,32.227,75.195,106.445,472.136,363.5555235613347
748,1686714392.24,-39.551,51.27,22.949,-104.492,472.14,364.1830223637898
749,1686714392.25,-131.836,-291.992,-138.672,-186.035,472.144,373.97530919523416
750,1686714392.25,-27.344,-739.258,-334.961,19.531,472.148,369.9962115050891
751,1686714392.26,74.707,-798.34,-310.059,136.719,472.152,374.6004025524613
752,1686714392.26,-12.695,-151.367,19.531,-65.918,472.156,365.4104594894382
753,1686714392.26,-118.652,-20.996,11.719,-213.867,472.16,364.52395201350805
754,1686714392.27,-56.152,-713.379,-322.754,-37.109,472.164,371.24452303944787
755,1686714392.27,60.547,-714.355,-266.113,140.137,472.167,370.9700934973811
756,1686714392.27,25.879,117.676,165.039,-0.488,472.184,369.5741772868583
757,1686714392.28,-106.445,-56.641,-43.457,-192.871,472.187,370.55843243613634
758,1686714392.28,-108.398,-360.352,-159.668,-130.859,472.191,371.3701060491715
759,1686714392.29,30.762,44.434,90.332,86.426,472.195,364.7819114102815
760,1686714392.29,48.34,258.301,79.102,73.73,472.199,372.56579009179836
761,1686714392.29,-90.332,-350.586,-270.996,-135.254,472.203,365.86385544225385
762,1686714392.3,-134.277,-837.891,-370.605,-154.297,472.207,370.54376689804815
763,1686714392.3,-3.906,-239.746,42.969,36.621,472.211,369.8232103013356
764,1686714392.3,70.801,233.398,140.625,105.957,472.215,357.45216618773287
765,1686714392.31,-43.945,-125.0,-65.43,-88.867,472.219,368.8761606542154
766,1686714392.31,-135.742,-370.117,-137.207,-198.73,472.223,368.16934340445
767,1686714392.32,-39.551,-84.961,12.207,-14.16,472.226,365.84630046633447
768,1686714392.34,72.754,153.32,103.516,133.301,472.233,372.646299901432
769,1686714392.34,-5.371,-429.688,-171.875,-10.254,472.237,361.2759703938431
770,1686714392.34,-138.672,-634.766,-194.336,-191.406,472.241,368.91755208404135
771,1686714392.35,-75.684,-11.719,85.938,-74.707,472.245,356.76172563996977
772,1686714392.35,62.988,152.832,100.586,133.789,472.249,367.3794303530258
773,1686714392.36,27.344,-269.531,-77.637,47.363,472.253,371.6406002609988
774,1686714392.36,-104.492,-576.172,-238.281,-159.668,472.257,368.80118188870586
775,1686714392.36,-98.633,-490.234,-183.594,-121.094,472.26,367.5907300308023
776,1686714392.37,36.621,-72.754,62.012,92.285,472.264,362.07706253505137
777,1686714392.37,57.129,-479.004,-227.539,109.863,472.268,372.1860374335981
778,1686714392.37,-79.59,-831.055,-353.027,-112.305,472.272,370.8478711993831
779,1686714392.38,-124.023,-84.961,88.867,-187.5,472.276,368.4364105500357
780,1686714392.38,3.418,50.781,75.195,31.738,472.274,368.8034085374454
781,1686714392.38,84.961,-87.402,17.09,131.348,472.278,373.6600959795381
782,1686714392.39,-17.09,15.137,34.18,-62.988,472.282,372.06717269240903
783,1686714392.39,-114.746,-130.859,-78.125,-187.988,472.286,359.93525906207344
784,1686714392.4,-32.227,-405.762,-157.715,-12.207,472.29,364.33872102180317
785,1686714392.4,77.148,-604.004,-177.246,156.25,472.294,359.5575076241746
786,1686714392.4,13.184,-382.812,-44.434,2.441,472.298,362.99501549749476
787,1686714392.41,-113.77,25.879,92.285,-189.941,472.302,362.47928536004383
788,1686714392.41,-82.52,-287.109,-153.32,-77.148,472.306,363.7116120910167
789,1686714392.41,49.316,-835.449,-312.012,120.605,472.31,368.81885437335194
790,1686714392.42,40.527,-259.277,38.574,33.691,472.313,357.4567841325232
791,1686714392.42,-84.961,151.367,95.703,-166.504,472.317,364.3886533971559
792,1686714392.42,-100.098,-265.625,-56.152,-131.348,472.319,361.21739422041657
793,1686714392.43,32.715,-137.695,35.156,82.031,472.323,357.70341121557345
794,1686714392.43,78.613,246.582,110.84,101.074,472.327,358.81605485505287
795,1686714392.44,-43.457,66.406,-22.949,-115.723,472.331,359.14223961634013
796,1686714392.44,-111.816,-305.176,-161.133,-169.434,472.335,363.458923935578
797,1686714392.44,-0.977,-438.965,-133.301,50.293,472.339,359.7677151846836
798,1686714392.45,88.867,-307.617,-56.641,144.531,472.343,354.47721559555384
799,1686714392.45,-8.789,-370.117,-132.812,-55.664,472.347,359.8682481641274
800,1686714392.46,-123.047,-748.535,-390.625,-179.688,472.351,359.04544225235196
801,1686714392.46,-54.199,-1000.0,-447.754,-14.16,472.355,355.60701420452756
802,1686714392.46,78.125,-306.641,20.508,132.324,472.359,357.20761562047863
803,1686714392.47,39.062,47.363,17.09,17.578,472.362,363.17934275913706
804,1686714392.47,-99.121,-269.531,-125.977,-164.551,472.367,354.0676203273904
805,1686714392.48,-83.008,-39.062,62.988,-95.215,472.371,357.20574487161156
806,1686714392.48,58.594,250.488,135.254,111.328,472.374,361.5109594260285
807,1686714392.48,69.336,-9.277,-11.23,71.289,472.378,355.57865709552294
808,1686714392.49,-66.406,-301.758,-149.902,-143.555,472.382,355.82491754158224
809,1686714392.49,-98.633,-383.789,-161.133,-141.602,472.386,354.3101471263112
810,1686714392.5,23.926,-131.836,50.293,70.801,472.39,351.5979879976765
811,1686714392.5,83.984,-81.543,-26.855,122.07,472.394,361.5173455142626
812,1686714392.5,-34.18,-838.867,-403.32,-79.59,472.398,357.7027445664291
813,1686714392.51,-125.488,-574.707,-104.492,-183.594,472.402,349.40966511592643
814,1686714392.51,-12.695,203.613,155.762,7.324,472.406,350.05158535714924
815,1686714392.51,-0.488,-524.414,-177.734,-10.254,472.409,356.9467637107987
816,1686714392.52,88.867,-187.988,-74.707,156.25,472.41,360.1382172533193
817,1686714392.52,-110.84,-23.438,29.785,-182.617,472.413,358.7988808670226
818,1686714392.52,-44.434,75.195,48.34,-46.875,472.417,353.97991015784385
819,1686714392.53,83.008,-39.062,9.766,142.09,472.421,352.58746281270015
820,1686714392.53,30.762,-66.406,-24.414,37.598,472.425,357.6427473230096
821,1686714392.53,-110.352,-349.609,-190.43,-156.738,472.429,360.0738315931596
822,1686714392.54,-98.633,-429.688,-151.367,-91.797,472.433,356.53745370136915
823,1686714392.54,37.598,-664.062,-249.512,133.301,472.437,351.4952106671412
824,1686714392.54,51.758,-677.246,-219.238,101.074,472.44,355.5451058488191
825,1686714392.55,-74.219,2.441,78.613,-144.531,472.444,350.7864685714292
826,1686714392.55,-112.305,29.297,15.625,-162.598,472.448,349.50992659238625
827,1686714392.56,0.977,-678.223,-280.762,79.59,472.452,362.7436506770859
828,1686714392.56,61.523,-633.301,-194.824,145.508,472.455,355.6511733896684
829,1686714392.56,-41.016,127.441,136.719,-82.52,472.458,356.8461655239163
830,1686714392.57,-108.887,-112.793,-59.082,-175.293,472.462,358.1957653217484
831,1686714392.57,-19.043,-230.957,-72.266,0.488,472.466,355.7114565517534
832,1686714392.58,75.684,138.184,83.008,135.742,472.47,361.7890408847824
833,1686714392.58,6.348,-43.945,-15.137,-4.883,472.474,355.9569679950239
834,1686714392.58,-116.699,-576.172,-308.594,-177.734,472.478,348.3281084199309
835,1686714392.59,-76.66,-770.996,-340.332,-67.383,472.482,352.25361096213203
836,1686714392.59,60.059,-148.438,60.547,111.328,472.486,359.89732307555687
837,1686714392.59,39.551,253.906,130.371,34.18,472.49,352.2764889249075
838,1686714392.6,-101.074,-160.156,-55.664,-163.574,472.494,351.50874026698926
839,1686714392.6,-105.469,-250.488,-36.621,-127.93,472.498,357.0616991800325
840,1686714392.6,24.902,171.387,118.164,77.148,472.502,355.50362601136374
841,1686714392.61,55.176,132.324,3.906,87.402,472.506,358.2989668891327
842,1686714392.61,-71.777,-551.758,-284.668,-110.84,472.51,357.5669413893812
843,1686714392.62,-131.836,-556.152,-141.113,-171.875,472.514,353.6142611879864
844,1686714392.62,-5.371,12.207,55.176,34.668,472.518,360.6654771826253
845,1686714392.62,74.219,-123.047,-34.18,128.418,472.522,356.108127464021
846,1686714392.63,-25.879,-704.59,-404.297,-43.457,472.526,359.7730450128372
847,1686714392.63,-123.047,-857.91,-450.195,-178.711,472.529,363.7817512270201
848,1686714392.64,-40.039,-125.0,54.688,-46.387,472.533,350.91213279859284
849,1686714392.64,77.637,176.27,68.359,127.441,472.537,356.0925685732756
850,1686714392.64,7.812,-335.449,-159.18,-3.906,472.541,357.90073762823795
851,1686714392.65,-127.93,-355.957,-89.844,-201.66,472.545,358.7345193399652
852,1686714392.65,-86.914,110.84,90.82,-96.68,472.559,365.62493903552934
853,1686714392.65,53.223,23.438,2.93,107.422,472.563,354.8130657777913
854,1686714392.66,49.316,-181.152,-53.223,49.805,472.567,356.7872232343239
855,1686714392.66,-87.891,-87.402,4.395,-169.922,472.571,361.4369478160573
856,1686714392.66,-114.746,-185.547,-78.125,-150.391,472.574,361.3979971189474
857,1686714392.67,21.484,-443.359,-203.613,83.496,472.578,360.43930013707086
858,1686714392.67,58.594,-883.789,-421.875,118.652,472.582,350.2278641734692
859,1686714392.68,-80.566,-604.98,-176.27,-120.605,472.586,362.88440374952233
860,1686714392.68,-142.09,-48.828,54.688,-214.355,472.59,357.3593504791461
861,1686714392.68,-23.438,-217.285,-56.641,2.93,472.594,366.83906283256306
862,1686714392.69,72.266,-145.508,-10.254,126.465,472.598,357.099046072276
863,1686714392.69,-22.461,95.703,48.34,-65.43,472.602,364.21883285054685
864,1686714392.71,-143.066,38.086,40.527,-210.449,472.618,360.132561417117
865,1686714392.71,-75.195,-224.609,-31.25,-47.852,472.622,358.0677459142291
866,1686714392.72,58.105,-111.816,37.598,119.141,472.626,359.3894110398989
867,1686714392.72,7.812,171.875,115.234,-11.23,472.63,359.8812978486302
868,1686714392.72,-128.418,-32.227,-41.504,-206.055,472.633,359.9250119986376
869,1686714392.73,-102.539,-488.281,-217.285,-116.211,472.637,351.1895897382275
870,1686714392.73,26.367,-541.016,-123.535,95.215,472.641,354.4998686445516
871,1686714392.74,29.297,-352.539,-68.848,58.105,472.645,354.26601065177493
872,1686714392.74,-100.586,-432.129,-186.035,-156.738,472.649,360.9762177541814
873,1686714392.74,-128.418,-743.164,-369.629,-157.227,472.653,356.35189332513767
874,1686714392.75,-3.906,-988.77,-400.879,64.941,472.657,365.1268799260515
875,1686714392.75,55.176,-335.938,11.719,86.426,472.661,366.9044604308868
876,1686714392.75,-43.457,-37.598,-11.23,-123.047,472.649,348.0856278897683
877,1686714392.76,-115.234,-278.32,-119.629,-204.59,472.653,355.9492938034651
878,1686714392.76,-16.602,55.664,87.891,-13.672,472.657,352.0807339393215
879,1686714392.77,79.102,315.43,157.227,119.141,472.66,354.3937680873355
880,1686714392.77,4.395,-59.57,-65.918,-31.738,472.664,349.0719492107131
881,1686714392.77,-113.77,-617.188,-326.66,-187.012,472.668,357.6573608600184
882,1686714392.78,-68.359,-401.367,-104.492,-70.312,472.672,355.79174341334965
883,1686714392.78,61.035,200.684,161.133,110.352,472.676,362.15983757235745
884,1686714392.78,23.438,-161.133,-142.09,28.32,472.68,358.780938672927
885,1686714392.79,-129.395,-920.41,-473.145,-168.945,472.684,359.04748257582827
886,1686714392.79,-128.906,-488.281,-103.027,-146.973,472.688,362.70436702549296
887,1686714392.8,27.344,230.469,183.105,61.035,472.692,352.6214719792327
888,1686714392.8,58.594,-280.762,-156.738,75.195,472.694,369.874217876688
889,1686714392.8,-88.379,-803.711,-318.848,-140.625,472.698,352.63069843275764
890,1686714392.81,-137.695,-167.48,14.16,-191.406,472.702,356.7475483841561
891,1686714392.81,5.859,161.133,93.75,31.25,472.706,361.3090293365868
892,1686714392.82,74.707,-53.223,-15.137,109.375,472.71,358.1175220264057
893,1686714392.82,-46.387,-411.133,-204.59,-94.727,472.714,360.21289955931314
894,1686714392.82,-130.371,-584.961,-253.906,-196.777,472.718,364.120236827409
895,1686714392.83,-38.574,-414.062,-121.094,-21.484,472.721,359.2927662633958
896,1686714392.83,68.359,-628.418,-239.258,138.672,472.725,364.34635868003073
897,1686714392.83,-14.16,-885.254,-350.586,-12.695,472.729,353.89703000726087
898,1686714392.84,-147.461,-174.316,29.297,-222.656,472.733,351.313133788116
899,1686714392.84,-84.961,9.277,18.555,-93.262,472.737,367.6291372616518
900,1686714392.84,63.965,-287.598,-57.129,123.535,472.741,358.9782384297112
901,1686714392.85,40.527,-87.891,41.504,27.832,472.745,353.66707859507295
902,1686714392.85,-96.191,99.609,66.895,-189.941,472.749,354.80677241726823
903,1686714392.86,-109.375,-152.344,-38.086,-142.578,472.753,362.029445224871
904,1686714392.86,18.066,-256.836,-88.379,86.914,472.757,357.4529379055968
905,1686714392.86,55.664,-152.344,5.371,100.098,472.761,360.1516700841249
906,1686714392.87,-67.871,-283.203,-106.445,-118.164,472.765,365.9635256984405
907,1686714392.87,-122.559,-547.363,-318.848,-161.621,472.769,359.65839074453595
908,1686714392.88,-9.277,-729.98,-317.383,47.363,472.773,367.99473184524504
909,1686714392.88,70.801,-121.094,94.727,120.117,472.777,366.77089969999366
910,1686714392.88,-21.973,165.527,79.59,-59.082,472.78,361.72905629037524
911,1686714392.89,-124.023,-249.512,-104.004,-176.758,472.784,364.80408549556705
912,1686714392.89,-48.828,-208.008,21.973,-26.367,472.785,356.890692363061
913,1686714392.89,70.801,204.102,132.324,137.207,472.789,354.03428491295705
914,1686714392.9,14.648,15.137,-34.668,10.254,472.793,360.55152024754983
915,1686714392.9,-123.047,-547.363,-203.125,-179.199,472.797,361.7443973377822
916,1686714392.9,-92.773,-391.113,-15.625,-96.68,472.801,359.4661686970647
917,1686714392.91,64.453,-68.848,72.266,109.863,472.804,358.03448775358135
918,1686714392.91,57.617,-282.227,-54.688,60.547,472.808,361.59407923437715
919,1686714392.92,-93.75,-721.191,-376.953,-144.531,472.812,357.7471406712468
920,1686714392.92,-127.441,-1000.0,-499.023,-132.812,472.816,356.34741361971754
921,1686714392.92,10.742,-334.473,-6.836,53.711,472.82,358.0602047600352
922,1686714392.93,69.824,170.898,96.191,94.238,472.824,358.33930512460813
923,1686714392.93,-64.453,-200.684,-84.473,-107.422,472.828,361.8310941992162
924,1686714392.95,-132.324,-141.602,36.133,-195.801,472.845,359.1261654319815
925,1686714392.95,-10.742,203.125,146.484,14.648,472.849,357.31464665181556
926,1686714392.96,77.637,96.191,20.508,134.277,472.853,360.76361834751924
927,1686714392.96,-16.602,-175.781,-85.449,-53.711,472.857,361.9090939114603
928,1686714392.96,-126.953,-171.875,-50.781,-205.566,472.861,353.11623166969196
929,1686714392.97,-58.105,-211.914,-41.992,-56.152,472.865,360.91586945249566
930,1686714392.97,73.73,-350.098,-100.098,135.254,472.868,358.28834146541357
931,1686714392.98,18.066,-875.0,-404.297,42.969,472.872,361.5776545862344
932,1686714392.98,-122.559,-565.43,-174.316,-178.223,472.876,364.58834865156786
933,1686714392.98,-101.074,54.688,111.328,-111.816,472.88,359.07041250602055
934,1686714392.99,35.645,-89.844,10.254,125.0,472.884,363.95732260889974
935,1686714392.99,47.852,-87.402,10.254,87.891,472.888,362.92083704833084
936,1686714392.99,-90.332,73.242,56.152,-146.484,472.89,356.33398375970694
937,1686714393.0,-114.746,-17.578,-1.465,-165.039,472.894,366.2964656179737
938,1686714393.0,26.855,-241.699,-58.105,58.594,472.898,362.85191070248777
939,1686714393.01,77.637,-102.051,16.602,116.699,472.901,360.9844901704913
940,1686714393.01,-47.363,55.664,61.035,-96.191,472.905,359.8734329587268
941,1686714393.01,-144.043,-306.641,-135.254,-194.824,472.909,359.7339654823091
942,1686714393.02,-50.781,-598.633,-201.66,2.441,472.913,351.86156312420843
943,1686714393.02,58.105,-498.535,-40.527,143.555,472.917,357.41992960663265
944,1686714393.02,28.809,-311.523,33.203,21.973,472.934,366.5580502244205
945,1686714393.02,-19.531,-325.195,-53.223,-44.434,472.921,357.55665962826174
946,1686714393.03,-97.168,-65.43,-7.324,-185.059,472.938,358.2391857697785
947,1686714393.03,-132.812,-180.664,-24.902,-216.797,472.925,361.7435556460448
948,1686714393.03,-109.375,-286.621,-116.211,-133.301,472.942,360.33111670156916
949,1686714393.03,-82.52,-605.469,-281.738,-51.758,472.929,362.1940771972454
950,1686714393.04,28.809,119.629,121.094,81.055,472.946,360.2294958400222
951,1686714393.04,47.852,-1000.0,-421.387,146.973,472.933,355.01228660857413
952,1686714393.04,52.246,234.863,81.055,77.637,472.95,357.3491862556781
953,1686714393.04,-87.891,-410.645,-269.531,-135.254,472.954,359.61922884814066
954,1686714393.05,-130.371,-662.109,-246.582,-173.828,472.958,364.4404636935891
955,1686714393.05,-10.254,-27.344,88.379,32.227,472.962,363.08324034391177
956,1686714393.06,65.918,341.309,163.086,109.375,472.966,360.4760248967138
957,1686714393.06,-32.227,-238.77,-160.645,-82.52,472.969,358.786518014579
958,1686714393.06,-143.555,-926.758,-433.105,-188.965,472.973,359.6919417122373
959,1686714393.07,-72.754,-315.43,-16.113,-30.273,472.977,360.8871981892748
960,1686714393.08,63.477,310.059,178.223,117.676,472.98,363.3152518812221
961,1686714393.09,15.625,-294.434,-132.324,-7.812,472.984,366.40639348637757
962,1686714393.09,-115.234,-648.926,-251.953,-189.453,472.988,364.6238996830677
963,1686714393.1,-70.312,-57.617,55.176,-99.609,472.992,366.0424392951722
964,1686714393.1,62.012,195.801,101.074,104.492,472.996,358.916754584822
965,1686714393.1,44.434,-224.121,-109.375,45.898,473.0,359.0196634082699
966,1686714393.11,-96.191,-622.559,-247.559,-160.645,473.004,363.7804406677436
967,1686714393.11,-107.91,-526.855,-177.246,-138.672,473.008,365.6136768066775
968,1686714393.12,35.645,-78.125,59.082,74.707,473.012,358.4775564800171
969,1686714393.12,61.035,-468.262,-214.844,104.492,473.016,361.6538135707407
970,1686714393.12,-76.66,-836.426,-322.266,-109.863,473.02,356.31503753733375
971,1686714393.13,-123.535,-66.895,86.426,-202.148,473.023,366.93208986310736
972,1686714393.13,-3.418,30.762,28.809,14.648,473.039,359.64057200792683
973,1686714393.13,75.684,-230.957,-30.273,134.766,473.043,360.89937287573576
974,1686714393.14,-20.996,-62.5,49.805,-57.617,473.047,372.3751101983211
975,1686714393.14,-122.559,123.535,78.125,-208.984,473.05,361.33604493196486
976,1686714393.14,-36.621,-81.543,-36.621,-50.781,473.054,363.67145050540995
977,1686714393.15,83.496,-500.0,-150.879,131.348,473.058,356.03362998265555
978,1686714393.15,16.113,-323.73,-21.973,-13.672,473.062,359.23283792467
979,1686714393.16,-108.887,75.684,77.148,-222.168,473.066,358.36753873439125
980,1686714393.16,-74.219,-229.98,-122.559,-122.07,473.07,356.4870791293497
981,1686714393.16,61.035,-810.059,-308.594,97.168,473.074,356.56754174627133
982,1686714393.17,56.152,-310.059,8.301,37.598,473.078,358.25365740478594
983,1686714393.17,-77.148,6.836,49.805,-184.57,473.082,362.40023532083694
984,1686714393.17,-115.234,-276.367,-62.5,-183.105,473.07,364.1012014810598
985,1686714393.18,18.066,-101.562,51.27,24.414,473.074,360.4065285379426
986,1686714393.18,76.66,254.395,125.0,59.082,473.078,358.0105210048119
987,1686714393.19,-37.109,-4.883,-55.176,-131.836,473.082,360.2963803124485
988,1686714393.19,-116.699,-612.793,-255.371,-214.844,473.085,363.56589426494367
989,1686714393.19,-30.273,-630.859,-137.207,-41.504,473.089,365.65530880833
990,1686714393.2,75.195,-239.258,19.531,86.914,473.093,364.4090369902184
991,1686714393.2,-12.695,-342.285,-142.578,-81.055,473.097,364.4966418166141
992,1686714393.2,-123.535,-568.359,-227.051,-241.699,473.101,366.7326203850056
993,1686714393.21,-52.246,-199.219,45.898,-118.164,473.105,368.21810264235387
994,1686714393.21,66.895,279.785,169.434,65.43,473.109,362.84993434824884
995,1686714393.22,25.879,174.805,52.246,-28.809,473.113,369.35288372290864
996,1686714393.22,-109.863,-672.363,-395.996,-220.215,473.114,351.7532621061358
997,1686714393.22,-102.539,-772.949,-328.613,-166.504,473.118,360.4417342997781
998,1686714393.23,32.715,131.836,195.801,36.133,473.122,354.9702729315401
999,1686714393.23,57.129,83.984,8.301,36.621,473.126,358.1827260505231
1000,1686714393.24,-87.402,-301.27,-150.391,-190.43,473.13,364.7012523000949
1001,1686714393.24,-134.277,-392.09,-119.629,-203.613,473.134,363.11359165462386
1002,1686714393.24,5.371,-322.754,-86.426,39.062,473.138,357.38345479273636
1003,1686714393.25,63.965,-383.789,-141.113,81.543,473.142,360.6775997038629
1004,1686714393.25,-63.965,-900.391,-426.758,-131.348,473.146,365.519593206629
1005,1686714393.25,-171.387,-528.809,-128.906,-245.117,473.15,363.9616982794385
1006,1686714393.26,-55.176,121.582,131.836,-58.105,473.154,362.72631130632743
1007,1686714393.26,66.406,-16.602,30.273,91.309,473.157,359.9340454188094
1008,1686714393.26,-22.461,-67.871,38.086,-77.148,473.16,369.18954018176635
1009,1686714393.27,-127.441,83.008,59.57,-257.812,473.163,364.65871837170823
1010,1686714393.27,-78.613,86.914,77.148,-132.324,473.167,364.0574118736278
1011,1686714393.28,36.133,-52.734,51.27,71.289,473.171,371.6897236381469
1012,1686714393.28,10.254,-101.562,-23.926,-6.348,473.175,366.86310692518475
1013,1686714393.28,-120.605,-317.383,-179.199,-210.938,473.179,357.76726129036103
1014,1686714393.29,-125.977,-427.734,-161.621,-169.922,473.183,362.62859451736296
1015,1686714393.29,-4.883,-640.625,-251.953,56.641,473.187,366.8146528133573
1016,1686714393.3,15.137,-941.406,-391.602,66.406,473.191,363.0015601883167
1017,1686714393.3,-108.887,-448.73,-138.672,-173.34,473.195,361.10019743412767
1018,1686714393.3,-143.555,-104.004,-43.945,-233.887,473.199,359.39921421948077
1019,1686714393.31,-13.184,-242.676,-62.5,-6.836,473.203,363.6175140631447
1020,1686714393.31,57.617,-25.391,44.922,96.68,473.204,364.4432966537781
1021,1686714393.31,-56.641,204.59,93.262,-97.656,473.208,361.2920784616658
1022,1686714393.32,-153.32,-96.68,-52.246,-217.773,473.212,365.0082373311416
1023,1686714393.32,-50.293,-202.148,-65.918,-43.457,473.216,365.9730815200401
1024,1686714393.32,70.801,167.969,111.816,113.77,473.22,365.11940938456485
1025,1686714393.33,7.324,-26.855,-2.93,-7.812,473.224,366.8902443879136
1026,1686714393.33,-125.488,-585.449,-305.176,-185.547,473.228,358.3004079126907
1027,1686714393.34,-115.234,-766.602,-318.359,-100.586,473.232,363.47534859540485
1028,1686714393.34,21.973,-114.258,81.543,83.984,473.235,364.02053765898614
1029,1686714393.34,36.621,313.965,153.32,27.344,473.239,362.0712436168028
1030,1686714393.35,-103.516,-159.18,-68.359,-189.453,473.243,365.1271518153468
1031,1686714393.35,-132.324,-476.562,-153.809,-159.18,473.247,361.2885004859143
1032,1686714393.35,14.648,-59.082,48.828,76.172,473.25,364.85485752742545
1033,1686714393.36,55.664,292.48,145.996,89.355,473.254,364.22450912665346
1034,1686714393.36,-77.148,-390.137,-178.223,-99.609,473.258,363.09887804191436
1035,1686714393.37,-137.695,-636.23,-186.035,-166.504,473.262,366.7583991066834
1036,1686714393.37,-20.996,-37.109,54.688,31.25,473.266,365.6584751335203
1037,1686714393.37,70.312,-93.262,20.508,149.902,473.27,366.0711657920737
1038,1686714393.38,-35.645,-669.922,-325.195,-26.855,473.274,367.0164437541871
1039,1686714393.38,-136.23,-886.719,-405.273,-158.691,473.277,363.3090851794361
1040,1686714393.38,-36.621,-186.035,59.082,-32.227,473.281,366.6955907745031
1041,1686714393.39,78.613,173.34,89.844,153.32,473.285,363.54797522178313
1042,1686714393.39,11.23,-299.316,-116.211,39.062,473.289,367.816645790704
1043,1686714393.4,-120.605,-367.188,-60.547,-175.781,473.293,367.7342908128726
1044,1686714393.4,-82.52,72.266,72.754,-95.703,473.308,366.6187645263118
1045,1686714393.4,61.523,25.391,15.137,125.977,473.312,364.5350881183862
1046,1686714393.41,54.688,-309.082,-51.758,94.238,473.316,369.02263609907294
1047,1686714393.41,-77.148,-167.969,-14.16,-130.859,473.319,366.9759032509526
1048,1686714393.42,-110.352,40.039,30.762,-156.25,473.323,362.93810025425796
1049,1686714393.42,20.02,-261.719,-71.777,72.266,473.327,356.82025569013837
1050,1686714393.42,67.871,-780.762,-264.16,145.02,473.331,368.04112279918195
1051,1686714393.43,-61.523,-382.324,-30.273,-86.914,473.335,370.9019106166034
1052,1686714393.43,-131.836,96.191,80.566,-181.152,473.339,364.31631154773436
1053,1686714393.44,-29.785,-141.602,-27.832,27.344,473.343,377.51520966345277
1054,1686714393.44,78.125,-157.715,-18.555,154.785,473.347,364.96860849840084
1055,1686714393.44,-9.277,63.965,26.367,-23.438,473.351,363.8861328866412
1056,1686714393.46,-124.512,13.672,23.926,-179.688,473.354,375.8232097476553
1057,1686714393.46,-66.895,-224.121,-17.578,-49.805,473.358,362.90384418387794
1058,1686714393.47,57.129,-109.375,39.062,126.953,473.362,370.53681866832335
1059,1686714393.47,30.273,87.891,60.547,22.461,473.366,368.52680931059604
1060,1686714393.48,-109.375,-193.848,-98.145,-173.828,473.37,353.3970663183253
1061,1686714393.48,-109.375,-753.906,-357.422,-87.402,473.373,362.50505935657515
1062,1686714393.48,18.066,-810.059,-276.855,124.512,473.377,359.4502494699209
1063,1686714393.49,38.086,-399.902,-32.715,75.684,473.381,361.5897360219322
1064,1686714393.49,-79.102,-255.371,-73.73,-153.32,473.385,354.7883993661074
1065,1686714393.49,-124.023,-719.238,-372.07,-155.273,473.389,362.87102854000136
1066,1686714393.5,-14.648,-717.773,-261.23,60.059,473.393,368.5428366403756
1067,1686714393.5,53.223,119.629,150.879,105.957,473.397,372.0823715302292
1068,1686714393.5,-50.781,11.719,-46.387,-91.309,473.399,360.86526065150673
1069,1686714393.51,-148.926,-369.629,-159.668,-193.848,473.403,367.28166642743327
1070,1686714393.51,-57.129,-100.098,26.367,-17.09,473.407,370.19188475087424
1071,1686714393.52,54.688,267.09,165.039,123.535,473.411,369.89927527983946
1072,1686714393.52,-22.949,-107.422,-76.172,-27.344,473.415,360.9848362454302
1073,1686714393.52,-153.32,-774.902,-365.723,-189.453,473.419,357.8207645745109
1074,1686714393.53,-110.352,-516.602,-117.188,-93.262,473.423,365.860812055089
1075,1686714393.53,46.387,-150.391,73.73,93.262,473.427,378.8115165569106
1076,1686714393.54,29.297,-428.711,-199.219,22.461,473.43,364.60481512687204
1077,1686714393.54,-136.719,-930.664,-453.613,-177.734,473.434,365.06646351611704
1078,1686714393.54,-145.508,-451.66,-57.129,-157.227,473.438,364.1084088578553
1079,1686714393.55,8.301,169.434,120.117,53.711,473.442,371.7565772652466
1080,1686714393.55,39.062,-77.148,8.789,80.566,473.444,369.9887193422134
1081,1686714393.55,-95.215,-177.734,-8.301,-136.23,473.448,376.804781945152
1082,1686714393.56,-145.508,43.945,41.504,-184.082,473.452,373.7132074211712
1083,1686714393.56,-17.09,119.141,103.516,27.344,473.455,369.12588320551953
1084,1686714393.56,64.453,-132.812,-19.531,107.91,473.459,373.71722547015736
1085,1686714393.57,-44.922,-449.219,-196.289,-80.078,473.463,368.248555006206
1086,1686714393.57,-150.391,-503.906,-212.891,-204.59,473.467,367.67304307329556
1087,1686714393.58,-62.988,-347.656,-99.121,-45.898,473.471,372.19055056047745
1088,1686714393.58,53.223,-572.754,-234.863,133.789,473.475,366.90555139923777
1089,1686714393.58,-23.438,-1000.0,-416.992,-2.93,473.479,364.5181647449706
1090,1686714393.59,-154.297,-529.297,-138.672,-212.891,473.483,369.9401792715397
1091,1686714393.59,-111.816,-243.652,-58.105,-120.117,473.487,375.35432176127773
1092,1686714393.6,23.438,-379.883,-86.914,88.867,473.518,368.34042316293625
1093,1686714393.6,11.23,-136.23,6.348,26.855,473.522,365.4916512288788
1094,1686714393.6,-131.836,43.457,42.48,-193.359,473.526,374.2506434756675
1095,1686714393.61,-153.809,-118.164,-30.762,-166.992,473.53,365.2353891868809
1096,1686714393.61,2.441,-157.715,-27.832,51.758,473.534,366.36561455872965
1097,1686714393.62,54.688,-223.145,-9.277,83.008,473.538,370.53392521156553
1098,1686714393.62,-89.844,-254.395,-43.457,-126.953,473.542,377.98619475125236
1099,1686714393.62,-155.273,-375.977,-166.504,-192.871,473.546,368.2688701757596
1100,1686714393.63,-44.434,-705.566,-270.02,21.973,473.55,367.23654213175
1101,1686714393.63,50.293,-97.168,83.984,107.422,473.554,367.37460911955
1102,1686714393.63,-25.879,211.914,74.707,-80.078,473.557,364.0754821343096
1103,1686714393.64,-137.207,-275.391,-104.004,-211.914,473.561,375.1435270550808
1104,1686714393.64,-68.848,-472.656,-54.199,-62.5,473.534,362.4218943260831
1105,1686714393.64,58.594,-21.973,78.125,109.375,473.538,368.54698850094024
1106,1686714393.65,-0.488,199.219,74.219,4.883,473.542,365.5950822461412
1107,1686714393.65,-128.906,-385.742,-107.91,-189.453,473.546,366.22627575204615
1108,1686714393.66,-82.52,-465.82,-48.34,-100.586,473.55,365.51007856891346
1109,1686714393.66,62.5,-145.02,44.434,123.047,473.554,372.6972602689939
1110,1686714393.66,51.27,-236.328,-20.996,88.379,473.558,376.2352568270494
1111,1686714393.67,-98.145,-697.266,-374.023,-119.141,473.561,363.09651239702754
1112,1686714393.67,-129.883,-745.605,-305.176,-138.184,473.565,378.2110808589351
1113,1686714393.67,15.137,62.012,164.062,86.914,473.569,366.0512436678383
1114,1686714393.68,87.402,179.199,50.293,149.902,473.573,363.710017895455
1115,1686714393.68,-27.832,-298.34,-130.371,-76.172,473.577,363.7929390697298
1116,1686714393.68,-121.582,-264.648,-19.043,-190.43,473.579,366.4790888641002
1117,1686714393.69,-16.113,146.484,106.934,-8.789,473.583,372.35643560686356
1118,1686714393.69,104.004,113.281,64.453,153.809,473.587,372.29421561343054
1119,1686714393.7,13.672,-689.453,-348.145,10.742,473.591,372.0111449599002
1120,1686714393.7,-123.047,-924.805,-449.707,-170.41,473.595,362.4139048886008
1121,1686714393.7,-62.988,-351.074,-56.641,-53.223,473.599,368.82275305915977
1122,1686714393.71,61.035,-310.059,-92.773,135.254,473.602,369.2522238740918
1123,1686714393.71,23.438,-695.312,-272.461,46.875,473.606,375.58674824477697
1124,1686714393.72,-99.121,-322.754,-40.039,-170.41,473.61,368.03118601505525
1125,1686714393.72,-88.867,161.133,111.328,-113.77,473.614,372.73829863032717
1126,1686714393.72,60.059,-15.625,31.738,112.305,473.618,370.32198847138466
1127,1686714393.73,94.727,-84.473,-10.742,100.098,473.622,365.94739971268024
1128,1686714393.73,-50.293,50.293,57.129,-108.887,473.624,367.34577266246123
1129,1686714393.73,-92.773,62.988,85.449,-148.438,473.628,363.705553681092
1130,1686714393.74,34.668,-83.984,10.742,66.895,473.632,362.7311057517387
1131,1686714393.74,84.473,-4.883,56.152,141.602,473.636,361.7737940106564
1132,1686714393.74,-22.949,65.43,49.316,-61.035,473.64,371.85682107331957
1133,1686714393.75,-113.77,-233.398,-113.77,-169.434,473.644,375.60654748705736
1134,1686714393.75,-26.855,-689.453,-305.176,4.883,473.648,365.00051508694077
1135,1686714393.76,84.961,-828.125,-300.293,154.785,473.651,370.05041670790354
1136,1686714393.76,10.254,-308.594,20.996,-9.766,473.655,370.5207170454831
1137,1686714393.76,-112.305,-69.824,14.648,-194.824,473.659,370.8697662907367
1138,1686714393.77,-68.359,-624.023,-251.953,-72.754,473.663,370.5969463424525
1139,1686714393.77,70.801,-472.168,-58.594,114.746,473.667,363.7780999142352
1140,1686714393.77,64.941,274.414,190.918,25.391,473.683,367.5088712040343
1141,1686714393.78,-81.055,-0.977,-42.969,-173.828,473.687,367.63283930524295
1142,1686714393.78,-111.816,-288.574,-105.469,-131.348,473.691,373.7395955366855
1143,1686714393.79,25.391,57.129,91.797,83.984,473.695,370.66634885606146
1144,1686714393.79,65.918,255.859,142.09,90.332,473.698,368.07627082268806
1145,1686714393.79,-67.383,-313.965,-164.551,-106.934,473.702,376.2067926318169
1146,1686714393.8,-130.371,-853.027,-355.957,-162.109,473.706,369.60019782164346
1147,1686714393.8,-11.23,-321.289,12.207,14.648,473.71,372.2179427776483
1148,1686714393.8,61.035,7.324,88.867,122.559,473.714,376.81743622451313
1149,1686714393.81,-42.969,-517.09,-254.883,-46.387,473.718,369.4811819081392
1150,1686714393.81,-135.254,-639.16,-268.066,-194.336,473.722,362.0953963900472
1151,1686714393.82,-52.734,38.086,121.094,-45.898,473.726,369.2577782173661
1152,1686714393.85,70.312,258.789,138.184,128.906,473.744,368.23698264403606
1153,1686714393.85,10.254,-82.52,-11.719,-2.441,473.748,371.74438720740727
1154,1686714393.86,-129.395,-233.887,-51.758,-209.473,473.752,369.4089254215315
1155,1686714393.86,-97.168,70.312,75.195,-111.816,473.755,363.8209007093115
1156,1686714393.86,41.016,112.305,88.867,101.562,473.759,372.94452943640374
1157,1686714393.87,28.32,-381.348,-115.723,49.316,473.763,366.2288826305558
1158,1686714393.87,-99.609,-634.766,-250.977,-150.391,473.767,377.095611985785
1159,1686714393.88,-121.582,-500.977,-171.387,-143.066,473.771,361.18778087335147
1160,1686714393.88,-21.973,49.805,97.656,20.02,473.775,365.92129197599434
1161,1686714393.88,9.277,-80.078,39.551,76.66,473.775,367.9879340281715
1162,1686714393.88,69.824,-240.234,-17.578,145.996,473.779,375.5245001257016
1163,1686714393.88,61.035,-426.758,-218.75,139.648,473.779,376.6526731440559
1164,1686714393.89,-6.348,-200.684,-10.742,-41.016,473.783,370.3450281853711
1165,1686714393.89,-60.547,-984.375,-470.703,-68.848,473.783,370.9419531314588
1166,1686714393.89,-97.656,41.504,30.762,-181.641,473.787,366.37320755401515
1167,1686714393.89,-127.93,-350.098,-55.664,-185.059,473.787,364.70710510889717
1168,1686714393.9,-35.645,-53.711,-19.043,-33.203,473.791,372.9545410388878
1169,1686714393.9,84.961,-337.891,-97.168,141.602,473.795,361.90001717592304
1170,1686714393.9,45.898,-259.277,-11.23,21.484,473.799,361.44678441566657
1171,1686714393.91,-86.914,-2.93,46.875,-197.266,473.802,364.7929370458622
1172,1686714393.91,-83.984,-347.168,-141.602,-115.723,473.806,364.63693495067804
1173,1686714393.91,39.062,-552.246,-147.461,110.352,473.81,364.9301082942981
1174,1686714393.92,48.34,-3.906,78.613,72.754,473.814,365.329258834669
1175,1686714393.92,-84.961,187.012,86.914,-149.902,473.818,367.855251555665
1176,1686714393.92,-119.141,-446.289,-189.941,-145.508,473.82,368.96593755788666
1177,1686714393.93,8.301,-823.242,-293.945,75.684,473.824,364.54034884957224
1178,1686714393.93,58.594,-83.496,81.543,93.75,473.827,366.9381855100663
1179,1686714393.94,-58.594,120.117,73.73,-112.793,473.831,366.3899295398624
1180,1686714393.94,-133.301,-483.398,-145.996,-184.57,473.835,368.5085137527895
1181,1686714393.94,-33.203,-678.223,-191.895,0.977,473.839,357.6011431570987
1182,1686714393.95,69.336,-280.273,-32.227,126.953,473.843,367.2557755035153
1183,1686714393.95,-5.371,-232.422,-38.086,-37.109,473.847,365.90057344079196
1184,1686714393.96,-121.094,-669.922,-369.141,-205.078,473.851,373.412168629601
1185,1686714393.96,-69.336,-979.004,-412.109,-62.988,473.855,360.204415584661
1186,1686714393.96,77.148,-195.312,104.004,119.629,473.859,366.96379985151805
1187,1686714393.97,46.387,161.133,88.379,20.996,473.863,359.8360788695206
1188,1686714394.0,-107.422,-185.059,-56.152,-180.664,473.894,364.28575353356024
1189,1686714394.0,-101.074,-22.949,73.242,-134.766,473.898,362.97048600700316
1190,1686714394.01,39.062,264.16,144.531,85.449,473.902,359.1836053718447
1191,1686714394.01,56.641,39.551,4.883,91.797,473.906,367.6465781660065
1192,1686714394.01,8.789,-154.785,-15.625,1.953,473.909,372.43202351836914
1193,1686714394.02,-73.242,-365.234,-118.652,-135.254,473.91,365.7008589256191
1194,1686714394.02,-108.398,18.555,44.434,-196.777,473.913,362.42113312240815
1195,1686714394.02,-122.559,-383.789,-89.844,-175.781,473.914,363.7206397700219
1196,1686714394.02,-64.941,89.355,81.543,-81.543,473.917,362.96671779877204
1197,1686714394.02,1.953,-78.613,71.289,52.246,473.918,362.359376137779
1198,1686714394.03,72.266,-111.328,-25.879,128.418,473.921,367.64612771227894
1199,1686714394.03,71.289,-25.391,67.871,130.371,473.921,376.1754967797943
1200,1686714394.03,-55.176,-807.617,-357.91,-58.594,473.925,372.6508353214488
1201,1686714394.03,46.387,-48.34,15.137,51.27,473.925,365.53266603125616
1202,1686714394.03,-152.832,-396.484,-14.648,-196.777,473.929,359.81757732488
1203,1686714394.03,-95.215,-291.504,-176.27,-147.949,473.929,371.30109405291756
1204,1686714394.04,-47.363,154.785,145.508,-24.902,473.933,361.06930499237507
1205,1686714394.04,-107.91,-479.98,-203.125,-115.234,473.933,360.80242527759754
1206,1686714394.04,19.043,-498.535,-122.07,99.609,473.937,368.7310159992176
1207,1686714394.04,68.848,-94.727,25.391,151.855,473.937,361.15265497409956
1208,1686714394.04,62.988,-408.691,5.859,113.77,473.94,363.87114877317384
1209,1686714394.05,-54.199,-47.363,56.641,-114.746,473.944,359.9734458180436
1210,1686714394.05,-119.629,-116.699,-51.27,-172.363,473.948,372.15351485808276
1211,1686714394.06,-1.465,-335.449,-45.898,41.016,473.952,363.19851653897973
1212,1686714394.06,78.125,-62.012,77.637,142.578,473.954,367.69634641761775
1213,1686714394.06,-32.715,115.723,86.914,-45.41,473.958,372.33885632890826
1214,1686714394.07,-133.789,-73.73,-15.625,-195.801,473.962,370.4780439687989
1215,1686714394.07,-58.594,-741.699,-367.188,-11.23,473.966,374.33267839179734
1216,1686714394.08,59.57,-933.594,-347.168,169.922,473.97,372.0171748203343
1217,1686714394.08,14.16,-378.906,-13.184,15.625,473.974,367.88167981649104
1218,1686714394.08,-118.164,-493.164,-257.324,-171.875,473.978,373.2993368345854
1219,1686714394.09,-91.309,-723.145,-301.758,-70.312,473.982,370.51638317077465
1220,1686714394.09,55.176,-178.223,36.621,130.859,473.985,362.2236167463214
1221,1686714394.09,56.152,51.27,55.176,71.289,473.989,361.8586736681754
1222,1686714394.1,-84.473,-444.824,-180.664,-135.254,473.993,364.08485241101687
1223,1686714394.1,-108.398,-423.34,-155.762,-133.301,473.997,367.5878714321116
1224,1686714394.12,30.273,208.984,144.043,79.102,474.016,363.2944482605882
1225,1686714394.12,77.637,361.328,162.598,120.117,474.02,369.32157515332125
1226,1686714394.13,-48.828,-313.965,-133.301,-83.984,474.024,370.4145764484081
1227,1686714394.13,-129.395,-522.949,-154.785,-170.898,474.028,370.8544022319474
1228,1686714394.14,-19.531,75.684,95.215,11.719,474.032,371.6787922733895
1229,1686714394.14,80.078,-25.879,58.105,147.949,474.035,370.037308335655
1230,1686714394.14,-16.113,-646.973,-247.07,-2.441,474.039,368.0219992614451
1231,1686714394.15,-137.207,-841.309,-351.562,-168.945,474.043,363.5924611216125
1232,1686714394.15,-62.012,-60.059,73.73,-51.758,474.047,372.8074464283736
1233,1686714394.15,-100.098,-100.098,41.016,-123.535,474.057,358.055848215567
1234,1686714394.16,74.219,253.418,96.191,144.043,474.051,369.55870451078545
1235,1686714394.16,38.086,146.973,91.309,106.934,474.061,369.98524021452073
1236,1686714394.16,29.297,-246.094,-101.074,40.039,474.055,371.5456083055011
1237,1686714394.16,55.176,-171.387,8.301,106.934,474.065,368.82979154455035
1238,1686714394.16,-106.445,-522.949,-122.559,-174.805,474.059,375.08028086789324
1239,1686714394.16,-84.473,-144.531,26.855,-130.859,474.069,365.65173050656574
1240,1686714394.17,-116.211,71.777,63.965,-164.551,474.073,370.4893844097212
1241,1686714394.17,20.508,-191.406,-40.527,66.895,474.076,375.7632966103866
1242,1686714394.18,77.637,-412.598,-70.801,130.371,474.08,367.0621978325139
1243,1686714394.18,-37.109,-72.754,59.57,-94.238,474.084,361.5285593848181
1244,1686714394.18,-116.699,77.637,73.242,-199.219,474.088,373.7789066580033
1245,1686714394.19,-17.09,-219.727,-80.566,4.883,474.092,379.1925708121542
1246,1686714394.19,82.031,-829.102,-301.758,161.133,474.096,374.957352006979
1247,1686714394.2,-2.93,-416.504,-17.09,-21.973,474.1,362.68223608730557
1248,1686714394.21,-114.258,79.59,96.191,-198.73,474.104,372.81963347695984
1249,1686714394.21,-57.129,-243.652,-21.484,-69.336,474.108,371.4718321568364
1250,1686714394.22,70.801,-308.594,10.742,123.535,474.112,370.52499560322144
1251,1686714394.22,39.551,27.832,117.676,25.391,474.116,368.7003928578432
1252,1686714394.22,-97.168,83.984,76.172,-187.988,474.12,367.7202380876208
1253,1686714394.23,-88.867,-570.312,-268.555,-107.91,474.124,373.36967100012214
1254,1686714394.23,39.062,-828.125,-261.719,115.234,474.128,370.5433231998288
1255,1686714394.24,67.871,-328.613,35.156,90.82,474.132,366.9004705905663
1256,1686714394.24,-58.594,-259.277,-113.281,-128.906,474.136,377.8331217894528
1257,1686714394.24,-130.859,-687.988,-327.637,-166.992,474.14,374.2725595959965
1258,1686714394.25,-19.043,-530.273,-134.277,44.434,474.144,369.00699668789554
1259,1686714394.25,70.312,231.934,177.734,120.605,474.147,370.46429839509756
1260,1686714394.25,-31.25,62.012,4.883,-79.102,474.149,367.233459151727
1261,1686714394.26,-131.348,-232.91,-83.496,-192.871,474.152,368.7313745407754
1262,1686714394.26,-41.016,24.414,105.957,-23.926,474.156,371.9599406489677
1263,1686714394.27,81.055,262.207,155.762,129.883,474.16,364.4892840232109
1264,1686714394.27,20.508,-60.059,-41.992,5.371,474.164,366.00956959093213
1265,1686714394.27,-109.375,-601.562,-260.254,-171.387,474.168,370.9305785985431
1266,1686714394.28,-73.242,-545.41,-157.715,-79.102,474.172,372.8341285184028
1267,1686714394.28,67.871,54.688,129.395,116.699,474.176,364.6375607608514
1268,1686714394.28,62.988,-90.332,-74.219,68.848,474.18,366.97414104444204
1269,1686714394.29,-82.031,-882.324,-414.551,-131.348,474.184,370.2066488042332
1270,1686714394.29,-112.793,-399.902,0.977,-141.602,474.188,365.46835475995886
1271,1686714394.3,31.25,225.098,154.785,72.754,474.191,369.6079095397228
1272,1686714394.3,69.336,-33.203,6.348,105.957,474.194,374.0979893031868
1273,1686714394.3,-62.012,-247.07,-11.23,-118.652,474.198,373.05961871887655
1274,1686714394.31,-120.117,-47.852,37.598,-190.918,474.202,370.19008289288513
1275,1686714394.31,-12.695,124.512,119.629,14.16,474.205,369.0955103403758
1276,1686714394.32,65.43,-57.617,26.855,137.207,474.209,372.89093407579986
1277,1686714394.32,-30.762,-414.062,-206.543,-39.062,474.213,374.8875558352302
1278,1686714394.32,-142.09,-553.711,-210.449,-192.871,474.217,370.6197757428063
1279,1686714394.33,-73.73,-408.691,5.371,-52.246,474.221,368.5098480001224
1280,1686714394.33,50.781,-612.305,-183.105,131.348,474.225,372.92919981669644
1281,1686714394.33,0.0,-1000.0,-489.746,28.809,474.229,365.95582889699506
1282,1686714394.34,-129.883,-478.027,-98.633,-183.594,474.233,378.3901887733119
1283,1686714394.34,-98.633,-55.176,65.43,-110.84,474.237,372.4779165382019
1284,1686714394.34,38.574,-100.586,27.832,110.352,474.239,373.1558628007892
1285,1686714394.35,45.41,126.465,98.633,54.688,474.243,368.5864449341496
1286,1686714394.35,-87.402,139.648,51.758,-163.574,474.247,375.73683312590634
1287,1686714394.36,-120.605,-93.75,-13.184,-154.297,474.251,373.2048523936743
1288,1686714394.36,16.602,-182.129,-24.902,65.918,474.255,369.6902883717986
1289,1686714394.36,76.172,-206.055,-24.902,118.164,474.259,369.37146761308907
1290,1686714394.37,-46.875,-179.199,36.621,-99.609,474.263,362.9023606112179
1291,1686714394.37,-129.395,-325.195,-94.238,-187.012,474.266,366.8298975412569
1292,1686714394.38,-19.531,-701.172,-283.203,19.531,474.27,368.92068795581645
1293,1686714394.38,71.289,-332.031,-30.273,132.812,474.274,373.05978636017755
1294,1686714394.38,-16.113,-70.312,61.523,-43.457,474.278,362.1524344670213
1295,1686714394.39,-130.859,-476.562,-162.109,-186.523,474.282,364.3499914776806
