,timestamps,TP9,AF7,AF8,TP10,Secondary Timestamp,emg_signal
0,1686197942.286,-20.996,132.812,173.34,-22.461,1347.196,375
1,1686197942.29,32.227,165.039,110.352,5.371,1347.2,375
2,1686197942.294,-0.977,-50.293,30.273,-25.391,1347.204,375
3,1686197942.298,-52.246,-209.961,-47.852,-50.293,1347.208,375
4,1686197942.302,-33.203,-345.703,-74.707,-23.926,1347.212,375
5,1686197942.306,26.855,-244.629,75.195,2.93,1347.216,375
6,1686197942.309,15.137,-687.5,-272.461,-10.742,1347.22,375
7,1686197942.313,-44.922,-980.469,-356.445,-36.133,1347.224,375
8,1686197942.317,-31.738,-159.18,132.812,-37.109,1347.227,375
9,1686197942.321,18.555,41.504,111.816,-0.977,1347.231,375
10,1686197942.325,16.113,-123.535,29.297,-5.371,1347.235,376
11,1686197942.329,-33.203,116.699,109.863,-51.758,1347.239,376
12,1686197942.332,-53.711,169.434,101.074,-51.758,1347.241,376
13,1686197942.336,-4.883,-34.18,41.016,-4.883,1347.245,376
14,1686197942.34,30.762,-114.258,25.391,8.301,1347.249,376
15,1686197942.344,-6.348,87.402,94.238,-32.227,1347.253,376
16,1686197942.348,-43.945,123.047,77.148,-48.828,1347.257,376
17,1686197942.352,-21.484,-470.703,-149.414,-6.348,1347.261,376
18,1686197942.355,23.926,-564.941,-106.445,16.602,1347.265,375
19,1686197942.359,0.488,0.0,100.586,-16.602,1347.269,375
20,1686197942.363,-55.176,-139.648,-63.477,-47.852,1347.273,375
21,1686197942.367,-46.875,-699.707,-301.758,-28.32,1347.276,375
22,1686197942.371,-0.977,-618.652,-119.629,-3.418,1347.28,375
23,1686197942.375,8.789,138.672,165.039,-26.367,1347.284,375
24,1686197942.391,-53.711,9.277,0.977,-51.27,1347.287,374
25,1686197942.395,-79.102,-235.84,7.324,-37.598,1347.291,375
26,1686197942.399,-19.043,32.715,158.203,2.93,1347.295,375
27,1686197942.403,1.953,-31.738,79.59,11.23,1347.299,375
28,1686197942.407,-38.574,-377.93,-118.164,-28.32,1347.303,375
29,1686197942.411,-63.477,-834.961,-375.0,-45.41,1347.307,375
30,1686197942.414,-20.02,-650.391,-117.188,-3.418,1347.31,375
31,1686197942.418,21.484,192.383,276.367,11.719,1347.314,375
32,1686197942.422,-16.602,-26.367,4.883,-36.133,1347.318,375
33,1686197942.426,-61.523,-508.301,-128.418,-60.059,1347.322,375
34,1686197942.43,-36.621,-276.367,53.711,-10.254,1347.326,375
35,1686197942.434,19.531,52.246,164.551,21.484,1347.33,375
36,1686197942.435,-6.836,-214.355,-76.66,-12.695,1347.332,375
37,1686197942.439,-63.965,-581.543,-213.867,-43.457,1347.336,375
38,1686197942.443,-50.781,-85.938,117.188,-30.273,1347.34,375
39,1686197942.447,5.859,165.527,156.25,0.977,1347.344,375
40,1686197942.451,12.695,-116.699,-2.93,-22.461,1347.348,375
41,1686197942.455,-37.598,-519.531,-191.406,-66.895,1347.352,374
42,1686197942.458,-54.199,-301.27,-20.508,-56.641,1347.355,374
43,1686197942.462,-4.395,169.922,199.219,-8.789,1347.359,374
44,1686197942.466,10.254,-415.039,-138.184,-0.488,1347.363,374
45,1686197942.47,-35.156,-774.902,-239.258,-36.621,1347.367,374
46,1686197942.474,-56.152,-39.062,134.766,-48.34,1347.371,374
47,1686197942.478,-22.461,91.797,121.094,-20.508,1347.375,375
48,1686197942.496,15.625,-111.816,74.707,-2.93,1347.393,375
49,1686197942.5,-6.348,-245.117,17.09,-35.645,1347.397,375
50,1686197942.504,-47.363,-123.535,42.969,-58.105,1347.401,375
51,1686197942.508,-25.879,-90.82,97.168,-20.996,1347.405,375
52,1686197942.512,15.625,-682.129,-198.73,10.742,1347.409,375
53,1686197942.516,-11.23,-890.137,-297.363,-20.508,1347.413,375
54,1686197942.519,-55.176,-298.828,69.336,-61.035,1347.417,375
55,1686197942.523,-43.457,-118.652,86.914,-40.039,1347.42,375
56,1686197942.526,-29.297,-201.66,57.617,-15.625,1347.424,375
57,1686197942.527,2.93,-640.137,-131.348,-18.555,1347.424,375
58,1686197942.53,4.883,173.828,167.969,-9.277,1347.428,375
59,1686197942.531,15.137,-311.035,70.801,-41.992,1347.428,375
60,1686197942.534,-30.273,129.395,88.379,-36.133,1347.432,375
61,1686197942.535,-46.387,2.93,86.426,-65.918,1347.432,375
62,1686197942.538,-70.801,-268.066,-51.27,-51.27,1347.436,375
63,1686197942.539,-85.938,-426.27,-95.703,-54.688,1347.436,375
64,1686197942.542,-53.711,-395.508,-39.551,-21.484,1347.44,375
65,1686197942.546,-11.23,-200.684,56.152,4.883,1347.444,375
66,1686197942.549,-25.391,-271.484,-57.129,-39.551,1347.447,375
67,1686197942.553,-81.543,-657.715,-293.457,-62.988,1347.451,375
68,1686197942.557,-70.801,-541.016,-91.309,-27.832,1347.455,375
69,1686197942.561,-8.789,139.16,218.262,-4.395,1347.459,375
70,1686197942.565,-12.207,196.289,121.094,-15.625,1347.463,376
71,1686197942.569,-71.777,-541.504,-256.348,-46.875,1347.467,376
72,1686197942.571,-75.684,-781.738,-238.281,-45.41,1347.467,376
73,1686197942.575,-9.766,32.715,198.242,0.0,1347.471,376
74,1686197942.579,6.348,112.305,103.516,-8.789,1347.475,376
75,1686197942.583,-33.203,-460.449,-138.672,-57.617,1347.479,376
76,1686197942.587,-51.758,-356.445,-36.621,-49.316,1347.483,376
77,1686197942.591,-20.996,-181.152,78.613,-8.789,1347.487,376
78,1686197942.594,15.137,-327.637,24.902,-6.836,1347.491,376
79,1686197942.598,-13.184,-779.785,-325.684,-32.227,1347.495,376
80,1686197942.602,-55.176,-906.25,-357.91,-44.434,1347.498,376
81,1686197942.606,-15.625,-4.883,197.754,-32.227,1347.502,375
82,1686197942.61,28.32,-13.672,90.82,1.465,1347.506,375
83,1686197942.614,0.488,-493.652,-106.445,-21.973,1347.51,375
84,1686197942.617,-46.387,-67.383,114.746,-72.266,1347.515,376
85,1686197942.621,-45.41,228.516,183.594,-44.434,1347.519,376
86,1686197942.625,-4.883,25.391,76.66,-4.883,1347.523,376
87,1686197942.629,2.93,-48.34,62.012,-22.461,1347.527,376
88,1686197942.633,-44.922,48.34,64.453,-48.34,1347.53,376
89,1686197942.637,-47.852,-142.09,-66.406,-32.715,1347.534,376
90,1686197942.64,4.395,-641.113,-224.121,4.395,1347.538,376
91,1686197942.644,22.461,-672.852,-165.527,-6.348,1347.542,376
92,1686197942.648,-14.16,-61.035,71.289,-34.668,1347.546,376
93,1686197942.652,-50.293,-195.801,-31.25,-32.715,1347.55,376
94,1686197942.656,-23.926,-497.559,-48.34,-9.277,1347.554,376
95,1686197942.66,6.348,-190.918,93.262,-4.395,1347.558,376
96,1686197942.661,-22.461,174.805,134.277,-45.41,1347.571,376
97,1686197942.665,-51.758,-56.152,-9.277,-62.012,1347.575,376
98,1686197942.669,-29.297,-198.73,19.043,-37.598,1347.579,375
99,1686197942.673,14.648,-179.688,72.266,-11.719,1347.583,375
100,1686197942.677,3.418,-161.133,14.16,-26.367,1347.587,375
101,1686197942.681,-49.805,-253.418,-82.52,-54.688,1347.591,375
102,1686197942.684,-53.223,-869.629,-371.094,-15.137,1347.594,375
103,1686197942.688,-1.465,-722.168,-155.273,25.879,1347.598,375
104,1686197942.692,7.324,139.648,228.027,-7.324,1347.602,375
105,1686197942.696,-49.805,-55.176,-0.488,-42.969,1347.606,375
106,1686197942.7,-62.012,-264.648,-55.664,-30.273,1347.61,375
107,1686197942.704,-3.418,-72.754,80.566,8.301,1347.614,375
108,1686197942.708,27.832,65.43,148.926,13.672,1347.608,375
109,1686197942.712,-25.879,-240.723,-103.027,-12.695,1347.612,375
110,1686197942.716,-63.477,-565.43,-207.031,-24.414,1347.616,375
111,1686197942.72,-21.973,6.836,148.926,-0.977,1347.62,375
112,1686197942.724,11.719,109.375,127.93,1.953,1347.624,375
113,1686197942.728,-25.391,-562.988,-218.262,-40.039,1347.628,376
114,1686197942.731,-69.824,-733.887,-241.699,-56.152,1347.632,376
115,1686197942.735,-41.992,52.734,164.551,-31.738,1347.636,376
116,1686197942.739,10.254,215.82,143.066,-21.484,1347.64,376
117,1686197942.743,2.441,-162.109,-23.926,-41.016,1347.644,376
118,1686197942.747,-25.391,-174.805,-6.348,-45.41,1347.647,376
119,1686197942.751,-12.695,126.953,111.328,-15.625,1347.651,376
120,1686197942.766,-4.395,164.062,92.285,-8.789,1347.666,375
121,1686197942.77,-31.25,-113.77,-13.184,-34.668,1347.67,375
122,1686197942.774,-70.801,-346.68,-123.047,-55.664,1347.674,375
123,1686197942.778,-78.125,-372.559,-128.906,-41.016,1347.678,375
124,1686197942.782,-26.367,-244.629,32.715,-1.953,1347.682,375
125,1686197942.786,-8.301,-668.945,-248.047,1.953,1347.686,375
126,1686197942.789,-53.711,-1000.0,-386.719,-27.832,1347.69,375
127,1686197942.793,-69.824,-228.027,106.445,-35.645,1347.694,375
128,1686197942.797,-23.438,27.344,116.211,12.207,1347.698,375
129,1686197942.801,13.672,-81.543,88.379,40.039,1347.701,375
130,1686197942.805,-13.184,152.344,146.973,16.602,1347.705,375
131,1686197942.809,-54.199,142.09,67.871,6.836,1347.709,376
132,1686197942.81,-40.527,-84.961,21.484,35.645,1347.708,376
133,1686197942.814,12.207,-83.984,48.828,62.5,1347.711,376
134,1686197942.818,8.301,168.945,109.375,39.062,1347.715,376
135,1686197942.822,-46.875,92.773,48.828,-0.977,1347.719,376
136,1686197942.826,-43.457,-270.996,-71.777,10.254,1347.723,376
137,1686197942.83,2.441,-410.645,-58.594,39.551,1347.727,376
138,1686197942.833,16.602,-342.773,-31.25,38.086,1347.731,376
139,1686197942.837,-23.926,-171.875,35.156,12.207,1347.735,376
140,1686197942.841,-47.363,-517.09,-179.688,12.207,1347.739,376
141,1686197942.845,-10.742,-852.051,-292.48,38.086,1347.743,376
142,1686197942.849,29.297,-30.762,133.301,45.41,1347.747,376
143,1686197942.853,-3.418,122.07,88.867,16.113,1347.751,376
144,1686197942.855,-50.293,-223.145,-24.902,0.977,1347.752,376
145,1686197942.859,-19.043,-49.805,86.914,25.391,1347.756,376
146,1686197942.863,22.461,133.789,132.812,37.598,1347.76,376
147,1686197942.867,-0.488,-182.129,-64.941,15.625,1347.764,376
148,1686197942.871,-49.316,-715.82,-281.738,-6.348,1347.768,376
149,1686197942.875,-40.527,-692.383,-127.93,17.578,1347.772,376
150,1686197942.878,20.996,-146.973,119.629,50.293,1347.776,376
151,1686197942.882,23.926,-104.492,39.062,30.273,1347.779,376
152,1686197942.886,-38.086,-842.773,-363.281,0.0,1347.783,376
153,1686197942.89,-38.086,-633.301,-143.555,12.207,1347.787,376
154,1686197942.894,15.137,252.93,246.094,34.18,1347.791,376
155,1686197942.898,29.297,0.977,39.062,12.695,1347.795,376
156,1686197942.902,-13.672,-268.066,-17.578,-23.926,1347.799,376
157,1686197942.906,-39.551,68.848,118.652,-18.555,1347.803,377
158,1686197942.91,0.488,234.863,145.996,21.973,1347.807,377
159,1686197942.914,28.809,-20.996,44.922,31.25,1347.811,377
160,1686197942.918,-5.371,-210.938,-9.766,-2.93,1347.815,377
161,1686197942.922,-40.039,-295.898,-91.309,-12.695,1347.819,377
162,1686197942.925,-21.973,-264.16,-14.648,13.672,1347.823,377
163,1686197942.929,15.137,-557.617,-145.996,32.227,1347.827,377
164,1686197942.933,1.465,-729.98,-251.953,9.766,1347.83,376
165,1686197942.937,-39.551,-241.699,-5.371,-35.645,1347.834,376
166,1686197942.941,-32.227,-276.855,-13.184,-19.043,1347.838,376
167,1686197942.945,10.742,-462.402,-10.742,15.137,1347.842,376
168,1686197942.945,12.207,-246.094,61.523,-10.254,1347.842,376
169,1686197942.949,-32.715,83.984,117.188,-46.875,1347.846,376
170,1686197942.953,-44.922,-57.617,16.113,-36.621,1347.85,376
171,1686197942.957,2.93,-309.082,-15.625,-2.441,1347.854,376
172,1686197942.961,26.367,-203.125,58.105,1.953,1347.858,376
173,1686197942.965,-21.484,-192.383,-18.066,-36.621,1347.862,376
174,1686197942.968,-60.059,-398.926,-125.0,-45.898,1347.866,376
175,1686197942.972,-25.391,-854.98,-315.918,-7.324,1347.87,377
176,1686197942.976,18.066,-707.52,-144.531,-0.488,1347.873,377
177,1686197942.98,-8.789,105.469,194.824,-40.039,1347.877,377
178,1686197942.984,-43.457,-112.793,1.953,-58.594,1347.881,377
179,1686197942.988,-17.578,-211.914,40.039,-35.645,1347.885,377
180,1686197942.993,13.672,-4.883,130.371,-23.926,1347.893,377
181,1686197942.997,-2.93,30.762,105.957,-41.016,1347.897,377
182,1686197943.001,-56.152,-348.633,-142.09,-68.848,1347.901,378
183,1686197943.005,-65.43,-542.969,-172.852,-55.176,1347.905,378
184,1686197943.009,-9.766,-9.277,125.488,-16.602,1347.909,378
185,1686197943.013,2.93,-128.418,45.898,-26.367,1347.912,380
186,1686197943.016,-56.152,-703.613,-320.312,-67.871,1347.916,380
187,1686197943.02,-71.777,-750.0,-264.648,-65.43,1347.92,380
188,1686197943.024,-7.324,56.641,212.891,-28.32,1347.924,380
189,1686197943.028,25.391,192.871,139.648,-22.949,1347.928,380
190,1686197943.032,-24.414,-161.133,-40.527,-60.547,1347.932,382
191,1686197943.035,-19.531,166.016,172.363,-33.203,1347.946,382
192,1686197943.036,-67.383,-117.676,42.48,-74.707,1347.936,382
193,1686197943.039,29.785,146.484,87.402,-16.602,1347.95,382
194,1686197943.043,-3.418,-158.203,-25.879,-43.457,1347.954,384
195,1686197943.047,-60.059,-347.168,-125.0,-56.641,1347.958,384
196,1686197943.051,-44.922,-396.973,-106.445,-35.645,1347.962,384
197,1686197943.055,15.625,-327.148,31.738,-1.465,1347.966,384
198,1686197943.058,14.648,-731.934,-308.105,-6.348,1347.969,384
199,1686197943.062,-49.805,-1000.0,-418.457,-45.898,1347.973,384
200,1686197943.066,-57.617,-227.539,139.648,-50.781,1347.977,384
201,1686197943.07,-1.465,18.066,145.02,-10.254,1347.981,385
202,1686197943.074,9.277,-127.441,42.969,-12.207,1347.985,385
203,1686197943.078,-39.551,62.5,84.961,-53.223,1347.989,385
204,1686197943.082,-56.152,76.66,84.961,-57.617,1347.991,385
205,1686197943.086,-1.953,-69.824,67.871,-11.23,1347.995,388
206,1686197943.09,27.344,-84.961,74.707,4.395,1347.999,388
207,1686197943.094,-13.184,84.473,108.887,-36.621,1348.002,388
208,1686197943.098,-49.316,15.625,32.715,-42.969,1348.006,388
209,1686197943.102,-23.926,-508.301,-142.578,-10.254,1348.01,389
210,1686197943.105,19.043,-744.141,-170.41,-2.441,1348.014,389
211,1686197943.109,-1.465,-271.973,65.918,-32.715,1348.018,389
212,1686197943.113,-50.781,-31.738,56.641,-61.523,1348.022,390
213,1686197943.117,-46.875,-506.348,-160.156,-40.039,1348.026,390
214,1686197943.121,-1.953,-450.195,-19.043,-16.602,1348.03,390
215,1686197943.125,1.953,126.953,153.32,-34.18,1348.034,393
216,1686197943.141,-52.734,-42.969,4.883,-64.453,1348.037,396
217,1686197943.145,-60.059,-500.488,-107.422,-52.246,1348.041,396
218,1686197943.149,-4.883,-310.547,53.223,-3.418,1348.045,396
219,1686197943.153,10.254,-139.648,41.504,0.488,1348.049,401
220,1686197943.157,-44.434,-426.27,-158.203,-40.039,1348.053,401
221,1686197943.161,-78.125,-865.723,-380.859,-44.434,1348.057,401
222,1686197943.164,-35.156,-699.707,-177.246,-11.23,1348.061,401
223,1686197943.168,7.324,119.629,246.094,1.953,1348.065,403
224,1686197943.172,-21.973,-167.969,14.648,-26.367,1348.069,403
225,1686197943.176,-66.895,-658.203,-168.945,-52.734,1348.072,403
226,1686197943.18,-48.828,-163.574,110.84,-20.02,1348.076,403
227,1686197943.184,3.418,283.203,216.309,2.93,1348.08,407
228,1686197943.186,-14.16,-77.148,5.371,-25.879,1348.082,407
229,1686197943.19,-68.359,-285.156,-43.945,-50.781,1348.086,407
230,1686197943.194,-52.246,31.25,116.699,-31.25,1348.09,410
231,1686197943.198,9.766,229.492,186.523,1.953,1348.094,410
232,1686197943.202,5.859,-104.98,-32.227,-16.113,1348.098,410
233,1686197943.206,-50.781,-596.68,-206.543,-49.316,1348.102,410
234,1686197943.209,-56.152,-365.723,-4.883,-43.945,1348.105,413
235,1686197943.213,-12.695,153.32,196.777,-16.113,1348.109,413
236,1686197943.217,0.977,-387.207,-135.254,-3.906,1348.113,413
237,1686197943.221,-48.828,-787.598,-314.453,-35.156,1348.117,415
238,1686197943.225,-67.871,-263.184,3.418,-55.664,1348.121,415
239,1686197943.229,-11.23,-211.914,35.156,-16.113,1348.125,415
240,1686197943.231,19.531,-409.18,-17.578,-3.418,1348.127,415
241,1686197943.235,-14.16,-289.062,20.508,-43.457,1348.131,416
242,1686197943.239,-49.316,1.953,88.379,-54.688,1348.135,416
243,1686197943.243,-32.227,-167.48,41.992,-15.625,1348.139,416
244,1686197943.247,13.672,-583.008,-71.777,14.648,1348.143,416
245,1686197943.251,4.883,-662.109,-103.516,-10.742,1348.147,416
246,1686197943.254,-44.922,-257.324,29.297,-39.551,1348.151,416
247,1686197943.258,-46.875,-147.949,31.738,-20.02,1348.155,416
248,1686197943.262,-3.418,-624.023,-105.957,18.555,1348.158,416
249,1686197943.266,7.812,-316.895,62.988,-7.812,1348.162,415
250,1686197943.27,-47.363,164.062,124.023,-48.34,1348.166,415
251,1686197943.274,-63.477,-165.039,-22.949,-35.645,1348.17,415
252,1686197943.278,-16.602,-175.781,47.852,-11.719,1348.178,416
253,1686197943.282,1.465,-66.895,90.332,-10.742,1348.182,416
254,1686197943.286,-32.227,-20.02,79.102,-34.668,1348.186,416
255,1686197943.29,-63.965,-364.746,-107.422,-38.086,1348.19,416
256,1686197943.294,-41.504,-507.812,-120.605,-18.066,1348.194,412
257,1686197943.298,1.953,-104.492,132.812,-7.812,1348.197,412
258,1686197943.301,-18.066,-240.723,-18.555,-36.133,1348.201,412
259,1686197943.305,-68.848,-684.57,-331.055,-49.316,1348.205,409
260,1686197943.309,-59.082,-695.801,-210.449,-23.926,1348.209,409
261,1686197943.313,-2.93,120.605,220.215,-16.602,1348.213,409
262,1686197943.317,-0.977,127.93,98.633,-33.691,1348.217,406
263,1686197943.321,-57.617,-242.676,-81.055,-62.012,1348.221,406
264,1686197943.321,-67.383,-129.395,27.344,-49.316,1348.217,406
265,1686197943.325,-9.277,185.547,172.852,-5.371,1348.221,406
266,1686197943.329,-3.906,54.199,45.898,-16.602,1348.225,406
267,1686197943.333,-66.406,-538.574,-220.703,-57.129,1348.229,404
268,1686197943.337,-84.961,-594.727,-195.312,-54.199,1348.233,404
269,1686197943.341,-34.668,-352.051,-22.949,-16.602,1348.237,404
270,1686197943.344,10.254,-283.691,43.457,-0.977,1348.241,404
271,1686197943.348,-34.18,-784.18,-352.051,-21.973,1348.245,401
272,1686197943.352,-93.262,-840.332,-288.086,-50.781,1348.249,401
273,1686197943.356,-50.781,61.035,243.652,-46.875,1348.252,401
274,1686197943.36,-0.977,60.059,110.84,-17.578,1348.256,400
275,1686197943.364,-20.996,-185.547,21.973,-33.203,1348.26,400
276,1686197943.367,-50.293,41.016,97.656,-61.523,1348.264,400
277,1686197943.371,-37.598,128.906,127.93,-41.504,1348.268,400
278,1686197943.375,6.836,-30.762,70.312,-4.883,1348.272,397
279,1686197943.379,-0.977,-102.539,20.02,-21.973,1348.276,397
280,1686197943.383,-56.152,33.203,31.25,-58.594,1348.28,397
281,1686197943.387,-67.871,-173.34,-23.438,-50.293,1348.284,393
282,1686197943.39,-13.184,-651.367,-220.703,-8.301,1348.288,393
283,1686197943.394,3.418,-901.367,-298.34,-12.207,1348.292,393
284,1686197943.398,-39.551,-272.949,35.156,-57.129,1348.296,393
285,1686197943.402,-60.547,39.062,102.051,-53.223,1348.3,392
286,1686197943.406,-20.02,-142.578,93.75,-12.695,1348.303,392
287,1686197943.41,12.695,-29.297,108.887,-10.254,1348.307,392
288,1686197943.411,-18.555,116.211,101.074,-41.504,1348.321,392
289,1686197943.415,-50.293,-17.578,19.531,-44.922,1348.325,390
290,1686197943.419,-21.973,-135.254,22.461,-17.09,1348.329,390
291,1686197943.423,24.414,-229.004,47.852,0.0,1348.333,390
292,1686197943.427,-1.953,-256.348,-37.598,-31.738,1348.337,389
293,1686197943.431,-60.059,-286.621,-123.535,-54.688,1348.341,389
294,1686197943.434,-51.758,-855.957,-353.027,-18.066,1348.344,389
295,1686197943.438,-4.883,-698.242,-159.668,13.184,1348.348,389
296,1686197943.442,1.953,120.117,210.449,-18.555,1348.352,389
297,1686197943.446,-47.363,-253.418,-59.082,-54.688,1348.356,389
298,1686197943.45,-58.105,-568.359,-127.441,-36.621,1348.36,389
299,1686197943.454,-5.859,-0.488,168.945,-8.301,1348.364,389
300,1686197943.457,20.508,307.617,191.895,-8.789,1348.366,387
301,1686197943.461,-24.414,-187.5,-102.051,-32.715,1348.37,387
302,1686197943.465,-49.805,-410.156,-141.113,-42.969,1348.374,387
303,1686197943.469,0.0,130.859,161.133,-11.23,1348.377,385
304,1686197943.473,33.203,314.453,151.367,7.324,1348.381,385
305,1686197943.477,-11.719,-403.809,-209.473,-26.367,1348.385,385
306,1686197943.48,-51.758,-741.211,-229.98,-51.758,1348.389,385
307,1686197943.484,-17.578,13.672,158.203,-22.949,1348.393,383
308,1686197943.488,32.227,294.922,166.504,4.883,1348.397,383
309,1686197943.492,12.695,-296.387,-42.969,-17.578,1348.401,383
310,1686197943.496,-42.969,-434.082,-48.34,-49.316,1348.405,384
311,1686197943.5,-40.527,-71.777,46.875,-33.691,1348.409,384
312,1686197943.515,0.0,-155.273,3.906,6.836,1348.412,383
313,1686197943.519,7.324,-396.973,-87.402,-7.812,1348.416,383
314,1686197943.523,-42.969,-284.18,-8.301,-49.316,1348.42,383
315,1686197943.527,-70.312,-173.828,-13.184,-44.434,1348.424,384
316,1686197943.531,-21.973,-234.863,29.785,-10.742,1348.428,384
317,1686197943.535,-0.977,-654.297,-175.293,-3.906,1348.432,384
318,1686197943.538,-41.992,-761.719,-235.352,-47.852,1348.436,383
319,1686197943.542,-65.43,76.66,171.387,-67.871,1348.44,383
320,1686197943.546,-30.273,26.855,69.336,-23.926,1348.443,383
321,1686197943.55,8.789,-195.312,-1.465,-10.254,1348.447,383
322,1686197943.554,-22.461,95.703,113.77,-47.852,1348.451,381
323,1686197943.558,-60.059,169.434,91.797,-56.152,1348.455,381
324,1686197943.561,-35.156,-43.945,11.719,-28.32,1348.461,381
325,1686197943.565,8.301,-87.402,36.133,-1.953,1348.465,380
326,1686197943.569,-13.184,-81.543,30.762,-24.902,1348.469,380
327,1686197943.573,-65.918,-10.254,38.086,-59.57,1348.472,380
328,1686197943.577,-62.988,-304.199,-84.473,-42.969,1348.476,380
329,1686197943.581,-10.742,-654.785,-177.734,-3.418,1348.48,380
330,1686197943.584,12.207,-197.266,62.012,-9.277,1348.484,380
331,1686197943.588,-29.297,113.77,100.586,-44.434,1348.488,380
332,1686197943.592,-53.711,-491.211,-225.586,-41.016,1348.492,380
333,1686197943.596,-16.113,-710.449,-182.617,-5.859,1348.496,380
334,1686197943.6,13.672,122.07,180.664,-5.371,1348.5,380
335,1686197943.604,-25.879,71.289,16.602,-43.457,1348.504,380
336,1686197943.605,-63.965,-244.141,-93.262,-57.617,1348.503,380
337,1686197943.609,-32.227,-27.832,57.129,-24.414,1348.506,380
338,1686197943.613,25.391,217.773,150.879,-3.418,1348.51,380
339,1686197943.617,-2.93,-63.477,-29.297,-24.902,1348.514,380
340,1686197943.621,-66.895,-697.754,-287.109,-58.105,1348.518,377
341,1686197943.625,-29.785,-626.465,-108.398,-29.785,1348.522,377
342,1686197943.628,20.02,-235.352,63.965,5.859,1348.526,377
343,1686197943.632,-16.113,-250.0,-0.977,-30.762,1348.53,377
344,1686197943.636,-70.801,-807.129,-345.215,-60.059,1348.534,377
345,1686197943.64,-68.848,-663.574,-204.59,-46.387,1348.538,377
346,1686197943.644,-14.16,262.207,265.137,-12.207,1348.542,377
347,1686197943.648,-6.836,91.797,56.641,-24.902,1348.546,375
348,1686197943.652,-60.547,-204.102,-30.273,-70.312,1348.562,375
349,1686197943.656,-81.055,25.391,110.352,-61.035,1348.566,375
350,1686197943.66,-30.762,186.035,130.371,-23.926,1348.57,374
351,1686197943.664,-6.348,-22.949,52.734,-23.926,1348.574,374
352,1686197943.668,-43.457,-207.031,-58.105,-62.012,1348.578,374
353,1686197943.672,-78.125,-317.383,-170.898,-70.312,1348.581,374
354,1686197943.675,-49.805,-301.27,-24.414,-35.645,1348.585,374
355,1686197943.679,0.0,-544.434,-139.16,-16.602,1348.589,372
356,1686197943.683,-30.273,-900.879,-333.008,-36.621,1348.593,372
357,1686197943.687,-70.801,-220.703,59.57,-63.965,1348.597,372
358,1686197943.691,-32.715,168.457,167.48,-46.875,1348.601,369
359,1686197943.695,11.23,-8.789,125.488,-16.602,1348.605,369
360,1686197943.696,5.371,12.695,108.398,-40.039,1348.592,369
361,1686197943.7,-33.203,125.488,93.75,-69.824,1348.596,369
362,1686197943.704,-48.828,29.297,14.648,-48.828,1348.6,366
363,1686197943.708,-13.672,-244.629,-24.414,-16.602,1348.604,366
364,1686197943.712,7.812,-224.121,56.641,-23.438,1348.608,366
365,1686197943.716,-34.668,-218.262,-61.523,-51.27,1348.612,366
366,1686197943.719,-69.336,-317.871,-154.297,-47.852,1348.616,363
367,1686197943.723,-29.785,-752.441,-245.605,-10.742,1348.62,363
368,1686197943.727,4.883,-565.43,-59.082,-8.789,1348.623,363
369,1686197943.731,-27.344,143.555,181.152,-46.387,1348.627,360
370,1686197943.735,-65.43,-262.695,-85.938,-57.129,1348.631,360
371,1686197943.739,-45.898,-805.664,-227.051,-24.902,1348.635,360
372,1686197943.743,6.348,-231.445,121.582,3.418,1348.642,360
373,1686197943.747,1.953,306.152,204.102,-21.973,1348.646,357
374,1686197943.751,-63.477,-137.207,-19.531,-57.129,1348.65,357
375,1686197943.755,-54.199,-122.07,62.988,-24.902,1348.654,357
376,1686197943.759,5.371,252.441,164.551,14.648,1348.658,353
377,1686197943.763,15.625,56.641,81.055,-12.207,1348.662,353
378,1686197943.766,-39.551,-610.84,-247.559,-45.41,1348.666,353
379,1686197943.77,-62.012,-701.66,-231.445,-39.551,1348.67,349
380,1686197943.774,0.0,139.648,232.91,-2.441,1348.674,349
381,1686197943.778,22.949,299.805,166.016,5.371,1348.678,349
382,1686197943.782,-24.414,-99.609,-18.555,-29.785,1348.681,349
383,1686197943.786,-16.602,4.883,88.867,-9.277,1348.685,349
384,1686197943.786,-51.27,-141.113,-10.742,-41.016,1348.685,349
385,1686197943.79,20.996,-105.469,50.293,2.441,1348.689,343
386,1686197943.794,-13.184,-187.5,33.691,-32.227,1348.693,343
387,1686197943.798,-60.547,-297.852,-35.156,-52.246,1348.697,343
388,1686197943.802,-36.621,-262.207,-35.645,-31.25,1348.701,337
389,1686197943.806,14.16,-67.383,127.441,-7.324,1348.705,337
390,1686197943.809,0.0,-645.508,-233.887,-20.508,1348.708,337
391,1686197943.813,-58.594,-1000.0,-375.488,-43.945,1348.712,333
392,1686197943.817,-49.805,-145.996,149.902,-38.574,1348.716,333
393,1686197943.821,2.441,104.004,149.414,-7.812,1348.72,333
394,1686197943.825,1.953,-109.863,47.363,-13.184,1348.724,333
395,1686197943.829,-43.457,101.074,109.863,-53.711,1348.728,329
396,1686197943.832,-65.43,168.945,119.141,-53.223,1348.741,329
397,1686197943.836,-25.879,26.367,73.242,-6.348,1348.745,329
398,1686197943.84,-0.977,-59.57,33.691,4.395,1348.749,326
399,1686197943.844,-49.316,-135.742,-18.555,-34.18,1348.753,326
400,1686197943.848,-70.312,-57.617,22.461,-50.781,1348.757,326
401,1686197943.852,-28.32,-439.453,-140.625,-9.277,1348.761,326
402,1686197943.855,1.953,-943.848,-314.453,20.02,1348.764,323
403,1686197943.859,-13.672,-299.805,37.598,-19.043,1348.768,323
404,1686197943.863,-51.27,63.965,121.094,-50.781,1348.772,323
405,1686197943.867,-40.527,-93.262,119.141,-27.344,1348.776,323
406,1686197943.871,8.301,62.5,172.852,2.441,1348.78,321
407,1686197943.875,4.395,263.184,129.883,-18.066,1348.784,321
408,1686197943.891,-41.992,7.324,-1.465,-50.781,1348.788,320
409,1686197943.895,-49.805,-227.539,5.859,-39.551,1348.791,320
410,1686197943.899,1.953,62.988,161.621,2.441,1348.795,320
411,1686197943.903,22.949,-35.645,20.02,-1.953,1348.799,320
412,1686197943.907,-29.297,-403.809,-189.453,-48.34,1348.803,320
413,1686197943.911,-58.594,-808.105,-388.672,-42.48,1348.807,323
414,1686197943.914,-19.531,-855.469,-231.934,-2.93,1348.811,323
415,1686197943.918,19.043,-85.449,195.801,-7.324,1348.815,323
416,1686197943.922,-10.254,-9.277,41.504,-51.27,1348.819,324
417,1686197943.926,-55.176,-583.984,-187.988,-64.941,1348.823,324
418,1686197943.93,-24.414,-206.543,86.426,-32.227,1348.827,324
419,1686197943.934,14.648,337.891,228.516,-19.531,1348.83,324
420,1686197943.935,-12.207,-30.273,-17.578,-45.41,1348.832,324
421,1686197943.939,-48.34,-271.973,-71.289,-62.988,1348.836,326
422,1686197943.943,-36.621,24.902,110.352,-35.645,1348.84,326
423,1686197943.947,2.93,213.867,158.691,-2.441,1348.844,326
424,1686197943.951,-0.977,-17.09,43.945,-25.879,1348.848,329
425,1686197943.955,-42.48,-464.844,-184.082,-57.617,1348.852,329
426,1686197943.958,-49.805,-402.832,-120.117,-36.621,1348.856,329
427,1686197943.962,3.906,85.449,161.621,-6.836,1348.859,329
428,1686197943.966,18.555,-360.352,-118.652,-13.184,1348.863,331
429,1686197943.97,-37.109,-937.5,-359.375,-38.086,1348.867,331
430,1686197943.974,-54.688,-256.348,35.645,-42.969,1348.871,331
431,1686197943.978,-9.277,73.73,125.488,2.441,1348.875,331
432,1686197943.981,15.137,-116.699,77.637,13.672,1348.877,334
433,1686197943.985,-21.484,-70.801,104.98,-38.574,1348.881,334
434,1686197943.989,-59.082,-5.859,70.801,-57.617,1348.885,334
435,1686197943.993,-36.621,-175.781,20.996,-20.996,1348.889,336
436,1686197943.997,4.395,-586.426,-82.52,1.953,1348.893,336
437,1686197944.001,-14.648,-697.754,-79.102,-28.809,1348.897,336
438,1686197944.004,-57.617,-253.418,56.152,-62.5,1348.901,336
439,1686197944.008,-52.734,-59.082,73.73,-40.527,1348.904,339
440,1686197944.012,-8.301,-561.523,-69.336,-2.441,1348.908,339
441,1686197944.016,-4.395,-345.215,58.105,-19.531,1348.912,339
442,1686197944.02,-55.664,45.41,78.613,-66.895,1348.916,341
443,1686197944.024,-74.707,-443.848,-143.555,-62.988,1348.92,341
444,1686197944.026,-31.25,-500.977,-56.152,-19.531,1348.923,341
445,1686197944.03,1.953,90.82,186.523,-16.113,1348.927,341
446,1686197944.034,-38.086,138.672,89.355,-38.086,1348.931,343
447,1686197944.038,-74.219,-270.508,-33.691,-40.527,1348.935,343
448,1686197944.042,-40.527,-206.055,59.57,-18.066,1348.939,343
449,1686197944.046,-5.859,-114.746,86.914,-10.254,1348.942,343
450,1686197944.049,-37.109,-308.105,-19.531,-45.898,1348.946,345
451,1686197944.053,-86.426,-707.031,-326.172,-64.453,1348.95,345
452,1686197944.057,-60.059,-712.891,-217.285,-35.156,1348.954,345
453,1686197944.061,4.395,81.543,240.723,-8.301,1348.958,348
454,1686197944.065,-13.184,155.273,122.559,-35.645,1348.962,348
455,1686197944.069,-67.383,-198.73,-49.316,-65.43,1348.966,348
456,1686197944.071,-52.734,-103.027,52.734,-41.016,1348.97,348
457,1686197944.075,-4.883,21.973,127.93,-3.906,1348.974,350
458,1686197944.079,-2.441,-196.777,19.531,-24.414,1348.978,350
459,1686197944.083,-60.059,-687.5,-272.461,-51.758,1348.982,350
460,1686197944.087,-66.406,-583.984,-144.043,-42.48,1348.986,350
461,1686197944.091,-4.395,-218.262,126.465,-17.578,1348.99,351
462,1686197944.094,9.766,-273.438,28.809,-5.859,1348.994,351
463,1686197944.098,-49.316,-707.52,-237.305,-31.738,1348.998,351
464,1686197944.102,-75.195,-584.473,-73.242,-48.828,1349.002,353
465,1686197944.106,-29.785,226.074,255.859,-25.879,1349.006,353
466,1686197944.11,4.395,50.781,95.703,-9.277,1349.009,353
467,1686197944.114,-17.09,-204.102,18.066,-42.969,1349.013,353
468,1686197944.117,-60.059,28.809,107.422,-66.895,1349.014,355
469,1686197944.121,-39.551,172.363,171.875,-35.645,1349.018,355
470,1686197944.125,4.395,-11.719,58.594,-0.488,1349.022,355
471,1686197944.129,1.953,-176.27,0.977,-25.879,1349.026,355
472,1686197944.133,-47.852,-264.16,-73.242,-57.129,1349.03,357
473,1686197944.137,-61.523,-333.496,-87.402,-43.457,1349.034,357
474,1686197944.14,-9.277,-572.754,-121.582,-6.836,1349.038,357
475,1686197944.144,7.812,-926.27,-278.809,-5.371,1349.041,358
476,1686197944.148,-30.762,-312.5,56.152,-51.758,1349.045,358
477,1686197944.152,-46.387,64.941,131.836,-52.734,1349.049,358
478,1686197944.156,-6.836,-82.031,86.914,-9.277,1349.053,360
479,1686197944.16,14.648,94.727,165.527,-5.371,1349.057,360
480,1686197944.176,-21.484,196.289,98.633,-43.945,1349.072,361
481,1686197944.18,-62.988,-24.902,-15.625,-62.012,1349.076,361
482,1686197944.184,-34.18,-113.77,51.27,-31.25,1349.08,362
483,1686197944.188,19.043,-142.578,99.609,-4.395,1349.084,362
484,1686197944.192,-3.906,-183.105,-11.23,-23.926,1349.088,362
485,1686197944.196,-50.293,-298.828,-119.629,-45.898,1349.092,363
486,1686197944.199,-36.621,-819.336,-339.844,-25.391,1349.096,363
487,1686197944.203,4.395,-956.055,-281.25,8.789,1349.1,363
488,1686197944.207,9.277,-171.387,142.09,-7.324,1349.104,363
489,1686197944.207,25.391,317.383,196.777,-4.883,1349.118,363
490,1686197944.211,-31.25,-55.176,36.133,-43.457,1349.107,363
491,1686197944.211,-33.203,-84.473,-30.273,-46.875,1349.122,363
492,1686197944.215,-43.945,-377.441,-77.637,-28.32,1349.111,364
493,1686197944.215,-48.828,-260.742,-33.203,-39.551,1349.126,364
494,1686197944.219,0.0,62.988,140.137,-0.977,1349.13,364
495,1686197944.219,11.23,37.109,183.105,13.184,1349.115,364
496,1686197944.223,18.555,141.602,121.094,1.953,1349.134,364
497,1686197944.227,-25.391,-344.238,-99.609,-33.203,1349.138,366
498,1686197944.23,-59.082,-529.297,-107.91,-42.48,1349.141,366
499,1686197944.234,-24.902,-23.926,127.93,-11.719,1349.145,366
500,1686197944.238,20.02,206.543,168.945,13.184,1349.149,366
501,1686197944.242,-4.883,-462.402,-207.52,-4.883,1349.153,367
502,1686197944.246,-66.406,-905.273,-371.582,-36.621,1349.157,367
503,1686197944.25,-39.062,-158.691,105.469,-26.367,1349.161,367
504,1686197944.266,23.438,130.859,162.109,7.324,1349.162,369
505,1686197944.27,10.254,-165.039,-1.465,-4.395,1349.166,369
506,1686197944.274,-39.551,-152.344,52.246,-38.086,1349.17,369
507,1686197944.278,-44.922,-212.402,34.668,-29.297,1349.174,369
508,1686197944.282,-4.395,-291.504,47.852,1.953,1349.178,369
509,1686197944.286,-0.488,-703.125,-222.656,-5.859,1349.182,370
510,1686197944.289,-42.48,-793.457,-263.184,-46.387,1349.186,370
511,1686197944.293,-59.082,-20.02,184.082,-53.223,1349.19,370
512,1686197944.297,-26.367,-9.766,94.238,-12.695,1349.194,371
513,1686197944.301,7.812,-207.52,12.695,1.953,1349.197,371
514,1686197944.305,-11.23,16.602,99.121,-29.297,1349.201,371
515,1686197944.309,-55.176,-41.504,42.48,-50.781,1349.205,373
516,1686197944.31,-40.039,-460.938,-96.68,-31.738,1349.207,373
517,1686197944.314,3.906,-511.719,-80.078,-17.09,1349.211,373
518,1686197944.318,-8.789,-11.719,114.746,-36.621,1349.215,373
519,1686197944.322,-60.547,29.297,68.848,-61.523,1349.219,373
520,1686197944.326,-61.035,-314.941,-31.25,-48.34,1349.223,374
521,1686197944.33,-5.371,-466.309,-6.836,-18.066,1349.227,374
522,1686197944.333,4.395,-201.172,96.68,-34.18,1349.231,374
523,1686197944.337,-48.828,69.824,127.93,-68.848,1349.234,374
524,1686197944.341,-77.637,-538.086,-207.031,-48.828,1349.238,374
525,1686197944.345,-21.973,-711.426,-189.941,-4.395,1349.242,374
526,1686197944.349,17.09,101.074,181.152,-17.09,1349.246,374
527,1686197944.353,-26.855,41.504,50.781,-56.641,1349.25,374
528,1686197944.356,-61.035,-292.48,-56.641,-51.27,1349.256,374
529,1686197944.36,-21.973,-70.801,84.473,-20.02,1349.26,374
530,1686197944.364,9.277,-57.129,84.961,-13.672,1349.264,375
531,1686197944.368,-24.414,-367.676,-94.238,-43.945,1349.268,375
532,1686197944.372,-67.871,-785.645,-374.512,-58.105,1349.272,375
533,1686197944.376,-56.152,-900.391,-275.391,-32.227,1349.276,375
534,1686197944.379,-12.695,-293.457,161.133,-19.043,1349.279,376
535,1686197944.383,-10.254,-107.422,39.551,-41.992,1349.283,376
536,1686197944.387,-58.105,-661.133,-217.285,-62.5,1349.287,376
537,1686197944.391,-66.895,-378.418,56.641,-50.293,1349.291,376
538,1686197944.395,-12.207,227.539,215.82,-13.184,1349.295,377
539,1686197944.399,-0.977,-72.754,57.617,-10.742,1349.299,377
540,1686197944.401,-45.898,-309.082,-6.836,-52.734,1349.299,377
541,1686197944.405,-61.035,-54.199,87.402,-61.523,1349.303,377
542,1686197944.409,-12.695,132.812,159.18,-16.113,1349.307,377
543,1686197944.413,3.906,-68.359,55.664,-1.465,1349.311,377
544,1686197944.417,-44.922,-440.918,-139.16,-39.551,1349.315,377
545,1686197944.421,-71.289,-517.09,-197.266,-44.922,1349.318,377
546,1686197944.424,-42.969,-324.707,16.602,-11.719,1349.322,377
547,1686197944.428,-1.953,-564.453,-97.656,11.719,1349.326,377
548,1686197944.432,-27.832,-937.5,-334.473,-15.137,1349.33,377
549,1686197944.436,-63.965,-340.332,49.316,-55.176,1349.334,376
550,1686197944.44,-36.621,68.848,180.664,-27.344,1349.338,376
551,1686197944.444,13.184,-60.059,134.277,-1.465,1349.342,376
552,1686197944.45,8.301,-5.371,112.793,-22.461,1349.346,376
553,1686197944.454,-47.852,24.902,44.434,-56.152,1349.35,376
554,1686197944.458,-55.176,-87.402,28.809,-50.781,1349.354,376
555,1686197944.462,-6.348,-336.426,-54.688,-7.324,1349.357,377
556,1686197944.466,8.301,-278.32,11.23,-17.578,1349.361,377
557,1686197944.47,-38.574,-277.344,-56.641,-51.27,1349.365,377
558,1686197944.473,-58.594,-444.336,-137.207,-45.898,1349.369,377
559,1686197944.477,-22.461,-804.688,-283.691,-0.488,1349.373,377
560,1686197944.481,0.977,-828.125,-203.125,10.742,1349.377,377
561,1686197944.485,-21.973,-47.363,188.477,-38.086,1349.381,377
562,1686197944.489,-55.176,-138.672,40.527,-55.664,1349.385,376
563,1686197944.492,15.625,161.621,221.191,3.418,1349.389,376
564,1686197944.493,-27.344,-287.598,34.18,-17.09,1349.389,376
565,1686197944.496,-4.395,230.957,163.574,-22.949,1349.393,376
566,1686197944.5,-51.758,-226.074,-63.965,-46.875,1349.397,375
567,1686197944.504,-41.992,-266.113,3.418,-29.297,1349.401,375
568,1686197944.508,7.324,71.289,135.254,-1.953,1349.405,375
569,1686197944.512,8.301,-119.629,9.766,-22.461,1349.409,375
570,1686197944.515,-52.734,-691.895,-335.938,-57.129,1349.413,375
571,1686197944.519,-71.289,-749.512,-258.301,-46.875,1349.417,375
572,1686197944.523,-4.883,34.18,228.516,-17.578,1349.421,375
573,1686197944.527,17.09,174.805,145.02,-14.16,1349.424,375
574,1686197944.531,-42.969,-319.824,-70.312,-51.27,1349.428,376
575,1686197944.535,-68.359,-302.246,-2.441,-63.477,1349.432,376
576,1686197944.536,-14.16,98.633,160.645,-18.555,1349.435,376
577,1686197944.54,20.02,42.48,76.66,11.23,1349.439,376
578,1686197944.544,-22.949,-345.215,-128.418,-24.902,1349.443,376
579,1686197944.548,-71.289,-545.41,-201.66,-61.523,1349.447,376
580,1686197944.552,-31.738,-331.543,-30.273,-32.227,1349.451,376
581,1686197944.556,28.32,-196.289,102.051,-8.301,1349.455,376
582,1686197944.559,-0.977,-774.414,-324.219,-27.344,1349.459,376
583,1686197944.563,-60.059,-837.402,-292.48,-50.781,1349.463,376
584,1686197944.567,-49.805,-41.016,229.98,-32.227,1349.466,376
585,1686197944.571,-1.465,27.344,115.234,3.418,1349.47,375
586,1686197944.575,7.812,-199.707,15.137,-18.555,1349.474,375
587,1686197944.579,-42.48,-24.414,88.379,-60.547,1349.478,375
588,1686197944.598,-64.453,-60.547,58.105,-41.504,1349.499,374
589,1686197944.602,-15.625,-443.359,-94.238,0.977,1349.503,374
590,1686197944.606,4.395,-441.895,-84.961,-12.695,1349.507,374
591,1686197944.61,-37.598,-70.312,69.824,-54.199,1349.511,375
592,1686197944.614,-68.848,-28.809,53.711,-58.105,1349.515,375
593,1686197944.618,-50.781,-543.945,-162.109,-17.09,1349.518,375
594,1686197944.621,-16.602,-953.613,-288.086,0.977,1349.522,375
595,1686197944.625,-23.438,-333.984,54.199,-37.598,1349.526,375
596,1686197944.629,-62.5,4.883,129.883,-54.199,1349.53,375
597,1686197944.633,-40.039,-226.074,34.668,-23.438,1349.534,375
598,1686197944.637,9.277,-173.828,78.613,-0.488,1349.538,375
599,1686197944.64,-59.57,-69.824,20.02,-65.918,1349.537,375
600,1686197944.641,-9.277,57.617,156.25,-29.297,1349.542,375
601,1686197944.644,-61.523,-258.301,2.93,-49.316,1349.541,375
602,1686197944.648,-10.742,-61.035,123.535,-13.672,1349.545,375
603,1686197944.652,3.906,-145.02,47.363,-23.438,1349.549,374
604,1686197944.656,-39.551,-508.789,-154.785,-59.082,1349.553,374
605,1686197944.66,-58.105,-722.656,-216.309,-50.293,1349.557,374
606,1686197944.663,-8.789,-519.531,15.625,-10.742,1349.561,374
607,1686197944.667,24.902,-72.754,156.25,5.371,1349.565,374
608,1686197944.671,-17.09,-149.902,17.09,-33.691,1349.568,374
609,1686197944.675,-64.453,-850.098,-384.277,-48.34,1349.572,374
610,1686197944.679,-43.945,-906.25,-291.016,-15.625,1349.576,374
611,1686197944.683,5.371,-98.145,156.738,-6.836,1349.58,373
612,1686197944.685,-13.184,-143.555,35.156,-31.738,1349.582,373
613,1686197944.689,-52.246,-371.094,-34.668,-57.129,1349.586,373
614,1686197944.693,-30.762,-4.883,145.02,-29.297,1349.59,373
615,1686197944.697,12.207,193.359,183.594,7.324,1349.594,373
616,1686197944.701,0.977,-132.324,24.902,-9.766,1349.598,373
617,1686197944.705,-56.641,-555.664,-160.156,-43.457,1349.602,373
618,1686197944.708,-60.547,-465.82,-40.039,-42.969,1349.606,373
619,1686197944.712,0.0,-228.027,132.812,-3.418,1349.61,374
620,1686197944.716,9.766,-528.32,-139.648,4.883,1349.614,374
621,1686197944.72,-42.48,-947.754,-365.723,-33.203,1349.618,374
622,1686197944.724,-52.246,-340.332,58.105,-46.387,1349.622,374
623,1686197944.728,-7.324,101.562,171.875,-14.648,1349.625,374
624,1686197944.731,20.508,-79.59,102.051,-0.488,1349.627,374
625,1686197944.735,-12.207,-80.078,106.445,-31.738,1349.631,374
626,1686197944.739,-50.293,-45.41,54.688,-49.805,1349.635,373
627,1686197944.743,-25.879,-257.812,25.391,-18.066,1349.639,373
628,1686197944.747,11.23,-608.887,-70.801,0.0,1349.643,373
629,1686197944.751,-7.812,-688.965,-109.863,-24.414,1349.647,373
630,1686197944.754,-43.457,-328.125,46.875,-48.828,1349.651,373
631,1686197944.758,-30.762,-167.48,95.215,-27.832,1349.654,373
632,1686197944.762,2.93,-720.215,-182.617,6.836,1349.658,373
633,1686197944.766,7.324,-537.109,-46.875,-12.207,1349.662,373
634,1686197944.77,-27.832,95.703,183.105,-51.27,1349.666,373
635,1686197944.774,-44.434,-189.453,21.973,-42.969,1349.67,373
636,1686197944.776,0.0,-333.984,11.23,-4.395,1349.674,373
637,1686197944.78,15.625,45.41,168.945,-12.695,1349.678,374
638,1686197944.784,-24.414,83.496,110.84,-50.781,1349.682,374
639,1686197944.788,-45.898,-238.77,-27.344,-47.363,1349.686,374
640,1686197944.792,-5.371,-238.77,8.301,-6.836,1349.689,374
641,1686197944.796,30.273,-173.34,71.289,5.371,1349.693,374
642,1686197944.799,-8.789,-343.75,-34.668,-32.715,1349.697,374
643,1686197944.803,-57.129,-729.492,-343.75,-45.41,1349.701,374
644,1686197944.807,-24.902,-710.449,-200.195,-7.324,1349.705,374
645,1686197944.811,26.855,42.48,223.145,14.648,1349.709,374
646,1686197944.815,6.348,19.043,62.988,-9.277,1349.713,374
647,1686197944.819,-39.062,-461.426,-111.816,-33.691,1349.717,373
648,1686197944.821,-41.992,-331.543,37.109,-25.391,1349.717,373
649,1686197944.825,6.836,126.953,187.988,-0.977,1349.721,373
650,1686197944.829,11.23,-4.883,43.945,-13.184,1349.725,373
651,1686197944.833,-58.594,-706.055,-233.398,-61.035,1349.729,374
652,1686197944.837,-70.312,-706.055,-180.664,-55.664,1349.733,374
653,1686197944.841,-6.348,-346.191,21.973,-12.207,1349.737,374
654,1686197944.844,15.137,-322.754,63.965,-17.578,1349.741,374
655,1686197944.848,-41.016,-792.969,-345.703,-51.27,1349.744,374
656,1686197944.852,-70.312,-796.387,-266.113,-47.852,1349.748,374
657,1686197944.856,-14.16,-14.648,239.746,-16.113,1349.752,374
658,1686197944.86,22.949,-80.078,55.176,-4.395,1349.756,374
659,1686197944.864,-20.996,-328.125,-63.965,-45.41,1349.76,374
660,1686197944.881,-62.988,-142.578,56.152,-73.242,1349.779,375
661,1686197944.885,-40.039,-131.836,83.984,-41.016,1349.783,375
662,1686197944.889,-1.953,-564.941,-123.047,-4.395,1349.787,374
663,1686197944.893,-17.09,-660.156,-144.043,-22.461,1349.791,374
664,1686197944.897,-66.895,-202.148,56.641,-60.059,1349.794,374
665,1686197944.901,-65.43,-342.285,-2.93,-45.898,1349.798,374
666,1686197944.904,-10.254,-782.715,-167.48,-4.883,1349.802,374
667,1686197944.908,4.883,-746.094,-144.043,-1.953,1349.806,374
668,1686197944.911,-38.574,6.836,108.398,-38.574,1349.821,374
669,1686197944.912,-39.551,-172.363,125.977,-40.039,1349.81,374
670,1686197944.915,-70.801,-177.734,17.09,-47.852,1349.825,374
671,1686197944.916,-62.5,-85.449,104.98,-47.363,1349.814,374
672,1686197944.919,-38.086,-271.484,28.809,-26.367,1349.829,374
673,1686197944.92,-15.137,-290.039,92.285,-10.742,1349.818,374
674,1686197944.923,5.859,-278.32,64.941,-16.602,1349.833,374
675,1686197944.924,4.395,-149.902,107.422,-3.906,1349.822,374
676,1686197944.927,-19.531,-440.43,-66.895,-38.574,1349.837,374
677,1686197944.931,-64.453,-537.598,-155.762,-61.523,1349.841,375
678,1686197944.934,-59.57,-886.719,-333.008,-31.25,1349.845,375
679,1686197944.938,-10.254,-683.594,-129.395,-0.488,1349.848,375
680,1686197944.942,0.488,-5.859,204.102,-27.344,1349.852,375
681,1686197944.946,-57.129,-219.238,-9.277,-56.152,1349.856,375
682,1686197944.95,-67.871,-833.496,-213.867,-44.434,1349.86,375
683,1686197944.954,-9.277,-406.738,95.215,-11.23,1349.864,375
684,1686197944.971,12.695,184.082,216.309,-15.625,1349.868,374
685,1686197944.975,-35.156,-286.133,-75.195,-57.617,1349.871,374
686,1686197944.979,-58.105,-445.312,-40.527,-48.828,1349.875,374
687,1686197944.983,-8.301,-9.766,164.062,-11.23,1349.879,374
688,1686197944.987,21.973,99.121,180.176,-3.418,1349.883,374
689,1686197944.991,-27.344,-518.555,-189.453,-28.32,1349.887,374
690,1686197944.994,-68.359,-907.715,-352.539,-38.086,1349.891,374
691,1686197944.998,-27.344,-382.812,62.012,-16.113,1349.895,374
692,1686197945.002,26.855,97.656,224.121,9.277,1349.899,374
693,1686197945.006,-3.906,-437.988,-120.117,-10.742,1349.903,374
694,1686197945.01,-57.617,-777.344,-223.633,-47.363,1349.907,374
695,1686197945.014,-40.527,-134.766,140.625,-28.32,1349.911,374
696,1686197945.016,1.465,0.977,118.164,6.348,1349.912,374
697,1686197945.02,1.953,-269.531,31.25,-9.766,1349.916,374
698,1686197945.024,-50.781,-215.82,68.359,-61.523,1349.92,374
699,1686197945.028,-63.965,-284.18,25.879,-61.035,1349.924,374
700,1686197945.032,-2.93,-419.434,11.719,-6.836,1349.928,374
701,1686197945.036,13.184,-653.809,-110.84,-4.395,1349.932,374
702,1686197945.039,-41.504,-666.016,-105.957,-50.781,1349.936,374
703,1686197945.043,-57.129,-128.418,132.812,-55.664,1349.94,374
704,1686197945.047,-9.277,-86.914,118.164,-15.137,1349.944,374
705,1686197945.051,11.719,-776.855,-286.621,0.977,1349.947,374
706,1686197945.055,-26.367,-884.766,-273.438,-34.668,1349.951,374
707,1686197945.059,-58.594,-133.301,162.109,-56.152,1349.955,374
708,1686197945.06,-28.32,-244.629,-8.789,-22.461,1349.957,374
709,1686197945.064,19.531,-572.266,-88.379,-1.465,1349.961,374
710,1686197945.068,0.0,-129.883,127.93,-22.461,1349.965,374
711,1686197945.072,-53.223,-10.742,77.637,-49.805,1349.969,374
712,1686197945.076,-37.109,-314.941,-1.953,-36.621,1349.973,374
713,1686197945.08,13.184,-538.574,-30.273,-4.395,1349.977,374
714,1686197945.083,14.16,-392.09,35.156,-20.996,1349.981,373
715,1686197945.087,-30.762,-130.859,125.977,-59.57,1349.984,373
716,1686197945.091,-44.922,-603.516,-182.129,-38.574,1349.988,373
717,1686197945.095,-1.953,-755.371,-188.477,-5.371,1349.992,374
718,1686197945.099,13.672,-77.637,188.965,-20.02,1349.996,374
719,1686197945.103,-30.273,-203.125,-35.645,-49.805,1350.0,374
720,1686197945.106,-45.898,-679.199,-206.055,-46.875,1350.002,375
721,1686197945.11,-12.695,-429.688,45.898,-12.695,1350.006,375
722,1686197945.114,17.578,37.109,201.172,-9.277,1350.01,375
723,1686197945.118,-12.207,-274.414,-37.109,-43.945,1350.014,375
724,1686197945.122,-63.477,-774.414,-271.973,-67.383,1350.018,374
725,1686197945.126,-41.992,-712.891,-58.105,-36.133,1350.022,374
726,1686197945.129,9.766,-280.273,163.086,-4.883,1350.026,374
727,1686197945.133,-1.465,-214.844,32.715,-34.18,1350.03,374
728,1686197945.137,-47.852,-741.699,-235.352,-53.223,1350.033,374
729,1686197945.141,-36.133,-521.484,21.973,-28.32,1350.037,374
730,1686197945.145,25.879,110.352,273.926,2.441,1350.041,374
731,1686197945.149,24.414,-131.836,23.438,-11.23,1350.045,374
732,1686197945.151,-46.387,-435.059,-85.938,-51.27,1350.049,374
733,1686197945.155,-63.477,-170.41,109.863,-38.086,1350.053,374
734,1686197945.159,-13.184,-129.883,125.977,0.0,1350.057,374
735,1686197945.163,8.301,-589.844,-121.094,4.883,1350.061,374
736,1686197945.167,-35.645,-742.676,-247.559,-30.273,1350.065,374
737,1686197945.171,-60.059,-573.73,-132.324,-48.828,1350.069,374
738,1686197945.174,-20.508,-354.492,76.172,-19.531,1350.072,374
739,1686197945.178,3.906,-534.18,-72.754,7.324,1350.076,374
740,1686197945.182,-20.02,-800.781,-247.559,-16.602,1350.08,374
741,1686197945.186,-55.664,-276.855,106.445,-61.035,1350.084,374
742,1686197945.19,-41.504,-107.422,126.465,-40.527,1350.088,375
743,1686197945.194,7.324,-254.395,79.102,-3.418,1350.092,375
744,1686197945.196,-1.465,-218.75,94.238,-25.391,1350.092,375
745,1686197945.2,-52.246,-91.309,92.285,-59.57,1350.096,375
746,1686197945.204,-48.34,-168.457,46.387,-38.086,1350.1,374
747,1686197945.208,-7.812,-485.84,-68.848,-9.766,1350.104,374
748,1686197945.212,1.953,-476.074,-14.16,-24.902,1350.108,374
749,1686197945.216,-36.133,-453.125,-85.938,-50.781,1350.112,374
750,1686197945.219,-63.477,-603.027,-164.062,-53.223,1350.116,374
751,1686197945.223,-22.461,-860.352,-264.16,-13.672,1350.12,374
752,1686197945.227,9.766,-858.398,-200.684,4.395,1350.124,374
753,1686197945.231,-23.438,-221.191,135.742,-39.062,1350.127,374
754,1686197945.235,-62.012,-270.996,23.926,-59.082,1350.131,374
755,1686197945.239,-36.621,-340.82,62.5,-23.926,1350.135,374
756,1686197945.242,15.137,36.133,200.684,-1.953,1350.139,374
757,1686197945.246,-15.137,29.785,123.535,-33.203,1350.143,375
758,1686197945.25,-54.688,-418.945,-84.473,-53.223,1350.147,375
759,1686197945.254,-32.227,-413.086,-10.742,-26.855,1350.151,375
760,1686197945.258,7.812,-142.09,115.723,5.371,1350.155,375
761,1686197945.262,11.23,-421.875,-29.297,-7.812,1350.159,375
762,1686197945.265,-42.969,-787.598,-324.219,-34.18,1350.163,375
763,1686197945.269,-58.105,-907.227,-310.059,-23.438,1350.167,375
764,1686197945.273,1.465,-359.863,149.902,-2.441,1350.171,375
765,1686197945.277,17.09,20.996,156.25,-14.16,1350.174,375
766,1686197945.281,-47.363,-486.328,-86.426,-56.152,1350.178,375
767,1686197945.285,-68.359,-580.078,-14.16,-60.059,1350.182,375
768,1686197945.285,-10.742,-63.965,161.133,-19.043,1350.196,375
769,1686197945.289,13.672,-38.086,100.098,-7.324,1350.2,374
770,1686197945.293,-13.672,-369.629,-77.148,-44.434,1350.204,374
771,1686197945.297,-48.828,-609.375,-151.855,-54.199,1350.208,374
772,1686197945.301,-33.691,-510.742,-41.016,-17.578,1350.212,374
773,1686197945.305,16.113,-386.719,76.172,-1.465,1350.216,374
774,1686197945.308,-7.812,-823.73,-255.859,-19.531,1350.219,374
775,1686197945.312,-59.57,-868.164,-281.738,-40.527,1350.223,374
776,1686197945.316,-45.898,-165.039,196.777,-30.762,1350.227,374
777,1686197945.32,0.977,-100.586,141.602,-3.906,1350.231,374
778,1686197945.324,1.465,-482.91,-5.371,-23.926,1350.235,374
779,1686197945.328,-36.621,-328.125,54.688,-56.641,1350.239,374
780,1686197945.332,-38.574,22.461,149.902,-52.246,1350.241,374
781,1686197945.336,0.488,-251.465,0.0,-18.555,1350.245,374
782,1686197945.34,6.348,-605.469,-100.098,-13.672,1350.249,374
783,1686197945.344,-44.922,-246.582,87.891,-51.758,1350.253,374
784,1686197945.348,-57.129,-39.551,149.902,-52.246,1350.257,374
785,1686197945.352,-11.719,-537.598,-73.73,-15.137,1350.261,374
786,1686197945.355,8.789,-739.746,-139.648,-12.207,1350.265,374
787,1686197945.359,-23.926,-218.75,95.703,-39.551,1350.268,374
788,1686197945.363,-49.805,-108.398,70.801,-47.363,1350.272,374
789,1686197945.367,-36.133,-516.113,-52.246,-22.461,1350.276,374
790,1686197945.371,0.977,-463.379,42.48,-0.977,1350.28,373
791,1686197945.375,-10.254,-18.555,151.367,-40.039,1350.284,373
792,1686197945.391,-61.523,-290.039,-51.27,-75.684,1350.287,373
793,1686197945.395,-59.082,-689.453,-160.156,-52.734,1350.291,373
794,1686197945.399,-10.254,-397.461,77.148,-19.043,1350.295,373
795,1686197945.403,4.883,-258.301,66.895,-22.949,1350.299,373
796,1686197945.407,-45.41,-574.219,-145.508,-63.965,1350.303,373
797,1686197945.411,-68.359,-913.086,-375.488,-57.617,1350.307,373
798,1686197945.414,-22.949,-746.582,-192.383,-15.625,1350.31,373
799,1686197945.418,6.348,-28.809,231.445,-20.02,1350.314,373
800,1686197945.422,-33.203,-215.332,7.324,-50.781,1350.318,373
801,1686197945.426,-65.918,-593.262,-121.582,-62.012,1350.322,373
802,1686197945.43,-35.156,-214.844,121.582,-32.227,1350.326,373
803,1686197945.434,3.906,88.379,190.43,-15.137,1350.33,373
804,1686197945.435,-30.273,-312.012,-63.477,-47.852,1350.332,373
805,1686197945.439,-78.613,-550.781,-144.043,-67.871,1350.336,373
806,1686197945.443,-51.27,-196.289,106.934,-39.551,1350.34,373
807,1686197945.447,5.859,-209.961,94.727,-8.789,1350.344,373
808,1686197945.451,6.836,-635.742,-173.828,-21.484,1350.348,372
809,1686197945.455,-46.875,-960.938,-357.91,-49.316,1350.352,372
810,1686197945.458,-44.922,-608.398,-64.453,-34.668,1350.356,372
811,1686197945.462,10.254,-58.594,212.891,-9.766,1350.36,372
812,1686197945.466,6.348,-521.484,-138.184,-23.926,1350.364,372
813,1686197945.47,-45.898,-806.641,-259.766,-55.664,1350.368,372
814,1686197945.474,-55.176,-338.379,95.703,-51.27,1350.371,372
815,1686197945.478,-15.625,-206.543,114.746,-9.277,1350.375,372
816,1686197945.496,6.836,-294.922,73.73,-0.977,1350.392,373
817,1686197945.5,-24.414,-327.637,45.898,-34.668,1350.396,373
818,1686197945.504,-53.223,-223.145,62.012,-47.852,1350.4,373
819,1686197945.508,-25.391,-372.559,32.227,-9.766,1350.404,373
820,1686197945.512,5.371,-727.051,-126.465,9.277,1350.408,373
821,1686197945.516,-16.113,-801.27,-168.457,-37.598,1350.412,373
822,1686197945.519,-46.875,-621.582,-81.055,-59.082,1350.416,373
823,1686197945.523,-38.086,-478.516,36.621,-25.879,1350.42,373
824,1686197945.526,-1.953,-299.316,101.074,-9.277,1350.454,373
825,1686197945.527,-3.418,-793.457,-157.227,-0.977,1350.423,373
826,1686197945.53,9.277,32.227,177.734,-25.879,1350.458,373
827,1686197945.531,-1.465,-769.531,-146.484,-22.949,1350.427,373
828,1686197945.534,-33.203,-29.785,74.219,-53.711,1350.462,373
829,1686197945.535,-45.41,-134.766,170.898,-56.641,1350.431,373
830,1686197945.538,-57.129,-376.953,-32.227,-39.551,1350.466,373
831,1686197945.539,-53.711,-276.855,65.918,-39.551,1350.435,373
832,1686197945.542,-17.578,-345.215,21.973,-5.371,1350.47,373
833,1686197945.546,15.137,-246.094,88.867,-4.395,1350.474,373
834,1686197945.549,-26.855,-498.047,-96.191,-37.598,1350.477,373
835,1686197945.553,-65.43,-685.547,-199.219,-45.41,1350.481,373
836,1686197945.557,-42.969,-648.438,-5.859,-18.066,1350.485,373
837,1686197945.561,-4.395,-307.129,118.652,-6.348,1350.489,373
838,1686197945.565,-15.137,-54.199,119.629,-34.18,1350.493,373
839,1686197945.569,-67.383,-603.516,-266.113,-51.27,1350.497,373
840,1686197945.57,-58.594,-904.297,-312.988,-34.668,1350.467,373
841,1686197945.574,1.465,-147.461,180.176,-9.766,1350.471,373
842,1686197945.578,-0.488,20.508,116.699,-13.184,1350.475,374
843,1686197945.582,-60.547,-569.824,-124.512,-49.316,1350.479,374
844,1686197945.586,-63.477,-497.07,18.066,-47.363,1350.483,374
845,1686197945.59,-10.254,-335.449,102.539,-17.578,1350.487,374
846,1686197945.593,0.0,-442.871,46.875,-29.297,1350.491,374
847,1686197945.597,-48.828,-799.805,-298.828,-52.246,1350.495,374
848,1686197945.601,-71.777,-792.969,-243.652,-41.016,1350.499,374
849,1686197945.605,-12.207,-5.859,255.859,-9.277,1350.503,374
850,1686197945.609,21.484,-85.938,115.723,5.371,1350.507,374
851,1686197945.613,-18.555,-506.348,-105.957,-23.438,1350.51,374
852,1686197945.617,-64.941,-301.27,44.434,-59.082,1350.514,374
853,1686197945.621,-31.25,69.336,215.82,-34.18,1350.518,374
854,1686197945.625,18.066,-260.254,-20.508,-6.348,1350.522,374
855,1686197945.629,-11.23,-686.035,-177.734,-38.086,1350.526,374
856,1686197945.633,-46.387,-312.5,38.086,-60.059,1350.53,374
857,1686197945.637,-44.434,-312.988,67.871,-41.992,1350.534,374
858,1686197945.64,-14.16,-723.633,-145.996,-1.465,1350.538,374
859,1686197945.644,-6.836,-785.156,-218.262,-6.348,1350.542,375
860,1686197945.648,-48.828,-269.531,75.195,-48.828,1350.546,375
861,1686197945.652,-63.965,-138.672,98.145,-39.551,1350.55,375
862,1686197945.656,-17.09,-270.996,121.582,-8.789,1350.553,375
863,1686197945.66,8.789,-164.062,140.137,-10.742,1350.557,375
864,1686197945.661,-32.715,-91.309,70.312,-51.27,1350.561,375
865,1686197945.665,-67.383,-331.543,-39.551,-71.289,1350.565,375
866,1686197945.669,-28.809,-633.301,-93.75,-32.715,1350.569,375
867,1686197945.673,2.93,-590.332,11.23,-20.508,1350.572,375
868,1686197945.677,-18.066,-540.039,-80.566,-36.621,1350.576,375
869,1686197945.681,-54.199,-644.531,-161.133,-58.105,1350.58,375
870,1686197945.684,-45.41,-928.223,-281.738,-30.762,1350.584,374
871,1686197945.688,3.906,-780.273,-165.527,0.488,1350.588,374
872,1686197945.692,1.465,-106.445,189.453,-35.156,1350.592,374
873,1686197945.696,-38.574,-235.352,16.602,-60.059,1350.596,374
874,1686197945.7,-40.527,-424.316,-22.461,-41.504,1350.6,374
875,1686197945.704,6.836,-41.504,178.711,-16.602,1350.604,374
876,1686197945.707,6.836,114.746,168.457,-31.738,1350.616,374
877,1686197945.711,-47.852,-284.18,-53.711,-66.895,1350.62,374
878,1686197945.715,-52.246,-416.016,-76.172,-55.664,1350.624,374
879,1686197945.719,-9.277,-41.504,156.25,-4.395,1350.628,374
880,1686197945.723,16.602,-173.34,92.285,-9.277,1350.632,374
881,1686197945.727,-27.832,-702.148,-266.113,-48.828,1350.636,374
882,1686197945.73,-74.707,-967.285,-380.859,-49.805,1350.64,374
883,1686197945.734,-32.715,-353.516,87.891,-21.973,1350.644,374
884,1686197945.738,9.277,39.551,177.734,-2.441,1350.648,374
885,1686197945.742,-20.02,-320.312,-49.316,-30.273,1350.651,374
886,1686197945.746,-52.734,-378.418,1.953,-57.129,1350.655,374
887,1686197945.75,-31.738,-98.633,136.719,-27.832,1350.659,374
888,1686197945.766,12.695,-15.625,117.676,-1.465,1350.691,374
889,1686197945.77,0.977,-302.246,-23.438,-26.855,1350.695,373
890,1686197945.774,-52.246,-357.91,-23.926,-62.5,1350.699,373
891,1686197945.778,-61.523,-361.816,-22.461,-41.504,1350.703,373
892,1686197945.782,-17.09,-436.035,13.184,-20.508,1350.707,373
893,1686197945.786,-7.324,-729.004,-248.047,-24.902,1350.711,373
894,1686197945.789,-62.012,-954.59,-412.109,-50.781,1350.714,373
895,1686197945.793,-72.266,-446.289,21.484,-55.664,1350.718,373
896,1686197945.797,-14.16,-186.523,110.352,-14.648,1350.722,373
897,1686197945.8,-28.809,-264.648,37.109,-29.785,1350.706,373
898,1686197945.801,9.766,-575.195,-73.73,-3.418,1350.726,373
899,1686197945.804,17.09,-291.992,64.453,-12.695,1350.71,373
900,1686197945.805,-34.668,-455.566,17.09,-46.387,1350.73,373
901,1686197945.808,-17.578,-68.359,117.188,-39.062,1350.714,373
902,1686197945.809,-65.43,-108.398,111.328,-70.312,1350.734,373
903,1686197945.812,-67.383,-111.328,58.594,-64.941,1350.718,374
904,1686197945.816,-46.387,-381.836,-19.531,-45.41,1350.722,374
905,1686197945.82,2.93,-584.961,-44.922,-11.719,1350.726,374
906,1686197945.823,7.324,-403.32,38.086,-35.645,1350.73,374
907,1686197945.827,-41.992,-154.297,112.793,-63.965,1350.734,374
908,1686197945.831,-49.805,-593.262,-203.125,-44.434,1350.738,374
909,1686197945.835,-2.441,-884.277,-259.277,-2.93,1350.742,373
910,1686197945.839,19.531,-242.676,165.039,4.395,1350.746,373
911,1686197945.843,-19.043,-104.98,64.453,-39.062,1350.749,373
912,1686197945.861,-57.129,-622.07,-154.297,-52.246,1350.757,373
913,1686197945.865,-20.02,-519.531,17.578,-16.113,1350.761,373
914,1686197945.869,23.926,-40.527,165.527,-6.348,1350.765,373
915,1686197945.873,-15.625,-251.465,21.484,-41.016,1350.769,373
916,1686197945.877,-70.801,-803.711,-340.82,-56.152,1350.772,374
917,1686197945.881,-44.434,-964.844,-348.145,-27.344,1350.776,374
918,1686197945.884,10.742,-398.438,127.441,-14.16,1350.78,374
919,1686197945.888,-5.371,-173.828,85.938,-37.109,1350.784,374
920,1686197945.892,-54.199,-672.852,-178.223,-58.105,1350.788,374
921,1686197945.896,-45.898,-385.742,59.57,-44.434,1350.792,374
922,1686197945.9,8.789,-4.883,172.852,-9.277,1350.796,374
923,1686197945.901,-54.199,-579.59,-97.656,-65.43,1350.799,374
924,1686197945.904,5.371,-388.672,-12.207,-23.438,1350.8,374
925,1686197945.905,-63.965,-263.184,60.059,-59.082,1350.803,374
926,1686197945.909,-6.348,94.727,214.844,-20.996,1350.807,374
927,1686197945.913,7.324,-312.988,-49.805,-11.23,1350.811,374
928,1686197945.917,-42.969,-783.691,-273.926,-52.246,1350.815,374
929,1686197945.921,-73.73,-647.949,-166.992,-64.941,1350.818,373
930,1686197945.924,-30.273,-320.801,85.449,-29.785,1350.822,373
931,1686197945.928,7.324,-472.656,-42.969,0.0,1350.826,373
932,1686197945.932,-32.227,-820.312,-251.465,-32.227,1350.83,373
933,1686197945.936,-56.152,-273.926,87.891,-52.246,1350.834,373
934,1686197945.94,-19.531,-48.828,108.398,-11.23,1350.838,373
935,1686197945.944,23.926,-202.637,119.629,-1.465,1350.842,373
936,1686197945.945,18.555,-198.73,120.605,-22.461,1350.842,373
937,1686197945.949,-28.809,-122.07,59.082,-46.875,1350.846,373
938,1686197945.953,-30.273,-254.395,32.227,-26.367,1350.85,373
939,1686197945.957,12.695,-649.414,-79.59,18.555,1350.854,373
940,1686197945.961,23.438,-606.445,-31.25,4.395,1350.858,373
941,1686197945.965,-24.902,-477.051,-60.547,-46.387,1350.862,374
942,1686197945.968,-48.828,-546.875,-43.457,-41.016,1350.866,374
943,1686197945.972,1.465,-830.078,-175.293,23.438,1350.87,374
944,1686197945.976,38.574,-738.281,-136.23,19.531,1350.873,374
945,1686197945.98,6.836,-79.59,173.34,-29.785,1350.877,374
946,1686197945.984,-34.18,-271.484,3.418,-43.945,1350.881,374
947,1686197945.988,-7.812,-363.77,28.32,-21.484,1350.885,373
948,1686197945.992,27.344,5.859,169.922,-11.719,1350.89,373
949,1686197945.996,12.695,54.688,112.793,-39.551,1350.894,373
950,1686197946.0,-39.062,-365.234,-69.336,-56.641,1350.898,373
951,1686197946.004,-39.062,-402.344,-5.371,-30.273,1350.901,373
952,1686197946.008,13.672,-49.316,142.09,-0.977,1350.905,373
953,1686197946.012,8.301,-272.949,27.344,-9.766,1350.909,373
954,1686197946.015,-48.828,-775.391,-328.125,-37.109,1350.913,373
955,1686197946.019,-53.223,-962.402,-377.441,-29.785,1350.917,373
956,1686197946.023,3.906,-289.062,149.902,0.488,1350.921,373
957,1686197946.027,12.695,13.672,170.41,-12.695,1350.925,373
958,1686197946.031,-33.203,-392.578,-62.012,-48.828,1350.929,373
959,1686197946.035,-59.57,-328.125,21.484,-42.969,1350.933,373
960,1686197946.051,-24.414,19.043,176.27,-18.066,1350.947,374
961,1686197946.055,9.766,-17.09,106.934,-22.461,1350.951,374
962,1686197946.059,-30.762,-377.93,-64.941,-46.875,1350.955,374
963,1686197946.063,-67.871,-624.023,-168.457,-56.641,1350.959,374
964,1686197946.067,-32.715,-434.57,-59.082,-23.438,1350.963,374
965,1686197946.071,11.719,-297.363,78.613,0.977,1350.967,374
966,1686197946.074,-24.414,-777.344,-315.43,-27.832,1350.971,374
967,1686197946.078,-78.125,-994.141,-432.129,-54.199,1350.974,374
968,1686197946.082,-58.105,-416.992,97.656,-36.621,1350.978,374
969,1686197946.082,-63.965,-110.84,108.398,-46.875,1350.991,374
970,1686197946.086,-1.465,-152.832,123.047,2.93,1350.982,374
971,1686197946.086,-16.113,-253.418,69.824,-10.742,1350.995,374
972,1686197946.09,-5.371,-507.324,-23.926,-20.508,1350.986,374
973,1686197946.09,-2.441,-321.289,23.438,-16.113,1350.999,374
974,1686197946.094,-48.828,-95.215,97.656,-61.523,1351.003,374
975,1686197946.094,-57.617,-363.281,60.547,-62.988,1350.99,374
976,1686197946.098,-73.242,-257.812,16.602,-61.523,1351.007,374
977,1686197946.102,-28.809,-746.094,-170.898,-19.531,1351.011,374
978,1686197946.105,1.953,-679.199,-86.426,-12.695,1351.015,374
979,1686197946.109,-27.832,-229.98,73.242,-55.176,1351.018,374
980,1686197946.113,-61.523,-123.535,91.797,-67.383,1351.022,374
981,1686197946.117,-43.457,-589.844,-156.25,-41.992,1351.026,374
982,1686197946.121,-3.906,-885.254,-224.609,-13.184,1351.03,374
983,1686197946.125,-17.09,-298.828,116.211,-34.18,1351.034,374
984,1686197946.14,-55.664,-146.973,45.898,-51.27,1351.037,374
985,1686197946.144,-46.387,-547.852,-59.57,-22.461,1351.041,374
986,1686197946.148,-15.137,-393.066,90.82,-14.648,1351.045,374
987,1686197946.152,-9.766,-280.762,68.848,-39.062,1351.049,374
988,1686197946.156,-51.27,-502.93,-82.52,-62.988,1351.053,374
989,1686197946.16,-69.336,-839.844,-332.031,-54.199,1351.057,374
990,1686197946.163,-21.973,-727.539,-157.715,-11.719,1351.061,374
991,1686197946.167,7.812,14.648,242.188,-14.16,1351.065,373
992,1686197946.171,-32.227,-177.734,12.695,-56.152,1351.069,373
993,1686197946.175,-64.941,-501.465,-78.613,-57.617,1351.072,373
994,1686197946.179,-24.414,-147.949,133.301,-29.785,1351.076,373
995,1686197946.183,10.254,122.559,197.266,-22.461,1351.08,373
996,1686197946.186,-29.297,-352.539,-121.582,-43.457,1351.084,373
997,1686197946.19,-76.66,-727.539,-228.027,-60.547,1351.087,373
998,1686197946.194,-44.434,-205.078,132.812,-33.203,1351.091,373
999,1686197946.198,9.277,113.77,200.684,-8.301,1351.095,373
1000,1686197946.202,-13.672,-312.5,-55.664,-31.25,1351.099,373
1001,1686197946.206,-74.707,-825.684,-288.574,-65.43,1351.103,373
1002,1686197946.209,-54.688,-580.078,-62.012,-45.898,1351.107,374
1003,1686197946.213,4.883,-52.734,208.984,-1.953,1351.111,374
1004,1686197946.217,4.395,-443.359,-145.02,-19.531,1351.115,374
1005,1686197946.221,-56.641,-878.418,-330.078,-54.688,1351.119,374
1006,1686197946.225,-73.73,-321.289,89.355,-44.922,1351.123,374
1007,1686197946.229,-14.16,-72.754,140.137,-13.672,1351.127,374
1008,1686197946.231,-0.977,-253.418,71.777,-17.09,1351.128,374
1009,1686197946.235,-53.223,-274.902,66.895,-67.871,1351.132,374
1010,1686197946.239,-73.242,-231.934,20.996,-77.637,1351.136,373
1011,1686197946.243,-38.086,-402.832,5.859,-31.738,1351.139,373
1012,1686197946.247,-11.23,-744.141,-176.27,-2.93,1351.143,373
1013,1686197946.251,-34.668,-870.605,-237.305,-30.762,1351.147,373
1014,1686197946.254,-59.57,-580.566,-62.012,-55.176,1351.151,373
1015,1686197946.258,-28.32,-328.613,53.711,-19.531,1351.155,373
1016,1686197946.262,9.277,-737.793,-160.645,8.789,1351.159,373
1017,1686197946.266,-1.465,-666.992,-118.164,-26.855,1351.163,374
1018,1686197946.27,-39.551,-113.281,140.137,-52.246,1351.167,374
1019,1686197946.274,-48.828,-313.965,28.32,-30.762,1351.171,374
1020,1686197946.276,-0.977,-379.883,69.824,-11.719,1351.174,374
1021,1686197946.28,19.531,-85.938,148.926,-18.066,1351.178,374
1022,1686197946.284,-29.297,-79.102,84.473,-48.34,1351.182,374
1023,1686197946.288,-47.363,-395.508,-27.344,-55.664,1351.185,374
1024,1686197946.292,0.977,-422.363,0.488,-20.02,1351.189,375
1025,1686197946.296,20.02,-343.262,65.918,-4.883,1351.193,375
1026,1686197946.299,-23.438,-478.516,-41.016,-39.062,1351.197,375
1027,1686197946.303,-58.105,-777.832,-329.59,-39.062,1351.201,375
1028,1686197946.307,-26.855,-959.473,-328.613,9.277,1351.205,374
1029,1686197946.311,24.414,-278.809,153.809,7.812,1351.209,374
1030,1686197946.315,0.0,-169.922,93.262,-34.18,1351.213,374
1031,1686197946.319,-52.246,-561.523,-106.934,-66.406,1351.217,375
1032,1686197946.336,-30.762,-287.598,89.355,-38.086,1351.232,375
1033,1686197946.34,20.508,41.992,195.801,-4.883,1351.236,375
1034,1686197946.344,9.277,-58.594,53.711,-36.133,1351.24,375
1035,1686197946.348,-42.48,-616.699,-193.359,-53.223,1351.244,375
1036,1686197946.352,-53.223,-656.25,-107.91,-32.715,1351.248,375
1037,1686197946.356,-2.93,-389.16,61.035,2.93,1351.252,375
1038,1686197946.359,14.16,-394.043,58.105,-4.395,1351.256,376
1039,1686197946.363,-42.969,-761.23,-301.758,-39.551,1351.259,376
1040,1686197946.367,-63.477,-947.754,-316.895,-30.762,1351.263,376
1041,1686197946.367,-53.223,-293.457,101.074,-43.945,1351.265,376
1042,1686197946.371,-26.855,8.789,153.32,-21.973,1351.269,377
1043,1686197946.371,-5.859,-274.902,201.172,12.207,1351.267,377
1044,1686197946.375,10.742,-158.203,63.965,-4.395,1351.272,377
1045,1686197946.375,15.625,-121.094,89.844,9.766,1351.271,377
1046,1686197946.379,-28.32,-526.855,-58.105,-41.504,1351.275,377
1047,1686197946.379,-6.348,-308.594,18.066,-20.02,1351.276,377
1048,1686197946.383,-50.293,-188.965,48.34,-57.617,1351.28,377
1049,1686197946.387,-39.551,-435.059,-50.781,-38.086,1351.284,377
1050,1686197946.39,6.348,-753.906,-108.398,0.977,1351.288,377
1051,1686197946.394,4.395,-562.012,-30.273,-13.184,1351.292,377
1052,1686197946.398,-48.34,-217.773,37.109,-62.5,1351.296,377
1053,1686197946.402,-54.199,-104.004,109.375,-55.176,1351.3,377
1054,1686197946.406,-4.395,-546.387,-109.375,-7.324,1351.304,377
1055,1686197946.41,10.742,-864.746,-233.887,0.488,1351.308,377
1056,1686197946.411,-29.297,-292.48,88.867,-42.48,1351.308,377
1057,1686197946.415,-57.617,-147.461,53.711,-49.316,1351.312,377
1058,1686197946.419,-18.066,-505.859,-41.992,-0.977,1351.316,376
1059,1686197946.423,9.277,-608.398,-6.348,13.672,1351.32,376
1060,1686197946.427,-24.414,-397.949,28.32,-20.996,1351.324,376
1061,1686197946.431,-57.129,-435.059,-29.297,-38.574,1351.328,377
1062,1686197946.434,-37.109,-871.094,-293.457,-1.465,1351.332,377
1063,1686197946.438,7.812,-794.434,-164.551,27.344,1351.336,377
1064,1686197946.442,2.441,-133.301,167.48,-9.277,1351.34,377
1065,1686197946.446,-47.363,-262.695,6.836,-47.363,1351.343,377
1066,1686197946.45,-52.734,-414.062,-8.789,-30.273,1351.347,377
1067,1686197946.454,-5.371,-16.602,189.941,-3.906,1351.351,377
1068,1686197946.458,6.836,125.0,181.152,-21.484,1351.367,376
1069,1686197946.462,-41.504,-397.461,-144.531,-53.711,1351.37,376
1070,1686197946.466,-51.758,-673.828,-149.902,-44.922,1351.374,376
1071,1686197946.47,1.953,-78.125,168.945,-9.277,1351.378,376
1072,1686197946.474,24.902,91.309,180.176,-8.301,1351.382,376
1073,1686197946.478,-29.297,-556.152,-187.5,-40.527,1351.386,376
1074,1686197946.481,-71.289,-937.012,-401.367,-52.734,1351.39,376
1075,1686197946.485,-34.18,-288.086,98.633,-23.438,1351.394,376
1076,1686197946.489,3.418,78.613,210.449,-6.836,1351.398,376
1077,1686197946.493,-13.672,-276.855,-12.207,-35.156,1351.402,376
1078,1686197946.497,-51.27,-418.457,-47.363,-58.594,1351.406,376
1079,1686197946.501,-30.762,-144.043,127.441,-29.297,1351.41,375
1080,1686197946.516,12.695,-40.527,126.953,-5.371,1351.412,375
1081,1686197946.52,-8.789,-332.52,-57.129,-39.551,1351.416,375
1082,1686197946.524,-54.199,-393.066,-62.012,-65.43,1351.42,376
1083,1686197946.528,-51.758,-447.754,-60.547,-46.387,1351.424,376
1084,1686197946.532,-7.812,-505.371,15.137,-15.625,1351.428,376
1085,1686197946.536,-4.883,-729.004,-228.516,-19.043,1351.432,376
1086,1686197946.539,-52.246,-969.727,-409.18,-54.199,1351.436,376
1087,1686197946.543,-63.965,-395.996,22.461,-55.176,1351.44,376
1088,1686197946.547,-19.043,-122.07,153.32,-11.719,1351.444,376
1089,1686197946.551,6.348,-574.219,-27.832,-11.23,1351.448,375
1090,1686197946.555,-24.414,-389.648,28.32,-54.199,1351.451,375
1091,1686197946.559,-56.152,8.789,137.695,-62.5,1351.455,375
1092,1686197946.561,-25.879,-169.922,56.641,-24.414,1351.457,375
1093,1686197946.565,12.207,-267.578,75.195,-5.859,1351.461,375
1094,1686197946.569,-9.277,-66.406,129.395,-39.062,1351.465,375
1095,1686197946.573,-59.57,-16.113,107.422,-62.5,1351.469,375
1096,1686197946.577,-53.711,-306.152,-13.184,-23.926,1351.473,375
1097,1686197946.581,-7.324,-567.871,-62.012,13.184,1351.477,375
1098,1686197946.584,-11.23,-438.965,-1.465,-14.648,1351.481,375
1099,1686197946.588,-50.293,-428.223,-122.559,-48.828,1351.485,375
1100,1686197946.592,-54.199,-753.906,-299.316,-22.461,1351.488,375
1101,1686197946.596,-10.742,-904.297,-245.605,16.602,1351.492,375
1102,1686197946.6,7.812,-256.348,124.512,-1.465,1351.496,375
1103,1686197946.604,-31.738,-69.336,79.102,-40.527,1351.5,375
1104,1686197946.606,-49.805,-384.277,-65.43,-37.598,1351.502,375
1105,1686197946.61,-19.531,-175.781,109.863,-1.953,1351.506,375
1106,1686197946.614,5.371,78.613,187.5,2.93,1351.51,375
1107,1686197946.618,-23.438,-300.293,-73.242,-28.32,1351.514,375
1108,1686197946.622,-71.777,-798.34,-273.438,-48.828,1351.518,375
1109,1686197946.626,-40.527,-740.723,-86.426,-20.996,1351.522,375
1110,1686197946.629,12.207,-274.902,130.371,8.789,1351.525,375
1111,1686197946.633,-20.02,-173.828,26.855,-18.555,1351.529,375
1112,1686197946.637,-68.848,-670.41,-199.707,-47.363,1351.533,375
1113,1686197946.641,-50.781,-649.902,-25.391,-35.156,1351.537,375
1114,1686197946.645,0.0,-110.352,215.82,1.465,1351.541,375
1115,1686197946.649,1.953,-162.109,27.832,-17.578,1351.545,375
1116,1686197946.65,-44.922,-592.773,-127.93,-61.035,1351.547,375
1117,1686197946.654,-54.688,-247.559,120.117,-49.316,1351.551,375
1118,1686197946.658,-2.93,112.305,206.543,-7.812,1351.555,375
1119,1686197946.662,17.578,-125.0,44.434,-11.719,1351.559,375
1120,1686197946.666,-40.527,-397.461,-82.52,-49.316,1351.563,375
1121,1686197946.67,-69.336,-496.094,-85.449,-64.941,1351.567,375
1122,1686197946.673,-16.602,-312.012,87.891,-16.602,1351.571,375
1123,1686197946.677,6.348,-486.328,-67.871,3.418,1351.574,375
1124,1686197946.681,-32.715,-809.57,-254.395,-42.48,1351.578,375
1125,1686197946.685,-55.664,-236.328,88.379,-60.059,1351.582,375
1126,1686197946.689,-21.484,-0.488,145.996,-23.926,1351.586,375
1127,1686197946.693,14.648,-249.512,46.387,3.906,1351.59,375
1128,1686197946.696,-0.977,-467.773,-64.453,-19.531,1351.593,375
1129,1686197946.7,-44.434,-306.152,-5.371,-51.758,1351.597,375
1130,1686197946.704,-43.945,-117.676,104.98,-29.785,1351.601,375
1131,1686197946.708,-5.371,-632.812,-187.012,15.625,1351.605,375
1132,1686197946.712,-6.348,-823.242,-257.812,-8.301,1351.609,375
1133,1686197946.716,-49.805,-508.301,-64.453,-48.34,1351.613,375
1134,1686197946.719,-55.664,-544.434,-87.891,-30.273,1351.617,375
1135,1686197946.723,-12.695,-696.777,-48.828,0.488,1351.621,375
1136,1686197946.727,3.418,-430.664,88.379,-8.789,1351.625,375
1137,1686197946.731,-34.668,4.395,157.715,-53.223,1351.628,375
1138,1686197946.735,-64.453,-294.922,-12.695,-72.266,1351.632,374
1139,1686197946.739,-20.996,-358.887,38.574,-33.691,1351.636,374
1140,1686197946.742,20.508,13.672,163.574,0.488,1351.64,374
1141,1686197946.746,-4.883,67.383,107.91,-43.945,1351.644,374
1142,1686197946.75,-54.199,-461.914,-147.949,-72.266,1351.647,374
1143,1686197946.754,-41.992,-615.723,-146.973,-33.203,1351.651,374
1144,1686197946.758,-2.441,-24.902,153.809,-7.324,1351.655,374
1145,1686197946.762,-9.277,-219.727,-5.371,-36.133,1351.659,375
1146,1686197946.765,-55.176,-812.012,-371.094,-56.152,1351.663,375
1147,1686197946.769,-47.363,-873.535,-328.613,-36.621,1351.667,375
1148,1686197946.773,12.207,-229.98,122.07,-14.16,1351.671,375
1149,1686197946.777,20.996,10.254,128.418,-15.625,1351.675,375
1150,1686197946.781,-32.227,-353.027,-51.27,-49.805,1351.679,375
1151,1686197946.785,-59.57,-370.605,13.672,-62.5,1351.683,375
1152,1686197946.8,-10.254,-35.645,176.27,-20.02,1351.697,375
1153,1686197946.804,21.484,2.441,123.535,-4.395,1351.701,374
1154,1686197946.808,-22.949,-344.727,-95.215,-44.922,1351.705,374
1155,1686197946.812,-62.988,-561.035,-165.527,-59.57,1351.709,374
1156,1686197946.816,-35.156,-425.781,-38.574,-19.531,1351.713,374
1157,1686197946.82,10.742,-353.516,67.383,-13.672,1351.717,374
1158,1686197946.823,-20.996,-783.691,-299.805,-38.086,1351.721,374
1159,1686197946.827,-75.684,-1000.0,-433.594,-38.574,1351.725,374
1160,1686197946.831,-42.969,-339.844,119.629,-22.461,1351.729,374
1161,1686197946.832,-44.434,-25.879,148.926,-48.828,1351.741,374
1162,1686197946.835,19.531,-97.168,150.879,-2.93,1351.733,374
1163,1686197946.836,-0.977,-140.625,87.891,-18.066,1351.745,374
1164,1686197946.839,9.766,-320.801,24.902,-25.879,1351.736,374
1165,1686197946.84,13.184,-298.828,17.578,-20.02,1351.749,374
1166,1686197946.843,-43.945,-162.598,105.469,-61.035,1351.74,374
1167,1686197946.844,-30.273,-132.812,90.82,-48.828,1351.752,374
1168,1686197946.848,-55.176,-97.168,92.773,-48.828,1351.756,374
1169,1686197946.852,-17.578,-454.59,-23.926,-6.836,1351.76,374
1170,1686197946.855,7.324,-510.742,10.742,-3.906,1351.764,374
1171,1686197946.859,-17.578,-349.121,-20.996,-43.945,1351.768,374
1172,1686197946.863,-46.875,-498.047,-151.367,-54.688,1351.772,374
1173,1686197946.867,-21.484,-752.441,-252.441,-27.344,1351.776,374
1174,1686197946.871,16.602,-905.273,-272.949,-5.371,1351.78,374
1175,1686197946.875,0.0,-357.91,37.598,-32.715,1351.784,374
1176,1686197946.89,-41.992,-181.152,41.504,-43.457,1351.787,374
1177,1686197946.894,-37.109,-363.281,65.43,-20.02,1351.791,374
1178,1686197946.898,18.555,-155.762,153.809,8.301,1351.795,374
1179,1686197946.902,9.277,-241.699,51.758,-17.09,1351.799,374
1180,1686197946.906,-49.316,-539.551,-79.59,-59.57,1351.803,374
1181,1686197946.91,-52.734,-882.324,-352.539,-35.645,1351.807,374
1182,1686197946.913,-13.672,-746.582,-167.969,0.977,1351.811,374
1183,1686197946.917,4.883,-17.09,229.492,-11.23,1351.815,374
1184,1686197946.921,-42.969,-174.316,18.066,-51.758,1351.818,374
1185,1686197946.925,-65.43,-508.789,-52.246,-44.434,1351.822,374
1186,1686197946.929,-19.043,-354.004,70.801,-5.371,1351.826,374
1187,1686197946.933,12.695,-65.918,162.109,0.488,1351.83,374
1188,1686197946.935,-20.996,-279.297,-27.832,-24.414,1351.832,374
1189,1686197946.939,-62.988,-673.34,-173.828,-41.992,1351.836,374
1190,1686197946.943,-28.32,-253.418,113.77,-20.508,1351.84,374
1191,1686197946.947,25.391,60.547,181.641,1.953,1351.844,374
1192,1686197946.951,0.488,-261.719,-22.461,-33.203,1351.848,374
1193,1686197946.955,-52.246,-742.676,-249.512,-61.035,1351.851,373
1194,1686197946.958,-35.645,-465.82,1.465,-25.391,1351.855,373
1195,1686197946.962,22.949,31.25,241.699,9.766,1351.859,373
1196,1686197946.966,18.555,-470.703,-152.344,-6.836,1351.863,373
1197,1686197946.97,-43.945,-828.613,-277.344,-44.922,1351.867,373
1198,1686197946.974,-54.688,-220.215,115.723,-36.621,1351.871,373
1199,1686197946.978,-6.836,-33.691,163.574,1.465,1351.875,373
1200,1686197946.981,8.301,-336.914,-9.766,-14.16,1351.879,373
1201,1686197946.985,-41.504,-589.355,-164.062,-53.711,1351.882,373
1202,1686197946.989,-76.172,-357.422,10.742,-58.594,1351.886,373
1203,1686197946.993,-23.438,-275.879,112.793,-13.672,1351.89,373
1204,1686197946.997,20.02,-736.816,-205.078,16.602,1351.894,374
1205,1686197947.001,-18.066,-964.844,-330.566,-21.484,1351.898,374
1206,1686197947.004,-47.852,-498.535,34.668,-46.875,1351.902,374
1207,1686197947.008,-7.812,-190.918,112.793,-18.555,1351.906,374
1208,1686197947.012,23.438,-611.816,-49.316,7.812,1351.91,374
1209,1686197947.016,7.324,-509.277,13.672,-16.113,1351.914,374
1210,1686197947.02,-34.668,-106.445,87.402,-56.152,1351.918,374
1211,1686197947.024,-43.945,-309.57,26.855,-36.621,1351.922,374
1212,1686197947.027,12.695,-314.453,70.801,0.0,1351.924,374
1213,1686197947.031,25.879,-63.477,122.07,-14.16,1351.928,374
1214,1686197947.035,-18.555,-108.887,64.941,-51.27,1351.932,374
1215,1686197947.039,-42.969,-546.875,-127.93,-45.898,1351.935,374
1216,1686197947.043,1.465,-579.59,-118.652,-8.301,1351.939,374
1217,1686197947.047,35.156,-416.992,-6.836,-4.883,1351.943,374
1218,1686197947.05,-19.531,-469.238,12.207,-42.48,1351.947,374
1219,1686197947.054,-68.359,-665.039,-203.613,-52.246,1351.951,374
1220,1686197947.058,-27.832,-860.352,-276.367,-24.902,1351.955,374
1221,1686197947.062,17.09,-190.918,183.105,-7.324,1351.959,374
1222,1686197947.066,-9.766,-39.062,122.559,-32.227,1351.963,374
1223,1686197947.07,-58.105,-463.867,-77.148,-56.152,1351.967,374
1224,1686197947.07,-46.875,-393.066,18.066,-29.297,1351.967,374
1225,1686197947.074,10.254,-27.832,176.27,-4.395,1351.971,374
1226,1686197947.078,-11.23,-91.797,52.246,-31.25,1351.975,375
1227,1686197947.082,-70.312,-666.504,-219.727,-61.523,1351.979,375
1228,1686197947.086,-55.664,-672.363,-79.59,-46.875,1351.983,375
1229,1686197947.09,-3.906,-378.418,105.957,-12.207,1351.987,375
1230,1686197947.093,-2.441,-480.957,35.156,-24.902,1351.991,375
1231,1686197947.097,-60.059,-841.797,-320.801,-60.547,1351.995,375
1232,1686197947.101,-73.73,-923.34,-350.098,-59.57,1351.998,375
1233,1686197947.105,-18.066,-196.777,186.523,-9.277,1352.002,375
1234,1686197947.109,6.348,-145.996,130.859,-1.465,1352.006,375
1235,1686197947.113,-39.062,-453.125,-53.711,-52.734,1352.01,375
1236,1686197947.117,-73.73,-213.379,106.445,-57.617,1352.015,374
1237,1686197947.121,-36.133,1.465,188.965,-26.367,1352.018,374
1238,1686197947.125,5.371,-208.984,38.574,-6.348,1352.022,374
1239,1686197947.129,-17.578,-427.246,-40.039,-27.832,1352.026,374
1240,1686197947.133,-53.711,-275.879,26.855,-59.57,1352.03,374
1241,1686197947.137,-43.457,-388.184,44.922,-42.48,1352.034,374
1242,1686197947.14,-4.883,-742.676,-126.465,-4.395,1352.038,374
1243,1686197947.144,-11.23,-788.574,-197.754,-15.625,1352.042,374
1244,1686197947.148,-56.152,-469.727,8.789,-48.34,1352.046,374
1245,1686197947.152,-57.129,-508.789,-25.879,-45.41,1352.05,374
1246,1686197947.156,-11.23,-697.266,-51.758,-10.742,1352.054,374
1247,1686197947.16,13.184,-506.836,56.152,-0.977,1352.058,375
1248,1686197947.161,-26.367,-158.691,132.324,-36.621,1352.071,375
1249,1686197947.165,-55.176,-245.605,40.527,-44.434,1352.075,375
1250,1686197947.169,-11.23,-311.523,103.027,1.465,1352.079,375
1251,1686197947.173,27.832,-391.602,62.012,20.996,1352.083,375
1252,1686197947.177,-1.953,-441.406,-28.809,-28.809,1352.086,375
1253,1686197947.181,-49.805,-523.926,-48.34,-60.547,1352.09,375
1254,1686197947.184,-30.762,-908.691,-292.969,-15.625,1352.094,375
1255,1686197947.188,5.859,-819.336,-187.5,10.742,1352.098,374
1256,1686197947.192,-5.371,-179.688,177.734,-32.715,1352.102,374
1257,1686197947.196,-49.805,-280.762,22.949,-52.246,1352.106,374
1258,1686197947.2,-43.457,-458.496,-19.531,-29.785,1352.11,374
1259,1686197947.204,6.836,-296.875,107.422,-1.465,1352.114,374
1260,1686197947.209,12.695,-130.371,142.578,-17.578,1352.109,374
1261,1686197947.213,-35.645,-381.348,-60.547,-46.875,1352.113,374
1262,1686197947.217,-50.293,-726.074,-176.27,-36.621,1352.117,374
1263,1686197947.221,2.93,-200.195,148.926,-8.789,1352.121,374
1264,1686197947.225,22.949,-14.16,146.484,-13.184,1352.125,374
1265,1686197947.229,-36.621,-615.723,-229.98,-47.852,1352.129,374
1266,1686197947.232,-64.453,-803.711,-249.512,-46.387,1352.133,374
1267,1686197947.236,-20.508,-161.133,168.945,-16.113,1352.137,374
1268,1686197947.24,17.09,-2.441,166.992,-2.93,1352.14,375
1269,1686197947.244,-14.16,-439.453,-38.574,-28.809,1352.144,375
1270,1686197947.248,-64.453,-540.039,-31.25,-58.594,1352.148,375
1271,1686197947.252,-35.156,-166.992,131.836,-16.113,1352.152,375
1272,1686197947.27,18.555,-101.562,107.422,8.789,1352.168,374
1273,1686197947.274,3.418,-515.137,-122.559,-28.809,1352.171,374
1274,1686197947.278,-60.059,-704.102,-223.633,-55.176,1352.175,374
1275,1686197947.282,-54.688,-562.5,-82.031,-34.668,1352.179,374
1276,1686197947.286,2.441,-504.883,71.777,-2.93,1352.183,374
1277,1686197947.29,7.812,-725.098,-207.031,-10.742,1352.187,374
1278,1686197947.293,-47.363,-1000.0,-534.668,-39.062,1352.191,374
1279,1686197947.297,-61.523,-554.688,-80.566,-42.969,1352.195,374
1280,1686197947.301,-3.906,-121.094,174.805,3.418,1352.199,374
1281,1686197947.305,14.648,-267.09,84.473,12.695,1352.203,374
1282,1686197947.309,-23.926,-222.656,66.406,-25.879,1352.207,374
1283,1686197947.31,-26.367,-250.977,73.242,-17.578,1352.207,374
1284,1686197947.313,-45.898,-144.531,91.797,-42.48,1352.211,374
1285,1686197947.314,5.859,-331.055,49.805,2.93,1352.211,374
1286,1686197947.318,-6.348,-131.836,102.051,-22.949,1352.215,374
1287,1686197947.322,-60.059,-146.973,70.312,-55.664,1352.219,374
1288,1686197947.326,-51.27,-485.84,-32.227,-28.32,1352.223,374
1289,1686197947.33,8.301,-710.449,-85.449,18.066,1352.227,374
1290,1686197947.333,6.836,-541.016,6.348,-9.277,1352.231,374
1291,1686197947.337,-46.875,-257.324,120.605,-49.805,1352.234,374
1292,1686197947.341,-60.059,-576.66,-145.996,-22.461,1352.238,374
1293,1686197947.345,-13.672,-848.145,-208.008,15.137,1352.242,374
1294,1686197947.349,10.742,-223.633,144.531,-8.301,1352.246,374
1295,1686197947.353,-38.086,-184.082,44.434,-42.48,1352.25,374
