,timestamps,TP9,AF7,AF8,TP10,Secondary Timestamp,emg_signal
0,1686879518.57,-51.758,771.484,41.992,-82.031,746.47,367.5185315266704
1,1686879518.58,-6.348,957.52,41.016,18.555,746.474,367.3239772628211
2,1686879518.58,26.367,980.957,-0.488,79.102,746.478,358.53967176290246
3,1686879518.59,-20.508,776.367,-5.859,-17.09,746.482,363.864650106655
4,1686879518.59,-65.43,638.672,32.715,-100.586,746.486,365.1749943050265
5,1686879518.59,-33.203,553.711,9.277,-25.391,746.49,361.8969517561765
6,1686879518.6,23.438,687.988,11.719,78.613,746.494,366.27712242875026
7,1686879518.6,0.0,424.316,-34.668,30.762,746.498,364.0201681761877
8,1686879518.6,-65.43,-439.941,-43.945,-70.801,746.502,365.79955869966363
9,1686879518.61,-42.48,160.156,61.035,-49.316,746.506,363.06282562404937
10,1686879518.61,25.879,957.031,32.227,50.781,746.51,364.983919969573
11,1686879518.62,19.531,606.445,-56.152,37.109,746.513,372.09212811539413
12,1686879518.62,32.227,819.336,51.27,95.215,746.515,370.6543367504549
13,1686879518.62,-21.973,912.598,18.066,-19.043,746.519,363.91160662101737
14,1686879518.63,-41.992,712.402,-37.598,-78.613,746.523,368.32452749857504
15,1686879518.63,2.441,435.547,-1.465,14.16,746.526,366.8230723491579
16,1686879518.63,41.504,519.531,86.914,81.055,746.53,361.9108492804009
17,1686879518.64,14.16,869.629,37.598,-3.906,746.534,367.67012802623776
18,1686879518.64,-32.715,-982.91,-22.949,-91.797,746.538,362.8180802515043
19,1686879518.64,-4.883,715.332,-45.41,-12.695,746.542,364.9867039143844
20,1686879518.65,37.598,-76.172,-2.441,102.539,746.546,362.29663458678164
21,1686879518.65,13.184,311.523,64.941,46.387,746.549,366.60998683581624
22,1686879518.65,-42.48,915.527,0.488,-74.219,746.553,370.7413838121556
23,1686879518.66,-41.016,619.629,-13.184,-50.293,746.557,367.56380898110996
24,1686879518.66,18.066,551.758,81.543,72.754,746.56,361.56679649722975
25,1686879518.67,21.484,854.004,31.738,75.195,746.564,365.8780189935186
26,1686879518.67,-28.32,793.457,-25.391,-27.832,746.568,361.2481873271531
27,1686879518.67,-49.316,309.57,-27.344,-38.574,746.572,367.64722345041656
28,1686879518.68,1.953,-385.742,15.137,70.801,746.576,358.45392498080116
29,1686879518.68,41.016,534.18,99.121,105.469,746.58,360.4617796063724
30,1686879518.68,-13.672,-933.594,10.742,-0.488,746.584,364.8384991860699
31,1686879518.69,-53.223,653.809,-28.32,-64.453,746.588,364.5922728063269
32,1686879518.69,-4.395,851.562,33.691,31.738,746.592,373.8299156161934
33,1686879518.71,46.875,-972.656,16.602,123.047,746.605,370.5420647682791
34,1686879518.71,17.578,911.133,-17.09,40.527,746.609,363.5193786850676
35,1686879518.72,-45.898,470.703,-1.465,-62.5,746.613,369.8576785993899
36,1686879518.72,-28.32,617.676,40.527,-7.812,746.617,364.29120887812604
37,1686879518.72,38.086,991.699,17.578,94.238,746.621,371.04678079637256
38,1686879518.73,26.367,736.328,-54.199,58.105,746.625,373.3006612554958
39,1686879518.73,-41.992,-253.418,-45.41,-50.293,746.629,375.2471719672767
40,1686879518.74,-39.062,-113.77,126.953,-52.246,746.633,368.4981577758114
41,1686879518.74,18.555,944.336,3.418,37.109,746.65,363.24725563734415
42,1686879518.74,25.879,934.082,87.402,47.852,746.637,367.29729379267997
43,1686879518.74,36.621,844.727,-20.508,86.914,746.654,363.7371282604403
44,1686879518.74,38.574,927.246,-17.09,63.477,746.64,374.70829203649606
45,1686879518.75,-20.02,742.676,10.254,-14.16,746.658,362.16815929011625
46,1686879518.75,-18.555,717.773,12.695,-43.457,746.644,358.6193325752587
47,1686879518.75,-55.176,806.641,22.949,-92.285,746.662,369.5834290469531
48,1686879518.75,-41.504,808.594,6.836,-69.824,746.648,371.06148886470186
49,1686879518.76,-24.414,796.387,-12.695,-13.184,746.666,370.707069148194
50,1686879518.76,25.879,391.113,-13.184,76.172,746.67,361.2898484210538
51,1686879518.76,-3.418,7.812,44.434,17.578,746.673,364.18184008963533
52,1686879518.77,-72.754,212.402,24.902,-90.332,746.677,369.8346854898971
53,1686879518.77,-55.664,478.516,-2.93,-55.664,746.681,361.7452572393807
54,1686879518.77,2.93,164.551,-58.105,59.082,746.685,362.7729665182587
55,1686879518.78,-3.906,-371.094,33.691,36.621,746.689,364.2955507070828
56,1686879518.78,-45.41,452.637,96.68,-88.379,746.693,368.2805263194384
57,1686879518.8,-43.945,877.93,-9.277,-87.891,746.698,365.85975845736766
58,1686879518.8,11.23,587.402,1.465,36.621,746.701,367.62647448316096
59,1686879518.81,27.344,799.316,35.156,60.547,746.705,365.7853282311496
60,1686879518.81,-22.949,-993.652,7.812,-47.852,746.709,366.32148508109503
61,1686879518.82,-51.27,777.832,-18.555,-83.008,746.713,363.231095107814
62,1686879518.82,-4.395,261.719,54.199,33.691,746.717,368.6484231254569
63,1686879518.82,35.156,509.277,70.312,98.145,746.721,364.01413852378886
64,1686879518.83,-5.371,809.57,0.977,-0.488,746.725,366.86156469123216
65,1686879518.83,-50.781,372.559,-21.973,-78.613,746.729,364.60536522915424
66,1686879518.84,-21.973,-366.699,9.277,3.418,746.733,369.69484832904584
67,1686879518.84,38.574,246.582,99.121,98.145,746.737,362.36396705138884
68,1686879518.84,19.531,-989.258,23.438,48.34,746.741,356.5953778590953
69,1686879518.84,-47.363,631.348,-28.809,-56.152,746.74,361.03257004529513
70,1686879518.85,-34.18,568.848,41.504,-31.738,746.744,374.4356408625364
71,1686879518.85,33.691,892.09,45.41,82.52,746.748,365.4481635173919
72,1686879518.86,35.156,985.84,-4.395,62.988,746.752,364.158662971355
73,1686879518.86,-29.785,602.539,-23.926,-57.617,746.756,366.9627712143186
74,1686879518.86,-46.387,277.832,34.18,-59.082,746.76,365.4808451651692
75,1686879518.87,13.672,377.93,34.668,52.734,746.764,361.94266832775116
76,1686879518.87,31.738,570.312,1.953,70.312,746.768,359.80780638755266
77,1686879518.88,-26.367,217.285,-51.758,-39.062,746.772,369.6904667733951
78,1686879518.88,-56.641,-631.836,-10.254,-76.172,746.776,365.5619879586357
79,1686879518.88,-3.906,84.961,95.215,11.719,746.78,363.2755816605927
80,1686879518.89,31.25,904.785,41.992,67.383,746.783,370.2776733655807
81,1686879518.89,-16.113,416.016,-69.336,-17.578,746.8,366.15690134341247
82,1686879518.89,-61.035,530.273,11.719,-110.352,746.804,362.8163021935256
83,1686879518.9,-28.32,994.141,23.926,-43.457,746.808,362.1512817293883
84,1686879518.9,21.973,889.648,6.348,61.523,746.811,361.9205368502892
85,1686879518.91,2.441,689.941,57.617,15.137,746.815,366.80769974044034
86,1686879518.91,-58.594,466.797,20.02,-93.75,746.819,360.75437079944214
87,1686879518.91,-62.988,602.051,41.992,-78.125,746.823,361.6870204164145
88,1686879518.92,-1.953,803.711,0.488,47.852,746.827,362.7048293625125
89,1686879518.92,5.371,87.891,-29.785,62.012,746.831,366.27041760763495
90,1686879518.92,-52.246,413.086,61.523,-59.082,746.835,364.1654331700596
91,1686879518.93,-63.965,973.145,28.32,-82.52,746.839,362.66318619869895
92,1686879518.93,-5.371,802.734,-8.301,25.391,746.843,364.4010768167708
93,1686879518.94,20.508,698.242,23.438,53.711,746.833,357.0752374796066
94,1686879518.94,-27.832,622.07,31.25,-41.016,746.837,364.18131245938287
95,1686879518.94,-61.523,759.277,2.441,-87.402,746.841,364.14043511871955
96,1686879518.95,-20.508,639.648,-1.465,7.324,746.845,356.1486364912955
97,1686879518.95,30.762,480.469,65.43,86.914,746.849,364.2795594465206
98,1686879518.96,7.324,497.559,26.855,9.277,746.853,365.03838412290156
99,1686879518.96,-48.34,487.305,-6.348,-94.238,746.857,359.53516457365436
100,1686879518.96,-25.879,101.074,-44.922,-38.086,746.861,364.4832082975979
101,1686879518.97,32.715,-285.156,29.785,72.266,746.865,364.41572810698443
102,1686879518.97,15.137,688.477,90.332,23.438,746.869,365.53258715130545
103,1686879518.97,-54.688,-968.75,-11.23,-90.332,746.872,371.5223445698554
104,1686879518.98,-60.547,303.711,-51.27,-72.754,746.876,362.4254616017589
105,1686879518.98,0.488,445.312,69.824,41.016,746.878,363.60216126008146
106,1686879518.98,14.648,-955.566,55.176,60.059,746.882,369.7639299442872
107,1686879518.99,-37.598,878.906,-34.668,-44.922,746.885,367.9665254408831
108,1686879518.99,-66.895,420.41,10.742,-77.637,746.889,361.0822576583759
109,1686879519.0,-6.836,680.176,48.828,24.414,746.893,363.7528387701338
110,1686879519.0,30.762,818.359,7.812,69.824,746.897,366.14008866213277
111,1686879519.0,-18.066,491.699,-29.785,-29.785,746.901,366.9860130035261
112,1686879519.01,-61.035,-301.27,-25.391,-95.703,746.905,365.1573777693107
113,1686879519.01,-17.578,-9.766,123.047,-5.859,746.909,367.23440852563294
114,1686879519.02,39.062,991.211,72.266,78.613,746.913,360.7711363801592
115,1686879519.02,14.16,878.418,-29.785,9.277,746.917,364.49217317142353
116,1686879519.02,-47.852,689.941,17.09,-93.262,746.921,365.50341916021887
117,1686879519.02,-29.297,856.934,18.066,-39.551,746.921,370.53267841958626
118,1686879519.03,34.668,987.793,12.695,71.289,746.924,363.35121394569967
119,1686879519.03,28.32,759.277,-2.93,32.715,746.928,365.8359112877984
120,1686879519.04,-26.367,661.621,35.156,-95.703,746.932,374.78943830395366
121,1686879519.04,-31.25,698.242,13.184,-89.355,746.936,366.98690847325696
122,1686879519.04,24.902,557.617,8.301,30.273,746.94,371.85788533477387
123,1686879519.05,32.227,297.852,-20.508,58.105,746.944,363.6453333653702
124,1686879519.05,-28.32,-602.051,-10.742,-40.527,746.948,371.0050138405536
125,1686879519.06,-56.641,10.254,117.676,-89.355,746.952,368.3775292845948
126,1686879519.06,-2.441,972.656,51.27,13.672,746.956,369.58104904666214
127,1686879519.06,36.133,526.367,-50.293,80.566,746.96,363.01666374582504
128,1686879519.07,-8.301,600.098,37.109,-15.625,746.963,366.60632200823227
129,1686879519.08,-62.5,-992.188,38.574,-104.492,746.98,371.74335606101516
130,1686879519.09,-32.715,880.371,-18.066,-29.297,746.984,368.0902820046098
131,1686879519.09,23.438,571.289,9.766,67.871,746.988,367.71622886099044
132,1686879519.1,4.883,776.855,42.48,10.254,746.992,362.735097718171
133,1686879519.1,-38.574,958.008,0.488,-89.844,746.996,368.9394227698028
134,1686879519.1,-18.555,472.168,-41.504,-43.457,747.0,369.81913032192654
135,1686879519.11,42.969,-150.391,-7.324,86.914,747.004,370.8032433205638
136,1686879519.11,43.945,440.918,82.031,65.43,747.008,373.02907169339886
137,1686879519.12,-1.465,909.668,6.348,-50.293,747.012,372.7041843146382
138,1686879519.12,-22.949,414.062,-16.113,-57.617,747.016,371.06403014885166
139,1686879519.12,12.207,324.219,109.863,52.734,747.019,371.69275391015844
140,1686879519.13,38.574,865.234,83.008,89.844,747.023,370.29961998002165
141,1686879519.14,-14.648,-999.512,-14.648,-23.438,747.04,374.5431887919272
142,1686879519.15,-52.734,650.879,-23.438,-72.266,747.044,364.0514727795216
143,1686879519.15,1.953,616.699,32.227,29.297,747.048,374.5246330504111
144,1686879519.16,51.27,926.27,44.434,89.844,747.052,367.94534910355543
145,1686879519.16,19.531,949.219,15.625,4.395,747.056,366.41878247147383
146,1686879519.16,-29.785,220.703,12.695,-52.734,747.06,372.6672062959988
147,1686879519.17,-6.348,-146.484,65.918,29.785,747.064,367.1077297944782
148,1686879519.17,50.293,480.469,88.867,123.535,747.068,371.82905146347775
149,1686879519.18,33.691,952.148,19.043,64.941,747.072,365.2406179600894
150,1686879519.18,69.336,876.953,6.836,91.309,747.084,373.90225068582544
151,1686879519.18,-25.879,354.492,-57.617,-49.316,747.076,370.20922955706357
152,1686879519.18,8.789,338.379,-56.152,-14.16,747.088,370.98184057386555
153,1686879519.18,-0.977,454.102,23.438,-30.762,747.092,375.4514004296182
154,1686879519.18,-17.09,-83.496,65.918,-17.578,747.079,369.2547623469174
155,1686879519.19,63.477,970.703,30.273,81.055,747.096,372.0983689678003
156,1686879519.19,59.082,568.359,86.426,98.145,747.083,373.0888182605994
157,1686879519.19,85.938,838.379,-29.297,128.418,747.1,369.11519131130825
158,1686879519.2,22.461,143.555,30.762,19.531,747.104,368.28234741491633
159,1686879519.2,-3.418,236.328,81.055,-50.293,747.108,369.38443396060705
160,1686879519.2,50.781,851.074,31.738,49.316,747.112,364.44938810209305
161,1686879519.21,91.309,703.125,-11.719,137.695,747.116,372.22761366892894
162,1686879519.21,64.453,384.766,51.27,67.383,747.12,373.3086846773747
163,1686879519.21,25.879,565.43,47.852,-16.113,747.123,371.58710567948515
164,1686879519.22,52.246,729.492,23.438,46.387,747.127,370.2699675695621
165,1686879519.22,109.375,590.82,-18.555,152.832,747.119,374.6690377765255
166,1686879519.22,92.285,-237.793,-4.883,111.328,747.123,363.89568268025573
167,1686879519.23,30.273,106.934,77.148,-17.09,747.126,368.8108699079491
168,1686879519.23,35.156,860.84,27.344,-3.418,747.13,378.08569536943673
169,1686879519.24,91.309,594.238,-14.648,122.07,747.134,370.6271125679474
170,1686879519.24,90.332,157.227,45.898,127.93,747.138,370.39737102767464
171,1686879519.24,38.574,319.336,28.32,19.043,747.142,364.08529767224434
172,1686879519.25,22.461,530.273,-5.859,0.0,747.146,366.38179336134493
173,1686879519.25,73.242,239.746,-50.293,103.027,747.15,368.4126442630442
174,1686879519.26,104.492,-330.566,4.883,147.461,747.154,370.8357308735873
175,1686879519.26,62.5,590.82,80.566,51.27,747.158,366.0319228673223
176,1686879519.26,20.02,-964.844,-5.859,-7.324,747.162,373.0284612682486
177,1686879519.27,58.594,438.477,-56.641,93.262,747.163,369.3289238905737
178,1686879519.27,121.094,700.195,38.086,180.664,747.167,376.58063939547196
179,1686879519.27,104.492,-937.012,28.809,122.559,747.17,365.7052143501116
180,1686879519.28,51.27,835.449,-35.156,31.25,747.174,375.0733000568439
181,1686879519.28,46.387,433.105,17.578,55.176,747.178,363.26311464913556
182,1686879519.29,95.703,458.008,21.973,159.18,747.182,372.24029711063054
183,1686879519.29,105.957,705.078,14.648,134.277,747.186,367.5392264253646
184,1686879519.29,51.27,734.375,-24.902,24.414,747.19,373.3088088984727
185,1686879519.3,36.133,-208.008,-47.363,46.875,747.194,376.9217981336029
186,1686879519.3,102.539,54.199,117.676,166.992,747.198,375.3693934337495
187,1686879519.3,123.535,-963.867,58.105,191.406,747.202,372.72892393378083
188,1686879519.31,51.758,807.617,-49.805,83.496,747.206,370.858976336069
189,1686879519.31,25.879,645.02,16.602,50.781,747.205,372.2781457708829
190,1686879519.31,94.727,874.023,22.461,169.922,747.209,374.23612987410115
191,1686879519.32,136.719,976.074,-0.977,232.422,747.213,367.94754679970845
192,1686879519.32,91.309,757.324,-20.508,148.926,747.217,378.88487850502116
193,1686879519.32,55.664,580.078,-4.395,68.359,747.221,366.5125439152624
194,1686879519.33,99.121,435.059,0.0,137.207,747.225,368.57962054906
195,1686879519.33,155.273,515.625,22.949,240.723,747.229,369.7212180053035
196,1686879519.34,133.789,324.707,-56.152,186.035,747.233,368.5971524667014
197,1686879519.34,74.219,-679.688,-34.668,91.797,747.237,368.8617408090463
198,1686879519.34,89.355,-51.27,124.023,120.117,747.241,369.52747913189387
199,1686879519.35,150.391,957.031,42.969,217.285,747.244,381.87267721683423
200,1686879519.35,154.785,711.426,-44.434,197.754,747.248,369.5631189630445
201,1686879519.36,101.562,800.781,2.93,80.078,747.253,368.1440796527218
202,1686879519.36,88.867,967.285,-2.441,74.219,747.257,370.7361495000862
203,1686879519.36,142.578,863.77,-15.137,183.594,747.261,375.0273738098491
204,1686879519.37,151.367,661.621,32.715,210.449,747.265,374.4156102470993
205,1686879519.37,83.496,671.875,7.324,96.68,747.268,372.8838061142815
206,1686879519.38,53.711,505.859,-21.973,47.852,747.272,381.2456370628374
207,1686879519.38,116.699,342.773,-14.16,158.691,747.276,368.40042591849254
208,1686879519.38,152.344,-82.031,-22.949,223.633,747.28,381.1893541657593
209,1686879519.39,105.469,332.031,35.156,119.141,747.284,371.35859303229364
210,1686879519.39,55.176,733.887,-23.926,28.809,747.288,378.1649778013731
211,1686879519.39,83.008,346.191,-33.203,104.492,747.292,373.5499020320511
212,1686879519.4,133.789,326.66,63.477,200.684,747.296,369.3801762712737
213,1686879519.4,103.516,820.801,33.691,142.09,747.295,369.3039977463844
214,1686879519.4,49.805,873.535,-45.898,21.973,747.299,372.34181623666154
215,1686879519.41,60.547,537.598,-30.762,59.082,747.303,376.1365279016224
216,1686879519.41,119.629,679.199,19.531,180.176,747.307,368.65939641664977
217,1686879519.42,128.418,818.359,-18.555,165.039,747.311,368.9464486536325
218,1686879519.42,72.266,533.691,-30.762,52.246,747.315,370.53812228288615
219,1686879519.42,53.223,9.766,-56.641,35.645,747.319,381.0312914752375
220,1686879519.43,105.469,-722.168,-9.277,154.297,747.323,380.4266990451588
221,1686879519.43,132.812,232.91,92.773,187.5,747.327,368.8882077392642
222,1686879519.43,80.566,934.57,-10.254,62.5,747.33,374.0385549551599
223,1686879519.44,45.898,450.684,-64.453,-10.742,747.334,366.38020554045545
224,1686879519.44,87.891,552.246,-17.578,83.008,747.338,372.2790255694533
225,1686879519.46,134.277,695.801,-9.277,167.969,747.357,380.33458286568117
226,1686879519.46,104.492,701.172,-34.668,89.355,747.361,373.8987210829963
227,1686879519.47,41.504,138.672,-76.66,-15.625,747.365,367.8144994542339
228,1686879519.47,61.035,307.617,-8.301,43.945,747.369,375.4582943398834
229,1686879519.48,116.211,857.91,-2.441,153.32,747.373,375.1985122142165
230,1686879519.48,90.332,475.586,-61.035,111.816,747.376,370.47472367084936
231,1686879519.48,22.461,-351.562,-36.621,9.277,747.38,366.0091667776184
232,1686879519.49,24.902,95.215,67.871,16.113,747.384,367.54827955879927
233,1686879519.49,83.008,708.984,-18.555,108.887,747.403,374.85763949644553
234,1686879519.49,86.914,857.91,11.23,135.742,747.388,374.1145717525721
235,1686879519.49,118.652,626.465,-42.48,166.504,747.407,371.17126925258594
236,1686879519.5,99.121,661.621,-32.227,151.367,747.392,369.17680980855715
237,1686879519.5,66.895,350.098,-39.551,49.316,747.41,366.00305203690084
238,1686879519.5,49.316,474.609,11.23,34.18,747.396,371.4494588884913
239,1686879519.5,23.438,266.113,17.09,-33.203,747.414,370.80305838146035
240,1686879519.5,28.809,600.586,-5.371,-1.953,747.4,378.3787686145067
241,1686879519.5,68.848,548.34,-5.859,52.246,747.418,371.7634829167124
242,1686879519.51,114.258,124.023,-54.688,144.531,747.422,370.8899286327191
243,1686879519.51,85.449,-618.652,14.648,82.52,747.426,372.4703853322206
244,1686879519.52,28.32,-94.238,50.293,-32.227,747.43,367.0591131269882
245,1686879519.52,50.781,666.016,-8.301,20.02,747.434,371.5513639784146
246,1686879519.52,104.004,155.762,-65.43,151.367,747.438,367.24081814054114
247,1686879519.53,90.82,-368.652,51.27,121.582,747.442,372.26572366922323
248,1686879519.53,53.223,431.641,39.551,-11.719,747.446,372.22109807585065
249,1686879519.55,41.504,598.145,-45.41,-10.254,747.448,365.88275463935236
250,1686879519.55,93.75,285.645,-20.02,119.629,747.452,371.26694006425276
251,1686879519.56,118.164,554.688,-13.184,135.254,747.456,367.9036826586271
252,1686879519.56,61.523,695.312,-25.391,3.418,747.46,360.54225676009617
253,1686879519.57,34.18,335.449,-26.855,-24.414,747.464,363.9423376404459
254,1686879519.57,83.496,-82.031,14.648,90.332,747.468,373.071154720004
255,1686879519.57,110.84,-18.555,-8.789,137.207,747.472,373.1534550337606
256,1686879519.58,63.965,296.875,-5.371,27.344,747.476,373.21378307684853
257,1686879519.58,24.902,255.859,-44.922,-50.293,747.479,365.8694932574841
258,1686879519.58,54.199,-628.418,-54.688,50.781,747.483,367.2053606337339
259,1686879519.59,108.398,-115.234,65.43,144.043,747.487,368.42140158182025
260,1686879519.59,94.238,687.5,-6.348,85.449,747.491,369.55111203014917
261,1686879519.59,26.367,366.211,-66.406,-37.109,747.49,372.69307530676315
262,1686879519.6,12.207,246.582,-11.23,-22.461,747.494,367.5579625441335
263,1686879519.6,57.617,471.68,-9.277,93.75,747.498,369.3966733058
264,1686879519.61,58.105,583.496,-35.156,75.195,747.502,368.56029061902285
265,1686879519.61,-1.953,195.312,-46.387,-49.805,747.506,368.51691963566066
266,1686879519.61,-16.602,-182.129,3.906,-53.223,747.51,370.7787407939226
267,1686879519.62,38.574,-99.121,-9.277,69.824,747.514,373.79147572636606
268,1686879519.62,73.73,60.547,-13.672,96.191,747.518,376.0215066322444
269,1686879519.62,29.297,-181.152,-71.289,-14.648,747.522,374.4294487701459
270,1686879519.63,-9.277,-931.152,-48.828,-60.059,747.525,368.23831577642767
271,1686879519.63,39.062,-279.785,86.426,34.668,747.529,363.0983604539882
272,1686879519.64,82.031,399.414,-3.418,100.098,747.533,370.6318367027456
273,1686879519.64,34.668,147.949,-50.781,8.301,747.538,368.3577740175233
274,1686879519.64,-10.742,375.488,-6.836,-82.031,747.542,365.8908333153796
275,1686879519.65,28.32,632.324,-15.625,5.371,747.545,365.5262438479148
276,1686879519.65,76.172,607.422,-28.32,107.91,747.549,367.6358391238018
277,1686879519.66,45.898,288.574,-11.23,29.785,747.553,371.94414169863046
278,1686879519.66,-8.789,-12.207,-32.715,-74.707,747.557,370.38572381160947
279,1686879519.66,5.859,113.281,-3.906,-30.273,747.561,365.60595266687153
280,1686879519.67,66.895,362.305,-26.855,103.027,747.565,366.1111968824364
281,1686879519.67,70.801,-301.27,-45.41,99.609,747.569,369.77984965766046
282,1686879519.68,10.254,-25.879,35.645,-38.574,747.573,370.9923547558708
283,1686879519.68,-13.184,402.832,-27.832,-62.988,747.577,367.7139123472178
284,1686879519.68,32.715,93.75,-34.668,57.617,747.581,363.20105479230335
285,1686879519.7,55.664,47.852,42.969,90.332,747.596,367.4829618535928
286,1686879519.7,13.184,441.895,15.137,-21.973,747.6,367.3246043806959
287,1686879519.71,-28.809,532.715,-38.574,-88.379,747.603,370.76441052547233
288,1686879519.71,15.625,301.758,-17.578,9.277,747.607,372.1825220421152
289,1686879519.72,58.594,323.242,-0.488,108.887,747.611,368.1818186913574
290,1686879519.72,12.207,154.785,-28.809,17.09,747.615,362.3974307563568
291,1686879519.72,-33.691,41.016,-20.508,-103.516,747.619,365.6997028573421
292,1686879519.73,-14.16,-254.395,-63.965,-22.949,747.623,364.10278216801265
293,1686879519.73,29.297,-875.488,-38.086,97.168,747.627,364.28490880327143
294,1686879519.73,31.25,355.469,-19.043,55.176,747.632,373.577472115758
295,1686879519.73,17.09,45.898,36.621,35.645,747.631,369.7209376392297
296,1686879519.74,42.48,423.34,-37.598,60.059,747.635,368.7096914893866
297,1686879519.74,-33.691,621.582,-36.621,-86.914,747.635,361.8775491698881
298,1686879519.74,-16.602,337.402,-52.246,-69.824,747.639,372.17590833476214
299,1686879519.74,-29.297,192.871,-48.34,-65.918,747.639,369.6817183038141
300,1686879519.74,-46.387,-143.066,-51.758,-94.727,747.643,371.2148239120715
301,1686879519.75,10.742,127.441,-6.348,29.297,747.647,367.47777242868074
302,1686879519.75,39.551,369.141,-48.34,80.078,747.651,370.0783524373924
303,1686879519.76,-21.484,-4.883,-58.594,-30.273,747.655,369.06038954628764
304,1686879519.76,-56.152,-146.484,54.688,-107.422,747.659,373.6798024081374
305,1686879519.76,-5.859,296.875,28.809,-11.719,747.663,363.9029210368832
306,1686879519.77,36.133,707.52,-41.992,59.082,747.667,368.4370561833905
307,1686879519.77,6.836,354.004,-72.266,-11.23,747.671,370.33187658540203
308,1686879519.77,-36.621,-47.363,18.555,-41.992,747.67,372.33505291518486
309,1686879519.78,-53.711,-606.934,-55.176,-92.773,747.675,371.988739092746
310,1686879519.78,18.066,683.105,-22.461,62.988,747.674,364.8890208139582
311,1686879519.78,-8.301,356.934,-48.828,14.648,747.678,369.84633316250927
312,1686879519.79,-64.941,77.148,-34.18,-111.816,747.682,370.467552568385
313,1686879519.79,-60.059,81.055,-16.113,-102.051,747.686,374.6174038882077
314,1686879519.79,1.465,187.988,-9.277,27.344,747.69,367.621359022034
315,1686879519.8,13.672,-26.367,-60.547,48.828,747.694,375.6585095052807
316,1686879519.8,-50.781,-915.039,-42.48,-70.801,747.698,363.9292344038265
317,1686879519.8,-81.055,-500.488,95.703,-120.605,747.702,370.6720619670548
318,1686879519.81,-25.391,525.391,30.762,-4.883,747.706,376.51091876269686
319,1686879519.81,1.953,421.387,-61.523,55.664,747.71,370.370719378891
320,1686879519.82,-45.41,461.426,-16.113,-48.34,747.713,373.29443566929245
321,1686879519.83,-88.379,597.656,-13.672,-126.465,747.731,374.16250897250507
322,1686879519.84,-59.082,488.77,-21.973,-51.758,747.735,376.03690280864464
323,1686879519.84,-11.23,272.461,-6.836,35.156,747.738,369.9562083040758
324,1686879519.85,-39.062,428.711,-16.602,-39.062,747.742,380.43719517770614
325,1686879519.85,-96.68,516.113,-39.551,-150.391,747.746,374.3986235991211
326,1686879519.85,-78.125,53.711,-57.617,-96.191,747.75,377.61209363030025
327,1686879519.86,-25.391,-616.211,-43.945,38.086,747.754,380.06234543009674
328,1686879519.86,-34.668,-280.273,41.504,7.324,747.758,377.11235207629085
329,1686879519.86,-67.383,588.867,-50.293,-107.422,747.775,380.11871005565473
330,1686879519.86,-85.938,522.461,-6.348,-124.023,747.762,374.5231756014875
331,1686879519.87,-100.098,235.84,-46.875,-150.391,747.779,373.93612270303095
332,1686879519.87,-89.844,292.48,-70.312,-122.559,747.766,381.093944344583
333,1686879519.87,-58.594,236.816,-15.625,-42.969,747.783,381.7112887913246
334,1686879519.87,-24.902,-116.699,54.199,12.207,747.77,382.270863271027
335,1686879519.88,-20.508,499.512,-5.859,23.926,747.787,382.38524598805475
336,1686879519.88,-4.883,410.645,36.621,28.32,747.774,374.78122392057844
337,1686879519.88,-64.453,542.969,-48.828,-58.105,747.791,379.51512354342395
338,1686879519.88,-122.07,-47.363,-55.664,-149.414,747.794,380.8623435832161
339,1686879519.89,-90.332,-490.723,20.508,-77.148,747.798,376.99185536278486
340,1686879519.89,-33.203,132.812,26.367,16.113,747.802,382.7734701983396
341,1686879519.9,-51.27,615.234,-26.855,-52.734,747.806,383.5921227656705
342,1686879519.9,-116.211,-104.98,-93.262,-160.156,747.81,385.1587923091028
343,1686879519.9,-112.305,-750.0,9.277,-118.652,747.814,382.5895914223505
344,1686879519.91,-51.27,376.953,63.965,-10.254,747.818,389.723513859126
345,1686879519.93,-54.688,814.941,-48.828,-26.367,747.823,385.2605568554052
346,1686879519.93,-118.652,291.016,-47.363,-146.973,747.827,385.7895889286558
347,1686879519.93,-136.719,431.152,-19.531,-156.738,747.831,393.64456827856014
348,1686879519.94,-80.078,718.262,-16.113,-27.832,747.834,390.6603573547901
349,1686879519.94,-46.875,646.973,-42.48,12.695,747.838,388.25391237954796
350,1686879519.95,-99.121,9.766,-6.836,-99.121,747.842,389.2596073075038
351,1686879519.95,-137.695,-5.859,35.156,-161.621,747.846,402.493805658943
352,1686879519.95,-91.309,625.977,0.488,-67.871,747.85,394.73317609246334
353,1686879519.96,-48.828,555.664,-52.734,8.789,747.854,392.02325580754683
354,1686879519.96,-88.867,-213.379,-20.508,-75.195,747.858,398.89797232471204
355,1686879519.96,-136.719,125.488,13.184,-170.898,747.862,395.8987425888611
356,1686879519.97,-109.375,412.109,-32.715,-103.516,747.866,398.5838802414014
357,1686879519.97,-57.129,180.664,-26.367,13.672,747.866,395.7805447707599
358,1686879519.97,-75.684,141.113,12.207,-31.25,747.869,396.0586051294671
359,1686879519.98,-131.836,467.773,-15.137,-156.25,747.873,397.94402590426773
360,1686879519.98,-135.254,551.758,-61.523,-133.789,747.877,403.8260875480803
361,1686879519.98,-84.473,321.289,-38.086,-4.395,747.881,403.23615836758574
362,1686879519.99,-72.754,204.102,-0.977,-3.418,747.885,406.2721817094406
363,1686879519.99,-126.465,83.008,-20.996,-135.254,747.889,405.5396045715636
364,1686879520.0,-144.043,120.117,-18.066,-166.992,747.893,401.4327554326883
365,1686879520.0,-87.402,-63.965,-64.453,-44.922,747.897,408.52819542879774
366,1686879520.0,-66.406,-715.332,-47.363,14.648,747.901,398.9294153069358
367,1686879520.01,-119.629,132.812,45.898,-100.098,747.905,402.1084716071736
368,1686879520.01,-146.484,693.359,-22.949,-175.293,747.908,409.60573671937055
369,1686879520.02,-91.797,323.242,-56.641,-82.031,747.916,401.9765195392938
370,1686879520.02,-43.945,465.82,-23.926,5.859,747.92,403.17133683117356
371,1686879520.02,-80.566,496.582,-15.625,-64.453,747.924,410.7731054905279
372,1686879520.03,-134.277,427.734,-38.574,-172.852,747.928,405.7890433067069
373,1686879520.03,-122.559,-88.379,-59.082,-119.629,747.932,406.6887707552296
374,1686879520.04,-61.523,-93.262,-13.184,11.23,747.936,405.5979050191736
375,1686879520.04,-63.477,369.141,9.277,-17.09,747.94,415.4474925593351
376,1686879520.04,-123.535,378.418,-57.617,-145.996,747.944,405.7504395567198
377,1686879520.05,-124.023,-452.148,-55.664,-134.766,747.948,401.28723270118644
378,1686879520.05,-57.617,58.105,45.41,-20.02,747.952,408.08111930104496
379,1686879520.06,-47.363,754.395,-27.344,-16.602,747.955,416.7392269375356
380,1686879520.06,-146.973,197.266,3.906,-176.27,747.956,411.02704141485924
381,1686879520.06,-110.352,257.812,-50.293,-131.348,747.959,400.43478928380847
382,1686879520.06,-100.098,541.016,-16.602,-68.848,747.96,420.83721295016943
383,1686879520.07,-60.059,647.461,-39.551,0.977,747.963,416.66904219663957
384,1686879520.07,-107.422,333.984,-45.898,-105.957,747.967,419.0688465769342
385,1686879520.08,-153.32,25.879,-44.922,-188.477,747.971,418.8328449418862
386,1686879520.08,-124.023,-18.066,-29.297,-101.562,747.975,426.78963712970256
387,1686879520.08,-71.289,194.336,-9.277,0.0,747.979,434.8039265992038
388,1686879520.09,-94.727,1.953,-80.566,-64.453,747.983,422.7972027588523
389,1686879520.09,-157.715,-917.969,-54.199,-174.316,747.987,418.8729669482529
390,1686879520.09,-132.812,-341.797,100.586,-140.625,747.991,422.73411587423766
391,1686879520.1,-77.637,666.992,17.578,-37.109,747.995,424.3313060102784
392,1686879520.1,-89.844,437.5,-64.941,-55.176,747.999,422.98052237108493
393,1686879520.11,-133.301,462.891,-21.484,-170.41,748.003,425.22537735050133
394,1686879520.11,-140.137,613.77,-31.738,-172.363,748.007,428.6525615014127
395,1686879520.11,-89.355,516.113,-20.02,-42.48,748.011,430.3797433330469
396,1686879520.12,-71.777,351.562,14.648,-14.648,748.015,423.93177541317516
397,1686879520.12,-123.047,408.691,-24.902,-145.508,748.019,429.21938324840494
398,1686879520.13,-161.621,168.945,-52.246,-194.824,748.023,425.86910795126863
399,1686879520.13,-113.281,-37.109,-22.461,-77.148,748.027,425.84999317884615
400,1686879520.13,-68.848,-551.758,-41.992,3.906,748.03,422.96913780318215
401,1686879520.14,-106.934,-352.051,39.551,-102.051,748.034,433.2935602419006
402,1686879520.14,-148.438,520.02,9.277,-209.961,748.038,421.94481686326185
403,1686879520.14,-118.652,447.754,-41.992,-127.93,748.042,433.00118318596856
404,1686879520.15,-69.824,344.238,1.953,-9.766,748.046,426.18109731001124
405,1686879520.15,-88.379,573.242,-15.625,-68.359,748.059,431.42123693589957
406,1686879520.15,-149.414,515.625,-40.527,-190.43,748.063,427.2106395409749
407,1686879520.16,-147.461,228.027,-49.805,-155.762,748.067,429.0202283816383
408,1686879520.16,-87.891,317.871,-5.859,-37.598,748.071,425.47027798516393
409,1686879520.16,-78.613,419.922,-23.926,-55.176,748.075,430.4007119668421
410,1686879520.17,-124.512,146.484,-47.852,-176.27,748.079,426.4123847545423
411,1686879520.17,-141.602,-274.414,-60.547,-188.477,748.083,422.82987530839824
412,1686879520.18,-91.797,-870.605,-3.906,-57.129,748.087,432.0504207263134
413,1686879520.18,-57.129,0.0,76.172,-31.25,748.09,431.89482561539376
414,1686879520.18,-111.328,523.926,-46.875,-153.809,748.094,429.49629484206287
415,1686879520.19,-158.691,-145.02,-76.66,-212.891,748.098,427.4685354271475
416,1686879520.19,-106.934,113.77,40.527,-107.91,748.102,424.911100433783
417,1686879520.21,-63.477,759.277,11.23,-22.461,748.105,428.23332395302697
418,1686879520.21,-103.027,622.07,-54.688,-115.234,748.109,429.65899226832437
419,1686879520.22,-151.367,130.859,-23.438,-218.262,748.113,426.69933497142284
420,1686879520.22,-127.441,331.055,-1.465,-145.02,748.117,432.52209851323306
421,1686879520.22,-75.195,650.879,-8.301,-20.02,748.121,430.53236442123983
422,1686879520.23,-88.379,239.746,-52.734,-59.57,748.125,430.04658622993924
423,1686879520.23,-138.184,-616.211,-39.551,-181.641,748.129,428.92203201515787
424,1686879520.24,-131.348,-214.844,70.801,-162.109,748.133,431.76982400746687
425,1686879520.24,-64.941,693.848,26.367,-36.621,748.137,418.31142255955666
426,1686879520.24,-76.66,333.496,-43.945,-60.059,748.149,436.83621808700195
427,1686879520.24,-48.828,150.879,-20.996,-15.625,748.153,427.8607966895652
428,1686879520.24,-58.594,455.078,-50.293,-37.109,748.14,429.6767973834504
429,1686879520.25,-122.07,-85.449,43.945,-157.227,748.144,425.0984507551093
430,1686879520.25,-100.586,66.895,20.996,-131.348,748.157,427.08819431905835
431,1686879520.25,-133.789,208.496,31.738,-180.664,748.148,427.0746469852304
432,1686879520.25,-138.184,372.07,3.418,-207.031,748.161,433.3564512470334
433,1686879520.26,-92.773,474.121,-39.551,-108.398,748.165,425.4093135865119
434,1686879520.26,-50.781,38.086,-32.227,-8.789,748.169,426.740764100972
435,1686879520.26,-83.984,-311.523,7.324,-83.984,748.173,423.88299421415155
436,1686879520.27,-138.184,-76.66,-10.742,-196.777,748.176,425.36060661204175
437,1686879520.27,-130.371,383.301,-28.809,-146.484,748.18,428.6145035226321
438,1686879520.28,-88.379,88.867,-59.082,-23.438,748.184,426.9122945373654
439,1686879520.28,-86.914,-198.73,3.418,-45.898,748.188,422.52335653124294
440,1686879520.28,-128.418,450.684,20.02,-166.504,748.192,417.8104211319576
441,1686879520.3,-127.441,519.043,-37.109,-154.297,748.209,418.748692210917
442,1686879520.3,-65.918,281.738,-26.855,-26.367,748.213,425.9116836325607
443,1686879520.31,-54.199,369.141,-6.836,-21.973,748.217,422.1746377070915
444,1686879520.31,-112.305,324.219,-5.371,-145.02,748.221,420.1284938486462
445,1686879520.32,-139.16,348.633,-25.879,-185.547,748.225,423.3968919894258
446,1686879520.32,-92.285,-424.316,-43.945,-59.57,748.229,421.4240018051722
447,1686879520.32,-60.059,-333.984,71.289,-4.395,748.233,418.62058696775074
448,1686879520.33,-104.004,590.82,21.484,-125.0,748.237,421.5345949345538
449,1686879520.33,-163.574,412.109,-63.965,-223.633,748.241,421.86562056771936
450,1686879520.34,-136.719,138.672,8.301,-149.414,748.245,421.9352233307272
451,1686879520.34,-77.637,524.414,12.207,-47.363,748.249,419.75014004389385
452,1686879520.34,-102.051,631.836,-51.27,-105.469,748.252,415.47277965455527
453,1686879520.34,-154.297,266.602,-55.176,-215.332,748.241,411.39292287521175
454,1686879520.35,-136.719,192.383,-14.648,-176.27,748.245,405.58724174657215
455,1686879520.35,-82.031,477.539,-20.02,-53.223,748.249,415.03200615892905
456,1686879520.36,-90.332,562.012,-43.457,-69.824,748.252,414.71083837712416
457,1686879520.36,-150.879,110.352,-57.129,-198.242,748.256,407.1066679441627
458,1686879520.36,-159.668,-268.066,-22.949,-199.219,748.26,416.9223743808718
459,1686879520.37,-97.656,-121.582,-17.09,-61.035,748.264,422.08716569224725
460,1686879520.37,-75.684,99.609,-19.043,-35.645,748.268,408.53345731895104
461,1686879520.38,-132.324,-236.328,-70.312,-160.156,748.272,419.07224062162254
462,1686879520.38,-168.945,-887.207,-39.062,-212.891,748.276,421.8183648492066
463,1686879520.38,-107.422,1.953,63.477,-102.051,748.28,409.79441656243074
464,1686879520.39,-53.223,722.656,-19.043,-24.414,748.284,425.7895956128815
465,1686879520.39,-107.422,-26.367,-96.68,-123.535,748.288,407.9240522755196
466,1686879520.4,-156.25,-137.207,7.812,-222.168,748.292,417.19205576575314
467,1686879520.4,-120.605,445.801,6.836,-152.832,748.295,412.15826798974996
468,1686879520.4,-72.266,486.328,-29.297,-49.316,748.299,420.2022901509824
469,1686879520.41,-102.539,174.316,16.113,-105.469,748.303,410.64290027532235
470,1686879520.41,-162.598,-109.863,-20.996,-216.797,748.307,415.7930010762372
471,1686879520.42,-145.508,44.434,4.395,-181.641,748.311,409.24297967144145
472,1686879520.42,-89.844,237.793,-43.945,-61.035,748.315,410.11677499541645
473,1686879520.42,-97.656,-636.23,-69.824,-63.477,748.319,408.8658422459453
474,1686879520.43,-147.949,-490.234,61.035,-187.988,748.323,411.92872984824567
475,1686879520.43,-151.855,398.926,-11.719,-207.031,748.327,408.2452336130752
476,1686879520.43,-75.684,222.168,-7.324,-51.758,748.331,412.66061194823783
477,1686879520.43,-99.609,323.73,-67.383,-81.055,748.331,410.94254325440147
478,1686879520.44,-118.652,405.762,-27.832,-178.223,748.335,409.82918729444606
479,1686879520.44,-148.438,364.258,-37.598,-234.863,748.338,409.24934924842944
480,1686879520.45,-111.816,186.523,-16.113,-120.117,748.342,414.4037339097647
481,1686879520.45,-70.312,155.273,-11.719,-36.133,748.346,410.2654461785343
482,1686879520.45,-96.68,-20.508,-29.297,-124.512,748.35,423.2014617790001
483,1686879520.46,-152.344,-71.777,-25.879,-220.703,748.354,422.03055071363616
484,1686879520.46,-131.348,-283.691,-58.594,-147.461,748.358,416.1645109097434
485,1686879520.46,-63.965,-862.305,-36.133,-26.855,748.362,409.51934941448104
486,1686879520.47,-74.219,-24.414,25.391,-88.867,748.366,415.48055433799044
487,1686879520.47,-144.043,410.645,-71.777,-220.215,748.37,417.75346345667214
488,1686879520.48,-145.996,-208.984,-81.543,-185.059,748.374,410.70832160452375
489,1686879520.48,-79.59,178.711,11.719,-57.617,748.38,418.86780651841593
490,1686879520.49,-62.5,748.047,-22.461,-63.477,748.383,408.9277987389201
491,1686879520.49,-113.281,481.445,-71.289,-181.152,748.387,414.15594836301915
492,1686879520.5,-141.113,86.914,-6.836,-207.52,748.391,415.266433126621
493,1686879520.5,-91.797,330.566,-10.742,-97.656,748.395,414.4094875113188
494,1686879520.5,-57.129,325.684,-50.293,-40.039,748.399,406.285179632853
495,1686879520.51,-109.863,-37.109,-61.035,-160.156,748.403,408.91784247191146
496,1686879520.51,-149.902,-640.137,-59.082,-236.816,748.407,412.5677212789268
497,1686879520.52,-92.285,-122.07,45.898,-125.0,748.411,410.40978763894356
498,1686879520.52,-36.621,656.25,-5.371,-30.273,748.415,412.1148420446684
499,1686879520.52,-79.102,404.785,-61.523,-109.863,748.419,413.3883165582783
500,1686879520.52,-110.84,275.879,-11.719,-155.273,748.424,414.2662841673869
501,1686879520.53,-133.789,168.945,-5.859,-212.891,748.423,408.7359728291669
502,1686879520.53,-58.594,252.93,-25.391,-40.527,748.428,402.21822062287725
503,1686879520.53,-71.777,27.344,-30.762,-68.359,748.432,405.3622487294547
504,1686879520.54,-124.023,-59.082,11.719,-187.988,748.435,406.8679613079468
505,1686879520.54,-115.234,173.828,-6.836,-177.246,748.439,410.53584123191894
506,1686879520.54,-55.176,155.762,-19.043,-38.574,748.443,409.23820000586994
507,1686879520.55,-49.805,-106.934,-31.738,-28.32,748.447,412.9790737132847
508,1686879520.55,-120.605,-827.148,-13.672,-160.156,748.451,409.48949629281924
509,1686879520.56,-133.789,-158.203,60.059,-198.73,748.455,411.1271532815378
510,1686879520.56,-75.195,580.566,-5.371,-76.172,748.459,412.2020045844081
511,1686879520.56,-47.852,239.746,-43.457,-9.277,748.463,403.5502620646957
512,1686879520.57,-90.332,370.605,-4.395,-106.934,748.467,405.7534349025041
513,1686879520.58,-130.859,541.504,-8.301,-190.918,748.481,404.6922861258654
514,1686879520.59,-88.379,422.852,-30.273,-95.703,748.484,397.5266709999523
515,1686879520.59,-26.855,214.355,-33.203,25.879,748.488,398.1505178982859
516,1686879520.6,-58.594,133.301,-24.902,-59.57,748.492,399.9413633642634
517,1686879520.6,-131.348,64.453,-4.395,-187.988,748.496,395.81876663999975
518,1686879520.6,-119.629,-58.594,-32.227,-136.719,748.5,398.5369928843866
519,1686879520.61,-68.359,-669.922,-37.109,-14.16,748.504,395.29044818422796
520,1686879520.61,-75.684,-497.07,83.984,-45.898,748.508,393.18932659682946
521,1686879520.61,-98.633,499.023,-39.551,-130.371,748.525,396.0746173729783
522,1686879520.62,-131.348,389.16,29.785,-176.27,748.512,389.0153949595644
523,1686879520.62,-126.465,149.414,-41.016,-174.805,748.529,387.1149555412167
524,1686879520.62,-137.695,328.125,-38.574,-170.898,748.516,393.2487258395968
525,1686879520.62,-71.289,137.207,13.184,-46.875,748.533,392.62751551608864
526,1686879520.62,-75.684,226.562,31.738,-41.016,748.52,385.4358195376321
527,1686879520.63,-28.809,434.57,4.883,17.09,748.537,379.09268278075257
528,1686879520.63,-50.293,541.504,7.324,-9.277,748.523,385.56957349280583
529,1686879520.63,-79.59,399.902,-45.41,-97.656,748.541,389.1203866528751
530,1686879520.63,-124.023,-277.832,-39.551,-171.875,748.545,375.2953851949757
531,1686879520.64,-85.449,-582.52,33.691,-68.848,748.549,381.460150032599
532,1686879520.64,-38.086,-101.562,25.879,34.18,748.552,379.62725288139035
533,1686879520.64,-64.453,166.992,-9.766,-47.852,748.556,383.50137843013124
534,1686879520.65,-123.535,-244.141,-61.035,-179.199,748.56,375.2531946133132
535,1686879520.65,-107.91,-806.152,19.531,-129.883,748.564,376.6849384141664
536,1686879520.66,-26.367,219.238,116.699,9.277,748.568,371.51055238774916
537,1686879520.68,-22.461,725.586,-1.465,-6.836,748.573,370.404222835456
538,1686879520.68,-92.773,173.34,-34.18,-148.438,748.577,368.48822244525434
539,1686879520.68,-106.445,261.23,18.066,-165.527,748.581,372.2844592125052
540,1686879520.69,-48.828,531.738,11.23,-37.109,748.584,361.77878909092215
541,1686879520.69,-25.391,481.934,-6.348,1.465,748.588,371.1683731378744
542,1686879520.7,-82.031,-85.938,13.672,-117.188,748.592,367.2449546647024
543,1686879520.7,-123.047,-208.008,19.531,-178.711,748.596,362.2472923277097
544,1686879520.7,-65.43,401.855,30.762,-69.336,748.6,361.3358870602412
545,1686879520.71,-19.531,471.191,-20.508,16.113,748.604,358.4061718413036
546,1686879520.71,-62.988,-521.973,-39.551,-72.754,748.608,355.6394821991536
547,1686879520.72,-99.609,-215.332,68.359,-172.852,748.612,364.6570226966812
548,1686879520.72,-20.996,489.258,-24.414,21.484,748.615,361.1929128681969
549,1686879520.72,-66.895,623.535,33.203,-91.309,748.616,358.60738164488413
550,1686879520.72,-44.434,347.656,22.461,-26.367,748.619,365.0302651214021
551,1686879520.73,-94.727,463.379,19.043,-139.16,748.623,363.97977947297414
552,1686879520.73,-86.426,523.926,1.465,-109.863,748.627,360.0379306459026
553,1686879520.74,-39.062,339.844,3.906,24.414,748.631,359.0635165164112
554,1686879520.74,-36.133,84.961,5.859,9.766,748.635,359.00402642722383
555,1686879520.74,-82.52,-30.273,3.418,-120.117,748.639,352.9024981939694
556,1686879520.75,-88.379,74.219,16.602,-134.277,748.643,357.9238754226238
557,1686879520.75,-30.762,-47.852,-27.832,-20.02,748.647,350.0498556403843
558,1686879520.75,-11.719,-724.609,-4.883,26.367,748.651,360.03835770245655
559,1686879520.76,-52.734,36.133,57.129,-96.191,748.655,354.60711316439654
560,1686879520.76,-84.473,465.82,-21.484,-164.062,748.658,357.92129539219405
561,1686879520.77,-44.922,-26.367,-35.156,-45.41,748.663,356.56275849847805
562,1686879520.77,3.418,375.488,50.781,45.41,748.667,358.8852353741285
563,1686879520.77,-39.551,791.016,19.531,-53.223,748.671,357.2614735412696
564,1686879520.78,-95.215,504.883,-39.062,-149.414,748.674,357.5480390295931
565,1686879520.78,-60.547,212.402,18.066,-73.242,748.678,352.28650177286175
566,1686879520.79,-8.301,173.828,10.254,41.016,748.682,361.9483913118771
567,1686879520.79,-25.391,382.324,24.414,-6.348,748.686,363.45677291795425
568,1686879520.79,-88.379,408.203,-21.484,-140.137,748.69,361.6549310691076
569,1686879520.8,-94.727,-487.305,-46.387,-115.723,748.694,362.68426073498955
570,1686879520.8,-28.809,-31.25,73.242,9.766,748.698,357.54069964485615
571,1686879520.8,-12.695,782.227,19.043,10.254,748.702,367.5227522349881
572,1686879520.81,-63.477,446.289,-34.18,-116.699,748.706,361.1868856175692
573,1686879520.84,-87.402,274.902,29.297,-152.344,748.75,362.38485358028777
574,1686879520.84,-41.016,414.062,15.625,-24.902,748.753,360.5674967601648
575,1686879520.85,-8.789,302.246,-19.043,38.086,748.757,363.22392517215764
576,1686879520.85,-53.711,64.941,1.953,-77.148,748.761,362.20670123233685
577,1686879520.86,-96.191,-107.422,45.41,-151.855,748.765,359.785047752007
578,1686879520.86,-86.914,387.207,-6.836,-144.531,748.755,366.0071227086457
579,1686879520.86,-56.152,3.906,16.113,-54.688,748.769,371.3334807200014
580,1686879520.86,-96.191,577.148,-1.465,-130.371,748.759,361.7122047760912
581,1686879520.86,-5.859,215.82,10.254,37.598,748.773,362.7976084924628
582,1686879520.86,-43.945,523.438,-21.973,6.836,748.762,370.3267717928609
583,1686879520.87,-40.039,-43.945,-39.551,-41.016,748.777,363.7518264167558
584,1686879520.87,-37.598,280.273,-15.625,10.742,748.766,364.49092795116115
585,1686879520.87,-104.98,-835.938,-26.855,-155.762,748.781,367.02484053486177
586,1686879520.87,-84.473,175.293,-24.902,-108.887,748.77,371.5277548458329
587,1686879520.87,-87.402,-2.93,101.074,-119.141,748.785,372.56035748256323
588,1686879520.88,-100.586,47.852,-34.668,-138.184,748.774,368.2300026973274
589,1686879520.88,-22.461,759.277,27.344,-0.488,748.789,367.08752175498444
590,1686879520.88,-48.34,-79.59,-16.113,-10.742,748.778,369.7528236966819
591,1686879520.88,-22.949,326.66,-43.457,-20.508,748.793,365.75765157372933
592,1686879520.88,-11.23,-56.641,44.434,46.387,748.782,371.7566278816701
593,1686879520.89,-46.875,319.336,25.391,-64.453,748.786,372.04813362666084
594,1686879520.89,-77.637,473.633,-20.996,-144.531,748.79,366.4957862843404
595,1686879520.9,-41.016,212.891,-21.973,-52.246,748.794,370.6685842451955
596,1686879520.9,7.812,-10.254,30.273,60.547,748.798,368.42714953636874
597,1686879520.9,-20.996,306.641,27.832,-12.695,748.795,367.80218587468335
598,1686879520.9,-74.219,468.75,-9.766,-129.395,748.799,372.98520983218407
599,1686879520.91,-55.176,32.227,-35.645,-70.312,748.803,367.7098531476338
600,1686879520.91,1.953,-612.793,17.09,55.664,748.807,374.11090854719055
601,1686879520.92,0.977,-7.324,50.781,25.391,748.811,369.2788611898088
602,1686879520.92,-61.523,207.52,-12.695,-103.516,748.815,380.69633744811705
603,1686879520.92,-71.289,-274.902,-24.414,-105.469,748.819,368.45174327377833
604,1686879520.93,-17.578,-946.289,0.488,39.062,748.823,377.01916074797094
605,1686879520.93,10.742,-386.719,116.699,68.359,748.827,377.0454832334918
606,1686879520.93,-33.691,589.844,50.293,-61.523,748.83,370.23705353156356
607,1686879520.94,-68.359,215.332,-59.082,-112.305,748.834,374.53167184973097
608,1686879520.94,-14.16,286.621,19.043,3.906,748.838,369.0708132360048
609,1686879520.96,29.785,749.023,38.574,75.195,748.856,379.83752673667055
610,1686879520.96,-17.09,584.473,-26.855,-26.855,748.859,378.94787992444424
611,1686879520.97,-67.871,117.188,-25.879,-107.91,748.863,376.7328173095307
612,1686879520.97,-32.227,262.695,23.438,-24.902,748.867,373.230494750653
613,1686879520.98,19.043,532.227,9.277,77.637,748.871,377.59298794343346
614,1686879520.98,-3.906,159.18,-32.715,23.438,748.875,375.8580135083564
615,1686879520.98,-50.781,-598.633,-33.203,-94.238,748.879,377.95006039482564
616,1686879520.99,-31.25,-177.734,57.129,-60.059,748.883,379.6526276784705
617,1686879520.99,9.766,571.777,-17.09,45.898,748.9,373.97199349432134
618,1686879520.99,31.738,635.254,31.25,67.871,748.887,380.4338383749097
619,1686879520.99,29.297,370.117,-31.738,85.938,748.904,376.99071652814433
620,1686879520.99,34.18,406.25,-18.066,57.129,748.891,385.9549701245623
621,1686879521.0,-15.137,145.508,16.113,-32.227,748.908,375.0673548894224
622,1686879521.0,-24.902,61.035,31.738,-66.406,748.895,383.9745634297474
623,1686879521.0,-40.039,334.473,2.93,-95.703,748.912,377.6931013766737
624,1686879521.0,-42.48,335.449,29.785,-81.055,748.898,378.90110237209814
625,1686879521.0,6.348,462.891,-34.668,12.207,748.916,378.25191122530276
626,1686879521.01,48.34,18.066,-20.996,105.469,748.92,381.99771913122896
627,1686879521.01,11.23,-419.922,16.602,23.926,748.923,378.9274603818365
628,1686879521.02,-21.484,-45.41,31.25,-79.102,748.927,378.64713751545025
629,1686879521.02,5.859,541.016,11.719,-5.371,748.931,381.8312813164038
630,1686879521.02,45.898,164.062,-51.27,119.629,748.935,386.9237693388361
631,1686879521.03,27.832,-205.566,37.598,62.5,748.939,388.3450185163004
632,1686879521.03,-17.09,387.207,34.668,-61.523,748.943,385.7161144178848
633,1686879521.05,-8.789,295.898,-36.133,-26.855,748.947,373.426394887852
634,1686879521.05,51.758,-70.312,-51.758,109.375,748.951,377.839198261864
635,1686879521.06,64.941,308.105,0.488,101.562,748.955,384.56670440371084
636,1686879521.06,14.648,708.008,15.137,-31.25,748.958,380.11833646036115
637,1686879521.07,-4.883,497.07,-37.109,-41.504,748.962,389.6872152661532
638,1686879521.07,47.852,16.113,-7.324,79.102,748.966,387.3530954036886
639,1686879521.07,77.637,189.453,24.902,117.676,748.97,388.9566083975511
640,1686879521.08,30.762,696.777,-9.277,8.789,748.974,383.59365185038615
641,1686879521.08,-6.348,405.273,-62.5,-50.781,748.978,382.5698774283318
642,1686879521.08,18.066,-366.699,-32.227,52.734,748.982,390.3220424696289
643,1686879521.09,65.918,263.672,33.691,134.766,748.986,388.3537531413221
644,1686879521.09,47.852,786.133,-17.578,50.293,748.99,389.1308177022161
645,1686879521.09,-10.254,357.422,-45.41,-61.523,748.991,385.17341869079854
646,1686879521.1,5.371,284.668,6.348,-2.93,748.995,390.7928587114347
647,1686879521.1,63.965,502.93,-6.348,121.094,748.998,384.56305254395915
648,1686879521.11,54.688,379.883,-58.594,78.125,749.002,397.8612524113508
649,1686879521.11,0.488,-41.504,-48.828,-45.41,749.006,392.8545030932598
650,1686879521.11,3.418,-448.73,3.418,-25.391,749.01,381.7647132142103
651,1686879521.12,73.242,-92.285,10.742,102.051,749.014,384.39080697060086
652,1686879521.12,87.891,375.488,0.0,123.535,749.018,382.20157198347454
653,1686879521.12,19.043,46.387,-63.477,4.395,749.022,389.55511485564557
654,1686879521.13,-6.836,-714.355,-24.414,-35.156,749.026,385.853887117063
655,1686879521.13,49.805,282.227,43.945,76.172,749.03,384.15784229647534
656,1686879521.14,85.938,927.734,-41.992,137.695,749.034,389.4616680675787
657,1686879521.14,38.086,390.137,-76.172,33.691,749.038,379.0805448317516
658,1686879521.14,-12.207,482.422,-40.039,-48.828,749.042,389.3425934523364
659,1686879521.15,34.668,759.277,-23.926,42.48,749.046,392.93299387158834
660,1686879521.15,86.914,764.16,-38.086,144.531,749.049,385.28932289514273
661,1686879521.16,47.852,444.824,-9.277,71.289,749.053,387.28165091646156
662,1686879521.16,-6.836,254.883,-14.648,-42.969,749.057,390.7456965130702
663,1686879521.16,15.137,273.438,-24.902,12.695,749.061,392.9464230242881
664,1686879521.17,73.73,370.605,-34.668,148.926,749.065,396.7005259621414
665,1686879521.17,65.43,-237.793,-42.969,140.137,749.069,394.12144585122974
666,1686879521.18,7.812,-142.09,41.992,2.441,749.073,385.2269569754883
667,1686879521.18,5.371,783.691,5.371,-14.648,749.077,397.0297304434714
668,1686879521.18,67.871,832.52,-46.875,111.816,749.081,391.76364745211026
669,1686879521.18,85.449,734.863,-5.371,131.348,749.08,392.13678031884143
670,1686879521.19,25.391,843.75,-21.484,1.953,749.084,395.94835661493585
671,1686879521.19,-1.953,747.07,-42.969,-42.48,749.088,387.57099401148554
672,1686879521.2,48.34,594.727,-37.109,77.148,749.092,396.32844023108305
673,1686879521.2,87.891,576.172,-22.949,143.066,749.096,391.6923525392159
674,1686879521.2,55.664,412.109,-38.086,48.828,749.1,388.4188793637055
675,1686879521.21,2.441,319.824,-21.973,-33.691,749.104,384.25981296148734
676,1686879521.21,30.762,140.625,-38.574,52.734,749.108,392.8700183731078
677,1686879521.22,80.566,-627.93,-30.273,157.715,749.112,387.98090361874654
678,1686879521.22,64.941,-4.883,76.66,87.402,749.116,387.5265415855041
679,1686879521.22,8.301,925.293,3.906,-34.668,749.119,388.26405744761297
680,1686879521.23,6.348,629.883,-61.035,-8.301,749.123,390.2486989301094
681,1686879521.23,64.941,770.02,-9.766,115.234,749.128,388.75312559046023
682,1686879521.24,62.5,-962.402,-28.32,99.121,749.131,387.92462549633564
683,1686879521.24,7.324,841.797,-55.664,-25.391,749.135,395.52028705423663
684,1686879521.24,-6.348,496.582,-25.879,-39.551,749.139,394.67401039748427
685,1686879521.25,49.316,684.57,-24.414,86.914,749.143,388.70237676777543
686,1686879521.25,68.848,695.312,-38.574,134.766,749.147,387.84790037032616
687,1686879521.26,17.578,371.094,-57.129,14.648,749.151,395.7557706176671
688,1686879521.26,-20.508,-256.836,-55.176,-45.898,749.155,386.6624183424405
689,1686879521.26,32.227,228.516,41.992,61.523,749.159,389.03948743883615
690,1686879521.27,81.055,-962.891,-10.742,134.766,749.163,393.81990566451185
691,1686879521.27,42.48,710.938,-70.312,53.223,749.167,391.63896750462874
692,1686879521.27,30.273,694.824,-10.254,12.695,749.17,393.2675175641279
693,1686879521.27,-3.906,378.906,-18.066,-42.969,749.17,390.71540171048326
694,1686879521.28,87.891,962.891,-35.645,123.047,749.174,384.24044677285997
695,1686879521.28,57.129,635.254,-63.477,72.266,749.178,389.128929602835
696,1686879521.29,-2.441,423.828,-37.598,-52.734,749.182,385.58391248041397
697,1686879521.29,7.324,542.969,-44.922,-28.32,749.186,395.553468084194
698,1686879521.29,60.059,478.027,-39.551,95.215,749.19,396.05340674012535
699,1686879521.3,52.246,169.434,-56.152,95.703,749.194,391.0297284914747
700,1686879521.3,-6.348,-717.285,-43.457,-15.137,749.198,392.8751406214389
701,1686879521.3,-10.254,23.438,41.992,-41.016,749.202,392.4685694927187
702,1686879521.31,45.41,949.219,-24.414,77.148,749.206,393.9421917572304
703,1686879521.31,70.801,573.73,-82.52,130.371,749.209,393.12802131496977
704,1686879521.32,27.832,546.875,-33.691,19.531,749.213,387.2768971585436
705,1686879521.32,-6.348,743.652,-29.785,-56.641,749.222,386.25073505931203
706,1686879521.33,34.668,503.906,-52.734,40.039,749.225,391.16921225249644
707,1686879521.33,72.266,156.25,-83.008,121.582,749.229,396.26506770888574
708,1686879521.33,36.133,558.105,-40.039,32.715,749.233,395.08912451599764
709,1686879521.34,-10.742,924.316,-24.902,-70.801,749.237,393.7942372979045
710,1686879521.34,6.836,523.926,-66.406,6.348,749.241,389.05108229037546
711,1686879521.35,58.594,-62.988,-58.105,138.672,749.245,391.7575278128035
712,1686879521.35,57.617,391.113,13.184,82.52,749.249,387.93891831229513
713,1686879521.35,4.395,-998.047,-32.715,-47.852,749.253,384.75847154267257
714,1686879521.36,-9.277,751.953,-71.777,-33.203,749.257,390.53131403540215
715,1686879521.36,42.48,610.84,-25.391,81.055,749.261,390.25740908800543
716,1686879521.36,-1.465,946.289,-63.477,-42.48,749.275,382.55583810585614
717,1686879521.36,53.711,908.203,-32.227,86.426,749.265,388.3863121510915
718,1686879521.37,-23.926,596.191,-81.543,-76.172,749.279,383.97198587321986
719,1686879521.37,33.203,578.613,-33.203,47.363,749.283,385.68984179881835
720,1686879521.38,62.5,699.219,-41.016,94.727,749.287,391.6424971446995
721,1686879521.38,0.488,492.188,-63.477,-20.996,749.291,388.7551692544774
722,1686879521.38,-44.434,172.852,-71.777,-89.355,749.295,383.07868368630807
723,1686879521.39,-8.301,-730.469,-69.824,15.625,749.299,387.93625882856736
724,1686879521.39,37.109,-265.137,30.762,102.051,749.303,387.24000241971453
725,1686879521.4,15.625,835.938,-30.762,16.602,749.307,388.63105521915753
726,1686879521.4,-35.156,591.797,-105.469,-100.586,749.31,387.06588022519657
727,1686879521.4,-14.648,613.77,-51.27,-42.969,749.314,393.46458112835785
728,1686879521.41,47.363,984.863,-45.898,85.449,749.318,387.40576594279855
729,1686879521.42,28.32,868.164,-75.684,59.082,749.322,384.56977607987204
730,1686879521.43,-44.922,366.699,-86.914,-64.453,749.326,386.7530152785507
731,1686879521.43,-44.922,476.562,-50.293,-63.477,749.33,387.06945203144613
732,1686879521.44,14.648,829.59,-46.875,66.406,749.334,381.0938210652685
733,1686879521.44,23.926,750.0,-76.66,84.961,749.338,380.4516796343818
734,1686879521.44,-35.156,129.395,-67.383,-33.691,749.342,387.89374323034156
735,1686879521.45,-62.5,-31.738,-42.969,-86.426,749.345,382.9369008718827
736,1686879521.45,-11.719,436.035,-6.836,21.973,749.349,389.06786410115836
737,1686879521.46,16.113,659.18,-57.617,88.867,749.353,383.30997693951275
738,1686879521.46,-35.645,-259.766,-98.145,-19.531,749.357,378.0520117709876
739,1686879521.46,-72.266,-127.93,1.465,-124.512,749.361,383.8524477194409
740,1686879521.47,-34.668,735.84,-9.277,-45.41,749.365,383.08006727348493
741,1686879521.47,14.648,676.758,-53.711,67.383,749.365,382.31649651931514
742,1686879521.47,-6.836,579.59,-29.785,7.324,749.369,385.6873859823124
743,1686879521.48,-63.965,664.062,-34.668,-115.234,749.373,384.11187082535497
744,1686879521.48,-50.293,644.531,-45.41,-84.473,749.377,389.9948660771175
745,1686879521.48,6.836,444.336,-38.574,44.434,749.381,381.50319058335634
746,1686879521.49,1.465,187.988,-31.25,38.086,749.385,377.56465438836136
747,1686879521.49,-56.152,134.766,-40.039,-91.797,749.389,383.3319407847069
748,1686879521.5,-69.336,351.562,-21.973,-117.188,749.393,381.25374540648755
749,1686879521.5,-19.043,183.105,-70.801,8.789,749.397,378.38569194681855
750,1686879521.5,-6.836,-740.234,-52.734,52.246,749.401,388.6829385431214
751,1686879521.51,-57.129,-55.176,46.387,-77.637,749.404,386.80649246253637
752,1686879521.51,-96.191,712.891,-34.668,-144.043,749.408,387.0615267203397
753,1686879521.52,-58.105,387.695,-87.402,-37.598,749.412,389.3347325692024
754,1686879521.52,-18.555,580.566,-40.039,39.062,749.416,377.9651970294669
755,1686879521.52,-62.012,791.016,-59.082,-61.035,749.42,377.66465301521487
756,1686879521.53,-120.605,544.922,-81.055,-165.039,749.424,373.9962702088152
757,1686879521.53,-90.332,228.027,-34.668,-98.633,749.428,381.5338812158134
758,1686879521.54,-32.227,227.051,-40.527,15.625,749.432,380.9766896035453
759,1686879521.54,-50.293,333.984,-66.406,-27.832,749.436,389.64797697036823
760,1686879521.54,-103.516,197.266,-78.125,-145.508,749.44,384.19960707649483
761,1686879521.55,-104.004,-431.152,-61.035,-112.793,749.444,382.2269579125739
762,1686879521.55,-45.41,114.258,-1.465,7.812,749.448,384.72181137371314
763,1686879521.56,-34.18,868.652,-53.223,0.977,749.452,384.17254797730766
764,1686879521.56,-88.867,428.223,-95.703,-126.953,749.455,379.52292699657687
765,1686879521.56,-110.84,127.93,-43.945,-154.297,749.456,389.99568564498054
766,1686879521.56,-62.012,526.367,-33.203,-31.738,749.46,386.1012008392683
767,1686879521.57,-40.039,721.191,-55.664,8.789,749.464,380.511291751446
768,1686879521.57,-92.773,361.816,-68.848,-109.863,749.467,383.30174613423054
769,1686879521.58,-131.348,59.57,-62.5,-174.805,749.471,388.7277948415866
770,1686879521.58,-96.191,39.062,-51.27,-82.031,749.475,384.6727062539116
771,1686879521.58,-58.105,212.891,-58.594,-0.488,749.479,383.7914956233318
772,1686879521.59,-99.609,-60.547,-83.984,-81.055,749.483,386.039138759395
773,1686879521.59,-161.133,-858.398,-56.641,-187.012,749.487,376.6991155051527
774,1686879521.59,-134.766,-29.297,15.625,-139.648,749.491,388.3417146441348
775,1686879521.6,-77.637,773.926,-47.852,-29.297,749.495,390.0549458529418
776,1686879521.6,-94.238,340.332,-110.84,-62.988,749.499,376.2174947660224
777,1686879521.6,-147.949,343.75,-71.777,-183.105,749.504,386.4683303355287
778,1686879521.61,-141.602,464.844,-59.57,-166.504,749.508,377.24337220132196
779,1686879521.61,-89.355,211.426,-77.637,-41.016,749.512,390.70015946320405
780,1686879521.62,-83.496,-135.254,-95.215,-34.18,749.516,387.5451315444023
781,1686879521.62,-133.301,126.465,-69.824,-168.945,749.52,385.05051828450894
782,1686879521.62,-160.156,196.777,-62.012,-204.59,749.524,378.6894394662469
783,1686879521.63,-110.352,-27.832,-60.059,-75.684,749.528,380.30570443879753
784,1686879521.63,-80.078,-402.832,-48.828,-25.391,749.532,382.6445764838873
785,1686879521.64,-119.629,-9.766,-16.602,-145.508,749.536,383.2468834900881
786,1686879521.64,-147.461,588.867,-47.363,-218.262,749.539,381.95581333962696
787,1686879521.64,-118.652,382.812,-82.031,-128.418,749.543,382.8996463807034
788,1686879521.65,-84.961,288.086,-36.133,-34.668,749.547,380.2357693941142
789,1686879521.65,-114.746,495.117,-38.086,-111.328,749.546,384.9568779186385
790,1686879521.65,-170.41,433.105,-83.984,-226.074,749.549,381.72723177418555
791,1686879521.66,-155.273,155.273,-80.078,-166.992,749.553,391.5689424797327
792,1686879521.66,-103.516,182.617,-50.781,-53.711,749.557,385.3033772160523
793,1686879521.66,-113.281,200.684,-75.195,-90.332,749.561,380.65759998602533
794,1686879521.67,-169.434,-36.621,-80.566,-211.426,749.565,382.11450101957615
795,1686879521.67,-183.594,-287.598,-78.125,-203.125,749.569,386.9554336102658
796,1686879521.68,-145.996,-950.684,-60.547,-80.566,749.573,387.12008652193094
797,1686879521.68,-145.508,-509.277,1.953,-99.121,749.577,380.99145013819975
798,1686879521.68,-199.219,398.438,-51.27,-229.492,749.581,383.5379964214151
799,1686879521.69,-218.262,197.754,-98.145,-255.371,749.585,381.1763511231189
800,1686879521.69,-165.039,299.316,-56.641,-141.113,749.589,384.3026410016338
801,1686879521.71,-128.418,622.07,-49.316,-87.402,749.605,383.35156183272204
802,1686879521.71,-166.992,425.781,-75.195,-182.129,749.609,384.50321038942604
803,1686879521.72,-211.426,-10.742,-73.73,-253.418,749.613,388.9441059844558
804,1686879521.72,-179.199,213.867,-45.41,-166.016,749.617,390.06957941677763
805,1686879521.72,-129.883,515.625,-52.246,-69.824,749.621,386.77111483654716
806,1686879521.73,-157.227,104.98,-82.031,-134.277,749.625,379.92678845590746
807,1686879521.73,-222.168,-725.586,-95.703,-243.652,749.629,383.3487412982623
808,1686879521.74,-211.426,-537.109,-29.785,-209.473,749.633,391.55249634613904
809,1686879521.74,-172.852,416.504,-65.43,-114.746,749.65,382.67426128507003
810,1686879521.74,-151.855,315.43,-28.809,-96.68,749.636,387.1396361292685
811,1686879521.74,-147.461,277.344,-85.449,-81.543,749.654,390.9117997639926
812,1686879521.74,-151.367,300.781,-92.773,-111.328,749.64,383.2295380035429
813,1686879521.75,-198.73,23.926,-66.406,-202.148,749.658,378.8088016378365
814,1686879521.75,-200.684,-312.988,-29.297,-225.586,749.644,386.9326549092258
815,1686879521.75,-233.398,159.668,-40.039,-266.113,749.662,387.02757894689194
816,1686879521.75,-219.238,-85.449,-21.484,-236.328,749.648,382.11456298258565
817,1686879521.76,-187.012,205.566,-53.223,-167.969,749.666,385.1501808628428
818,1686879521.76,-157.227,-180.664,-72.754,-99.121,749.669,384.22220589339184
819,1686879521.76,-206.055,-622.559,-45.41,-203.125,749.673,388.03464349882586
820,1686879521.77,-239.746,-261.23,-25.391,-291.504,749.677,382.650190116295
821,1686879521.77,-197.266,334.961,-30.762,-205.566,749.681,383.14357267731646
822,1686879521.77,-143.555,-89.355,-104.98,-93.262,749.685,382.1241597190685
823,1686879521.78,-158.691,-840.82,-76.66,-141.602,749.689,382.344719461008
824,1686879521.78,-207.52,-25.879,-5.371,-264.648,749.693,377.37301724277324
825,1686879521.8,-207.52,430.664,-68.359,-231.445,749.697,384.98301117389246
826,1686879521.8,-160.645,-3.906,-94.727,-106.934,749.701,385.1058201304543
827,1686879521.81,-149.902,196.777,-49.316,-116.211,749.705,384.77550809879256
828,1686879521.81,-200.684,414.062,-52.246,-244.629,749.709,389.4611742618715
829,1686879521.82,-229.492,165.527,-69.824,-264.648,749.713,384.5261473577418
830,1686879521.82,-182.617,-302.246,-38.086,-138.672,749.717,384.3412291852589
831,1686879521.82,-151.367,-170.898,-20.02,-97.656,749.72,382.11021662948787
832,1686879521.83,-194.336,281.738,-47.852,-213.379,749.724,385.7814774438137
833,1686879521.83,-229.98,65.43,-83.984,-272.949,749.728,377.44935514875715
834,1686879521.84,-185.059,-638.184,-54.688,-165.527,749.732,380.39393882572097
835,1686879521.84,-140.137,-70.801,-6.836,-97.168,749.736,389.6435285029628
836,1686879521.84,-185.547,379.883,-79.59,-193.848,749.74,388.157190360482
837,1686879521.84,-240.723,-224.609,-82.031,-275.391,749.744,384.4090698859202
838,1686879521.85,-221.68,-464.844,6.348,-207.52,749.747,385.99518314707245
839,1686879521.85,-163.086,134.277,-25.391,-106.445,749.751,386.41002360400535
840,1686879521.86,-171.875,366.699,-85.449,-153.809,749.755,385.00228247343574
841,1686879521.86,-248.535,-98.633,-93.262,-283.691,749.759,384.58686134451153
842,1686879521.86,-245.605,-433.105,-76.172,-262.207,749.763,386.54057672380384
843,1686879521.87,-175.781,-242.676,-62.012,-125.0,749.767,376.808653212523
844,1686879521.87,-181.641,-25.879,-70.312,-131.348,749.771,389.4291805208987
845,1686879521.88,-238.77,-308.105,-117.676,-260.742,749.775,391.12439599265235
846,1686879521.88,-254.395,-883.789,-74.707,-274.414,749.779,384.91071236429786
847,1686879521.88,-200.684,-24.414,-17.09,-168.457,749.783,396.4538391066805
848,1686879521.89,-167.969,576.172,-77.148,-129.395,749.787,390.9929707393462
849,1686879521.9,-220.703,51.27,-104.004,-237.305,749.799,391.91929731546975
850,1686879521.9,-262.207,115.723,-70.312,-315.43,749.803,385.99234848963386
851,1686879521.9,-213.379,279.785,-57.617,-215.332,749.807,383.1584424762634
852,1686879521.91,-160.156,23.438,-66.406,-114.258,749.81,389.8886335014079
853,1686879521.91,-192.383,-61.035,-44.434,-195.801,749.814,383.73880320711606
854,1686879521.92,-241.699,-175.293,-64.941,-305.664,749.818,385.12545065765266
855,1686879521.92,-224.609,-126.465,-43.457,-246.094,749.822,388.70224122463094
856,1686879521.92,-164.551,194.824,-60.059,-115.723,749.826,383.24471229422716
857,1686879521.93,-180.664,-563.965,-87.402,-151.367,749.83,394.3720345439093
858,1686879521.93,-242.188,-571.777,15.625,-295.898,749.834,389.83273952339846
859,1686879521.93,-165.039,152.832,-34.668,-141.602,749.83,379.15682404546845
860,1686879521.94,-238.77,325.684,-29.297,-297.852,749.838,380.01523463230814
861,1686879521.94,-219.238,370.605,-40.527,-263.672,749.834,385.85799031241606
862,1686879521.94,-183.105,286.133,-79.102,-163.574,749.842,382.19217756069264
863,1686879521.94,-246.582,360.352,-52.734,-305.176,749.838,385.9670035429366
864,1686879521.95,-201.66,187.5,-62.988,-187.012,749.842,391.7637374245213
865,1686879521.95,-163.086,125.488,-55.176,-116.211,749.846,388.02471358420127
866,1686879521.95,-193.359,-23.926,-36.133,-202.637,749.85,384.53186789869727
867,1686879521.96,-233.398,-114.258,-47.363,-290.039,749.854,392.61403963535497
868,1686879521.96,-200.195,-252.441,-65.918,-208.496,749.858,382.8528735861825
869,1686879521.96,-152.344,-935.059,-30.273,-101.074,749.862,389.0368551986437
870,1686879521.97,-178.223,-443.848,35.156,-186.035,749.866,391.35027359386805
871,1686879521.97,-228.516,423.828,-34.668,-299.316,749.87,387.0422723689964
872,1686879521.98,-210.449,210.938,-79.59,-237.305,749.873,385.47742851113173
873,1686879521.98,-146.484,408.203,-21.484,-108.398,749.877,390.7115633092748
874,1686879521.98,-150.391,714.844,-30.273,-135.254,749.881,389.141831783439
875,1686879521.99,-207.031,403.809,-79.59,-255.371,749.885,382.8123232209428
876,1686879521.99,-214.844,11.23,-58.594,-263.672,749.889,383.32416590289506
877,1686879522.0,-156.25,262.695,-33.691,-135.254,749.893,381.55975186075364
878,1686879522.0,-145.996,278.809,-47.852,-102.051,749.897,385.9723388770087
879,1686879522.0,-194.336,-75.195,-60.547,-223.633,749.901,390.2868507832449
880,1686879522.01,-224.609,-677.246,-67.383,-267.09,749.905,378.687562000555
881,1686879522.01,-177.734,-395.508,1.953,-154.785,749.909,377.6550724902395
882,1686879522.02,-125.0,567.383,-12.207,-87.891,749.913,377.2592045355308
883,1686879522.02,-167.969,421.875,-78.125,-181.641,749.916,388.6935113791887
884,1686879522.02,-217.285,-192.871,18.555,-266.602,749.92,379.79322575434776
885,1686879522.02,-181.641,207.031,20.02,-195.312,749.92,384.5725840781921
886,1686879522.03,-129.395,626.465,-48.828,-92.285,749.924,376.59200247671646
887,1686879522.03,-164.551,354.004,-71.289,-163.086,749.928,379.8252097356241
888,1686879522.04,-223.633,177.734,-57.617,-285.645,749.932,380.31099973813207
889,1686879522.04,-209.961,189.941,-62.988,-241.699,749.936,381.8825799623795
890,1686879522.04,-155.273,106.934,-37.598,-122.07,749.94,380.5616816292746
891,1686879522.05,-147.949,-104.004,-58.594,-128.418,749.944,384.8268962788766
892,1686879522.05,-205.078,-839.355,-64.453,-234.375,749.948,376.91764066080594
893,1686879522.06,-213.379,-166.992,20.508,-255.371,749.952,380.6053857043465
894,1686879522.06,-152.832,647.949,-31.25,-134.277,749.956,380.5894953561408
895,1686879522.06,-130.859,249.023,-87.402,-82.52,749.959,387.8123537711878
896,1686879522.07,-175.293,193.359,-36.621,-190.918,749.963,386.8026199336239
897,1686879522.08,-203.125,474.121,-23.438,-254.395,749.98,384.0721050176217
898,1686879522.09,-154.297,507.324,-51.27,-142.578,749.984,374.3853069503222
899,1686879522.09,-114.258,-5.371,-115.234,-57.617,749.988,384.3287624354753
900,1686879522.1,-153.809,90.332,-50.781,-156.738,749.992,386.315070610447
901,1686879522.1,-194.336,477.051,-24.902,-253.906,749.996,375.8200584531796
902,1686879522.1,-161.133,109.375,-73.242,-177.246,750.0,381.4454280953254
903,1686879522.11,-106.445,-532.227,-71.777,-69.336,750.004,375.9495753988624
904,1686879522.11,-125.488,-131.348,-13.184,-128.418,750.008,381.7875906338033
905,1686879522.12,-164.062,479.98,-68.359,-213.867,750.024,383.5891165627145
906,1686879522.12,-183.105,518.066,-34.668,-242.676,750.012,388.48618737616766
907,1686879522.12,-185.059,-17.578,-64.453,-231.445,750.028,387.98951097522195
908,1686879522.12,-176.27,333.008,-59.082,-208.496,750.015,381.60755603146146
909,1686879522.12,-119.141,246.094,-5.859,-87.891,750.019,384.2161174447264
910,1686879522.12,-135.742,-204.59,-0.488,-105.957,750.032,383.90327847330326
911,1686879522.13,-113.281,507.324,-26.855,-92.285,750.023,384.182268378973
912,1686879522.13,-100.098,358.887,-20.02,-59.082,750.036,383.2352991815388
913,1686879522.13,-144.043,423.828,-67.871,-163.086,750.04,382.03966562929514
914,1686879522.14,-179.199,-245.605,-54.688,-228.027,750.044,382.2007070603169
915,1686879522.14,-132.812,-607.422,-4.395,-125.977,750.048,382.66323704434797
916,1686879522.14,-82.52,35.645,17.578,-45.41,750.052,383.30495126807085
917,1686879522.15,-118.652,562.5,-38.086,-134.277,750.055,382.4332418751358
918,1686879522.15,-187.988,-57.129,-99.609,-235.352,750.059,379.99587793225163
919,1686879522.15,-174.316,-520.996,-1.465,-173.34,750.063,388.39526001931506
920,1686879522.16,-110.84,305.176,25.391,-61.035,750.067,378.25893546374306
921,1686879522.18,-115.234,615.234,-60.059,-93.262,750.072,379.2230714825955
922,1686879522.18,-172.363,133.789,-68.359,-203.613,750.075,385.0196173966849
923,1686879522.18,-173.828,230.469,-34.18,-193.359,750.079,381.65424779086794
924,1686879522.19,-102.539,439.453,-29.297,-71.289,750.083,380.3109680922821
925,1686879522.19,-93.75,186.035,-61.523,-58.594,750.087,378.7027067176308
926,1686879522.2,-158.691,-534.668,-86.426,-175.781,750.091,388.2686062270884
927,1686879522.2,-180.176,-433.594,9.766,-218.262,750.095,386.2587470920207
928,1686879522.2,-123.535,475.586,-1.953,-117.188,750.099,380.5666376423036
929,1686879522.21,-96.68,412.109,-61.523,-59.082,750.103,382.82123083668307
930,1686879522.21,-153.32,-180.176,0.488,-161.621,750.107,386.628605277485
931,1686879522.21,-190.43,113.281,-3.418,-245.117,750.111,377.36119102165
932,1686879522.22,-149.414,462.891,-44.434,-150.391,750.115,376.7503443713488
933,1686879522.22,-99.609,309.57,-50.781,-47.363,750.115,388.26186286427634
934,1686879522.22,-125.977,168.945,-43.945,-126.953,750.119,376.11913702135314
935,1686879522.23,-178.711,255.859,-49.316,-247.07,750.123,380.36791367524137
936,1686879522.23,-160.645,321.777,-50.781,-194.824,750.127,374.76259677944523
937,1686879522.24,-106.934,130.859,-41.016,-67.871,750.131,382.16695307196346
938,1686879522.24,-117.188,-203.125,-23.926,-96.68,750.135,389.11311361970195
939,1686879522.24,-169.922,-201.172,-42.969,-212.402,750.139,379.7063818994918
940,1686879522.25,-183.594,-35.156,-33.691,-215.332,750.143,378.3562940679584
941,1686879522.25,-136.719,-130.371,-52.246,-87.891,750.147,380.2722143837981
942,1686879522.25,-121.582,-821.289,-53.711,-52.734,750.15,380.6307682615291
943,1686879522.26,-171.387,-216.309,27.344,-188.965,750.154,375.15072966205963
944,1686879522.26,-197.266,525.879,-22.949,-237.305,750.158,379.5292981939843
945,1686879522.27,-147.461,242.676,-61.523,-110.84,750.163,376.1411292560362
946,1686879522.27,-108.887,458.984,-15.625,-46.387,750.167,382.3602403791636
947,1686879522.27,-149.414,636.23,-38.086,-153.809,750.171,382.57911487737596
948,1686879522.28,-190.918,351.562,-58.594,-233.887,750.175,379.89841525987026
949,1686879522.28,-158.691,128.418,-17.09,-145.996,750.178,379.9155615404582
950,1686879522.29,-107.422,134.277,-44.434,-37.598,750.182,379.21264582805264
951,1686879522.29,-126.465,257.324,-37.598,-102.051,750.186,377.69000921565515
952,1686879522.29,-193.359,333.984,-56.641,-227.051,750.19,381.3232611152027
953,1686879522.3,-187.988,-527.344,-80.566,-183.594,750.194,377.9355704523758
954,1686879522.3,-113.77,-262.207,39.062,-57.617,750.198,384.68437936882486
955,1686879522.3,-113.77,724.121,-12.207,-75.195,750.202,378.2002446968609
956,1686879522.31,-195.801,-129.883,27.832,-207.031,750.205,372.3012609535044
957,1686879522.31,-178.711,395.508,-81.543,-198.73,750.206,374.09333312063717
958,1686879522.31,-135.254,360.352,14.648,-80.078,750.209,377.4631495388523
959,1686879522.32,-101.074,675.293,-51.758,-46.387,750.213,382.9285826948785
960,1686879522.32,-148.438,371.582,-63.965,-166.504,750.217,375.4684084346615
961,1686879522.32,-179.199,188.477,-55.664,-219.727,750.221,382.46294210732464
962,1686879522.33,-127.441,106.934,-37.109,-103.516,750.225,382.71364328982594
963,1686879522.33,-78.125,230.957,-20.996,-17.09,750.229,377.66865209353534
964,1686879522.34,-117.676,56.152,-56.152,-109.375,750.233,377.1793466324174
965,1686879522.34,-178.711,-795.898,-38.086,-207.52,750.237,371.8674794606293
966,1686879522.34,-140.625,-6.836,31.25,-139.648,750.241,375.194029870271
967,1686879522.35,-83.984,843.75,-38.574,-38.574,750.244,375.05219481794234
968,1686879522.35,-109.375,348.145,-83.496,-86.914,750.248,374.15060883012416
969,1686879522.36,-166.504,310.059,-33.691,-209.473,750.257,380.80643910351085
970,1686879522.36,-164.062,678.223,-15.137,-193.848,750.261,372.17883556732863
971,1686879522.36,-105.469,696.289,-51.758,-64.453,750.265,378.36810913966747
972,1686879522.37,-92.773,106.445,-100.098,-58.105,750.269,374.99840705367563
973,1686879522.37,-148.926,191.895,-47.852,-188.477,750.273,376.2583994052252
974,1686879522.38,-167.969,391.602,-29.297,-211.426,750.276,375.64581483692115
975,1686879522.38,-108.887,207.031,-59.57,-76.172,750.28,378.33199357961354
976,1686879522.38,-93.262,-235.84,-62.988,-36.621,750.284,377.02009070071307
977,1686879522.39,-142.578,45.41,1.953,-160.645,750.288,369.8491640876077
978,1686879522.39,-168.457,670.898,-16.602,-227.051,750.292,377.62584935807774
979,1686879522.4,-129.395,514.16,-52.734,-133.789,750.296,377.78059517993375
980,1686879522.4,-91.309,416.992,-16.602,-52.734,750.3,376.1419046659399
981,1686879522.4,-118.164,578.613,-30.273,-128.906,750.31,373.88474694549126
982,1686879522.4,-157.715,536.133,-57.129,-222.168,750.313,374.5799620692859
983,1686879522.41,-138.184,63.965,-52.734,-155.273,750.317,383.43534026900863
984,1686879522.41,-89.355,-98.145,26.367,-48.828,750.321,381.42600640666785
985,1686879522.42,-94.727,373.535,-2.93,-90.82,750.325,378.911158020192
986,1686879522.42,-145.996,257.812,-42.48,-193.359,750.329,379.0963062662572
987,1686879522.42,-144.531,-116.211,-41.016,-174.805,750.333,380.27854652352465
988,1686879522.43,-98.633,-871.582,-41.504,-53.711,750.337,377.3893095875009
989,1686879522.43,-90.82,-336.914,60.059,-45.41,750.341,383.4066700386069
990,1686879522.44,-134.766,701.66,-7.324,-168.945,750.345,380.41581509214785
991,1686879522.44,-155.273,402.832,-81.055,-205.566,750.349,382.8082747911374
992,1686879522.44,-96.68,477.539,-13.184,-89.355,750.353,376.24715806324957
993,1686879522.46,-60.547,834.473,-17.09,-33.203,750.357,375.8242791404199
994,1686879522.46,-116.211,631.836,-44.922,-135.742,750.361,378.9788272412268
995,1686879522.47,-164.551,164.551,-47.852,-210.449,750.365,384.9392892709951
996,1686879522.47,-124.023,311.523,-24.902,-114.746,750.369,374.6622429072909
997,1686879522.48,-74.219,480.469,-21.973,-19.531,750.373,390.52445638348223
998,1686879522.48,-103.027,101.562,-57.617,-94.727,750.377,369.8848356302198
999,1686879522.48,-156.738,-620.117,-61.523,-195.801,750.381,383.2505789610784
1000,1686879522.49,-136.23,-273.438,56.641,-143.555,750.385,377.6471767874574
1001,1686879522.49,-89.844,616.211,7.324,-71.289,750.4,380.01355957946566
1002,1686879522.49,-78.125,665.039,32.715,-30.762,750.389,377.3061533575385
1003,1686879522.49,-72.266,347.168,-32.227,-55.176,750.404,375.4921468843401
1004,1686879522.5,-87.891,451.66,-57.129,-54.688,750.392,381.25468138299783
1005,1686879522.5,-128.418,172.852,2.93,-161.621,750.408,376.0028732943507
1006,1686879522.5,-152.344,-414.551,-5.371,-176.758,750.396,378.3383108925051
1007,1686879522.5,-159.668,333.984,7.812,-201.172,750.412,377.4416939206163
1008,1686879522.5,-154.785,22.949,65.918,-181.152,750.4,377.9737081008074
1009,1686879522.5,-103.027,362.305,-13.672,-83.496,750.415,378.33026193964645
1010,1686879522.51,-68.359,40.527,-10.742,-14.16,750.419,376.52427812169753
1011,1686879522.51,-118.164,-168.457,-21.973,-121.582,750.423,380.2089303198036
1012,1686879522.52,-160.645,-156.738,-24.414,-204.59,750.427,380.49854804224594
1013,1686879522.52,-123.535,169.922,10.254,-122.559,750.431,377.8833854935979
1014,1686879522.52,-67.871,125.977,-65.43,-12.207,750.435,379.9835163897026
1015,1686879522.53,-96.68,-872.07,-86.426,-63.965,750.439,380.4139004454055
1016,1686879522.53,-147.949,-361.816,4.883,-191.406,750.443,379.64380546919676
1017,1686879522.56,-124.023,579.59,-50.293,-162.598,750.462,384.74332140645845
1018,1686879522.57,-65.43,385.742,-95.703,-37.598,750.466,384.73587886462894
1019,1686879522.57,-71.777,533.691,-58.105,-56.152,750.47,386.19602633988757
1020,1686879522.58,-125.488,703.125,-76.66,-181.152,750.474,385.01959825621475
1021,1686879522.58,-139.648,427.246,-97.656,-187.988,750.478,387.62975677050366
1022,1686879522.58,-99.121,-57.617,-63.965,-56.641,750.482,386.63302422838984
1023,1686879522.59,-71.777,153.809,-34.18,-13.184,750.486,381.74684080122114
1024,1686879522.59,-109.375,627.93,-60.059,-133.789,750.49,379.9710704958527
1025,1686879522.59,-121.094,323.242,-93.262,-170.41,750.49,384.40369263884963
1026,1686879522.6,-134.766,358.398,-95.703,-189.941,750.494,386.77324993774965
1027,1686879522.6,-97.656,-19.531,-9.766,-99.609,750.494,387.0647154718228
1028,1686879522.6,-84.961,-426.758,-76.66,-67.383,750.497,385.1098324916095
1029,1686879522.6,-38.086,454.59,-8.789,4.883,750.498,386.70897225610656
1030,1686879522.6,-38.574,-77.148,-13.672,6.348,750.501,385.9018797478844
1031,1686879522.61,-53.223,696.777,-72.754,-38.086,750.502,379.33239308189064
1032,1686879522.61,-71.289,589.844,-41.504,-87.891,750.505,391.3371851108615
1033,1686879522.61,-114.746,238.77,-80.078,-149.902,750.506,387.5659659467665
1034,1686879522.61,-115.723,-169.434,-56.152,-132.812,750.51,381.72767173238316
1035,1686879522.62,-59.082,20.02,-30.273,-5.371,750.514,380.2723215917727
1036,1686879522.62,-48.34,326.172,-29.785,1.953,750.518,383.464307254331
1037,1686879522.62,-108.398,181.641,-66.895,-127.93,750.522,389.6654528607174
1038,1686879522.63,-118.652,108.887,-32.227,-152.832,750.525,387.32654487976134
1039,1686879522.63,-57.617,492.676,-24.902,-31.738,750.529,384.54872179143865
1040,1686879522.64,-51.27,646.484,-57.129,-15.137,750.533,386.7896857856797
1041,1686879522.64,-108.887,-132.324,-110.352,-126.953,750.538,389.0733116225665
1042,1686879522.64,-149.902,-961.426,-51.758,-183.594,750.542,384.22910407021936
1043,1686879522.65,-104.492,60.547,46.875,-87.402,750.545,391.59733547265176
1044,1686879522.65,-52.246,742.676,-27.344,-9.277,750.549,388.3134798572475
1045,1686879522.66,-87.402,340.82,-52.734,-98.145,750.553,383.81400540918713
1046,1686879522.66,-130.859,149.414,-36.621,-192.383,750.557,383.7021670906774
1047,1686879522.66,-101.562,244.629,-22.949,-119.141,750.561,383.45004702079797
1048,1686879522.67,-41.992,497.07,-35.156,5.859,750.565,387.8680695228886
1049,1686879522.67,-60.059,-183.105,-62.988,-21.973,750.569,387.07432289718037
1050,1686879522.68,-106.445,-46.387,1.465,-156.25,750.573,387.6043389343142
1051,1686879522.68,-106.445,671.387,-11.23,-151.367,750.577,388.11232321274247
1052,1686879522.68,-55.176,620.605,-51.758,-19.531,750.581,386.03303411441493
1053,1686879522.68,-44.922,602.051,-28.32,-13.184,750.581,387.71828272454184
1054,1686879522.69,-104.492,764.648,-44.434,-135.254,750.585,391.61629220665935
1055,1686879522.69,-123.535,735.84,-64.453,-158.691,750.589,385.58404868623114
1056,1686879522.7,-64.941,457.031,-49.316,-30.273,750.593,388.83491628166723
1057,1686879522.7,-25.879,335.938,-20.02,26.367,750.596,388.1090834369788
1058,1686879522.7,-73.73,425.781,-33.691,-81.543,750.6,384.7490177233901
1059,1686879522.71,-112.793,443.359,-32.227,-159.668,750.604,389.0157702387794
1060,1686879522.71,-70.312,225.586,-34.668,-57.129,750.608,386.845710866518
1061,1686879522.72,-30.273,-458.984,-26.855,38.086,750.612,383.9223153552892
1062,1686879522.72,-60.547,227.051,22.461,-52.734,750.616,386.74762887882497
1063,1686879522.72,-109.863,829.59,-42.969,-164.062,750.62,380.30414347420015
1064,1686879522.73,-85.938,365.234,-72.754,-101.562,750.624,376.6074315192993
1065,1686879522.73,-20.996,523.926,-25.391,21.484,750.628,381.76743705877345
1066,1686879522.74,-34.668,781.25,-32.227,-23.438,750.632,395.2193218464807
1067,1686879522.74,-97.168,518.066,-63.477,-149.414,750.636,392.53218926909335
1068,1686879522.74,-93.75,164.062,-58.594,-136.23,750.639,385.8340528768757
1069,1686879522.75,-26.367,363.77,-27.832,-10.742,750.643,379.48699638195353
1070,1686879522.75,-11.719,339.355,-33.203,12.207,750.647,383.38533614966354
1071,1686879522.76,-68.848,60.059,-61.523,-104.492,750.651,393.5883458555749
1072,1686879522.76,-108.887,-641.602,-49.316,-143.066,750.655,384.2750125151232
1073,1686879522.76,-54.688,-416.504,62.5,-26.367,750.659,391.53486215527255
1074,1686879522.77,-7.812,652.832,9.766,28.32,750.663,381.3905453283001
1075,1686879522.77,-60.059,522.949,-64.941,-80.078,750.667,383.6344000853016
1076,1686879522.77,-110.84,210.938,-20.02,-159.668,750.671,384.87249069917345
1077,1686879522.77,-71.777,466.309,-14.16,-74.219,750.671,393.11082185123564
1078,1686879522.78,-20.996,616.699,-43.945,23.438,750.675,385.56909424529795
1079,1686879522.78,-45.898,238.77,-70.312,-34.668,750.678,385.25300473600055
1080,1686879522.79,-90.82,28.32,-39.551,-153.32,750.682,386.59961970855625
1081,1686879522.79,-85.938,117.676,-39.551,-121.582,750.686,390.0521398797189
1082,1686879522.79,-33.203,53.711,-29.297,9.766,750.69,389.19795782046685
1083,1686879522.8,-30.273,-165.527,-50.293,7.812,750.694,394.98644026149924
1084,1686879522.8,-89.355,-875.0,-65.918,-103.516,750.698,386.27779607571944
1085,1686879522.8,-98.633,-397.461,24.414,-123.047,750.702,386.54507399612083
1086,1686879522.81,-39.062,564.453,-10.254,-12.207,750.706,384.4534399169794
1087,1686879522.81,-15.625,307.129,-79.102,15.137,750.71,390.6105840873552
1088,1686879522.82,-65.43,144.531,-14.16,-103.027,750.714,392.8371233663268
1089,1686879522.82,-92.285,467.285,-11.719,-152.344,750.745,393.84937594377396
1090,1686879522.82,-49.316,515.625,-42.48,-43.457,750.749,387.7731370732801
1091,1686879522.83,-7.324,261.719,-45.41,39.062,750.752,388.0185012970722
1092,1686879522.83,-40.527,389.648,-33.203,-57.617,750.756,388.93766637484634
1093,1686879522.84,-96.68,494.141,-42.48,-157.715,750.76,392.23063429614376
1094,1686879522.84,-62.5,50.781,-64.453,-62.5,750.764,401.6633107956855
1095,1686879522.84,-9.766,-500.0,-62.988,48.34,750.768,388.528993149253
1096,1686879522.85,-32.227,-50.293,5.859,-24.902,750.772,396.58015313077067
1097,1686879522.85,-82.031,569.824,-16.113,-149.414,750.776,387.29209647523425
1098,1686879522.86,-71.777,399.414,-47.852,-111.816,750.78,396.34825057438815
1099,1686879522.86,-20.996,127.93,-23.926,19.043,750.784,393.4533740285512
1100,1686879522.86,-23.438,241.211,-4.395,8.789,750.788,389.3164434104511
1101,1686879522.86,-72.266,512.695,-39.551,-120.117,750.775,396.64343012942174
1102,1686879522.87,-92.285,186.035,-81.055,-129.395,750.779,390.0059328725425
1103,1686879522.87,-46.875,-117.188,7.324,3.906,750.783,386.51710686437525
1104,1686879522.88,-13.184,357.91,-9.277,40.039,750.787,398.39845326283853
1105,1686879522.88,-58.105,450.684,-68.848,-73.73,750.791,389.847758921942
1106,1686879522.88,-93.262,-184.57,-47.363,-120.605,750.794,392.7525510852746
1107,1686879522.89,-42.48,-665.527,22.461,-3.418,750.798,393.41770679909365
1108,1686879522.89,13.672,77.637,46.387,75.195,750.802,393.75531359947627
1109,1686879522.9,-16.602,560.547,-30.273,-9.277,750.806,395.3501798702601
1110,1686879522.9,-79.102,-2.441,-48.828,-101.074,750.81,385.36570031026116
1111,1686879522.9,-65.43,-15.137,25.391,-41.992,750.814,398.5974525999015
1112,1686879522.91,-1.465,437.5,17.09,63.477,750.818,393.0322033812993
1113,1686879522.92,-3.906,409.18,-56.152,20.996,750.822,390.79548516738515
1114,1686879522.93,-73.242,-385.254,-92.285,-88.867,750.826,392.6740591610495
1115,1686879522.93,-75.195,-476.562,34.668,-65.918,750.83,391.04676032386686
1116,1686879522.94,-6.836,417.48,34.668,55.176,750.834,394.3954990540281
1117,1686879522.94,-4.883,427.246,-49.805,56.152,750.838,390.5932440183916
1118,1686879522.94,-60.547,-306.152,-36.133,-52.734,750.842,393.735105588596
1119,1686879522.95,-84.961,-270.02,2.93,-85.938,750.845,384.7449630444143
1120,1686879522.95,-27.344,420.898,-2.93,19.531,750.849,385.7872000424135
1121,1686879522.96,9.766,371.094,-64.453,76.172,750.853,387.70099770307763
1122,1686879522.96,-42.48,-499.023,-57.129,-29.297,750.857,388.8118787636735
1123,1686879522.96,-66.895,-218.75,-8.301,-98.633,750.861,390.30719296679865
1124,1686879522.97,-33.691,380.859,-27.832,-1.465,750.865,395.94874365962744
1125,1686879523.0,-0.488,274.902,-48.828,83.984,750.896,394.3648788572955
1126,1686879523.0,-33.203,161.133,-39.551,-1.465,750.899,392.83808876476905
1127,1686879523.01,-85.938,214.355,-38.086,-108.398,750.903,385.7103949557549
1128,1686879523.01,-61.035,250.977,-56.152,-47.363,750.907,394.6500105407756
1129,1686879523.02,-2.93,-77.637,-55.664,71.777,750.911,391.31634699715124
1130,1686879523.02,-12.695,254.883,-44.434,43.457,750.913,398.7473117679656
1131,1686879523.02,-9.766,-480.957,1.953,38.086,750.915,392.9104061580865
1132,1686879523.02,17.578,548.34,-27.344,91.309,750.917,392.6191119317973
1133,1686879523.02,-63.477,-239.258,-10.742,-89.844,750.919,389.6453947497141
1134,1686879523.02,-19.531,707.52,-26.367,-18.555,750.921,392.89371247549326
1135,1686879523.03,-56.641,192.383,-12.695,-80.566,750.923,390.4513337419853
1136,1686879523.03,-63.965,417.969,-45.41,-97.656,750.925,389.1971220388755
1137,1686879523.03,-2.441,73.242,-45.898,58.105,750.927,393.24118129033394
1138,1686879523.03,-38.574,102.539,-32.715,-6.348,750.929,392.24612294932285
1139,1686879523.03,8.301,-615.723,-26.855,84.473,750.931,392.5064468720844
1140,1686879523.04,4.395,77.637,-24.902,78.613,750.932,396.9176086303832
1141,1686879523.04,-32.715,125.0,27.832,-39.062,750.935,398.76317538790624
1142,1686879523.04,-17.578,139.648,-32.715,15.137,750.936,387.29192106070377
1143,1686879523.04,-53.711,555.664,-17.09,-72.266,750.939,395.0567415690002
1144,1686879523.04,-68.359,-8.301,-43.457,-83.008,750.94,395.1449862538399
1145,1686879523.05,-51.758,-130.371,33.691,-43.457,750.944,394.05077047071615
1146,1686879523.05,7.812,435.547,40.527,86.914,750.948,389.1788135034068
1147,1686879523.05,7.324,725.586,-44.434,62.988,750.952,394.7120087223643
1148,1686879523.06,-52.246,300.781,-67.383,-71.289,750.956,392.5132356034564
1149,1686879523.06,-64.941,-30.762,9.766,-75.684,750.955,399.53597474261124
1150,1686879523.06,-0.488,392.578,24.902,51.27,750.959,395.08944815029724
1151,1686879523.07,16.113,690.918,-36.621,78.125,750.963,395.4254333539863
1152,1686879523.07,-39.062,182.129,-82.031,-40.039,750.967,392.5283047824379
1153,1686879523.08,-70.801,-785.156,-48.34,-82.52,750.971,392.6339788252946
1154,1686879523.08,-19.043,-366.211,26.855,29.297,750.975,390.74473545473535
1155,1686879523.08,23.438,399.414,-14.648,98.633,750.979,388.44612067761835
1156,1686879523.09,-15.625,189.941,-61.523,1.953,750.983,390.25819701663806
1157,1686879523.09,-67.871,-719.238,-39.551,-83.984,750.987,399.19341260141766
1158,1686879523.09,-41.016,-132.812,62.5,-11.23,750.991,399.4898941239549
1159,1686879523.1,26.367,963.867,24.902,86.426,750.994,394.93861233344455
1160,1686879523.1,5.371,510.742,-67.871,35.156,750.998,391.38767619515147
1161,1686879523.1,-56.152,350.098,-2.93,-74.707,751.003,391.04201549135865
1162,1686879523.11,-45.41,781.738,9.277,-41.992,751.007,387.27023610269447
1163,1686879523.11,12.695,775.391,-34.668,88.379,751.01,394.73843842536377
1164,1686879523.12,20.02,503.418,-47.363,84.961,751.014,398.77778999161774
1165,1686879523.12,-30.273,556.152,-24.902,-29.785,751.018,394.96657884284747
1166,1686879523.12,-46.387,427.734,-22.949,-43.457,751.022,391.70926864099357
1167,1686879523.13,16.113,245.605,-27.832,83.008,751.026,393.6038650300418
1168,1686879523.13,39.062,-97.656,-33.691,115.723,751.03,388.4720937166179
1169,1686879523.14,-11.23,301.27,38.574,-20.02,751.034,393.3916181189862
1170,1686879523.14,-47.852,960.938,3.906,-83.008,751.038,388.75771160375
1171,1686879523.14,-14.16,821.289,-45.41,16.602,751.042,388.7578305755384
1172,1686879523.15,32.715,567.383,-17.578,98.633,751.046,391.2796385375531
1173,1686879523.15,-3.906,651.855,0.488,2.441,751.046,394.2553099904576
1174,1686879523.15,-54.688,834.473,-16.602,-117.188,751.05,394.51140521947804
1175,1686879523.16,-25.391,523.438,-44.434,-31.738,751.054,393.12566529460554
1176,1686879523.16,35.156,354.004,19.531,107.422,751.058,396.55916321085016
1177,1686879523.17,27.832,645.508,-6.836,54.688,751.062,390.9690487871224
1178,1686879523.17,-28.809,483.887,-37.598,-68.848,751.066,392.474360743451
1179,1686879523.17,-28.32,121.094,-36.621,-41.016,751.07,401.627549940152
1180,1686879523.18,16.113,-522.461,-39.062,75.684,751.074,393.0193835134964
1181,1686879523.18,31.25,90.332,23.438,70.801,751.078,402.66469422940366
1182,1686879523.18,-4.883,901.367,-5.371,-50.781,751.082,389.1518233105171
1183,1686879523.19,-24.414,563.477,-45.898,-78.125,751.085,394.19377324791
1184,1686879523.19,23.926,639.648,3.418,45.41,751.089,392.6039947851691
1185,1686879523.21,48.34,-991.211,5.859,89.355,751.106,398.6259966580285
1186,1686879523.21,-2.93,814.453,-40.039,-24.414,751.11,396.2471783595375
1187,1686879523.22,-49.805,193.848,-48.34,-103.027,751.114,394.3347016127641
1188,1686879523.22,3.418,465.332,12.207,-1.465,751.118,396.004660738407
1189,1686879523.22,56.641,937.012,-0.488,95.215,751.122,386.054933371421
1190,1686879523.23,8.301,551.758,-54.199,17.09,751.126,395.7349066591649
1191,1686879523.23,-51.758,-360.84,-46.875,-90.332,751.13,391.9169522753788
1192,1686879523.24,-22.461,-61.523,76.172,-40.039,751.134,393.16287892467136
1193,1686879523.24,39.062,800.781,-17.578,62.988,751.15,397.5788703452653
1194,1686879523.24,44.922,963.379,47.852,71.289,751.138,389.22639974626816
1195,1686879523.24,53.223,662.598,-34.18,74.219,751.154,395.02670076412113
1196,1686879523.24,31.25,876.465,-37.109,29.785,751.141,397.11759131877534
1197,1686879523.25,-7.324,433.105,-8.789,-40.039,751.158,397.8823934861438
1198,1686879523.25,-30.762,518.066,-1.465,-84.473,751.145,393.3203973796101
1199,1686879523.25,-32.227,495.117,5.371,-73.73,751.162,386.33440515908893
1200,1686879523.25,-28.32,606.934,-1.465,-57.129,751.149,393.7768515759944
1201,1686879523.26,25.391,612.305,-20.508,42.969,751.166,399.39632514164873
1202,1686879523.26,60.547,214.355,-40.039,107.422,751.17,391.7939673264161
1203,1686879523.26,5.371,-444.824,1.953,6.348,751.174,391.508922964198
1204,1686879523.27,-37.598,-74.707,11.23,-76.172,751.178,388.98001274018
1205,1686879523.27,2.93,595.215,11.719,19.531,751.182,391.0990142998156
1206,1686879523.27,51.758,359.863,-38.086,128.418,751.185,390.512276778992
1207,1686879523.28,26.367,-220.703,11.23,65.43,751.189,389.70758560605
1208,1686879523.28,-14.648,534.18,46.875,-66.895,751.193,391.77351910548987
1209,1686879523.3,-1.953,848.145,-35.645,-31.738,751.202,388.44907488373707
1210,1686879523.31,43.945,460.938,-47.852,96.68,751.206,384.83375643467645
1211,1686879523.31,34.18,583.984,-21.973,66.406,751.209,392.7713646943908
1212,1686879523.32,-22.461,717.773,-19.531,-62.012,751.213,390.0367219578165
1213,1686879523.32,-19.531,513.184,-31.25,-59.082,751.217,393.7718355593194
1214,1686879523.32,34.18,53.223,-11.23,72.266,751.221,391.69651049207016
1215,1686879523.33,44.434,223.145,-6.836,87.402,751.225,387.91207459324204
1216,1686879523.33,-5.371,424.316,-27.832,-32.227,751.229,384.0716481597365
1217,1686879523.34,-32.227,160.645,-39.062,-76.66,751.233,392.3003117069106
1218,1686879523.34,11.23,-384.766,-35.645,35.645,751.237,394.7572078610742
1219,1686879523.34,57.617,75.195,42.969,101.562,751.241,389.7672770321099
1220,1686879523.34,-31.738,437.012,-60.547,-86.426,751.24,382.0000325949694
1221,1686879523.35,24.902,756.348,-14.16,0.488,751.245,386.4788708761932
1222,1686879523.35,-3.418,335.449,-3.418,-1.953,751.244,390.5495966104451
1223,1686879523.35,45.41,627.441,-7.812,97.168,751.248,392.4596246150744
1224,1686879523.36,28.32,670.898,-37.598,43.457,751.252,398.46504769588194
1225,1686879523.36,-31.25,221.68,-40.039,-65.918,751.256,392.9114005576609
1226,1686879523.36,-28.32,-97.168,-11.23,-34.668,751.26,384.5869789601671
1227,1686879523.37,27.832,112.305,-5.859,94.727,751.264,388.55821642464775
1228,1686879523.37,33.203,336.426,-18.555,75.684,751.268,380.64719886634845
1229,1686879523.38,-23.926,54.688,-51.27,-59.57,751.272,383.70680844478557
1230,1686879523.38,-51.27,-779.785,-21.973,-60.059,751.275,379.0777376883715
1231,1686879523.38,9.766,-6.836,46.875,68.848,751.279,386.98094306275635
1232,1686879523.39,42.969,904.297,-22.949,101.074,751.283,389.4332287468442
1233,1686879523.4,0.488,296.875,-84.473,-7.324,751.301,387.2712447379146
1234,1686879523.41,-36.133,222.656,12.695,-73.242,751.305,388.9071060145907
1235,1686879523.41,4.395,732.422,18.555,26.367,751.309,381.2170187057247
1236,1686879523.42,40.039,729.492,-39.551,106.934,751.313,385.7474850701063
1237,1686879523.42,-12.207,367.676,-41.992,11.719,751.317,381.18447908546227
1238,1686879523.42,-62.5,64.453,-42.969,-84.473,751.321,381.17258536743327
1239,1686879523.43,-18.555,179.199,-3.418,-14.16,751.325,384.92939295677667
1240,1686879523.43,50.781,470.703,-27.832,98.145,751.329,385.0255331039735
1241,1686879523.44,30.273,-239.258,-58.594,66.895,751.333,383.8627043911272
1242,1686879523.44,-32.715,-9.766,30.762,-58.105,751.337,379.25701129943997
1243,1686879523.44,-26.855,625.977,-8.301,-43.945,751.341,389.5292809341783
1244,1686879523.45,34.668,301.27,-49.805,86.426,751.344,388.83168783115366
1245,1686879523.45,37.109,147.461,-35.645,86.426,751.346,378.4840290611842
1246,1686879523.45,-16.113,279.297,-21.484,-38.574,751.35,378.2837194465113
1247,1686879523.46,-33.203,473.145,-28.809,-61.035,751.354,388.5648648314614
1248,1686879523.46,19.043,272.461,-68.359,74.707,751.358,380.1105578227823
1249,1686879523.46,53.711,-78.125,-37.109,119.629,751.362,381.960946941644
1250,1686879523.47,6.836,-22.461,-17.578,1.465,751.366,383.12565257804386
1251,1686879523.47,-33.203,64.453,-32.227,-53.223,751.37,383.1834643182044
1252,1686879523.48,16.602,-158.691,-32.715,47.363,751.374,377.5958242274681
1253,1686879523.48,61.035,-214.355,36.133,120.605,751.378,386.34929816856254
1254,1686879523.48,49.316,-516.602,10.254,116.211,751.378,384.90737458278295
1255,1686879523.48,23.926,343.75,-2.441,31.25,751.382,384.32313157870425
1256,1686879523.48,31.738,413.086,27.344,73.242,751.382,382.4572600300568
1257,1686879523.49,-25.391,532.227,-64.453,-73.242,751.386,385.5295347683622
1258,1686879523.49,-21.484,459.473,-68.359,-35.156,751.386,383.0119275597408
1259,1686879523.49,-1.953,-104.98,-85.449,-4.395,751.389,381.69998571164297
1260,1686879523.49,-15.625,-142.578,-54.688,-9.277,751.39,374.79104666363645
1261,1686879523.5,52.734,235.84,-5.371,115.723,751.393,386.9391144883611
1262,1686879523.5,63.477,354.492,-23.926,125.977,751.397,383.64055953322105
1263,1686879523.5,4.883,-98.145,-56.152,9.277,751.401,383.3744906116478
1264,1686879523.51,-25.391,-347.168,3.418,-26.367,751.405,380.4299053563948
1265,1686879523.51,27.832,182.129,13.672,87.402,751.409,386.3346361634826
1266,1686879523.52,71.777,613.281,-36.621,136.23,751.413,382.6032992855342
1267,1686879523.52,26.855,312.5,-67.871,37.109,751.417,391.0399856001338
1268,1686879523.52,-16.113,-649.414,-64.941,-21.484,751.421,384.6414074912397
1269,1686879523.52,22.949,-213.867,27.832,60.547,751.42,389.58389560803016
1270,1686879523.53,63.477,633.301,-26.367,129.883,751.424,380.6814505656226
1271,1686879523.53,27.832,337.402,-70.312,47.363,751.428,389.09658521115546
1272,1686879523.54,-21.973,157.715,-24.414,-63.477,751.432,383.47671936173407
1273,1686879523.54,7.812,176.758,-32.715,4.395,751.436,389.93360110621194
1274,1686879523.54,63.477,76.66,-18.066,136.23,751.44,388.337705497474
1275,1686879523.55,56.152,-114.746,-45.41,118.652,751.444,382.50498964040446
1276,1686879523.55,-5.859,-897.949,-40.527,-0.488,751.448,384.64729659439973
1277,1686879523.56,-13.672,-415.039,65.918,-18.066,751.452,386.4456935870855
1278,1686879523.56,61.035,599.609,11.719,106.445,751.455,386.57229967844125
1279,1686879523.56,87.402,366.699,-68.359,130.859,751.459,382.4208932408467
1280,1686879523.57,37.109,297.852,-41.016,7.812,751.463,388.09777293311964
1281,1686879523.57,0.0,471.68,-27.832,-38.086,751.48,382.4862424718719
1282,1686879523.58,34.668,406.738,-35.156,66.895,751.484,384.1723885666901
1283,1686879523.58,66.895,90.332,-63.965,122.07,751.488,385.02925703387194
1284,1686879523.58,22.949,149.902,-45.898,11.719,751.491,385.03571067574626
1285,1686879523.59,-22.461,295.898,-34.18,-65.918,751.495,385.184549964489
1286,1686879523.59,19.043,-73.242,-54.199,27.832,751.499,377.7260566608565
1287,1686879523.6,65.43,-627.441,-55.176,133.301,751.503,381.9453164187575
1288,1686879523.6,41.016,-263.672,2.441,54.199,751.507,382.2864106703897
1289,1686879523.6,-3.418,167.969,-17.578,-61.035,751.511,385.66297081139004
1290,1686879523.61,8.789,-101.074,-53.223,-4.883,751.515,379.5519557690977
1291,1686879523.61,65.918,-259.766,20.508,123.535,751.519,382.6275840399814
1292,1686879523.61,14.648,421.875,-51.758,-11.719,751.525,383.84284340546407
1293,1686879523.61,73.73,268.066,24.902,106.934,751.523,390.77272224339043
1294,1686879523.62,-4.395,97.168,-57.617,-24.414,751.529,386.39293259651726
1295,1686879523.62,56.152,86.426,-4.395,93.262,751.533,388.88342375746026
1296,1686879523.63,83.984,355.469,-18.555,119.141,751.537,367.5185315266704
1297,1686879523.63,36.133,285.645,-63.477,-3.418,751.541,367.3239772628211
1298,1686879523.63,2.441,-322.754,-58.594,-52.734,751.545,358.53967176290246
1299,1686879523.64,43.457,-859.375,-13.672,74.219,751.548,363.864650106655
1300,1686879523.64,82.52,-212.891,27.832,145.02,751.552,365.1749943050265
1301,1686879523.64,48.34,480.469,-20.996,40.039,751.556,361.8969517561765
1302,1686879523.65,6.836,41.016,-56.641,-44.922,751.56,366.27712242875026
1303,1686879523.65,33.691,-315.918,24.902,32.715,751.564,364.0201681761877
1304,1686879523.66,86.914,216.309,38.086,128.906,751.568,365.79955869966363
