,timestamps,TP9,AF7,AF8,TP10,Secondary Timestamp,emg_signal
0,1686017307.731,-22.949,310.547,172.852,-21.484,119072.165,308
1,1686017307.735,-36.621,425.293,115.234,-40.039,119072.169,308
2,1686017307.739,-43.945,-429.688,-318.848,-54.199,119072.173,308
3,1686017307.743,-33.203,-691.406,-261.23,-36.133,119072.177,308
4,1686017307.747,-25.391,200.195,184.082,-23.926,119072.181,308
5,1686017307.751,-27.832,170.898,51.758,-38.086,119072.185,308
6,1686017307.755,-29.785,-617.676,-295.898,-60.547,119072.188,308
7,1686017307.758,-27.832,-653.32,-209.473,-47.363,119072.192,308
8,1686017307.762,-17.578,255.371,210.938,-20.996,119072.196,307
9,1686017307.766,-21.973,359.863,106.445,-25.879,119072.2,307
10,1686017307.77,-42.48,-383.301,-179.199,-51.758,119072.204,307
11,1686017307.774,-51.27,-315.918,-23.926,-68.359,119072.208,308
12,1686017307.778,-36.621,322.754,189.453,-56.152,119072.204,308
13,1686017307.782,-21.484,64.941,34.668,-42.48,119072.208,308
14,1686017307.786,-29.297,-354.004,-80.078,-57.617,119072.211,310
15,1686017307.79,-33.203,-57.129,69.824,-69.336,119072.215,310
16,1686017307.794,-24.414,283.203,131.348,-48.828,119072.219,310
17,1686017307.798,-30.762,-155.762,-90.332,-29.297,119072.223,310
18,1686017307.802,-43.457,-541.504,-172.363,-41.016,119072.227,312
19,1686017307.805,-47.852,-18.066,81.543,-49.316,119072.231,312
20,1686017307.809,-36.621,254.395,91.309,-27.344,119072.235,312
21,1686017307.813,-29.297,-20.02,21.484,-7.812,119072.239,313
22,1686017307.817,-32.715,-153.809,-16.113,-21.484,119072.243,313
23,1686017307.821,-38.574,7.812,9.766,-48.828,119072.247,313
24,1686017307.835,-38.086,140.625,67.383,-57.129,119072.256,313
25,1686017307.839,-26.855,85.449,55.176,-33.203,119072.26,313
26,1686017307.843,-28.32,-108.887,4.395,-25.391,119072.264,313
27,1686017307.847,-32.227,-168.945,-38.574,-42.48,119072.268,313
28,1686017307.851,-33.203,-134.766,-83.008,-42.48,119072.272,313
29,1686017307.855,-29.297,-551.758,-245.605,-20.02,119072.276,314
30,1686017307.859,-25.879,-1000.0,-353.027,-7.812,119072.28,314
31,1686017307.862,-24.902,-323.73,23.926,-31.738,119072.284,314
32,1686017307.866,-25.879,119.629,87.402,-44.922,119072.287,316
33,1686017307.87,-17.09,-100.586,36.621,-20.02,119072.291,316
34,1686017307.874,-9.766,223.145,195.801,-1.953,119072.295,316
35,1686017307.878,-24.902,465.82,178.711,-28.32,119072.299,316
36,1686017307.881,-35.645,70.312,-30.273,-48.828,119072.302,316
37,1686017307.885,-31.738,-176.27,-91.309,-33.691,119072.306,318
38,1686017307.889,-29.297,257.812,124.512,-20.508,119072.309,318
39,1686017307.893,-36.621,438.477,148.926,-33.691,119072.313,318
40,1686017307.897,-47.852,32.715,-114.258,-45.898,119072.317,318
41,1686017307.901,-40.039,-448.73,-294.922,-37.109,119072.321,318
42,1686017307.905,-29.785,-342.285,-77.637,-19.043,119072.325,318
43,1686017307.908,-31.25,90.82,127.441,-22.949,119072.329,318
44,1686017307.912,-34.18,-189.453,-122.559,-35.156,119072.333,317
45,1686017307.916,-40.039,-921.387,-429.688,-40.039,119072.337,317
46,1686017307.92,-40.527,-276.855,38.574,-36.621,119072.341,317
47,1686017307.924,-31.738,362.305,207.031,-36.621,119072.345,318
48,1686017307.925,-28.32,45.898,-7.812,-58.594,119072.347,318
49,1686017307.929,-34.18,-24.414,-10.254,-70.801,119072.351,318
50,1686017307.933,-23.926,0.977,41.992,-41.016,119072.354,318
51,1686017307.937,-20.02,-89.355,24.414,-21.973,119072.358,319
52,1686017307.941,-35.645,-450.195,-141.113,-37.109,119072.362,319
53,1686017307.945,-43.457,-747.07,-251.953,-55.176,119072.366,319
54,1686017307.949,-37.598,-184.57,41.016,-54.199,119072.37,319
55,1686017307.952,-13.672,298.828,157.227,-27.344,119072.374,321
56,1686017307.956,-1.953,-371.094,-171.875,-12.207,119072.378,321
57,1686017307.96,-17.09,-678.223,-156.738,-37.598,119072.382,321
58,1686017307.964,-23.438,101.074,151.367,-53.711,119072.386,322
59,1686017307.968,-18.555,219.238,106.934,-31.25,119072.39,322
60,1686017307.971,-24.414,-81.055,40.527,-26.367,119072.391,322
61,1686017307.975,-29.297,63.477,111.816,-45.898,119072.395,322
62,1686017307.979,-41.504,310.547,124.023,-61.035,119072.399,322
63,1686017307.983,-39.551,84.961,11.719,-45.41,119072.403,322
64,1686017307.987,-26.367,30.273,33.203,-30.762,119072.407,322
65,1686017307.991,-30.762,-27.832,-9.277,-40.039,119072.411,322
66,1686017307.995,-39.551,-113.281,-62.012,-54.199,119072.415,321
67,1686017307.998,-49.805,-220.703,-123.535,-47.852,119072.419,321
68,1686017308.002,-39.551,-529.785,-168.945,-20.508,119072.423,321
69,1686017308.006,-38.086,69.824,145.02,-32.715,119072.426,322
70,1686017308.01,-41.992,277.832,56.641,-60.059,119072.43,322
71,1686017308.014,-39.551,-264.648,-142.578,-52.734,119072.434,322
72,1686017308.016,-35.645,-141.113,32.227,-34.18,119072.436,322
73,1686017308.02,-21.973,387.695,185.547,-29.785,119072.44,323
74,1686017308.024,-25.879,137.207,-17.09,-49.316,119072.444,323
75,1686017308.028,-33.691,-636.719,-380.371,-56.641,119072.448,323
76,1686017308.032,-17.09,-622.559,-248.047,-35.645,119072.452,323
77,1686017308.036,-13.184,-20.02,107.422,-37.598,119072.456,325
78,1686017308.04,-28.809,-23.438,41.992,-51.27,119072.46,325
79,1686017308.043,-37.598,-562.012,-206.055,-38.086,119072.464,325
80,1686017308.047,-35.645,-491.699,-87.402,-10.254,119072.468,326
81,1686017308.051,-42.969,353.027,228.027,-2.441,119072.472,326
82,1686017308.055,-50.781,285.645,71.777,-22.461,119072.476,326
83,1686017308.059,-38.086,-41.016,-63.477,-35.156,119072.479,325
84,1686017308.062,-29.785,143.066,70.312,-30.273,119072.488,325
85,1686017308.066,-26.367,391.602,150.391,-10.742,119072.491,325
86,1686017308.07,-26.855,13.672,-61.035,-12.207,119072.495,325
87,1686017308.074,-37.598,-443.848,-169.434,-37.598,119072.499,325
88,1686017308.078,-41.016,-96.68,26.855,-40.039,119072.503,325
89,1686017308.082,-33.203,68.848,72.754,-13.672,119072.507,325
90,1686017308.086,-24.902,-344.238,-132.324,0.488,119072.511,325
91,1686017308.089,-25.879,-700.195,-330.566,-13.184,119072.515,325
92,1686017308.093,-31.25,-164.551,8.301,-25.391,119072.519,325
93,1686017308.097,-20.02,300.293,173.828,-4.395,119072.523,325
94,1686017308.101,-10.254,115.723,88.867,11.719,119072.527,325
95,1686017308.105,-19.531,-0.488,28.32,-11.23,119072.531,327
96,1686017308.106,-22.461,177.246,58.594,-32.227,119072.527,327
97,1686017308.11,-11.719,265.137,114.258,-12.207,119072.531,327
98,1686017308.114,-11.719,-84.961,-60.059,9.277,119072.534,327
99,1686017308.118,-33.691,-142.578,-82.52,-11.23,119072.538,329
100,1686017308.122,-51.758,-2.93,-4.883,-19.531,119072.542,329
101,1686017308.126,-41.016,-134.766,-9.277,-9.766,119072.546,329
102,1686017308.13,-27.832,-553.223,-205.566,6.348,119072.55,329
103,1686017308.133,-29.785,-960.938,-331.543,17.09,119072.554,329
104,1686017308.137,-28.809,-208.008,62.988,-2.93,119072.558,329
105,1686017308.141,-25.391,130.371,65.43,-9.277,119072.562,329
106,1686017308.145,-26.855,27.344,49.805,5.371,119072.566,328
107,1686017308.149,-24.902,275.879,149.902,1.465,119072.57,328
108,1686017308.166,-26.367,350.098,110.84,-16.113,119072.589,328
109,1686017308.17,-32.715,-3.418,-55.176,-24.414,119072.593,328
110,1686017308.174,-25.391,-117.676,-83.008,-13.184,119072.597,328
111,1686017308.178,-18.066,307.617,135.254,-4.883,119072.601,328
112,1686017308.182,-26.367,320.312,86.914,-24.414,119072.605,328
113,1686017308.186,-30.762,-338.867,-285.645,-23.926,119072.609,329
114,1686017308.19,-32.227,-713.867,-344.238,-9.277,119072.613,329
115,1686017308.193,-23.438,-220.215,8.789,-0.488,119072.617,329
116,1686017308.197,-22.461,191.895,125.0,-10.254,119072.621,329
117,1686017308.201,-25.391,-223.145,-128.906,-24.414,119072.625,329
118,1686017308.205,-24.414,-463.867,-175.293,-28.32,119072.628,329
119,1686017308.209,-29.297,216.797,166.504,-14.16,119072.632,329
120,1686017308.211,-22.949,335.938,128.418,-17.09,119072.631,329
121,1686017308.215,-22.949,-33.203,-77.637,-46.875,119072.635,329
122,1686017308.219,-22.461,-358.887,-199.707,-34.668,119072.639,329
123,1686017308.223,-14.648,-78.125,25.391,-0.977,119072.643,329
124,1686017308.227,-32.715,246.582,119.141,-1.465,119072.647,328
125,1686017308.231,-47.363,-402.344,-185.547,-18.066,119072.651,328
126,1686017308.235,-47.852,-555.664,-116.211,-31.738,119072.655,328
127,1686017308.238,-43.457,150.391,129.395,-17.09,119072.659,328
128,1686017308.242,-32.227,309.57,126.465,-10.254,119072.662,328
129,1686017308.246,-32.227,-471.68,-261.719,-27.344,119072.666,328
130,1686017308.25,-34.18,-1000.0,-462.402,-29.297,119072.67,328
131,1686017308.254,-26.855,-309.57,57.129,-20.996,119072.674,328
132,1686017308.257,-20.508,206.543,174.316,-7.324,119072.68,329
133,1686017308.261,-21.484,17.09,24.414,-13.184,119072.684,329
134,1686017308.265,-30.762,89.844,61.523,-28.32,119072.688,329
135,1686017308.269,-39.062,221.68,102.539,-26.855,119072.692,331
136,1686017308.273,-20.996,100.098,10.254,-6.836,119072.696,331
137,1686017308.277,-19.531,-227.051,-89.844,-11.23,119072.7,331
138,1686017308.281,-31.25,-181.641,-14.16,-39.062,119072.704,332
139,1686017308.284,-27.344,164.551,89.355,-33.203,119072.708,332
140,1686017308.288,-26.855,-119.629,-80.566,-3.418,119072.712,332
141,1686017308.292,-17.578,-561.523,-161.621,11.719,119072.716,332
142,1686017308.296,-19.043,22.949,139.16,-0.977,119072.72,331
143,1686017308.3,-22.949,214.844,66.895,-15.137,119072.723,331
144,1686017308.301,-21.973,-255.859,-108.887,-2.441,119072.723,331
145,1686017308.305,-32.227,-140.625,37.109,5.371,119072.727,331
146,1686017308.309,-36.621,75.684,97.168,-9.277,119072.731,330
147,1686017308.313,-43.945,-216.797,-149.414,-23.438,119072.735,330
148,1686017308.317,-46.387,-395.508,-179.688,-20.02,119072.738,330
149,1686017308.321,-39.062,-328.125,-23.926,-9.277,119072.742,331
150,1686017308.325,-37.598,-68.848,119.629,-20.508,119072.746,331
151,1686017308.328,-32.227,108.887,72.754,-33.691,119072.75,331
152,1686017308.332,-27.344,-508.789,-294.434,-17.578,119072.754,331
153,1686017308.336,-38.086,-939.941,-308.105,-8.301,119072.758,332
154,1686017308.34,-41.016,50.293,183.105,-18.066,119072.762,332
155,1686017308.344,-51.758,263.184,83.496,-32.715,119072.766,332
156,1686017308.345,-50.781,-98.145,-67.871,-41.016,119072.781,332
157,1686017308.349,-35.645,231.934,133.789,-25.391,119072.785,333
158,1686017308.353,-33.203,416.016,167.48,-24.414,119072.789,333
159,1686017308.357,-39.062,-83.984,-93.262,-49.805,119072.793,333
160,1686017308.361,-41.016,-501.465,-232.422,-49.316,119072.797,333
161,1686017308.365,-25.391,-310.547,-9.766,-25.391,119072.8,333
162,1686017308.369,-18.555,116.699,154.297,-21.973,119072.804,333
163,1686017308.372,-28.809,-28.32,-61.523,-41.504,119072.808,333
164,1686017308.376,-35.645,-758.301,-367.188,-44.434,119072.812,333
165,1686017308.38,-35.645,-191.406,46.387,-25.391,119072.816,332
166,1686017308.384,-27.832,444.336,220.703,-1.953,119072.82,332
167,1686017308.388,-24.902,100.098,-6.836,-9.277,119072.824,332
168,1686017308.39,-32.227,-47.363,-18.555,-34.668,119072.812,332
169,1686017308.394,-34.18,187.5,89.844,-35.156,119072.816,332
170,1686017308.398,-28.809,100.098,51.758,-22.949,119072.819,332
171,1686017308.402,-29.785,-432.129,-134.277,-12.695,119072.823,332
172,1686017308.406,-33.203,-500.488,-146.484,-21.484,119072.827,331
173,1686017308.41,-33.203,-151.367,-59.082,-36.621,119072.831,331
174,1686017308.414,-31.738,-169.922,-23.438,-22.461,119072.835,331
175,1686017308.417,-35.645,-142.09,62.5,-14.16,119072.839,331
176,1686017308.421,-41.016,111.816,86.426,-40.039,119072.843,332
177,1686017308.425,-37.598,246.582,69.336,-48.828,119072.847,332
178,1686017308.429,-20.508,221.68,59.082,-22.461,119072.851,332
179,1686017308.433,-10.742,-469.727,-190.43,-3.418,119072.855,333
180,1686017308.436,-21.973,-515.137,-111.816,-20.508,119072.858,333
181,1686017308.44,-34.668,265.137,150.391,-50.293,119072.862,333
182,1686017308.444,-28.809,-18.066,-29.785,-36.621,119072.866,333
183,1686017308.448,-15.137,-62.5,-12.695,-7.812,119072.87,333
184,1686017308.452,-18.066,324.219,129.395,-21.484,119072.874,333
185,1686017308.456,-28.32,56.641,-35.156,-49.316,119072.878,333
186,1686017308.46,-43.945,-517.578,-315.918,-41.016,119072.881,331
187,1686017308.463,-46.875,-671.387,-254.395,-19.043,119072.885,331
188,1686017308.467,-40.527,-187.012,58.594,-18.066,119072.889,331
189,1686017308.471,-36.133,186.035,114.746,-33.203,119072.893,330
190,1686017308.475,-28.809,-260.254,-121.094,-38.574,119072.897,330
191,1686017308.479,-22.461,-383.301,-102.051,-30.273,119072.901,330
192,1686017308.495,-16.602,294.922,198.73,-26.855,119072.917,330
193,1686017308.499,-28.809,336.914,95.703,-49.805,119072.92,330
194,1686017308.503,-34.668,-221.68,-149.902,-57.129,119072.924,331
195,1686017308.507,-19.531,-266.602,-15.625,-36.133,119072.928,331
196,1686017308.511,-6.348,256.836,126.953,-21.973,119072.932,331
197,1686017308.515,-9.766,78.125,4.395,-30.273,119072.936,332
198,1686017308.519,-30.762,-637.207,-283.203,-51.27,119072.94,332
199,1686017308.522,-30.762,-733.887,-230.469,-42.48,119072.944,332
200,1686017308.526,-13.184,191.895,230.469,-19.043,119072.948,332
201,1686017308.53,-15.137,370.605,134.766,-21.973,119072.952,331
202,1686017308.534,-20.02,-117.676,-83.984,-48.828,119072.956,331
203,1686017308.538,-25.879,-145.996,1.953,-50.781,119072.96,331
204,1686017308.542,-22.461,317.383,185.059,-36.621,119072.97,330
205,1686017308.546,-17.578,267.09,60.059,-29.297,119072.974,330
206,1686017308.55,-20.996,-236.816,-113.281,-39.062,119072.978,330
207,1686017308.554,-21.484,-62.012,40.039,-44.434,119072.982,329
208,1686017308.558,-14.16,305.664,127.93,-18.555,119072.986,329
209,1686017308.562,-19.531,-85.449,-75.195,-2.441,119072.989,329
210,1686017308.566,-37.109,-337.891,-137.207,-27.344,119072.993,329
211,1686017308.569,-48.34,23.926,28.32,-61.035,119072.997,329
212,1686017308.571,-20.02,229.98,84.473,-37.109,119073.006,330
213,1686017308.573,-51.758,267.578,110.352,-62.5,119073.001,330
214,1686017308.575,-21.484,-151.367,-59.57,-22.461,119073.01,330
215,1686017308.577,-36.133,-97.168,-73.73,-31.25,119073.005,330
216,1686017308.579,-26.855,-322.266,-41.504,-25.879,119073.014,330
217,1686017308.581,-30.762,-586.914,-216.797,-30.762,119073.009,330
218,1686017308.583,-38.574,-67.871,49.805,-47.363,119073.018,331
219,1686017308.585,-29.785,3.906,106.934,-50.293,119073.013,331
220,1686017308.587,-40.527,98.633,27.344,-48.828,119073.022,331
221,1686017308.591,-27.344,-284.668,-98.633,-33.203,119073.025,331
222,1686017308.595,-15.625,-259.277,19.531,-14.648,119073.029,331
223,1686017308.598,-22.461,188.477,124.512,-30.273,119073.033,331
224,1686017308.602,-32.227,178.223,25.879,-62.5,119073.037,331
225,1686017308.606,-29.785,-558.105,-287.109,-31.25,119073.041,331
226,1686017308.61,-26.367,-912.109,-310.547,-6.836,119073.045,331
227,1686017308.614,-30.273,-12.207,142.09,-44.434,119073.049,331
228,1686017308.631,-41.016,102.539,52.734,-77.637,119073.052,329
229,1686017308.635,-42.48,-146.484,-48.828,-67.871,119073.056,329
230,1686017308.639,-34.668,253.906,164.062,-44.434,119073.06,328
231,1686017308.643,-34.668,400.391,170.898,-46.387,119073.064,328
232,1686017308.647,-38.086,-155.273,-151.855,-57.129,119073.067,328
233,1686017308.651,-36.133,-706.543,-359.863,-54.199,119073.071,328
234,1686017308.655,-29.297,-229.004,39.062,-39.062,119073.075,329
235,1686017308.658,-27.832,412.598,241.211,-36.133,119073.079,329
236,1686017308.662,-37.109,-128.418,-133.301,-51.27,119073.083,329
237,1686017308.666,-41.504,-621.094,-248.047,-50.781,119073.087,329
238,1686017308.67,-36.133,90.332,122.559,-36.621,119073.091,329
239,1686017308.674,-30.273,331.055,146.973,-20.02,119073.095,329
240,1686017308.691,-36.621,-3.418,-19.531,-28.32,119073.112,329
241,1686017308.695,-45.41,-49.805,-29.297,-54.688,119073.116,327
242,1686017308.699,-37.109,0.0,41.992,-47.363,119073.119,327
243,1686017308.703,-22.949,-45.898,37.109,-23.926,119073.123,327
244,1686017308.707,-28.809,-409.668,-149.414,-22.461,119073.127,325
245,1686017308.711,-44.434,-790.527,-240.723,-38.086,119073.131,325
246,1686017308.715,-30.273,-428.711,0.977,-25.391,119073.135,325
247,1686017308.718,4.395,-12.695,122.559,18.066,119073.139,325
248,1686017308.721,-32.715,116.211,107.91,-12.695,119073.141,325
249,1686017308.722,-11.23,-488.77,-182.617,2.93,119073.143,325
250,1686017308.725,-42.969,264.16,111.816,-34.18,119073.145,325
251,1686017308.726,-49.805,-742.188,-223.145,-58.105,119073.147,325
252,1686017308.729,-40.039,279.785,71.777,-44.434,119073.149,325
253,1686017308.73,-46.387,97.168,169.434,-67.383,119073.151,325
254,1686017308.733,-32.227,55.664,20.508,-14.16,119073.153,325
255,1686017308.734,-30.273,208.008,104.98,-23.926,119073.155,325
256,1686017308.737,-30.273,-19.043,18.066,18.066,119073.157,325
257,1686017308.741,-29.785,-56.152,-13.672,14.648,119073.161,325
258,1686017308.745,-30.273,-51.758,15.137,1.953,119073.165,325
259,1686017308.748,-24.414,-107.422,-35.645,13.672,119073.169,325
260,1686017308.752,-8.789,-219.727,-91.797,35.645,119073.173,325
261,1686017308.756,-2.93,-3.906,83.008,27.344,119073.177,325
262,1686017308.76,-8.301,184.57,106.445,7.812,119073.181,325
263,1686017308.764,-5.859,-266.602,-169.434,20.02,119073.184,325
264,1686017308.766,-4.883,-896.973,-332.031,41.992,119073.186,325
265,1686017308.77,-2.441,-147.461,73.242,32.715,119073.19,325
266,1686017308.774,3.906,114.746,82.52,17.578,119073.194,325
267,1686017308.778,-6.348,-609.375,-203.125,19.043,119073.198,324
268,1686017308.782,-5.371,-381.348,-26.367,36.133,119073.202,324
269,1686017308.786,2.441,162.109,178.711,41.992,119073.206,324
270,1686017308.79,-9.277,-27.832,65.918,24.414,119073.21,324
271,1686017308.793,-4.883,-568.359,-199.707,20.508,119073.214,324
272,1686017308.797,0.0,-475.586,-77.637,23.926,119073.218,324
273,1686017308.801,2.93,420.898,272.461,20.996,119073.221,324
274,1686017308.805,0.0,315.918,71.777,13.184,119073.225,325
275,1686017308.809,-18.555,-249.023,-128.906,-0.977,119073.229,325
276,1686017308.812,-22.461,-123.047,51.758,3.418,119073.235,325
277,1686017308.816,-19.043,431.152,219.727,18.555,119073.239,327
278,1686017308.82,-19.531,239.746,15.625,9.766,119073.243,327
279,1686017308.824,-23.926,-336.914,-156.738,-7.324,119073.247,327
280,1686017308.828,-14.648,-110.352,3.906,1.465,119073.251,327
281,1686017308.832,-1.465,102.051,98.145,22.949,119073.255,327
282,1686017308.836,-3.418,-196.289,-71.289,19.531,119073.258,327
283,1686017308.839,-17.09,-567.383,-260.254,-9.766,119073.262,327
284,1686017308.843,-22.461,-141.113,16.602,-22.949,119073.266,327
285,1686017308.847,-6.348,312.988,153.32,-3.906,119073.27,326
286,1686017308.851,-5.859,151.367,90.82,4.395,119073.274,326
287,1686017308.855,-7.324,60.059,49.805,-11.719,119073.278,326
288,1686017308.856,-6.836,174.805,52.246,-23.438,119073.29,326
289,1686017308.86,-9.277,209.473,83.496,-11.719,119073.294,324
290,1686017308.864,1.465,-59.57,-33.691,3.906,119073.298,324
291,1686017308.868,-6.836,-308.594,-131.836,-22.949,119073.302,324
292,1686017308.872,-26.855,-114.258,-34.668,-57.617,119073.306,324
293,1686017308.876,-20.02,-59.57,3.418,-40.039,119073.31,323
294,1686017308.88,-12.695,-584.473,-231.445,-3.906,119073.314,323
295,1686017308.883,-18.066,-983.398,-348.145,-2.93,119073.318,323
296,1686017308.887,-30.273,-210.449,74.707,-41.016,119073.321,324
297,1686017308.891,-26.855,177.734,99.609,-51.758,119073.325,324
298,1686017308.895,-11.23,64.453,76.172,-28.32,119073.329,324
299,1686017308.899,-14.16,311.523,171.875,-19.531,119073.333,324
300,1686017308.916,-22.949,393.066,128.418,-39.551,119073.338,324
301,1686017308.92,-26.367,106.445,-2.441,-54.688,119073.342,324
302,1686017308.924,-16.602,-43.945,-45.41,-29.785,119073.346,324
303,1686017308.928,-1.953,272.949,117.188,0.0,119073.35,323
304,1686017308.932,-12.695,291.504,94.238,-18.066,119073.354,323
305,1686017308.936,-28.809,-257.812,-226.562,-45.41,119073.358,323
306,1686017308.94,-27.344,-807.617,-387.207,-25.879,119073.362,323
307,1686017308.943,-17.09,-179.199,45.41,-1.465,119073.366,321
308,1686017308.947,-16.113,417.48,181.152,-20.02,119073.37,321
309,1686017308.951,-27.344,-275.391,-179.688,-47.363,119073.373,321
310,1686017308.955,-25.879,-508.789,-178.711,-30.762,119073.377,321
311,1686017308.959,-16.113,230.957,165.527,-3.906,119073.381,321
312,1686017308.965,-28.32,341.309,114.746,-25.391,119073.385,321
313,1686017308.969,-44.434,-85.449,-99.121,-52.246,119073.389,322
314,1686017308.973,-37.109,-410.645,-182.617,-46.875,119073.392,322
315,1686017308.977,-22.949,-94.238,60.059,-25.879,119073.396,322
316,1686017308.981,-25.391,281.738,144.531,-20.02,119073.4,322
317,1686017308.985,-31.25,-236.328,-128.906,-38.574,119073.404,323
318,1686017308.989,-39.551,-406.25,-100.586,-57.617,119073.408,323
319,1686017308.992,-36.133,-21.484,76.172,-44.434,119073.412,323
320,1686017308.996,-22.461,79.59,104.004,-20.02,119073.416,322
321,1686017309.0,-20.508,-483.887,-231.934,-22.461,119073.42,322
322,1686017309.004,-31.25,-941.406,-390.137,-40.039,119073.424,322
323,1686017309.006,-3.906,167.969,136.23,-18.555,119073.427,322
324,1686017309.008,-20.996,-155.273,75.195,-42.48,119073.428,322
325,1686017309.01,-6.836,32.715,76.172,-20.508,119073.43,321
326,1686017309.014,-24.414,142.578,90.82,-53.223,119073.434,321
327,1686017309.018,-34.18,244.629,103.027,-61.035,119073.438,321
328,1686017309.022,-31.738,65.43,38.086,-44.922,119073.442,321
329,1686017309.026,-35.645,-271.973,-71.289,-48.34,119073.446,320
330,1686017309.03,-40.527,-215.332,-20.02,-70.312,119073.45,320
331,1686017309.033,-37.598,144.531,120.605,-75.684,119073.454,320
332,1686017309.037,-33.203,-140.625,-72.754,-54.199,119073.458,320
333,1686017309.041,-27.832,-630.371,-221.191,-36.133,119073.462,320
334,1686017309.045,-30.273,-259.766,84.961,-51.27,119073.466,320
335,1686017309.049,-28.809,117.188,120.605,-54.199,119073.469,322
336,1686017309.05,-19.531,-257.324,-85.449,-28.809,119073.472,322
337,1686017309.054,-24.902,-304.199,-36.133,-15.137,119073.475,322
338,1686017309.058,-22.461,63.965,88.867,-27.832,119073.479,322
339,1686017309.062,-25.879,-125.0,-26.367,-49.316,119073.483,322
340,1686017309.066,-28.809,-546.875,-183.105,-36.621,119073.487,324
341,1686017309.07,-12.207,-611.816,-80.566,-12.207,119073.491,324
342,1686017309.074,-20.508,1.953,139.648,-24.902,119073.495,324
343,1686017309.077,-34.18,224.609,67.383,-40.527,119073.499,324
344,1686017309.081,-37.109,-475.586,-199.707,-33.691,119073.503,324
345,1686017309.085,-40.039,-399.902,-10.254,-18.555,119073.507,324
346,1686017309.089,-35.645,420.898,244.629,-21.973,119073.511,324
347,1686017309.093,-37.109,53.223,2.93,-38.086,119073.514,324
348,1686017309.096,-35.156,-343.75,-104.98,-43.457,119073.518,323
349,1686017309.1,-26.367,-63.477,65.918,-20.996,119073.522,323
350,1686017309.104,-17.09,425.293,213.867,-7.812,119073.526,323
351,1686017309.108,-23.438,127.441,-26.855,-25.879,119073.529,325
352,1686017309.112,-36.621,-450.684,-235.84,-38.086,119073.533,325
353,1686017309.116,-33.691,-306.641,-25.391,-19.531,119073.537,325
354,1686017309.12,-31.738,-30.273,121.582,-5.371,119073.541,327
355,1686017309.123,-43.457,-281.25,-118.164,-28.32,119073.545,327
356,1686017309.127,-54.199,-643.555,-224.121,-55.664,119073.549,327
357,1686017309.131,-49.805,-88.867,117.676,-44.434,119073.553,327
358,1686017309.135,-33.691,374.023,181.641,-14.16,119073.557,329
359,1686017309.139,-24.414,172.363,98.633,-16.602,119073.561,329
360,1686017309.141,-35.156,61.523,46.875,-39.551,119073.561,329
361,1686017309.145,-30.762,230.469,83.496,-31.25,119073.565,329
362,1686017309.149,-15.625,168.945,111.816,-3.906,119073.569,333
363,1686017309.153,-30.273,-473.633,-171.875,-11.719,119073.573,333
364,1686017309.157,-44.434,-705.566,-270.02,-43.457,119073.577,333
365,1686017309.161,-37.598,-273.438,-5.371,-43.945,119073.581,335
366,1686017309.165,-32.227,-23.926,90.332,-14.648,119073.585,335
367,1686017309.168,-23.438,-465.332,-163.086,11.719,119073.589,335
368,1686017309.172,-27.832,-688.965,-185.547,-4.883,119073.593,335
369,1686017309.176,-38.086,145.508,166.992,-30.273,119073.597,336
370,1686017309.18,-36.621,186.035,76.66,-15.625,119073.6,336
371,1686017309.184,-28.809,64.941,68.359,-3.418,119073.604,336
372,1686017309.186,-25.879,237.793,122.559,-15.137,119073.608,336
373,1686017309.19,-30.762,285.156,86.914,-34.668,119073.612,339
374,1686017309.194,-28.809,23.926,-12.695,-27.832,119073.616,339
375,1686017309.198,-18.555,-4.395,18.066,-7.812,119073.62,339
376,1686017309.202,-13.672,270.996,98.633,-17.09,119073.624,343
377,1686017309.206,-37.598,19.531,-70.801,-41.016,119073.628,343
378,1686017309.21,-49.805,-409.18,-292.48,-40.039,119073.632,343
379,1686017309.213,-33.691,-869.141,-347.168,-11.23,119073.636,343
380,1686017309.217,-25.391,-240.234,72.266,-0.977,119073.639,346
381,1686017309.221,-32.227,375.488,154.297,-33.203,119073.643,346
382,1686017309.225,-32.227,-59.57,-52.246,-48.34,119073.647,346
383,1686017309.229,-25.879,12.207,48.828,-28.809,119073.651,348
384,1686017309.23,-21.484,412.109,182.129,-19.531,119073.665,348
385,1686017309.234,-19.531,431.641,119.629,-35.645,119073.669,348
386,1686017309.238,-32.227,-212.402,-171.875,-52.734,119073.673,348
387,1686017309.242,-36.133,-348.633,-132.324,-37.109,119073.677,347
388,1686017309.246,-28.32,212.402,109.375,-16.113,119073.68,347
389,1686017309.25,-28.809,60.059,-5.371,-19.531,119073.684,347
390,1686017309.254,-32.227,-650.391,-350.586,-28.809,119073.688,347
391,1686017309.257,-27.344,-755.371,-250.0,-25.391,119073.692,347
392,1686017309.261,-19.043,-91.797,130.371,-14.16,119073.696,346
393,1686017309.265,-20.996,-9.277,58.594,-24.414,119073.7,346
394,1686017309.269,-31.25,-245.117,-37.109,-44.434,119073.704,346
395,1686017309.273,-41.016,-59.082,62.988,-43.457,119073.708,346
396,1686017309.292,-35.645,381.836,215.332,-22.461,119073.714,348
397,1686017309.296,-23.438,270.508,92.285,-8.301,119073.717,348
398,1686017309.3,-32.227,26.367,-11.23,-39.551,119073.721,350
399,1686017309.304,-45.41,129.883,61.523,-59.082,119073.725,350
400,1686017309.308,-30.273,292.48,107.91,-25.879,119073.729,350
401,1686017309.312,-18.555,-66.895,-48.828,-2.93,119073.733,351
402,1686017309.316,-42.969,-615.723,-247.559,-33.203,119073.737,351
403,1686017309.319,-59.082,-179.688,-4.395,-66.895,119073.741,351
404,1686017309.321,-26.855,68.848,68.848,-25.391,119073.756,351
405,1686017309.323,-44.434,270.996,142.578,-46.875,119073.745,351
406,1686017309.325,-15.137,-191.406,-37.109,2.441,119073.76,351
407,1686017309.327,-17.578,66.406,33.691,-6.348,119073.749,351
408,1686017309.329,-19.531,-501.465,-86.426,-0.488,119073.764,351
409,1686017309.331,-22.461,-127.441,-52.246,-9.277,119073.753,351
410,1686017309.333,-28.32,-174.805,31.738,-21.484,119073.768,351
411,1686017309.335,-35.156,-120.117,-16.113,-32.715,119073.757,351
412,1686017309.337,-32.715,51.27,51.27,-25.879,119073.772,351
413,1686017309.341,-33.203,-302.734,-97.168,-12.695,119073.776,349
414,1686017309.345,-20.996,-250.977,10.254,0.977,119073.78,349
415,1686017309.348,-20.508,210.938,126.953,-15.137,119073.784,349
416,1686017309.352,-34.18,186.035,42.48,-38.574,119073.787,349
417,1686017309.356,-37.109,-541.016,-253.418,-10.254,119073.791,349
418,1686017309.36,-30.762,-786.133,-212.402,11.719,119073.795,349
419,1686017309.364,-30.762,104.004,197.754,-20.02,119073.799,349
420,1686017309.368,-27.344,98.633,48.34,-45.898,119073.801,350
421,1686017309.372,-19.043,-337.891,-87.402,-28.32,119073.805,350
422,1686017309.376,-13.184,-67.871,95.215,-2.441,119073.809,350
423,1686017309.38,-13.672,398.438,224.121,-12.207,119073.813,350
424,1686017309.384,-22.949,51.758,-65.43,-35.645,119073.816,350
425,1686017309.388,-24.902,-700.684,-344.238,-36.621,119073.82,350
426,1686017309.392,-9.766,-298.828,31.25,-16.602,119073.824,350
427,1686017309.395,-7.812,418.945,269.531,-18.555,119073.828,348
428,1686017309.399,-23.926,-96.191,-117.676,-47.363,119073.832,348
429,1686017309.403,-31.25,-611.328,-239.746,-48.828,119073.836,348
430,1686017309.407,-26.367,54.199,157.227,-27.832,119073.84,348
431,1686017309.411,-12.207,384.277,166.992,-11.23,119073.844,346
432,1686017309.426,-16.113,28.809,-19.043,-34.668,119073.847,343
433,1686017309.43,-20.02,-47.363,-13.184,-49.805,119073.851,343
434,1686017309.434,-15.625,-50.293,22.461,-23.926,119073.855,343
435,1686017309.438,-22.949,-123.047,56.641,-13.672,119073.858,342
436,1686017309.442,-26.367,-471.68,-180.176,-24.414,119073.862,342
437,1686017309.446,-30.273,-936.523,-400.879,-34.668,119073.866,342
438,1686017309.45,-34.18,-287.598,64.941,-30.273,119073.87,342
439,1686017309.453,-30.273,297.363,178.711,-11.23,119073.874,342
440,1686017309.457,-29.785,-285.156,-80.566,-12.695,119073.878,342
441,1686017309.461,-30.273,-336.914,19.043,-29.297,119073.882,342
442,1686017309.465,-27.832,301.27,167.969,-29.297,119073.886,341
443,1686017309.469,-17.578,221.68,98.145,-18.555,119073.89,341
444,1686017309.471,-8.301,96.191,88.379,-19.531,119073.891,341
445,1686017309.475,-15.625,204.59,101.562,-40.527,119073.895,341
446,1686017309.479,-16.602,237.305,101.074,-45.898,119073.899,338
447,1686017309.483,-13.672,35.645,11.719,-18.066,119073.903,338
448,1686017309.487,-17.09,-79.102,-34.18,-6.836,119073.907,338
449,1686017309.491,-20.508,-128.418,-27.832,-25.879,119073.911,334
450,1686017309.495,-30.273,-233.398,-62.988,-52.246,119073.915,334
451,1686017309.498,-29.785,-340.332,-136.23,-46.387,119073.919,334
452,1686017309.502,-24.902,-806.641,-284.18,-21.973,119073.923,334
453,1686017309.506,-20.996,-237.305,67.871,-28.809,119073.927,332
454,1686017309.51,-21.973,227.051,111.328,-58.594,119073.931,332
455,1686017309.514,-19.043,-223.633,-81.055,-54.688,119073.934,332
456,1686017309.515,-8.301,17.09,79.102,-24.414,119073.937,332
457,1686017309.519,-11.719,372.559,171.387,-27.344,119073.941,332
458,1686017309.523,-21.973,85.938,-15.625,-52.734,119073.945,330
459,1686017309.527,-27.344,-612.793,-307.129,-50.781,119073.948,330
460,1686017309.531,-21.484,-464.355,-113.77,-26.367,119073.952,330
461,1686017309.535,-20.508,47.363,130.371,-13.672,119073.956,330
462,1686017309.539,-28.32,-21.484,48.34,-31.738,119073.96,330
463,1686017309.542,-33.691,-522.461,-211.426,-50.781,119073.964,330
464,1686017309.546,-34.18,-526.855,-119.629,-31.738,119073.968,327
465,1686017309.55,-27.344,118.164,159.668,-20.508,119073.972,327
466,1686017309.554,-14.16,85.938,31.738,-36.133,119073.976,327
467,1686017309.558,-19.531,-187.012,-27.344,-49.316,119073.98,327
468,1686017309.561,-31.25,9.277,98.633,-35.156,119073.982,325
469,1686017309.565,-23.926,436.523,202.148,-12.207,119073.986,325
470,1686017309.569,-20.508,242.188,53.711,-25.879,119073.99,325
471,1686017309.573,-25.391,-3.418,-50.781,-56.641,119073.994,322
472,1686017309.577,-18.066,116.699,50.781,-48.34,119073.998,322
473,1686017309.581,-9.766,77.637,79.59,-21.973,119074.002,322
474,1686017309.585,-17.578,-233.398,-86.914,-27.344,119074.006,322
475,1686017309.588,-26.855,-598.633,-265.625,-42.969,119074.01,322
476,1686017309.592,-33.691,-125.488,20.02,-47.852,119074.014,320
477,1686017309.596,-22.461,368.164,184.57,-29.785,119074.018,320
478,1686017309.6,-10.254,191.895,86.426,-13.184,119074.021,320
479,1686017309.604,-14.16,-51.758,-35.156,-34.668,119074.025,320
480,1686017309.607,-27.832,-77.148,-10.742,-50.293,119074.03,320
481,1686017309.611,-32.715,272.461,129.883,-40.527,119074.034,320
482,1686017309.615,-16.113,-272.949,-144.531,-17.578,119074.038,319
483,1686017309.619,-11.23,-703.613,-240.234,-26.367,119074.042,319
484,1686017309.623,-28.809,-3.418,40.527,-64.453,119074.046,319
485,1686017309.627,-33.691,58.105,54.199,-61.035,119074.05,319
486,1686017309.631,-26.367,-571.289,-187.5,-36.621,119074.054,318
487,1686017309.634,-22.949,-664.551,-178.711,-38.574,119074.057,318
488,1686017309.638,-30.762,153.32,147.949,-60.059,119074.061,318
489,1686017309.642,-31.738,141.602,27.344,-47.363,119074.065,318
490,1686017309.646,-23.438,43.457,62.012,-19.531,119074.069,315
491,1686017309.65,-22.949,315.43,162.598,-25.879,119074.073,315
492,1686017309.653,-35.156,382.324,103.027,-57.129,119074.085,315
493,1686017309.657,-38.574,41.016,-49.805,-55.176,119074.089,312
494,1686017309.661,-32.227,-293.457,-106.445,-28.809,119074.093,312
495,1686017309.665,-32.227,66.406,107.422,-20.996,119074.097,312
496,1686017309.669,-25.391,318.848,103.027,-36.133,119074.101,312
497,1686017309.673,-38.086,-217.773,-247.07,-58.105,119074.105,310
498,1686017309.677,-45.41,-902.832,-435.059,-42.969,119074.109,310
499,1686017309.68,-37.598,-362.793,23.438,-23.438,119074.112,310
500,1686017309.684,-37.109,346.68,206.055,-32.715,119074.116,310
501,1686017309.688,-40.527,-22.461,-45.898,-49.805,119074.12,310
502,1686017309.692,-45.41,-85.449,12.695,-50.781,119074.124,310
503,1686017309.696,-36.621,310.547,171.875,-28.809,119074.128,310
504,1686017309.711,-25.391,360.352,117.188,-28.32,119074.135,309
505,1686017309.715,-29.785,69.336,-39.551,-43.457,119074.139,306
506,1686017309.719,-30.273,-231.934,-151.367,-40.527,119074.142,306
507,1686017309.723,-25.391,-107.91,-39.062,-26.367,119074.146,306
508,1686017309.727,-24.414,261.23,159.18,-20.996,119074.15,303
509,1686017309.731,-21.973,-336.914,-194.336,-29.297,119074.154,303
510,1686017309.735,-26.855,-1000.0,-444.824,-43.945,119074.158,303
511,1686017309.738,-24.902,-338.867,65.43,-44.922,119074.162,300
512,1686017309.742,-15.137,238.77,187.988,-29.297,119074.166,300
513,1686017309.746,-27.344,-118.652,-61.035,-42.969,119074.17,300
514,1686017309.75,-35.156,-97.168,9.766,-64.453,119074.174,300
515,1686017309.754,-27.344,314.453,151.367,-47.363,119074.178,298
516,1686017309.771,-21.484,253.906,89.355,-20.508,119074.193,297
517,1686017309.775,-25.879,57.129,-15.625,-32.227,119074.197,297
518,1686017309.779,-34.668,116.699,40.039,-52.246,119074.201,297
519,1686017309.783,-30.273,243.164,109.375,-42.48,119074.205,295
520,1686017309.787,-20.508,158.691,34.18,-20.996,119074.209,295
521,1686017309.791,-24.902,-231.934,-181.152,-24.902,119074.213,295
522,1686017309.795,-29.785,-208.984,-109.375,-53.223,119074.217,291
523,1686017309.798,-35.156,-47.852,7.812,-64.941,119074.221,291
524,1686017309.801,-29.785,-53.711,-3.418,-30.762,119074.222,291
525,1686017309.802,-40.527,-333.008,-162.109,-41.504,119074.225,291
526,1686017309.805,-18.066,146.973,95.703,-8.301,119074.226,291
527,1686017309.806,-41.016,-810.547,-301.27,-20.508,119074.229,291
528,1686017309.809,-17.578,143.066,75.195,-26.367,119074.229,286
529,1686017309.81,-40.039,-259.766,40.039,-38.086,119074.232,286
530,1686017309.813,-30.273,-132.812,-59.082,-49.316,119074.233,286
531,1686017309.814,-36.133,231.934,126.465,-55.176,119074.236,286
532,1686017309.817,-25.879,-488.281,-197.754,-35.156,119074.237,286
533,1686017309.821,-16.602,-566.406,-105.469,-9.277,119074.241,286
534,1686017309.825,-3.906,40.527,154.297,-1.953,119074.245,283
535,1686017309.828,-14.16,164.551,79.59,-28.32,119074.249,283
536,1686017309.832,-43.945,-141.602,-59.57,-54.199,119074.253,283
537,1686017309.836,-34.18,6.836,35.645,-35.645,119074.257,281
538,1686017309.84,-21.973,142.09,102.539,-28.32,119074.261,281
539,1686017309.844,-43.457,129.395,48.828,-51.758,119074.265,281
540,1686017309.845,-56.152,-589.844,-316.895,-54.199,119074.267,281
541,1686017309.849,-46.875,-732.422,-198.73,-29.785,119074.271,278
542,1686017309.853,-42.969,270.996,258.301,-37.109,119074.274,278
543,1686017309.857,-41.992,206.055,71.289,-51.27,119074.278,278
544,1686017309.861,-47.363,-101.562,-96.191,-54.199,119074.282,278
545,1686017309.865,-43.945,-120.117,6.348,-39.551,119074.286,275
546,1686017309.869,-30.762,90.82,149.902,-18.555,119074.29,275
547,1686017309.872,-28.809,-2.93,-42.48,-26.855,119074.294,275
548,1686017309.876,-38.086,-581.543,-275.879,-44.434,119074.298,272
549,1686017309.88,-35.645,-56.641,82.52,-39.062,119074.302,272
550,1686017309.884,-30.762,438.477,204.102,-22.949,119074.306,272
551,1686017309.888,-22.461,158.691,34.668,-25.879,119074.31,272
552,1686017309.891,-27.832,-139.648,-71.777,-49.316,119074.316,269
553,1686017309.895,-38.086,-58.594,6.836,-53.711,119074.32,269
554,1686017309.899,-19.043,125.488,113.77,-12.695,119074.324,269
555,1686017309.903,-17.09,-437.988,-167.969,-3.906,119074.328,269
556,1686017309.907,-28.32,-778.32,-263.672,-29.297,119074.332,268
557,1686017309.911,-27.344,-300.781,7.324,-28.32,119074.335,268
558,1686017309.915,-20.02,0.488,81.543,-2.93,119074.339,268
559,1686017309.918,-17.578,-420.898,-111.816,6.348,119074.343,268
560,1686017309.922,-22.949,-476.562,-63.477,-13.184,119074.347,268
561,1686017309.926,-24.414,238.77,153.809,-26.367,119074.351,268
562,1686017309.93,-26.367,147.461,31.25,-12.695,119074.355,268
563,1686017309.934,-26.855,101.562,86.914,5.859,119074.359,269
564,1686017309.936,-27.832,319.336,158.691,-5.859,119074.366,269
565,1686017309.94,-35.156,334.961,96.191,-31.738,119074.37,269
566,1686017309.944,-22.461,33.691,-34.18,-25.879,119074.374,269
567,1686017309.948,-9.277,-221.68,-55.176,0.0,119074.378,269
568,1686017309.952,-28.32,88.867,70.801,-5.859,119074.382,269
569,1686017309.956,-38.086,61.523,-62.988,-35.645,119074.386,269
570,1686017309.96,-30.273,-327.637,-285.156,-37.109,119074.39,268
571,1686017309.963,-18.066,-822.266,-366.699,-13.672,119074.394,268
572,1686017309.967,-14.648,-286.621,38.574,-9.277,119074.397,268
573,1686017309.971,-26.855,419.922,196.777,-37.109,119074.401,268
574,1686017309.975,-38.574,15.625,-17.09,-50.781,119074.405,269
575,1686017309.979,-36.133,3.418,32.715,-24.902,119074.409,269
576,1686017309.981,-32.227,361.328,161.133,-10.742,119074.402,269
577,1686017309.985,-36.621,409.668,112.793,-35.645,119074.406,269
578,1686017309.989,-46.387,-133.789,-130.371,-53.223,119074.409,271
579,1686017309.993,-43.457,-244.141,-72.266,-49.316,119074.413,271
580,1686017309.997,-30.273,287.109,132.324,-31.25,119074.417,271
581,1686017310.001,-29.297,132.812,1.953,-25.391,119074.421,274
582,1686017310.005,-33.691,-523.438,-302.734,-36.133,119074.425,274
583,1686017310.008,-35.645,-1000.0,-441.406,-27.344,119074.429,274
584,1686017310.012,-29.785,-235.84,50.781,-5.859,119074.433,274
585,1686017310.016,-29.785,367.676,174.805,-7.812,119074.437,277
586,1686017310.02,-41.504,11.719,-4.395,-36.621,119074.441,277
587,1686017310.024,-43.945,125.0,90.332,-36.133,119074.445,277
588,1686017310.027,-32.715,392.09,166.504,-7.812,119074.46,277
589,1686017310.031,-27.344,296.875,67.871,-7.324,119074.464,279
590,1686017310.035,-33.203,18.066,-81.055,-33.203,119074.468,279
591,1686017310.039,-48.828,76.172,14.648,-51.758,119074.472,279
592,1686017310.043,-57.129,268.555,93.262,-41.992,119074.476,279
593,1686017310.047,-46.875,-28.809,-70.801,-23.926,119074.48,279
594,1686017310.051,-49.805,-614.746,-253.906,-37.109,119074.483,279
595,1686017310.054,-58.594,-225.098,-27.832,-62.5,119074.487,279
596,1686017310.058,-48.828,92.285,72.754,-50.781,119074.491,281
597,1686017310.062,-40.039,-332.031,-130.371,-28.32,119074.495,281
598,1686017310.066,-34.18,-300.781,-114.258,-32.227,119074.499,281
599,1686017310.07,-38.086,176.758,102.539,-55.664,119074.503,284
600,1686017310.086,-48.828,175.293,56.152,-60.059,119074.506,287
601,1686017310.09,-42.48,-0.977,2.441,-26.855,119074.51,287
602,1686017310.094,-37.109,-131.348,-5.371,-15.137,119074.514,287
603,1686017310.098,-46.387,-83.984,19.043,-43.457,119074.518,288
604,1686017310.102,-37.598,175.293,77.637,-36.621,119074.522,288
605,1686017310.106,-26.367,-439.453,-240.234,-5.371,119074.526,288
606,1686017310.11,-26.367,-795.41,-221.191,-5.859,119074.53,287
607,1686017310.113,-29.297,72.754,193.848,-32.227,119074.534,287
608,1686017310.117,-34.668,157.227,39.551,-38.086,119074.538,287
609,1686017310.118,-32.227,14.648,20.508,-35.645,119074.551,287
610,1686017310.121,-27.832,-118.164,16.602,-21.484,119074.542,287
611,1686017310.122,-26.855,-402.832,-162.598,-23.438,119074.555,287
612,1686017310.125,-21.973,79.59,121.582,-8.789,119074.546,287
613,1686017310.126,-15.137,-102.539,43.945,-5.371,119074.559,286
614,1686017310.129,-28.32,147.949,107.422,-19.531,119074.549,286
615,1686017310.13,-9.766,410.645,202.148,-12.207,119074.563,286
616,1686017310.134,-19.531,64.453,-4.883,-41.992,119074.567,286
617,1686017310.138,-33.691,-347.168,-196.289,-52.734,119074.571,286
618,1686017310.142,-31.25,-216.309,0.0,-33.203,119074.575,286
619,1686017310.145,-22.461,271.484,202.637,-32.715,119074.578,286
620,1686017310.149,-25.879,-82.031,-125.0,-54.199,119074.582,286
621,1686017310.153,-35.645,-686.523,-307.129,-57.617,119074.586,287
622,1686017310.157,-30.762,-7.324,126.953,-33.203,119074.59,287
623,1686017310.161,-20.996,434.082,200.684,-17.578,119074.594,287
624,1686017310.176,-25.879,78.125,-2.93,-38.574,119074.6,290
625,1686017310.18,-28.809,-171.875,-72.754,-57.129,119074.604,291
626,1686017310.184,-24.902,-169.434,-10.742,-39.062,119074.608,291
627,1686017310.188,-19.043,-33.203,104.492,-11.719,119074.612,291
628,1686017310.192,-15.625,-391.113,-149.902,-12.695,119074.616,291
629,1686017310.196,-29.297,-956.055,-391.602,-38.574,119074.619,291
630,1686017310.2,-25.879,-357.91,27.832,-47.363,119074.623,291
631,1686017310.203,-9.277,309.57,192.383,-26.367,119074.627,291
632,1686017310.207,-22.461,-184.57,-38.574,-27.344,119074.631,291
633,1686017310.211,-37.598,-281.738,21.973,-49.316,119074.635,291
634,1686017310.215,-32.715,261.23,145.02,-47.852,119074.639,291
635,1686017310.219,-27.344,211.914,74.219,-24.902,119074.643,291
636,1686017310.221,-25.879,141.602,95.703,-20.508,119074.655,293
637,1686017310.225,-32.227,226.074,85.938,-42.969,119074.659,293
638,1686017310.229,-29.785,275.879,77.148,-43.457,119074.663,293
639,1686017310.233,-25.879,116.699,21.973,-17.578,119074.667,295
640,1686017310.237,-23.438,-134.766,-67.871,-6.836,119074.671,295
641,1686017310.241,-24.414,-197.754,-45.898,-26.367,119074.675,295
642,1686017310.245,-25.391,-35.156,37.109,-50.293,119074.679,295
643,1686017310.248,-19.531,-69.336,-61.035,-35.156,119074.683,295
644,1686017310.252,-12.207,-756.348,-320.312,-4.395,119074.687,298
645,1686017310.256,-23.926,-279.785,37.598,-20.02,119074.69,298
646,1686017310.26,-36.621,341.309,154.785,-60.059,119074.694,298
647,1686017310.264,-38.574,-38.574,-30.762,-57.129,119074.698,300
648,1686017310.266,-33.203,83.496,72.266,-27.344,119074.686,300
649,1686017310.27,-28.32,403.32,165.039,-24.414,119074.69,300
650,1686017310.274,-39.551,113.281,-27.832,-36.621,119074.694,300
651,1686017310.278,-41.992,-590.332,-306.152,-40.039,119074.698,300
652,1686017310.282,-26.367,-489.746,-121.582,-19.531,119074.702,300
653,1686017310.286,-20.508,38.086,92.285,1.953,119074.706,300
654,1686017310.29,-26.855,-74.219,-18.066,-13.672,119074.71,300
655,1686017310.293,-32.227,-562.012,-182.617,-36.621,119074.714,300
656,1686017310.297,-28.809,-411.133,-28.32,-18.066,119074.718,300
657,1686017310.301,-19.043,414.551,237.793,1.953,119074.721,300
658,1686017310.305,-23.926,308.105,60.547,-16.602,119074.725,300
659,1686017310.309,-36.621,-449.707,-192.383,-37.598,119074.729,300
660,1686017310.311,-34.668,-253.906,20.996,-27.832,119074.745,300
661,1686017310.315,-27.344,442.383,210.938,-8.789,119074.749,300
662,1686017310.319,-31.738,223.145,34.668,-25.879,119074.753,302
663,1686017310.323,-37.109,-65.43,-76.66,-50.781,119074.757,302
664,1686017310.327,-30.273,60.059,-3.418,-38.086,119074.761,302
665,1686017310.331,-29.297,63.477,70.801,-16.602,119074.765,304
666,1686017310.335,-31.738,-250.488,-104.98,-18.555,119074.769,304
667,1686017310.338,-35.645,-652.344,-286.133,-38.574,119074.773,304
668,1686017310.342,-47.852,-195.801,9.277,-45.898,119074.776,304
669,1686017310.346,-35.156,131.836,110.352,-23.438,119074.78,304
670,1686017310.35,-19.043,-345.215,-112.793,-14.16,119074.784,304
671,1686017310.354,-28.32,-394.531,-140.137,-47.363,119074.788,304
672,1686017310.355,-36.621,146.484,112.793,-73.242,119074.79,304
673,1686017310.359,-21.973,283.203,128.906,-41.992,119074.794,304
674,1686017310.363,-13.672,-71.777,-18.555,-16.113,119074.798,303
675,1686017310.367,-26.855,-128.906,19.531,-36.133,119074.802,303
676,1686017310.371,-34.18,117.188,50.293,-52.246,119074.806,303
677,1686017310.375,-37.109,-50.293,-54.199,-42.969,119074.81,304
678,1686017310.379,-31.738,-605.469,-244.141,-22.461,119074.813,304
679,1686017310.382,-30.273,-737.305,-215.82,-28.809,119074.817,304
680,1686017310.386,-31.25,79.102,153.809,-58.105,119074.821,305
681,1686017310.39,-35.645,157.715,56.641,-57.617,119074.825,305
682,1686017310.394,-32.715,-53.711,44.922,-28.809,119074.829,305
683,1686017310.398,-28.32,84.473,98.633,-20.02,119074.833,305
684,1686017310.403,-30.273,72.754,62.012,-42.969,119074.828,307
685,1686017310.407,-31.25,-57.129,-0.977,-51.27,119074.832,307
686,1686017310.411,-31.738,-248.535,-7.812,-33.203,119074.836,307
687,1686017310.415,-16.113,101.562,153.809,-14.16,119074.84,309
688,1686017310.419,-18.555,336.426,125.0,-35.156,119074.844,309
689,1686017310.423,-35.645,-238.77,-195.312,-58.105,119074.848,309
690,1686017310.427,-24.902,-564.941,-221.191,-30.273,119074.852,309
691,1686017310.43,-14.16,105.957,183.105,-13.184,119074.856,309
692,1686017310.434,-20.02,426.758,154.297,-30.273,119074.86,309
693,1686017310.438,-28.32,-104.004,-69.336,-57.129,119074.863,309
694,1686017310.442,-20.996,-212.402,-30.273,-46.387,119074.867,309
695,1686017310.446,-12.207,298.34,156.738,-16.602,119074.871,309
696,1686017310.46,-15.625,355.957,104.004,-21.973,119074.882,309
697,1686017310.464,-20.996,-46.875,-88.867,-45.41,119074.886,309
698,1686017310.468,-23.926,-309.082,-144.043,-41.016,119074.889,309
699,1686017310.472,-17.578,-227.539,-26.855,-15.137,119074.893,311
700,1686017310.476,-16.602,-95.703,57.129,-15.625,119074.897,311
701,1686017310.48,-20.02,-474.121,-209.473,-35.156,119074.901,311
702,1686017310.484,-26.855,-1000.0,-488.77,-38.086,119074.905,314
703,1686017310.487,-31.25,-380.859,16.113,-25.879,119074.909,314
704,1686017310.491,-21.484,330.078,202.148,-14.648,119074.913,314
705,1686017310.495,-23.438,107.422,36.133,-32.715,119074.917,315
706,1686017310.499,-33.691,155.273,104.98,-53.223,119074.921,315
707,1686017310.503,-23.926,307.617,118.164,-29.297,119074.925,315
708,1686017310.505,-11.719,215.332,68.359,-1.465,119074.927,315
709,1686017310.509,-23.438,61.523,13.184,-20.996,119074.931,315
710,1686017310.513,-37.109,126.465,39.062,-49.316,119074.935,314
711,1686017310.517,-28.32,222.656,55.176,-29.297,119074.938,314
712,1686017310.521,-8.789,56.152,31.738,-1.953,119074.942,314
713,1686017310.525,-11.23,-230.957,-124.023,-12.207,119074.946,314
714,1686017310.529,-23.438,-337.891,-221.68,-41.992,119074.95,314
715,1686017310.532,-22.461,-126.953,-17.09,-44.434,119074.954,314
716,1686017310.536,-20.02,-148.438,-55.664,-20.996,119074.958,314
717,1686017310.54,-25.391,-807.617,-326.66,-13.184,119074.962,314
718,1686017310.544,-29.297,-322.266,32.227,-25.879,119074.966,314
719,1686017310.548,-36.621,218.75,140.137,-42.48,119074.97,314
720,1686017310.566,-35.645,-45.898,8.789,-30.762,119074.987,317
721,1686017310.57,-27.832,66.895,67.383,-6.836,119074.991,317
722,1686017310.574,-31.25,27.344,14.648,-23.438,119074.995,317
723,1686017310.578,-34.668,-166.504,-62.5,-47.852,119074.998,317
724,1686017310.582,-33.691,-529.785,-204.102,-25.391,119075.002,317
725,1686017310.586,-34.18,-638.672,-130.859,-7.324,119075.006,317
726,1686017310.59,-37.109,-114.746,117.188,-19.043,119075.01,317
727,1686017310.593,-41.992,44.922,78.613,-35.645,119075.014,316
728,1686017310.596,-52.246,-115.234,-28.32,-43.457,119075.017,316
729,1686017310.597,-38.574,-580.078,-236.328,-28.809,119075.018,316
730,1686017310.6,-51.27,199.219,133.301,-34.18,119075.021,316
731,1686017310.601,-31.738,-707.031,-185.547,-6.836,119075.022,316
732,1686017310.604,-43.457,446.289,178.223,-23.926,119075.025,316
733,1686017310.605,-29.785,286.621,251.465,-14.648,119075.026,316
734,1686017310.608,-43.457,148.926,0.0,-41.016,119075.029,316
735,1686017310.609,-36.621,241.211,83.008,-33.691,119075.03,316
736,1686017310.612,-41.992,-211.914,-163.086,-59.57,119075.033,316
737,1686017310.616,-33.691,-161.133,-38.086,-41.504,119075.037,316
738,1686017310.62,-24.414,-42.48,62.5,-21.973,119075.041,316
739,1686017310.623,-26.367,-223.633,-83.008,-31.738,119075.045,317
740,1686017310.627,-41.504,-298.34,-135.742,-50.293,119075.049,317
741,1686017310.631,-44.434,76.66,60.547,-38.086,119075.053,317
742,1686017310.635,-27.832,161.133,109.375,-11.719,119075.056,319
743,1686017310.639,-22.949,-335.449,-153.32,-9.766,119075.06,319
744,1686017310.641,-34.668,-918.457,-372.07,-28.809,119075.075,319
745,1686017310.645,-35.156,-294.434,42.48,-32.715,119075.079,319
746,1686017310.649,-27.832,135.742,172.363,-16.602,119075.083,320
747,1686017310.653,-20.996,-466.309,-114.258,-7.324,119075.087,320
748,1686017310.657,-22.949,-490.723,-97.656,-20.508,119075.091,320
749,1686017310.661,-36.133,-152.832,27.832,-40.527,119075.094,320
750,1686017310.665,-28.809,-29.297,90.332,-22.949,119075.098,319
751,1686017310.668,-21.484,-446.289,-112.305,-1.953,119075.102,319
752,1686017310.672,-26.367,-693.359,-181.641,-20.02,119075.106,319
753,1686017310.676,-30.762,163.086,169.434,-43.457,119075.11,319
754,1686017310.68,-26.367,245.117,102.051,-25.879,119075.114,319
755,1686017310.684,-22.949,134.277,81.055,-5.371,119075.118,319
756,1686017310.702,-27.832,155.762,64.453,-20.508,119075.128,318
757,1686017310.706,-36.133,84.473,51.758,-35.645,119075.132,318
758,1686017310.71,-36.133,-18.555,-13.184,-23.438,119075.136,318
759,1686017310.714,-26.367,-91.309,-13.184,-2.441,119075.14,318
760,1686017310.718,-26.855,127.93,86.914,-11.23,119075.144,320
761,1686017310.722,-37.109,-102.539,-123.535,-47.852,119075.147,320
762,1686017310.726,-33.203,-344.238,-225.098,-47.852,119075.151,320
763,1686017310.729,-20.02,-801.27,-320.312,-9.766,119075.155,321
764,1686017310.73,-28.809,399.414,191.406,-0.977,119075.166,321
765,1686017310.733,-18.555,-309.082,29.785,-10.742,119075.159,321
766,1686017310.734,-35.156,412.598,96.191,-23.438,119075.17,321
767,1686017310.737,-28.809,392.578,181.152,-39.062,119075.163,321
768,1686017310.738,-47.363,-186.523,-142.578,-46.387,119075.173,321
769,1686017310.741,-38.086,-98.145,-59.57,-44.922,119075.167,321
770,1686017310.742,-34.668,-493.164,-157.227,-25.391,119075.177,321
771,1686017310.745,-36.133,-98.633,39.551,-21.973,119075.171,320
772,1686017310.746,-18.555,38.574,84.473,-11.23,119075.181,320
773,1686017310.75,-30.762,41.992,16.602,-27.344,119075.185,320
774,1686017310.754,-41.504,-371.582,-161.621,-47.363,119075.189,320
775,1686017310.757,-40.527,-168.457,-13.184,-45.898,119075.193,319
776,1686017310.761,-36.133,236.328,132.324,-23.438,119075.197,319
777,1686017310.765,-34.668,348.145,99.609,-20.508,119075.201,319
778,1686017310.769,-39.062,-444.336,-297.852,-34.668,119075.205,319
779,1686017310.773,-40.039,-945.312,-404.297,-35.645,119075.209,318
780,1686017310.777,-25.391,-63.477,104.004,-13.672,119075.199,318
781,1686017310.781,-26.367,233.887,132.812,-17.578,119075.203,318
782,1686017310.785,-41.504,11.719,19.531,-52.246,119075.207,318
783,1686017310.789,-45.898,154.785,89.355,-61.035,119075.21,319
784,1686017310.793,-40.527,305.664,130.371,-32.715,119075.214,319
785,1686017310.797,-35.645,-18.555,-30.762,-15.137,119075.218,319
786,1686017310.801,-44.434,-598.633,-257.324,-39.062,119075.222,321
787,1686017310.804,-53.223,-339.355,-56.641,-58.105,119075.226,321
788,1686017310.808,-48.34,300.293,185.059,-37.598,119075.23,321
789,1686017310.812,-29.297,-12.207,-64.941,-6.348,119075.234,321
790,1686017310.816,-24.414,-475.098,-208.984,-14.648,119075.238,321
791,1686017310.82,-34.18,62.988,84.961,-41.016,119075.242,321
792,1686017310.836,-33.691,253.418,86.914,-31.738,119075.257,320
793,1686017310.84,-25.391,41.016,19.043,-8.789,119075.261,319
794,1686017310.844,-26.367,-179.199,-65.918,-5.371,119075.264,319
795,1686017310.848,-40.527,-126.953,-36.133,-33.203,119075.268,319
796,1686017310.852,-40.527,224.121,93.75,-45.41,119075.272,319
797,1686017310.856,-32.715,-363.77,-202.148,-20.508,119075.276,319
798,1686017310.86,-31.738,-952.148,-331.055,-11.719,119075.28,319
799,1686017310.863,-24.414,-131.348,60.547,-35.156,119075.284,319
800,1686017310.867,-26.367,65.43,54.688,-54.199,119075.288,321
801,1686017310.871,-28.32,-349.121,-92.773,-32.715,119075.292,321
802,1686017310.875,-22.461,46.875,82.52,-6.348,119075.296,321
803,1686017310.879,-27.344,463.867,192.871,-20.508,119075.3,321
804,1686017310.881,-40.527,72.266,-27.344,-39.062,119075.303,322
805,1686017310.885,-43.457,-173.34,-53.223,-36.621,119075.306,322
806,1686017310.889,-26.855,175.293,127.441,-9.766,119075.31,322
807,1686017310.893,-22.461,344.727,139.648,-7.812,119075.314,322
808,1686017310.897,-34.18,30.273,-83.008,-38.574,119075.318,321
809,1686017310.901,-32.715,-468.75,-316.895,-35.156,119075.322,321
810,1686017310.905,-16.602,-229.492,-59.57,-15.625,119075.326,321
811,1686017310.908,-10.254,365.723,196.289,-18.066,119075.33,320
812,1686017310.912,-28.32,-117.676,-164.551,-42.48,119075.334,320
813,1686017310.916,-42.48,-733.398,-368.652,-52.734,119075.338,320
814,1686017310.92,-33.691,-116.211,60.059,-30.762,119075.342,320
815,1686017310.924,-25.879,115.234,123.047,-22.949,119075.346,320
816,1686017310.926,-33.203,-418.945,-144.043,-40.039,119075.346,319
817,1686017310.93,-34.668,-451.172,-121.094,-42.969,119075.35,319
818,1686017310.934,-28.809,-151.855,59.57,-29.785,119075.354,319
819,1686017310.938,-32.227,30.273,125.0,-24.414,119075.358,319
820,1686017310.942,-36.621,-287.109,-83.496,-29.785,119075.362,319
821,1686017310.946,-37.598,-758.789,-234.863,-42.969,119075.366,319
822,1686017310.95,-31.25,-159.18,95.215,-39.551,119075.37,320
823,1686017310.953,-32.715,352.539,193.848,-22.949,119075.374,320
824,1686017310.957,-40.527,-377.93,-187.5,-17.578,119075.378,320
825,1686017310.961,-48.34,-738.77,-229.98,-41.992,119075.382,320
826,1686017310.965,-43.457,142.578,170.898,-58.594,119075.386,320
827,1686017310.969,-29.785,203.613,79.102,-32.715,119075.389,322
828,1686017311.001,-24.902,50.293,20.996,-20.02,119075.423,320
829,1686017311.005,-28.809,27.832,19.531,-40.527,119075.427,320
830,1686017311.009,-41.992,-2.441,29.785,-56.641,119075.43,319
831,1686017311.013,-33.691,53.711,45.41,-33.203,119075.434,319
832,1686017311.016,-35.645,15.137,80.566,-30.273,119075.437,319
833,1686017311.017,-26.855,-273.438,-47.852,-12.207,119075.438,319
834,1686017311.02,-29.297,363.281,170.41,-24.414,119075.441,320
835,1686017311.021,-34.668,-328.125,-15.137,-38.086,119075.442,320
836,1686017311.024,-32.227,146.973,-14.16,-50.293,119075.445,320
837,1686017311.025,-39.551,-208.496,-48.828,-63.965,119075.446,320
838,1686017311.028,-33.691,-324.219,-126.465,-43.945,119075.45,320
839,1686017311.028,-30.762,-593.75,-330.566,-48.34,119075.449,320
840,1686017311.032,-30.762,-557.129,-103.516,-25.391,119075.454,321
841,1686017311.032,-23.926,-701.172,-170.41,-20.996,119075.453,321
842,1686017311.036,-35.156,-11.23,164.551,-44.434,119075.458,321
843,1686017311.036,-20.996,-143.555,103.516,-21.484,119075.457,321
844,1686017311.04,-47.363,295.898,75.195,-72.266,119075.462,321
845,1686017311.04,-26.367,-146.484,-5.859,-40.527,119075.46,321
846,1686017311.043,-33.203,-338.867,-114.746,-52.734,119075.464,321
847,1686017311.044,-51.758,-92.285,-33.691,-65.43,119075.466,321
848,1686017311.047,-26.855,-83.496,50.293,-34.668,119075.468,321
849,1686017311.051,-18.066,388.672,217.285,-15.137,119075.472,321
850,1686017311.055,-20.508,318.359,80.078,-31.738,119075.476,321
851,1686017311.059,-23.926,-144.043,-89.355,-44.434,119075.48,321
852,1686017311.061,-22.461,-40.527,12.695,-27.832,119075.496,320
853,1686017311.065,-18.555,320.312,160.645,-7.812,119075.5,320
854,1686017311.069,-16.113,209.961,36.621,-15.137,119075.503,320
855,1686017311.073,-15.625,-594.727,-302.246,-24.902,119075.507,317
856,1686017311.077,-17.09,-502.441,-111.816,-23.926,119075.511,317
857,1686017311.081,-15.137,42.48,123.535,-12.695,119075.515,317
858,1686017311.085,-18.066,-292.969,-73.242,-15.137,119075.519,317
859,1686017311.088,-20.02,-880.371,-362.793,-34.18,119075.523,317
860,1686017311.092,-19.531,-448.242,-37.109,-39.062,119075.527,314
861,1686017311.096,-14.648,348.633,239.258,-14.16,119075.531,314
862,1686017311.1,-18.555,128.418,44.922,-5.859,119075.535,314
863,1686017311.104,-27.344,-31.738,18.066,-31.738,119075.539,313
864,1686017311.105,-25.391,206.543,107.422,-47.363,119075.527,313
865,1686017311.109,-23.926,321.289,109.375,-35.156,119075.531,313
866,1686017311.113,-16.113,-39.551,-32.715,-12.207,119075.535,313
867,1686017311.117,-13.184,-220.215,-56.641,-25.879,119075.538,313
868,1686017311.121,-24.902,30.273,18.066,-44.434,119075.542,313
869,1686017311.125,-28.32,-26.367,12.207,-35.156,119075.546,313
870,1686017311.129,-24.414,-558.105,-197.266,-15.137,119075.55,313
871,1686017311.132,-34.18,-688.477,-190.43,-15.625,119075.554,312
872,1686017311.136,-40.039,115.723,134.766,-45.898,119075.558,312
873,1686017311.14,-32.715,174.316,54.688,-45.41,119075.562,312
874,1686017311.144,-22.949,-526.367,-166.016,-10.742,119075.566,311
875,1686017311.148,-21.973,-378.906,-29.297,-6.836,119075.57,311
876,1686017311.153,-34.18,340.332,190.43,-40.039,119075.577,311
877,1686017311.157,-45.898,95.703,8.789,-55.664,119075.581,311
878,1686017311.161,-46.387,-27.832,-9.277,-32.227,119075.585,309
879,1686017311.165,-38.086,346.68,149.902,-13.672,119075.589,309
880,1686017311.169,-43.945,411.621,102.539,-35.645,119075.593,309
881,1686017311.173,-45.898,-147.949,-233.887,-47.852,119075.596,309
882,1686017311.177,-35.156,-720.703,-344.238,-24.902,119075.6,309
883,1686017311.18,-26.855,-118.652,75.195,-11.23,119075.604,309
884,1686017311.184,-32.715,402.344,171.387,-31.738,119075.608,311
885,1686017311.188,-41.504,-7.324,-59.57,-48.34,119075.612,311
886,1686017311.192,-33.691,-120.605,-53.223,-35.645,119075.616,311
887,1686017311.196,-23.926,122.559,104.98,-14.16,119075.62,311
888,1686017311.196,-14.648,21.484,20.996,-9.766,119075.631,311
889,1686017311.2,-18.555,-368.164,-150.391,-30.273,119075.635,312
890,1686017311.204,-35.156,-525.391,-88.867,-43.945,119075.638,312
891,1686017311.208,-31.25,-108.398,75.195,-26.855,119075.642,312
892,1686017311.212,-24.414,282.227,123.535,-18.066,119075.646,313
893,1686017311.216,-29.785,-315.43,-195.801,-35.156,119075.65,313
894,1686017311.22,-28.809,-1000.0,-478.027,-38.574,119075.654,313
895,1686017311.223,-23.926,-381.836,0.488,-30.762,119075.658,313
896,1686017311.227,-20.996,327.148,188.965,-22.949,119075.662,312
897,1686017311.231,-30.273,56.641,36.621,-40.527,119075.666,312
898,1686017311.235,-41.504,104.98,107.422,-62.988,119075.67,312
899,1686017311.239,-41.504,344.238,126.953,-49.805,119075.674,312
900,1686017311.255,-25.879,256.836,45.898,-18.066,119075.677,312
901,1686017311.259,-28.32,77.637,6.836,-31.25,119075.681,312
902,1686017311.263,-40.039,-68.359,-65.43,-54.199,119075.685,312
903,1686017311.267,-29.297,-74.219,-55.664,-38.086,119075.689,312
904,1686017311.271,-21.973,37.598,13.184,-23.438,119075.693,314
905,1686017311.275,-20.996,-478.027,-191.406,-25.391,119075.697,314
906,1686017311.279,-27.832,-390.625,-65.43,-50.781,119075.701,314
907,1686017311.282,-25.879,184.57,115.234,-50.781,119075.705,315
908,1686017311.286,-9.766,-52.734,-55.176,-20.508,119075.708,315
909,1686017311.29,-9.277,-411.621,-140.625,-14.16,119075.712,315
910,1686017311.294,-17.09,117.676,129.883,-42.969,119075.716,315
911,1686017311.298,-27.344,223.145,58.105,-54.199,119075.72,315
912,1686017311.3,-22.949,-72.754,-47.852,-32.715,119075.722,315
913,1686017311.304,-15.625,95.703,69.336,-22.949,119075.726,315
914,1686017311.308,-15.137,86.426,47.363,-33.691,119075.73,315
915,1686017311.312,-26.367,-170.898,-154.297,-55.176,119075.733,314
916,1686017311.316,-39.062,-521.484,-286.133,-41.016,119075.737,314
917,1686017311.32,-29.297,-606.934,-144.531,-13.672,119075.741,314
918,1686017311.324,-22.949,-180.176,34.668,-28.32,119075.745,314
919,1686017311.327,-29.297,-115.234,12.207,-48.828,119075.749,314
920,1686017311.331,-29.297,-620.605,-247.559,-33.203,119075.753,314
921,1686017311.335,-27.344,-718.75,-188.477,-10.742,119075.757,315
922,1686017311.339,-31.738,203.125,227.051,-20.02,119075.761,315
923,1686017311.343,-33.691,236.816,59.57,-35.156,119075.765,315
924,1686017311.346,-31.25,-66.406,-15.625,-43.945,119075.771,315
925,1686017311.35,-28.32,190.918,130.859,-34.18,119075.775,317
926,1686017311.354,-27.832,415.527,181.152,-27.832,119075.779,317
927,1686017311.358,-34.668,175.293,29.785,-39.551,119075.782,317
928,1686017311.362,-39.062,-104.004,-122.559,-45.41,119075.786,317
929,1686017311.366,-32.715,-200.195,-44.922,-33.203,119075.79,318
930,1686017311.37,-25.879,11.719,115.723,-20.508,119075.794,318
931,1686017311.373,-31.738,-38.086,-63.965,-34.18,119075.798,318
932,1686017311.377,-41.504,-843.75,-426.27,-39.551,119075.802,318
933,1686017311.381,-33.203,-405.273,-13.672,-21.484,119075.806,318
934,1686017311.385,-22.461,406.25,232.422,-8.789,119075.81,318
935,1686017311.389,-18.555,125.977,29.785,-13.184,119075.814,318
936,1686017311.39,-22.949,-70.801,-15.137,-30.762,119075.812,318
937,1686017311.394,-24.414,205.078,92.285,-32.227,119075.815,317
938,1686017311.398,-19.043,170.41,85.938,-13.672,119075.819,317
939,1686017311.402,-20.02,-434.082,-161.621,-11.719,119075.823,317
940,1686017311.406,-29.297,-569.824,-214.844,-41.992,119075.827,317
941,1686017311.41,-26.855,-189.941,-18.555,-49.316,119075.831,317
942,1686017311.414,-16.602,-46.387,61.523,-26.367,119075.835,317
943,1686017311.417,-20.508,-477.539,-131.836,-14.16,119075.839,317
944,1686017311.421,-23.926,-554.688,-141.602,-28.809,119075.843,318
945,1686017311.425,-26.367,212.402,137.207,-49.805,119075.847,318
946,1686017311.429,-32.715,106.445,58.594,-33.203,119075.851,318
947,1686017311.433,-40.039,-205.566,-14.648,-21.484,119075.855,320
948,1686017311.439,-43.945,45.898,71.289,-35.645,119075.862,320
949,1686017311.443,-43.945,309.082,124.512,-45.41,119075.866,320
950,1686017311.447,-40.039,15.625,-11.719,-36.133,119075.87,320
951,1686017311.451,-32.715,-61.035,-13.184,-12.695,119075.874,320
952,1686017311.455,-33.691,218.262,89.355,-14.16,119075.878,320
953,1686017311.459,-44.434,-15.625,-66.895,-42.48,119075.882,320
954,1686017311.463,-46.875,-382.812,-278.32,-40.039,119075.886,319
955,1686017311.466,-35.645,-624.023,-283.203,-6.348,119075.89,319
956,1686017311.47,-26.855,-35.156,83.496,-3.418,119075.893,319
957,1686017311.474,-33.691,381.836,144.043,-25.879,119075.897,318
958,1686017311.478,-33.203,-58.105,-61.523,-26.367,119075.901,318
959,1686017311.481,-14.16,261.719,138.184,6.836,119075.905,318
960,1686017311.482,-21.973,-48.828,34.668,0.488,119075.905,318
961,1686017311.485,-21.973,36.133,-9.766,-18.066,119075.909,318
962,1686017311.489,-35.156,-368.164,-164.062,-31.738,119075.913,318
963,1686017311.493,-29.785,-163.574,-16.602,-13.672,119075.917,318
964,1686017311.497,-20.508,227.051,111.816,4.883,119075.921,318
965,1686017311.501,-26.367,-4.883,-16.602,-7.812,119075.925,318
966,1686017311.505,-31.738,-553.223,-305.176,-15.137,119075.929,319
967,1686017311.508,-31.738,-1000.0,-484.863,-1.465,119075.933,319
968,1686017311.512,-26.855,-346.68,19.043,-2.441,119075.937,319
969,1686017311.516,-22.461,286.621,162.598,-15.137,119075.941,320
970,1686017311.52,-36.133,-24.902,2.93,-38.574,119075.944,320
971,1686017311.524,-46.875,88.379,103.516,-37.598,119075.948,320
972,1686017311.527,-31.738,391.113,164.551,-11.23,119075.96,320
973,1686017311.531,-20.02,252.93,63.965,-3.418,119075.964,320
974,1686017311.535,-34.668,-30.762,-43.457,-29.297,119075.968,320
975,1686017311.539,-44.922,-93.262,-42.48,-43.945,119075.972,320
976,1686017311.543,-39.551,-58.594,-30.273,-30.273,119075.976,319
977,1686017311.547,-35.156,-71.777,-7.324,-20.996,119075.98,319
978,1686017311.551,-34.668,-760.254,-325.195,-30.273,119075.983,319
979,1686017311.554,-39.551,-583.496,-152.344,-50.293,119075.987,319
980,1686017311.558,-31.738,229.004,168.945,-40.527,119075.991,318
981,1686017311.562,-20.02,138.184,57.129,-13.184,119075.995,318
982,1686017311.566,-22.461,67.383,32.715,-23.438,119075.999,318
983,1686017311.57,-25.391,268.066,104.98,-48.828,119076.003,318
984,1686017311.586,-27.344,221.191,78.613,-41.504,119076.006,319
985,1686017311.59,-27.832,32.227,-15.137,-21.484,119076.01,319
986,1686017311.594,-33.691,-129.883,-34.18,-37.598,119076.014,319
987,1686017311.598,-39.062,-71.777,6.348,-64.941,119076.018,320
988,1686017311.602,-29.785,153.32,63.965,-71.289,119076.022,320
989,1686017311.606,-17.09,-406.738,-181.641,-46.387,119076.026,320
990,1686017311.61,-14.16,-917.969,-335.938,-23.926,119076.03,320
991,1686017311.613,-20.508,-199.219,48.828,-54.688,119076.034,319
992,1686017311.617,-31.25,189.941,90.82,-74.707,119076.038,319
993,1686017311.621,-25.391,-353.027,-113.77,-41.016,119076.042,319
994,1686017311.625,-26.855,-271.973,29.297,-20.996,119076.046,318
995,1686017311.629,-38.086,278.32,154.785,-44.922,119076.049,318
996,1686017311.631,-42.48,68.359,-13.184,-73.242,119076.052,318
997,1686017311.635,-41.992,-138.672,-45.41,-65.918,119076.056,318
998,1686017311.639,-37.109,198.242,130.371,-40.039,119076.059,318
999,1686017311.643,-38.574,367.676,131.348,-38.086,119076.063,318
1000,1686017311.647,-39.062,46.387,-92.285,-55.664,119076.067,318
1001,1686017311.651,-36.621,-372.07,-242.188,-58.105,119076.071,318
1002,1686017311.655,-34.18,-100.098,32.227,-30.273,119076.075,318
1003,1686017311.658,-23.926,379.883,184.082,-21.484,119076.079,318
1004,1686017311.662,-20.02,-70.312,-156.25,-31.738,119076.083,318
1005,1686017311.666,-36.133,-908.691,-439.453,-37.598,119076.087,319
1006,1686017311.67,-41.992,-317.383,20.508,-41.504,119076.091,319
1007,1686017311.674,-33.203,435.059,219.238,-32.715,119076.095,319
1008,1686017311.676,-41.504,48.828,-25.879,-53.711,119076.097,319
1009,1686017311.68,-48.828,-90.82,-27.832,-59.082,119076.101,320
1010,1686017311.684,-40.039,10.254,48.828,-29.297,119076.104,320
1011,1686017311.688,-30.762,-4.883,45.41,-15.137,119076.108,320
1012,1686017311.692,-29.297,-361.816,-135.742,-17.578,119076.112,320
1013,1686017311.696,-37.109,-785.645,-293.457,-33.691,119076.116,319
1014,1686017311.7,-29.297,-231.445,25.879,-31.738,119076.12,319
1015,1686017311.703,-12.695,335.449,191.895,-0.488,119076.124,319
1016,1686017311.707,-15.137,-313.965,-156.25,2.93,119076.128,318
1017,1686017311.711,-25.879,-598.633,-156.25,-25.879,119076.132,318
1018,1686017311.715,-30.273,187.012,132.324,-42.48,119076.136,318
1019,1686017311.719,-21.484,106.445,65.918,-16.113,119076.14,317
1020,1686017311.72,-13.672,-197.754,8.789,-2.93,119076.142,317
1021,1686017311.724,-28.809,27.344,47.363,-25.879,119076.145,317
1022,1686017311.728,-39.551,263.672,98.633,-41.504,119076.149,317
1023,1686017311.732,-29.297,61.523,10.742,-30.273,119076.153,317
1024,1686017311.736,-30.273,5.859,-17.09,-20.02,119076.157,318
1025,1686017311.74,-42.969,5.371,20.996,-42.969,119076.161,318
1026,1686017311.744,-48.828,-145.508,-75.684,-64.453,119076.165,318
1027,1686017311.747,-48.34,-281.738,-143.555,-46.387,119076.169,318
1028,1686017311.751,-36.133,-562.012,-172.363,-23.438,119076.173,320
1029,1686017311.755,-35.156,-37.109,69.824,-37.109,119076.177,320
1030,1686017311.759,-48.34,332.031,120.605,-59.57,119076.181,320
1031,1686017311.763,-41.504,-71.289,-43.945,-45.41,119076.185,320
1032,1686017311.781,-28.809,-20.02,20.02,-26.855,119076.205,319
1033,1686017311.785,-36.133,180.664,62.012,-28.809,119076.209,319
1034,1686017311.789,-46.875,-85.938,-87.402,-48.34,119076.213,317
1035,1686017311.793,-41.992,-644.043,-345.703,-41.992,119076.217,317
1036,1686017311.797,-30.762,-722.168,-228.516,-8.301,119076.221,317
1037,1686017311.801,-23.438,-182.129,81.055,-6.348,119076.225,317
1038,1686017311.805,-26.855,-54.688,39.551,-30.762,119076.229,317
1039,1686017311.808,-39.062,-560.059,-206.543,-35.645,119076.233,317
1040,1686017311.811,-46.387,128.906,99.121,-39.062,119076.234,317
1041,1686017311.812,-38.086,-542.48,-116.211,-17.578,119076.236,317
1042,1686017311.815,-33.691,448.73,183.594,-21.484,119076.237,317
1043,1686017311.816,-28.809,405.273,248.047,-11.719,119076.24,317
1044,1686017311.819,-31.738,270.508,44.922,-36.621,119076.241,319
1045,1686017311.82,-29.785,330.078,70.801,-26.367,119076.244,319
1046,1686017311.823,-38.574,-69.824,-138.184,-53.711,119076.245,319
1047,1686017311.824,-46.875,-63.477,-15.137,-51.27,119076.248,319
1048,1686017311.827,-42.969,-118.164,-94.238,-38.574,119076.249,319
1049,1686017311.831,-31.25,-88.379,-0.977,-6.836,119076.253,320
1050,1686017311.835,-27.832,-203.613,-59.082,-3.906,119076.257,320
1051,1686017311.838,-35.645,-491.211,-156.738,-22.949,119076.261,320
1052,1686017311.842,-45.41,-158.691,47.852,-36.133,119076.265,320
1053,1686017311.846,-36.133,358.398,190.918,-21.484,119076.269,319
1054,1686017311.85,-30.762,55.664,-55.176,-3.906,119076.273,319
1055,1686017311.854,-45.898,-810.059,-385.254,-23.438,119076.277,319
1056,1686017311.855,-46.387,-362.793,-10.254,-41.992,119076.277,319
1057,1686017311.859,-41.016,300.293,165.527,-27.344,119076.281,318
1058,1686017311.863,-39.062,-68.359,-26.367,-13.184,119076.284,318
1059,1686017311.867,-38.086,-145.996,2.93,-26.855,119076.288,318
1060,1686017311.871,-44.922,150.879,64.941,-46.387,119076.292,317
1061,1686017311.875,-50.293,-11.23,-70.312,-39.551,119076.296,317
1062,1686017311.879,-34.668,-545.898,-250.488,-13.184,119076.3,317
1063,1686017311.882,-25.879,-881.836,-297.852,-16.113,119076.304,317
1064,1686017311.886,-47.363,-64.453,86.426,-54.199,119076.308,317
1065,1686017311.89,-56.152,276.367,105.469,-60.059,119076.312,317
1066,1686017311.894,-38.574,12.207,28.809,-33.203,119076.316,317
1067,1686017311.898,-33.203,182.129,133.789,-24.902,119076.32,317
1068,1686017311.902,-45.41,394.043,116.699,-43.945,119076.324,318
1069,1686017311.906,-46.387,145.508,-10.742,-48.34,119076.328,318
1070,1686017311.91,-32.715,-66.406,-32.227,-21.484,119076.332,318
1071,1686017311.914,-29.785,247.559,109.863,-21.484,119076.335,319
1072,1686017311.918,-41.016,347.656,86.914,-49.316,119076.339,319
1073,1686017311.922,-51.27,-158.691,-209.473,-65.918,119076.343,319
1074,1686017311.926,-47.852,-685.547,-335.449,-47.363,119076.347,319
1075,1686017311.929,-35.645,-100.098,69.824,-30.273,119076.351,318
1076,1686017311.933,-26.855,426.758,143.066,-40.527,119076.355,318
1077,1686017311.937,-30.762,-158.203,-184.57,-50.781,119076.359,318
1078,1686017311.941,-35.645,-318.359,-142.578,-46.875,119076.363,316
1079,1686017311.945,-28.32,270.02,156.25,-28.809,119076.367,316
1080,1686017311.961,-28.809,413.086,123.535,-29.297,119076.382,316
1081,1686017311.965,-33.203,-90.332,-104.004,-41.504,119076.385,316
1082,1686017311.969,-37.598,-475.586,-163.574,-48.34,119076.389,316
1083,1686017311.973,-31.738,-101.562,66.406,-27.832,119076.393,316
1084,1686017311.977,-25.879,282.715,125.488,-19.043,119076.397,316
1085,1686017311.981,-30.273,-392.578,-302.734,-44.922,119076.401,317
1086,1686017311.985,-41.016,-1000.0,-440.43,-55.176,119076.405,317
1087,1686017311.988,-40.039,-173.828,86.914,-42.48,119076.409,317
1088,1686017311.992,-26.855,333.984,169.434,-30.762,119076.413,317
1089,1686017311.996,-34.18,72.266,42.48,-47.852,119076.417,317
1090,1686017312.0,-34.668,107.422,92.285,-63.965,119076.421,318
1091,1686017312.004,-25.391,217.285,79.102,-48.828,119076.424,318
1092,1686017312.02,-22.949,46.387,47.363,-24.902,119076.442,317
1093,1686017312.024,-23.926,-236.816,-43.457,-37.109,119076.446,316
1094,1686017312.028,-33.203,-56.152,1.465,-57.617,119076.45,316
1095,1686017312.032,-35.156,255.371,97.656,-43.945,119076.454,316
1096,1686017312.036,-25.879,114.258,38.574,-21.484,119076.457,316
1097,1686017312.04,-29.785,-230.957,-104.98,-28.32,119076.461,315
1098,1686017312.044,-38.574,-190.918,-46.387,-57.617,119076.465,315
1099,1686017312.047,-38.086,174.316,121.582,-56.641,119076.469,315
1100,1686017312.051,-31.25,-62.5,-65.918,-27.344,119076.473,316
1101,1686017312.051,-47.363,-94.727,-8.789,-51.27,119076.472,316
1102,1686017312.055,-37.109,-554.199,-215.82,-25.879,119076.477,316
1103,1686017312.055,-42.48,56.641,42.969,-39.062,119076.476,316
1104,1686017312.059,-48.34,57.129,38.574,-43.457,119076.48,316
1105,1686017312.059,-51.27,-78.125,30.273,-57.617,119076.481,316
1106,1686017312.063,-50.781,-256.836,-147.949,-45.898,119076.483,317
1107,1686017312.063,-52.734,108.887,35.156,-68.359,119076.485,317
1108,1686017312.067,-45.41,-448.242,-215.82,-24.902,119076.487,317
1109,1686017312.071,-37.109,-378.418,-30.762,-8.789,119076.491,317
1110,1686017312.075,-30.273,-80.566,81.543,-21.484,119076.495,317
1111,1686017312.078,-38.086,169.434,99.121,-49.805,119076.499,317
1112,1686017312.082,-35.645,-482.91,-222.168,-40.527,119076.503,317
1113,1686017312.086,-23.926,-693.848,-197.266,-10.742,119076.507,317
1114,1686017312.09,-33.203,291.016,223.633,-16.113,119076.511,317
1115,1686017312.094,-39.551,295.41,56.641,-28.809,119076.515,316
1116,1686017312.096,-37.109,-548.828,-227.051,-29.785,119076.516,316
1117,1686017312.1,-28.809,-336.914,27.832,-15.625,119076.52,316
1118,1686017312.104,-29.785,458.496,251.953,-11.23,119076.524,316
1119,1686017312.108,-37.109,215.332,20.508,-37.109,119076.528,315
1120,1686017312.112,-41.992,-163.086,-125.0,-38.086,119076.532,315
1121,1686017312.116,-40.039,-149.414,18.555,-9.277,119076.536,315
1122,1686017312.12,-28.32,-46.875,93.75,10.254,119076.54,315
1123,1686017312.123,-20.02,-201.172,-113.281,-4.395,119076.544,315
1124,1686017312.127,-28.32,-824.219,-377.441,-27.832,119076.548,315
1125,1686017312.131,-35.156,-399.414,-10.254,-21.484,119076.551,315
1126,1686017312.135,-28.809,433.594,251.953,3.418,119076.555,317
1127,1686017312.139,-24.902,167.969,44.922,1.465,119076.559,317
1128,1686017312.14,-32.715,6.348,9.277,-29.785,119076.562,317
1129,1686017312.144,-40.527,225.098,90.332,-35.645,119076.566,317
1130,1686017312.148,-30.273,157.227,98.633,-6.836,119076.57,317
1131,1686017312.152,-25.391,-437.988,-160.156,4.883,119076.573,318
1132,1686017312.156,-39.551,-673.828,-256.836,-21.973,119076.577,318
1133,1686017312.16,-48.828,-247.07,1.465,-42.48,119076.581,318
1134,1686017312.164,-39.551,-56.641,87.402,-20.996,119076.585,318
1135,1686017312.167,-29.297,-466.309,-133.789,5.371,119076.589,318
1136,1686017312.171,-36.133,-639.16,-176.758,-18.555,119076.593,318
1137,1686017312.175,-42.969,167.969,152.344,-55.176,119076.597,316
1138,1686017312.179,-42.48,298.34,98.145,-37.109,119076.601,316
1139,1686017312.183,-37.598,-51.758,-10.742,-19.531,119076.605,316
1140,1686017312.187,-39.551,57.617,56.152,-36.621,119076.611,316
1141,1686017312.191,-46.387,338.379,113.77,-52.246,119076.615,316
1142,1686017312.195,-42.48,88.379,-5.859,-36.133,119076.619,316
1143,1686017312.199,-29.297,32.715,33.691,-13.672,119076.622,316
1144,1686017312.203,-22.949,254.883,87.402,-16.113,119076.626,316
1145,1686017312.207,-30.762,-1.465,-134.766,-29.785,119076.63,316
1146,1686017312.211,-37.109,-358.398,-274.414,-23.926,119076.634,316
1147,1686017312.214,-24.902,-593.262,-229.492,1.953,119076.638,316
1148,1686017312.218,-14.648,-37.109,91.309,9.277,119076.642,317
1149,1686017312.222,-24.902,406.25,133.789,-20.02,119076.646,317
1150,1686017312.226,-32.227,-131.836,-101.562,-25.391,119076.65,317
1151,1686017312.23,-25.391,-161.621,-21.484,3.418,119076.654,317
1152,1686017312.231,-21.973,359.863,169.434,18.066,119076.655,317
1153,1686017312.235,-34.18,399.902,85.449,-4.883,119076.659,317
1154,1686017312.239,-48.34,-345.703,-211.426,-38.086,119076.663,317
1155,1686017312.243,-45.41,-451.66,-114.746,-26.367,119076.667,317
1156,1686017312.247,-32.227,266.113,130.371,-6.836,119076.671,317
1157,1686017312.251,-33.691,137.207,26.855,-13.672,119076.675,317
1158,1686017312.255,-46.875,-536.133,-305.664,-29.785,119076.678,317
1159,1686017312.258,-41.016,-998.047,-425.293,-16.602,119076.682,317
1160,1686017312.262,-25.879,-181.641,106.934,-2.441,119076.686,315
1161,1686017312.266,-28.809,357.91,171.875,-10.254,119076.69,315
1162,1686017312.27,-41.992,58.105,0.0,-30.273,119076.694,315
1163,1686017312.274,-38.086,124.512,95.703,-33.203,119076.698,315
1164,1686017312.279,-24.902,331.543,141.113,-6.836,119076.703,315
1165,1686017312.283,-16.602,117.188,48.828,7.812,119076.706,315
1166,1686017312.287,-25.879,-57.617,-20.996,-22.949,119076.71,315
1167,1686017312.291,-44.434,127.441,36.133,-41.992,119076.714,315
1168,1686017312.295,-40.527,212.891,75.195,-15.137,119076.718,315
1169,1686017312.299,-38.086,-23.926,-14.16,-3.418,119076.722,315
1170,1686017312.303,-40.039,-759.766,-344.238,-15.625,119076.726,316
1171,1686017312.306,-34.668,-558.105,-170.898,-30.273,119076.73,316
1172,1686017312.31,-21.973,286.133,180.664,-16.602,119076.734,316
1173,1686017312.314,-11.23,145.02,28.32,1.465,119076.738,317
1174,1686017312.318,-22.949,-10.254,-20.508,-17.578,119076.742,317
1175,1686017312.322,-39.551,199.219,87.402,-37.598,119076.745,317
1176,1686017312.335,-44.922,218.262,68.848,-28.32,119076.757,316
1177,1686017312.339,-31.738,83.496,11.719,2.441,119076.761,316
1178,1686017312.343,-25.879,-103.027,-34.18,-2.441,119076.764,314
1179,1686017312.347,-26.855,-260.742,-77.637,-29.785,119076.768,314
1180,1686017312.351,-23.926,-227.539,-117.188,-39.062,119076.772,314
1181,1686017312.355,-23.438,-505.371,-237.305,-22.461,119076.776,314
1182,1686017312.359,-23.438,-1000.0,-404.297,-9.277,119076.78,314
1183,1686017312.362,-34.668,-491.211,-52.246,-35.645,119076.784,314
1184,1686017312.366,-50.293,114.258,95.703,-62.5,119076.788,314
1185,1686017312.37,-47.363,41.504,67.383,-47.852,119076.792,315
1186,1686017312.374,-36.133,309.082,202.148,-36.133,119076.796,315
1187,1686017312.378,-41.016,479.98,161.621,-60.059,119076.8,315
1188,1686017312.381,-51.27,138.184,-7.812,-76.172,119076.802,315
1189,1686017312.385,-47.363,-88.867,-46.387,-56.641,119076.806,316
1190,1686017312.389,-25.879,244.629,117.188,-14.648,119076.81,316
1191,1686017312.393,-26.367,432.617,134.277,-22.461,119076.813,316
1192,1686017312.397,-48.828,100.586,-80.078,-61.035,119076.817,316
1193,1686017312.401,-48.34,-354.492,-268.066,-52.734,119076.821,316
1194,1686017312.405,-31.25,-306.641,-91.797,-23.438,119076.825,316
1195,1686017312.408,-25.879,64.453,125.488,-21.973,119076.829,315
1196,1686017312.412,-29.785,-51.27,-86.914,-44.922,119076.833,315
1197,1686017312.416,-35.156,-825.684,-417.969,-45.41,119076.837,315
1198,1686017312.42,-38.086,-359.375,24.902,-27.344,119076.841,315
1199,1686017312.424,-36.133,406.25,210.938,-28.32,119076.845,314
1200,1686017312.426,-41.504,85.449,-10.742,-52.246,119076.846,314
1201,1686017312.43,-49.316,-31.25,0.0,-66.406,119076.85,314
1202,1686017312.434,-41.992,29.297,45.898,-46.387,119076.854,314
1203,1686017312.438,-37.109,-22.949,51.27,-29.785,119076.858,314
1204,1686017312.442,-37.109,-394.531,-133.301,-38.086,119076.862,314
1205,1686017312.446,-43.945,-795.898,-291.504,-52.734,119076.866,314
1206,1686017312.45,-43.457,-211.426,24.902,-50.293,119076.87,314
1207,1686017312.453,-27.344,355.957,184.57,-32.227,119076.874,315
1208,1686017312.457,-27.344,-360.84,-180.176,-27.344,119076.878,315
1209,1686017312.461,-41.016,-743.164,-222.168,-47.363,119076.882,315
1210,1686017312.465,-48.34,103.027,136.23,-54.688,119076.885,316
1211,1686017312.469,-38.086,126.465,77.637,-36.133,119076.889,316
1212,1686017312.471,-30.762,-26.367,53.711,-31.25,119076.892,316
1213,1686017312.475,-35.156,142.578,89.844,-49.316,119076.895,316
1214,1686017312.479,-38.086,298.34,110.84,-62.988,119076.899,316
1215,1686017312.483,-40.527,181.152,44.922,-49.316,119076.903,316
1216,1686017312.487,-41.992,52.246,4.883,-31.25,119076.907,316
1217,1686017312.491,-42.48,-48.828,9.277,-42.48,119076.911,316
1218,1686017312.495,-42.969,-86.914,-57.129,-64.941,119076.915,315
1219,1686017312.498,-40.039,-96.191,-111.816,-42.969,119076.919,315
1220,1686017312.502,-28.32,-492.676,-187.988,-7.324,119076.923,315
1221,1686017312.506,-25.879,-45.898,69.336,-30.273,119076.927,314
1222,1686017312.51,-41.992,318.848,91.309,-53.711,119076.931,314
1223,1686017312.514,-42.48,-174.316,-69.824,-33.203,119076.934,314
1224,1686017312.515,-26.367,-117.676,12.207,-14.16,119076.937,314
1225,1686017312.519,-17.578,387.695,142.578,-23.438,119076.941,314
1226,1686017312.523,-26.855,198.73,56.152,-49.805,119076.945,314
1227,1686017312.527,-33.691,-567.871,-291.504,-51.758,119076.949,314
1228,1686017312.531,-20.996,-656.25,-236.816,-26.367,119076.953,314
1229,1686017312.535,-16.113,-39.062,103.516,-27.832,119076.957,315
1230,1686017312.539,-26.855,37.109,69.336,-54.199,119076.961,315
1231,1686017312.542,-37.598,-538.086,-225.586,-64.941,119076.965,315
1232,1686017312.546,-35.645,-611.816,-188.965,-47.363,119076.969,316
1233,1686017312.55,-27.832,313.477,224.121,-36.621,119076.973,316
1234,1686017312.554,-26.855,327.148,83.008,-35.645,119076.977,316
1235,1686017312.558,-35.645,-38.086,-35.156,-47.852,119076.98,316
1236,1686017312.562,-36.133,161.621,106.445,-38.574,119076.989,315
1237,1686017312.566,-34.18,372.07,128.906,-27.832,119076.992,315
1238,1686017312.57,-43.457,55.176,7.324,-48.34,119076.996,315
1239,1686017312.574,-42.969,-332.52,-138.184,-61.523,119077.0,315
1240,1686017312.578,-46.387,-110.84,-40.039,-48.828,119077.004,314
1241,1686017312.582,-54.199,36.133,81.543,-30.273,119077.008,314
1242,1686017312.586,-46.387,-190.918,-38.574,-31.25,119077.012,314
1243,1686017312.589,-44.434,-781.25,-362.305,-39.551,119077.016,313
1244,1686017312.593,-44.434,-488.77,-83.008,-45.41,119077.02,313
1245,1686017312.597,-30.762,375.977,239.746,-20.508,119077.024,313
1246,1686017312.601,-25.879,178.711,28.32,-1.465,119077.028,313
1247,1686017312.605,-28.32,-15.625,-1.465,-22.461,119077.032,314
1248,1686017312.621,-33.203,230.469,102.051,-41.992,119077.041,315
1249,1686017312.625,-27.832,342.773,85.449,-32.227,119077.045,315
1250,1686017312.629,-20.996,-14.648,-12.207,-13.672,119077.049,316
1251,1686017312.633,-30.273,-195.801,-27.832,-27.344,119077.053,316
1252,1686017312.637,-45.898,-88.867,-102.051,-45.898,119077.057,316
1253,1686017312.641,-48.34,-138.184,-108.887,-33.691,119077.061,316
1254,1686017312.645,-33.203,-500.977,-204.59,-6.836,119077.065,315
1255,1686017312.648,-26.855,-979.492,-347.168,-1.953,119077.069,315
1256,1686017312.652,-43.945,-262.695,44.434,-36.133,119077.073,315
1257,1686017312.652,-39.062,379.395,124.512,-32.227,119077.086,315
1258,1686017312.656,-43.945,138.672,65.918,-41.992,119077.076,315
1259,1686017312.656,-41.504,84.473,-11.719,-41.504,119077.09,315
1260,1686017312.66,-37.109,10.742,46.875,-13.184,119077.08,314
1261,1686017312.66,-42.48,-66.895,-24.414,-24.414,119077.094,314
1262,1686017312.664,-39.551,270.508,175.781,-9.766,119077.084,314
1263,1686017312.664,-36.621,281.25,139.648,-19.531,119077.098,314
1264,1686017312.668,-27.344,325.195,76.172,-33.203,119077.101,314
1265,1686017312.672,-24.902,-186.035,-228.516,-32.715,119077.105,314
1266,1686017312.676,-25.391,-588.379,-270.02,-16.113,119077.109,314
1267,1686017312.679,-25.879,-244.141,50.781,-6.836,119077.113,314
1268,1686017312.683,-27.832,302.246,194.336,-19.531,119077.117,314
1269,1686017312.687,-31.738,-29.297,-128.906,-37.598,119077.121,315
1270,1686017312.691,-35.645,-863.77,-410.156,-33.691,119077.125,315
1271,1686017312.695,-25.391,-255.859,60.547,-17.578,119077.129,315
1272,1686017312.71,-15.625,450.195,222.168,-25.391,119077.132,316
1273,1686017312.714,-22.461,67.383,-21.973,-44.922,119077.136,316
1274,1686017312.718,-35.156,-258.789,-63.965,-41.992,119077.14,316
1275,1686017312.722,-41.504,-19.043,67.871,-30.762,119077.143,316
1276,1686017312.726,-42.969,421.387,186.035,-33.203,119077.147,316
1277,1686017312.73,-44.922,-283.203,-193.848,-42.969,119077.151,315
1278,1686017312.734,-38.574,-801.758,-283.691,-39.062,119077.155,315
1279,1686017312.737,-30.762,88.867,193.359,-22.461,119077.159,315
1280,1686017312.741,-30.273,447.266,153.32,-19.531,119077.163,314
1281,1686017312.745,-36.621,-399.902,-223.145,-31.25,119077.167,314
1282,1686017312.749,-41.992,-620.117,-175.781,-46.875,119077.171,314
1283,1686017312.753,-36.133,262.695,196.289,-39.551,119077.175,314
1284,1686017312.761,-25.391,339.355,117.676,-16.602,119077.181,314
1285,1686017312.765,-21.973,33.691,13.672,-28.32,119077.185,314
1286,1686017312.769,-35.156,85.449,45.41,-53.223,119077.189,315
1287,1686017312.773,-43.457,340.332,130.859,-52.246,119077.193,315
1288,1686017312.777,-41.504,214.355,46.875,-35.645,119077.197,315
1289,1686017312.781,-43.457,-262.695,-182.617,-31.738,119077.201,316
1290,1686017312.785,-42.48,-197.754,-83.496,-48.828,119077.205,316
1291,1686017312.788,-32.227,210.938,123.047,-39.551,119077.208,316
1292,1686017312.792,-31.25,41.992,-25.391,-14.648,119077.212,316
1293,1686017312.796,-41.016,-521.484,-228.516,-15.137,119077.216,316
1294,1686017312.8,-48.828,-90.332,47.363,-39.551,119077.22,316
1295,1686017312.804,-56.641,241.699,73.73,-61.523,119077.224,316
