,timestamps,TP9,AF7,AF8,TP10,Secondary Timestamp,emg_signal
0,1686273949.46,-47.363,-164.551,85.938,19.531,655.352,330.48388201935404
1,1686273949.46,56.641,162.109,175.781,64.453,655.356,337.5747641250724
2,1686273949.46,28.32,136.23,141.113,-40.039,655.36,328.54173485177097
3,1686273949.47,-73.73,-142.09,50.781,-119.141,655.363,333.0363867514399
4,1686273949.47,-62.012,-182.129,52.734,-40.527,655.367,334.6344954418311
5,1686273949.48,53.223,-235.352,58.105,91.797,655.371,330.47971525404387
6,1686273949.48,50.781,-315.918,51.27,21.973,655.375,330.35441801664956
7,1686273949.48,-53.711,-670.41,-207.031,-75.684,655.379,326.24606659847353
8,1686273949.49,-93.75,-1000.0,-355.957,-2.93,655.383,331.072111663811
9,1686273949.49,-10.254,-331.543,61.523,73.242,655.387,329.3652032064119
10,1686273949.5,49.316,91.309,127.93,36.621,655.391,329.2951635853955
11,1686273949.5,-25.879,-168.945,49.805,-91.309,655.395,323.60339493750604
12,1686273949.5,-91.309,-28.809,134.766,-111.328,655.397,327.16926811550616
13,1686273949.5,-8.789,224.609,179.688,26.367,655.401,336.08992095269934
14,1686273949.51,72.266,21.973,70.801,66.406,655.404,330.10784531963594
15,1686273949.51,0.488,-237.793,-8.789,-67.383,655.408,327.7346450948709
16,1686273949.52,-82.52,-51.758,104.492,-123.535,655.412,346.5412394667608
17,1686273949.52,-38.574,-134.277,84.473,3.906,655.416,328.240363624389
18,1686273949.52,64.453,-476.074,-86.914,94.727,655.42,317.40625216184657
19,1686273949.53,33.691,-727.539,-209.473,-3.906,655.424,334.77401335132123
20,1686273949.53,-87.891,-473.633,-8.789,-124.023,655.428,337.214792671622
21,1686273949.54,-88.867,-101.562,139.16,-43.945,655.432,328.4791560299634
22,1686273949.54,28.809,-325.195,-20.02,104.004,655.436,323.7081983294973
23,1686273949.54,51.758,-481.934,-80.566,47.852,655.44,339.4771724249492
24,1686273949.55,-64.453,0.977,136.23,-105.469,655.456,330.9369024151499
25,1686273949.55,-109.863,42.48,123.535,-67.871,655.459,325.74886800792814
26,1686273949.55,-0.977,-159.18,67.871,71.289,655.463,343.0387582829921
27,1686273949.56,68.848,-75.195,98.145,63.477,655.467,334.1398954205204
28,1686273949.56,-11.23,3.418,60.059,-82.031,655.471,330.2774611977394
29,1686273949.57,-98.145,-295.898,13.184,-115.234,655.475,339.83495372272534
30,1686273949.57,-32.227,-766.602,-192.383,46.387,655.479,342.11478326980875
31,1686273949.57,59.082,-782.227,-179.199,96.68,655.483,324.58906018277247
32,1686273949.58,13.184,-93.262,159.668,-70.801,655.487,335.44147297300293
33,1686273949.58,-81.543,-2.441,77.148,-134.277,655.491,332.63859162348257
34,1686273949.58,-59.082,-488.281,-70.312,-10.254,655.495,344.5848947538961
35,1686273949.59,49.805,-485.84,17.09,77.637,655.499,339.22201170234564
36,1686273949.59,40.039,-1.953,178.223,-49.805,655.501,327.5650720211191
37,1686273949.6,-73.242,-71.289,64.941,-159.18,655.505,343.04326385925276
38,1686273949.6,-76.66,-454.102,-6.836,-51.758,655.509,328.1144441264256
39,1686273949.6,38.086,-142.09,126.953,66.895,655.513,338.2795312916908
40,1686273949.61,58.594,194.824,176.27,12.207,655.516,337.0671173432414
41,1686273949.61,-49.805,-338.867,-62.5,-90.332,655.52,342.1813798261638
42,1686273949.62,-107.422,-725.098,-165.039,-54.688,655.524,342.92925416241235
43,1686273949.62,-9.766,-140.625,137.207,46.875,655.528,333.7051947610428
44,1686273949.62,65.918,106.934,173.828,41.992,655.532,329.9633753282442
45,1686273949.63,-12.207,-268.066,17.09,-90.332,655.536,335.6226606940654
46,1686273949.63,-86.914,-486.816,-42.969,-111.816,655.54,345.44144651972016
47,1686273949.63,-26.367,-207.031,121.094,19.531,655.544,340.68563774843915
48,1686273949.65,68.359,40.527,154.297,67.383,655.548,331.8638558521395
49,1686273949.66,29.785,-301.27,-18.066,-34.668,655.552,329.37348156551116
50,1686273949.66,-72.266,-442.383,-13.672,-119.141,655.555,337.1686016320199
51,1686273949.66,-55.664,-27.344,152.832,-36.133,655.559,333.0483647987158
52,1686273949.67,58.105,100.586,209.473,67.383,655.563,330.76307456997046
53,1686273949.67,49.316,-521.973,-143.555,20.508,655.567,338.3524948042515
54,1686273949.68,-67.871,-926.27,-310.547,-87.402,655.571,341.9944944288226
55,1686273949.68,-84.961,-492.676,51.758,-75.195,655.575,323.8863618470027
56,1686273949.68,27.344,-125.0,129.883,42.969,655.579,341.2431712231925
57,1686273949.69,63.965,-558.105,-120.605,31.738,655.583,334.4951336686254
58,1686273949.69,-40.039,-635.742,-88.379,-101.562,655.587,330.6719046073353
59,1686273949.69,-104.004,13.184,167.969,-123.535,655.591,328.8750843548204
60,1686273949.7,-16.602,-17.578,110.352,27.832,655.592,339.0930546987367
61,1686273949.7,62.012,-194.824,76.66,52.734,655.596,330.79844507635914
62,1686273949.7,-9.277,-83.496,103.516,-103.516,655.6,344.34996462281305
63,1686273949.71,-96.68,6.348,127.441,-153.809,655.604,336.6982074825778
64,1686273949.71,-45.898,-317.871,-1.465,0.977,655.607,335.8897832890646
65,1686273949.72,56.152,-718.262,-103.027,92.285,655.611,323.6402219406186
66,1686273949.72,14.648,-506.836,59.082,-34.668,655.615,339.177606346501
67,1686273949.72,-87.891,-84.961,166.016,-141.602,655.619,336.00618341826987
68,1686273949.73,-63.477,-362.793,-66.406,-28.809,655.623,321.5718341648925
69,1686273949.73,44.922,-895.02,-251.465,108.887,655.627,339.4343052158998
70,1686273949.74,44.434,-287.598,104.492,1.953,655.631,337.4458873303874
71,1686273949.74,-55.664,50.781,139.16,-142.09,655.635,336.768704563827
72,1686273949.76,-94.727,-281.738,29.785,-87.891,655.667,339.2769996167273
73,1686273949.76,-0.977,-216.797,97.168,40.039,655.671,322.85757011326683
74,1686273949.76,56.641,58.594,162.598,9.277,655.675,330.7951434375279
75,1686273949.77,-21.484,-4.395,92.773,-125.0,655.679,323.52782908364424
76,1686273949.77,-84.961,-289.551,33.691,-109.375,655.683,334.34280085902026
77,1686273949.78,-17.578,-470.215,27.832,42.969,655.686,331.25150564607003
78,1686273949.78,61.523,-442.383,17.578,67.871,655.69,331.0660243898146
79,1686273949.78,3.418,-422.363,39.062,-72.754,655.694,330.1525162208976
80,1686273949.78,-83.984,-595.703,-60.547,-137.207,655.682,333.8304903633392
81,1686273949.79,-85.449,-784.18,-236.328,-102.051,655.698,338.7163888739463
82,1686273949.79,-97.168,-375.488,74.707,-70.312,655.686,325.6047936393246
83,1686273949.79,-54.688,-913.574,-287.109,22.949,655.702,333.77873036542513
84,1686273949.79,28.32,217.285,238.77,49.805,655.69,328.7344525137366
85,1686273949.8,40.527,-181.641,128.418,53.223,655.706,336.6562519044988
86,1686273949.8,58.594,-47.852,80.078,15.137,655.694,333.99227779439474
87,1686273949.8,28.809,1.465,106.445,-50.293,655.71,334.8660018855004
88,1686273949.8,-54.199,-314.941,-16.113,-123.535,655.698,329.07597984459244
89,1686273949.8,-108.398,-270.996,80.566,-100.586,655.702,334.55837246186985
90,1686273949.81,-16.113,-272.461,106.445,56.152,655.706,331.3907591457176
91,1686273949.81,51.758,-454.59,-48.828,52.246,655.71,327.0063538562496
92,1686273949.82,-32.715,-502.93,-94.727,-96.68,655.714,328.8364543374014
93,1686273949.82,-104.492,-312.012,51.27,-125.0,655.718,330.7624296911702
94,1686273949.82,-28.32,-155.762,117.188,11.719,655.721,335.1455392737271
95,1686273949.83,60.547,-318.848,43.945,76.66,655.725,334.41833754579847
96,1686273949.83,3.418,-445.801,34.18,-55.664,655.727,332.93677640693335
97,1686273949.84,-93.262,-104.98,132.812,-144.531,655.731,333.33460120593065
98,1686273949.84,-60.547,39.551,178.711,-25.391,655.735,329.19029213447345
99,1686273949.84,55.664,-458.008,-54.199,107.91,655.739,334.7801806917202
100,1686273949.85,46.875,-815.43,-196.777,29.785,655.742,336.3597397829316
101,1686273949.85,-65.918,-437.988,49.316,-113.77,655.746,325.0780282052698
102,1686273949.86,-76.66,-381.348,69.336,-58.594,655.75,320.28840904968297
103,1686273949.86,27.344,-715.82,-139.648,100.098,655.754,335.03368278083843
104,1686273949.86,43.945,-869.141,-206.543,58.594,655.758,325.7208259224865
105,1686273949.87,-56.641,-167.48,135.742,-136.719,655.762,327.98247047617224
106,1686273949.87,-95.215,-15.137,123.535,-122.559,655.766,330.56313554920314
107,1686273949.87,-11.719,-261.719,45.41,37.598,655.77,333.6567424954746
108,1686273949.88,65.918,-208.008,115.234,43.945,655.775,318.7020956258698
109,1686273949.88,0.977,54.199,202.148,-105.469,655.779,330.76883029639635
110,1686273949.88,-86.914,-85.938,68.359,-128.906,655.783,333.76599249976016
111,1686273949.89,-42.48,-427.734,0.977,14.16,655.787,339.4466606128772
112,1686273949.89,53.711,-131.348,109.375,63.477,655.791,332.6953841209363
113,1686273949.9,7.324,-124.512,83.984,-54.199,655.794,337.68487577732526
114,1686273949.9,-99.121,-539.062,-61.035,-114.258,655.798,335.4099827140125
115,1686273949.9,-78.125,-739.746,-141.113,-7.812,655.802,327.06933436595625
116,1686273949.91,36.133,-160.645,139.16,75.195,655.806,341.87643514775357
117,1686273949.91,54.688,170.898,186.523,-9.277,655.81,333.5649125522857
118,1686273949.92,-50.293,-198.242,26.367,-117.188,655.814,325.54764070555586
119,1686273949.92,-88.379,-240.234,89.355,-65.918,655.818,334.3563386492484
120,1686273949.92,6.836,130.859,233.887,51.27,655.83,333.3286448646884
121,1686273949.92,59.082,156.738,156.25,36.133,655.834,330.9060529187007
122,1686273949.93,-30.273,-333.984,-27.344,-102.051,655.838,322.709021791935
123,1686273949.93,-102.051,-359.375,32.715,-121.582,655.842,331.07912807858884
124,1686273949.94,-21.973,13.184,141.113,24.414,655.846,337.08515859173684
125,1686273949.94,54.199,-158.203,105.469,57.129,655.85,323.34827807746177
126,1686273949.94,-10.254,-651.855,-186.035,-45.898,655.854,330.3544452524162
127,1686273949.95,-110.84,-1000.0,-434.57,-62.988,655.858,328.512296457514
128,1686273949.95,-81.055,-452.637,41.992,-4.883,655.862,330.47035081455056
129,1686273949.96,39.551,69.336,163.574,43.945,655.866,334.79579223420257
130,1686273949.96,24.902,-136.23,48.828,-39.062,655.87,328.1184104948843
131,1686273949.96,-82.52,-76.172,127.93,-140.137,655.873,325.0559549388633
132,1686273949.97,-71.777,102.539,150.391,-53.711,655.877,330.2103349578604
133,1686273949.97,34.668,15.625,112.793,79.59,655.88,334.6013592720827
134,1686273949.97,45.898,-176.758,74.707,7.324,655.884,325.98990833537624
135,1686273949.98,-51.758,-69.824,118.164,-143.066,655.888,324.62265081465614
136,1686273949.98,-81.543,-17.578,141.113,-104.492,655.892,336.2438731711653
137,1686273949.99,20.996,-362.305,4.395,55.664,655.896,343.5267334194973
138,1686273949.99,60.547,-778.809,-164.062,65.918,655.9,330.66783634857836
139,1686273949.99,-32.227,-471.68,16.113,-108.887,655.904,342.0168751993625
140,1686273950.0,-94.727,36.133,188.477,-143.555,655.908,328.8697731685524
141,1686273950.0,-9.277,-358.887,-45.41,38.086,655.912,330.2095239012975
142,1686273950.0,98.145,-673.34,-130.859,106.445,655.916,328.8973402693909
143,1686273950.01,29.785,-41.992,151.367,-71.777,655.92,328.9802780090345
144,1686273950.03,-95.215,59.082,132.324,-151.855,655.923,324.6501236898453
145,1686273950.03,-67.383,-235.352,56.641,-10.742,655.926,333.8166779248475
146,1686273950.03,38.574,-205.078,80.566,76.172,655.93,341.79445749903607
147,1686273950.04,27.832,18.066,160.645,-23.926,655.934,332.5838056975756
148,1686273950.04,-84.473,-37.598,135.254,-123.535,655.938,338.7653349575053
149,1686273950.05,-89.355,-435.059,-27.344,-30.273,655.942,333.9267801106472
150,1686273950.05,23.438,-605.469,-52.246,104.98,655.946,333.3252848203674
151,1686273950.05,50.781,-461.426,18.555,47.852,655.95,327.33209159319347
152,1686273950.06,-38.086,-443.359,39.551,-80.078,655.954,323.8577964066792
153,1686273950.06,-83.496,-759.277,-196.289,-23.926,655.958,339.90977451223335
154,1686273950.06,-1.465,-965.82,-274.414,122.559,655.962,337.31227284372835
155,1686273950.07,65.918,-355.469,99.121,90.332,655.965,335.0075339887334
156,1686273950.07,-2.93,-132.812,76.66,-45.41,655.981,330.11068942227735
157,1686273950.08,-73.73,-281.25,32.715,-63.477,655.985,339.16082520879246
158,1686273950.08,-5.859,-13.184,171.387,58.594,655.989,336.79665805724943
159,1686273950.08,80.078,173.34,223.145,106.934,655.993,327.7175709684592
160,1686273950.09,29.785,-120.117,48.34,15.137,655.997,336.3464350590398
161,1686273950.09,-64.941,-595.215,-128.906,-42.48,656.001,325.5671860688334
162,1686273950.1,-37.598,-397.461,39.062,36.621,656.005,330.82515635640715
163,1686273950.1,64.941,118.164,216.797,116.211,656.009,329.9934537552055
164,1686273950.1,60.059,-202.637,-19.043,48.34,656.012,325.06491911094383
165,1686273950.11,-54.688,-900.879,-282.715,-56.152,656.016,341.91208411583904
166,1686273950.11,-88.379,-587.402,5.859,-20.996,656.02,338.2897668105335
167,1686273950.11,33.203,9.766,219.727,99.609,656.024,322.803880232347
168,1686273950.12,78.613,-317.871,41.504,82.031,656.012,319.1279117785761
169,1686273950.12,-22.461,-527.832,-13.672,-51.27,656.016,334.86510706188153
170,1686273950.12,-80.566,-49.805,161.133,-67.871,656.02,332.1119992407692
171,1686273950.13,16.113,3.906,128.906,77.637,656.024,339.7529592101522
172,1686273950.13,94.238,-142.578,132.812,109.863,656.028,346.93465259948937
173,1686273950.14,11.23,-364.746,76.66,-24.414,656.031,329.3108098703094
174,1686273950.14,-72.266,-435.547,12.207,-74.219,656.035,335.9997316878951
175,1686273950.14,-14.648,-363.77,63.965,56.641,656.039,329.32027781456014
176,1686273950.15,84.961,-614.746,-45.898,138.184,656.043,327.96527433604496
177,1686273950.15,43.945,-496.582,18.555,-2.441,656.047,336.33832422971454
178,1686273950.16,-57.617,26.367,187.5,-116.211,656.051,323.4426789390849
179,1686273950.16,-36.621,27.832,117.676,1.465,656.055,332.2791667197276
180,1686273950.16,70.312,-601.562,-84.961,147.949,656.061,340.92475883779963
181,1686273950.17,62.5,-640.625,-17.09,50.781,656.065,337.48035605243103
182,1686273950.17,-35.156,44.434,203.613,-113.281,656.069,330.78771255376114
183,1686273950.17,-58.594,-78.125,82.031,-37.598,656.073,338.1498740469289
184,1686273950.18,37.109,-576.66,-5.859,114.258,656.077,329.42505709080285
185,1686273950.18,77.637,-528.32,42.48,83.496,656.081,338.57555152592465
186,1686273950.19,-19.531,-166.016,136.23,-63.477,656.084,328.5254900773305
187,1686273950.19,-82.52,-310.547,10.254,-62.988,656.088,332.8723903657576
188,1686273950.19,-16.113,-678.223,-73.73,84.961,656.092,335.28695795995935
189,1686273950.2,57.129,-119.141,188.477,72.266,656.096,327.8626996994052
190,1686273950.2,10.742,177.734,153.32,-68.359,656.1,327.0119574309082
191,1686273950.2,-84.473,-208.008,59.082,-115.723,656.104,328.7010585495478
192,1686273950.21,-54.688,-210.938,102.051,-0.488,656.103,330.3322976464871
193,1686273950.21,49.805,140.137,186.523,70.312,656.107,344.0302023060332
194,1686273950.21,30.273,105.957,142.578,-30.762,656.111,341.21212972393243
195,1686273950.22,-82.031,-333.496,8.301,-112.793,656.115,331.6379160910333
196,1686273950.22,-87.891,-329.59,61.035,-40.527,656.118,331.6187738810475
197,1686273950.23,31.738,-196.289,137.207,72.266,656.122,330.63348916217586
198,1686273950.23,51.758,-342.285,100.098,9.277,656.126,334.12190238601625
199,1686273950.23,-56.641,-670.898,-179.199,-101.562,656.13,339.22822816103917
200,1686273950.24,-103.516,-1000.0,-366.699,-54.199,656.134,331.7089191581254
201,1686273950.24,-8.789,-390.137,61.523,33.203,656.138,336.5313744108225
202,1686273950.24,62.988,56.152,161.133,20.508,656.142,332.53289554346827
203,1686273950.25,-18.555,-191.895,61.523,-106.445,656.146,335.49367620223757
204,1686273950.27,-89.355,-83.008,141.602,-136.23,656.162,337.7114848736261
205,1686273950.27,-5.859,155.762,207.031,3.906,656.166,335.20567109568685
206,1686273950.27,88.867,7.812,114.258,60.547,656.17,335.2595142325951
207,1686273950.28,23.438,-193.359,75.684,-72.754,656.174,330.64745510866055
208,1686273950.28,-73.242,-67.383,146.973,-122.559,656.178,335.5370516409971
209,1686273950.29,-29.785,-264.16,78.125,9.277,656.182,331.3311772680897
210,1686273950.29,65.43,-525.879,-29.297,91.309,656.185,329.6837932592373
211,1686273950.29,38.574,-975.098,-352.051,38.574,656.189,327.75007308776776
212,1686273950.3,-59.57,84.961,180.176,-133.789,656.206,326.7419941900558
213,1686273950.3,-85.449,-696.777,-147.949,-111.816,656.193,338.83621865733227
214,1686273950.3,-105.957,50.293,143.555,-115.234,656.21,331.8504836535577
215,1686273950.3,-95.703,47.852,208.984,-90.82,656.197,332.5359366484206
216,1686273950.3,-9.277,-169.922,130.371,41.504,656.214,337.14539928735064
217,1686273950.3,19.531,-133.301,70.312,60.059,656.201,329.35945338354696
218,1686273950.31,58.594,-135.742,151.367,41.992,656.217,337.35143589702744
219,1686273950.31,46.875,-174.805,103.516,20.02,656.205,318.9750261826196
220,1686273950.31,-16.113,42.969,166.016,-107.91,656.221,333.98666484744166
221,1686273950.32,-99.609,-225.586,66.406,-121.582,656.225,337.1538614891063
222,1686273950.32,-41.992,-500.488,24.414,18.555,656.229,332.4411703386238
223,1686273950.32,56.152,-398.926,90.82,67.871,656.233,336.7773444069169
224,1686273950.33,11.23,-277.832,68.359,-58.105,656.237,328.44910326139404
225,1686273950.33,-94.727,-324.219,68.848,-155.273,656.241,321.3490251287648
226,1686273950.34,-74.219,-701.66,-158.203,-25.879,656.245,328.57326482481136
227,1686273950.34,29.297,-978.027,-272.461,99.121,656.249,320.86799424280815
228,1686273950.34,18.555,-309.57,108.887,-41.504,656.252,339.9139361643509
229,1686273950.34,-86.426,-109.863,77.148,-178.223,656.256,338.55787301533104
230,1686273950.35,-100.098,-263.672,33.203,-100.586,656.26,325.4513734467495
231,1686273950.35,14.648,42.969,195.312,31.25,656.263,323.87489941351265
232,1686273950.36,59.57,172.852,199.219,-2.441,656.267,335.9458172425545
233,1686273950.36,-32.227,-371.094,-53.223,-105.469,656.271,336.5488987432728
234,1686273950.36,-99.609,-716.309,-101.562,-91.309,656.275,334.0404671503931
235,1686273950.37,-21.973,-116.211,165.039,7.324,656.279,329.58721642989764
236,1686273950.37,58.594,218.75,206.543,34.18,656.283,334.17451609670815
237,1686273950.38,-7.812,-191.895,29.297,-81.543,656.287,328.0331643127798
238,1686273950.38,-95.215,-431.641,-14.648,-130.371,656.291,330.0753646588096
239,1686273950.38,-43.457,-277.832,98.633,-0.488,656.295,330.7317123713677
240,1686273950.4,55.664,-24.414,181.152,61.035,656.31,333.45445859501797
241,1686273950.4,20.508,-371.582,-1.465,-38.574,656.314,330.66731212794315
242,1686273950.41,-93.75,-572.266,-35.156,-128.418,656.318,331.14167032246706
243,1686273950.41,-84.961,-47.852,190.918,-51.758,656.322,334.51638465093447
244,1686273950.42,36.133,62.012,164.062,66.895,656.326,334.83666492312506
245,1686273950.42,46.387,-284.668,6.836,7.812,656.33,336.2417344682154
246,1686273950.42,-67.871,-621.582,-65.43,-118.164,656.334,344.3943472658284
247,1686273950.43,-98.633,-445.801,60.059,-80.566,656.338,336.12035122778656
248,1686273950.43,7.812,-102.539,139.16,45.898,656.341,331.1042671628831
249,1686273950.44,61.035,-572.266,-165.039,59.57,656.345,342.2335052736287
250,1686273950.44,-39.551,-816.895,-176.758,-70.801,656.349,340.8010104829952
251,1686273950.44,-106.934,-74.707,176.758,-133.789,656.353,337.62074455964313
252,1686273950.45,-16.113,-4.883,124.512,12.695,656.343,347.52220701079705
253,1686273950.45,69.336,-290.039,40.039,67.871,656.347,345.9875563958173
254,1686273950.45,-3.418,-276.855,73.73,-62.5,656.351,328.65167919686473
255,1686273950.46,-97.168,-15.137,165.527,-138.672,656.355,337.2400669924806
256,1686273950.46,-42.969,-121.582,68.848,-6.836,656.359,338.8677935076922
257,1686273950.47,53.223,-720.215,-136.719,99.121,656.363,348.06574527641527
258,1686273950.47,23.438,-589.844,-2.93,-22.949,656.367,336.2468090023266
259,1686273950.47,-81.055,-16.602,204.102,-155.762,656.371,351.4750977302313
260,1686273950.48,-90.82,-335.449,-30.273,-47.852,656.375,342.81662702936006
261,1686273950.48,17.578,-654.297,-101.562,98.633,656.378,342.1314532630874
262,1686273950.48,38.574,-142.09,148.438,15.137,656.382,351.3814202007791
263,1686273950.49,-51.758,-72.266,125.0,-114.258,656.386,346.13139783844167
264,1686273950.49,-97.168,-344.727,78.125,-79.102,656.388,350.15081155713284
265,1686273950.5,-11.719,-270.508,99.609,56.641,656.392,354.9044270604525
266,1686273950.5,59.082,100.098,183.105,54.199,656.396,357.7473708716596
267,1686273950.5,-13.672,15.137,103.027,-80.566,656.399,346.2581607622592
268,1686273950.51,-95.215,-440.918,-23.438,-89.844,656.403,357.6869490407638
269,1686273950.51,-31.25,-559.082,26.855,42.969,656.407,353.1155719649504
270,1686273950.52,63.477,-389.16,58.105,82.031,656.411,354.43852621102815
271,1686273950.52,9.766,-347.656,98.145,-45.898,656.415,359.80585923143843
272,1686273950.52,-85.449,-678.711,-143.066,-97.168,656.419,361.4736460476104
273,1686273950.53,-65.918,-979.98,-280.273,15.625,656.423,348.4525701395929
274,1686273950.53,48.34,-234.863,161.133,67.383,656.427,365.2458356150585
275,1686273950.53,60.059,62.5,150.879,-17.578,656.431,358.21312321959846
276,1686273950.54,-48.34,-228.027,75.684,-116.211,656.433,363.9248170118039
277,1686273950.54,-69.336,-62.988,176.27,-57.129,656.437,372.37892774226395
278,1686273950.54,41.016,155.273,213.867,67.383,656.441,372.1280853373332
279,1686273950.55,68.848,-37.109,100.586,37.598,656.445,355.9650996616871
280,1686273950.55,-46.387,-322.754,-29.297,-94.727,656.448,366.7347682629434
281,1686273950.56,-99.609,-384.766,21.973,-78.125,656.452,357.2451391475139
282,1686273950.56,-16.113,-292.969,120.117,50.781,656.456,362.99850065561805
283,1686273950.56,56.152,-390.625,-8.789,59.082,656.46,361.43081024630226
284,1686273950.57,-19.043,-912.598,-263.672,-57.129,656.464,363.1055850595263
285,1686273950.57,-115.234,-499.023,50.293,-129.883,656.468,367.79868344019775
286,1686273950.58,-46.387,94.238,198.242,-12.207,656.472,367.598934497124
287,1686273950.58,61.035,-136.719,68.359,69.824,656.476,368.7900176927087
288,1686273950.58,14.16,-164.062,115.234,-59.57,656.477,368.1351021512906
289,1686273950.58,-89.355,84.961,183.594,-149.414,656.481,372.8611934414402
290,1686273950.59,-66.895,88.867,168.945,-39.062,656.485,381.99815654128594
291,1686273950.59,52.246,-149.902,129.395,80.078,656.489,377.0659888617706
292,1686273950.6,48.34,-238.281,76.172,-1.953,656.493,384.223379678734
293,1686273950.6,-66.895,-349.121,2.93,-129.395,656.496,374.44331988197155
294,1686273950.6,-96.191,-461.914,44.434,-81.055,656.5,385.47317337219073
295,1686273950.61,12.207,-721.191,-145.02,80.078,656.504,377.12439008428345
296,1686273950.61,45.41,-952.148,-258.301,65.43,656.508,373.4740912295923
297,1686273950.62,-58.594,-518.555,26.367,-115.723,656.512,377.0476573756146
298,1686273950.62,-110.84,-338.379,58.105,-121.094,656.516,377.2719615704515
299,1686273950.62,-18.555,-455.078,49.316,24.414,656.52,377.8907321773573
300,1686273950.63,73.73,-148.926,140.137,43.457,656.522,382.34140606968526
301,1686273950.63,11.23,165.039,173.828,-103.027,656.526,381.6594290867142
302,1686273950.63,-81.543,-137.695,50.781,-148.926,656.53,386.8873023094839
303,1686273950.64,-39.551,-253.906,54.199,-18.555,656.534,391.2203931238306
304,1686273950.64,60.059,32.227,178.223,51.758,656.537,379.86453075883526
305,1686273950.65,33.691,-107.422,104.98,-46.875,656.541,382.7030864629138
306,1686273950.65,-77.148,-551.27,-73.242,-124.512,656.545,375.47805382101285
307,1686273950.65,-78.613,-773.926,-136.719,-29.785,656.549,395.13349515510134
308,1686273950.66,29.785,-173.828,167.48,60.059,656.553,383.38116354194176
309,1686273950.66,54.199,208.984,220.215,-10.254,656.557,391.1436097366083
310,1686273950.66,-53.711,-168.945,47.363,-130.859,656.561,389.0345468990865
311,1686273950.67,-97.168,-295.898,50.293,-91.797,656.565,387.64311677618656
312,1686273950.67,5.859,-163.574,131.836,48.828,656.574,390.80725390542193
313,1686273950.68,72.754,37.109,193.359,44.434,656.578,391.8319061013304
314,1686273950.68,-20.996,-384.277,-2.93,-80.078,656.582,391.2440066625653
315,1686273950.68,-119.629,-529.297,16.602,-121.582,656.586,389.0212064012485
316,1686273950.69,-44.434,-52.734,169.922,-8.301,656.589,400.5228406505291
317,1686273950.69,49.316,-227.539,97.168,49.805,656.593,398.7326761251767
318,1686273950.7,-12.695,-719.238,-200.684,-45.41,656.597,392.0629252237132
319,1686273950.7,-118.164,-897.461,-234.375,-109.375,656.601,397.0752158157303
320,1686273950.7,-78.613,-230.957,176.758,-36.621,656.605,386.57441108665864
321,1686273950.71,47.852,36.621,147.949,64.941,656.609,399.6504308979543
322,1686273950.71,27.344,-388.184,-8.789,-23.926,656.613,392.41030703812385
323,1686273950.72,-86.426,-297.852,85.449,-152.344,656.617,402.5708558869145
324,1686273950.73,-86.914,86.426,207.031,-77.637,656.627,395.49202076516974
325,1686273950.74,23.438,-8.789,145.508,61.035,656.631,399.83791722823787
326,1686273950.74,45.898,-391.602,23.438,17.09,656.635,383.0702017379295
327,1686273950.74,-63.477,-340.332,72.266,-121.582,656.639,391.86933846967776
328,1686273950.75,-104.98,-32.715,163.574,-100.098,656.643,389.61962468471
329,1686273950.75,1.465,-305.176,21.973,68.359,656.647,386.87275135310813
330,1686273950.76,60.547,-919.434,-261.23,107.422,656.651,391.13779678145687
331,1686273950.76,-27.832,-585.938,-53.711,-69.336,656.655,394.91006882670587
332,1686273950.76,-108.398,68.848,215.332,-143.555,656.659,394.43118580959805
333,1686273950.77,-39.551,-149.414,75.684,9.766,656.663,400.3971094999398
334,1686273950.77,67.383,-171.875,104.98,76.66,656.667,396.78978946749885
335,1686273950.77,19.043,73.242,174.316,-54.688,656.67,386.6853263310774
336,1686273950.78,-88.379,15.625,124.512,-130.371,656.672,398.04851095815576
337,1686273950.78,-58.594,-202.148,117.676,-17.578,656.676,398.7711142552576
338,1686273950.78,51.758,-154.785,127.93,77.148,656.68,390.5745161434306
339,1686273950.79,47.852,100.586,177.734,-16.113,656.684,396.293551309092
340,1686273950.79,-58.105,-47.363,108.887,-128.906,656.688,389.754445067662
341,1686273950.8,-77.148,-387.207,21.973,-47.852,656.692,392.38869005351177
342,1686273950.8,29.297,-453.613,37.109,79.102,656.695,383.2302734031616
343,1686273950.8,63.477,-410.156,34.668,31.25,656.699,386.1714114369605
344,1686273950.81,-36.133,-391.602,65.918,-116.699,656.703,386.63330404329497
345,1686273950.81,-91.309,-706.543,-188.965,-87.402,656.707,383.14092851827724
346,1686273950.82,-14.648,-1000.0,-297.363,77.637,656.711,386.7289148491707
347,1686273950.82,56.152,-301.758,125.488,50.781,656.715,389.6325418870426
348,1686273950.82,-8.789,18.555,132.324,-100.098,656.718,386.37746027622677
349,1686273950.83,-89.844,-238.77,59.57,-130.859,656.722,380.37168969990654
350,1686273950.83,-34.668,-43.945,177.246,-5.859,656.725,386.2730630376646
351,1686273950.83,68.359,207.031,209.961,67.383,656.729,381.6240275319323
352,1686273950.84,30.273,-9.766,96.68,-37.598,656.733,390.25807857863276
353,1686273950.84,-78.125,-498.047,-47.363,-111.328,656.737,384.662382605829
354,1686273950.85,-63.477,-330.078,60.547,-18.066,656.741,378.6341636751139
355,1686273950.85,51.27,17.09,178.223,82.031,656.745,392.18939122799003
356,1686273950.85,63.965,-364.746,-70.801,24.414,656.749,384.35802940006073
357,1686273950.86,-58.594,-929.199,-287.109,-77.148,656.753,383.4355612103874
358,1686273950.86,-102.539,-406.25,77.637,-61.035,656.757,390.5964384394036
359,1686273950.86,16.113,147.949,208.008,56.152,656.761,394.13996460123207
360,1686273950.87,71.289,-137.695,99.609,50.293,656.762,384.23777092967026
361,1686273950.87,-37.109,-140.137,127.441,-98.633,656.766,377.73952456467174
362,1686273950.87,-107.422,77.148,158.203,-105.469,656.77,386.9287082055485
363,1686273950.88,-10.742,73.242,153.32,51.758,656.774,390.50569169306306
364,1686273950.88,58.594,-192.383,108.398,77.148,656.778,381.84806641759263
365,1686273950.89,-22.461,-514.16,17.578,-64.453,656.781,383.494784493549
366,1686273950.89,-96.68,-518.555,3.418,-107.91,656.785,384.76239291324356
367,1686273950.89,-54.688,-369.141,85.938,6.836,656.789,385.7743094259221
368,1686273950.9,45.41,-651.367,-131.348,108.887,656.793,392.6930768342251
369,1686273950.9,10.742,-950.195,-280.273,1.465,656.797,390.16277514598124
370,1686273950.9,-104.492,-495.117,18.066,-140.625,656.801,384.0030431314434
371,1686273950.91,-99.609,-298.828,49.316,-56.152,656.805,388.8502640784265
372,1686273950.91,16.113,-365.723,75.195,71.777,656.807,388.6966317354848
373,1686273950.92,38.574,-76.172,158.203,3.418,656.811,391.5540951117284
374,1686273950.92,-55.176,166.016,166.504,-131.348,656.815,384.8113981070273
375,1686273950.92,-83.496,-81.055,66.406,-79.102,656.819,382.58229105497026
376,1686273950.93,14.648,-173.828,88.379,64.941,656.823,391.2818441746114
377,1686273950.93,75.195,-152.832,118.652,63.477,656.826,395.1465156070542
378,1686273950.94,-17.578,-265.625,56.152,-79.102,656.83,391.7751198238164
379,1686273950.94,-93.262,-497.07,-59.57,-85.449,656.834,384.3645533518226
380,1686273950.94,-24.414,-710.938,-84.473,71.289,656.838,396.83486386174656
381,1686273950.95,61.035,-104.98,169.434,73.73,656.842,396.1031410098907
382,1686273950.95,9.277,214.355,173.34,-64.941,656.846,393.2128903887658
383,1686273950.95,-93.262,-162.109,71.289,-121.094,656.85,390.55495002535616
384,1686273950.96,-56.152,-224.121,73.73,1.953,656.856,395.20180623430787
385,1686273950.96,60.547,-82.031,149.414,92.285,656.86,398.4831244520815
386,1686273950.96,42.969,7.324,156.25,-22.461,656.864,389.62110216140275
387,1686273950.97,-73.242,-385.742,-18.066,-116.699,656.868,394.2144402527929
388,1686273950.97,-68.848,-523.438,8.301,-41.016,656.872,388.2540121486105
389,1686273950.98,52.246,-254.883,109.863,80.566,656.876,391.3540001385114
390,1686273950.98,67.383,-276.855,102.051,33.203,656.88,387.6672865865611
391,1686273950.98,-37.109,-672.363,-166.504,-76.172,656.884,394.95562751114073
392,1686273950.99,-101.562,-839.355,-180.176,-55.664,656.888,392.4967842496923
393,1686273950.99,-10.254,-59.082,196.289,48.828,656.892,401.655066462878
394,1686273951.0,70.801,126.465,109.863,66.895,656.895,389.2003356049922
395,1686273951.0,0.488,-221.68,50.293,-64.453,656.899,401.7235752773599
396,1686273951.02,-89.355,-121.582,145.508,-108.398,656.912,392.18824627983764
397,1686273951.02,-32.715,184.082,217.285,13.184,656.916,383.77409643746097
398,1686273951.02,68.848,-21.973,103.516,83.008,656.92,390.59853647092314
399,1686273951.03,17.09,-497.07,-36.133,-24.414,656.924,392.246411724683
400,1686273951.03,-88.379,-318.848,86.914,-115.723,656.928,379.96151719718006
401,1686273951.04,-68.359,-179.199,118.164,-11.23,656.932,386.98546517424217
402,1686273951.04,54.688,-437.5,-25.879,101.074,656.936,389.6696769406337
403,1686273951.04,60.547,-894.531,-290.039,39.062,656.94,382.2878747855659
404,1686273951.05,-73.242,-564.941,-53.223,-116.699,656.943,380.9816101224584
405,1686273951.05,-99.121,113.281,208.496,-93.75,656.947,389.51523197859717
406,1686273951.06,20.996,-101.562,55.664,79.102,656.951,387.38324134378
407,1686273951.06,77.148,-166.016,90.82,58.594,656.955,379.59210132562447
408,1686273951.06,-22.949,2.93,152.832,-104.004,656.957,372.68475857730294
409,1686273951.06,-93.262,2.441,139.648,-100.586,656.961,381.7009113419577
410,1686273951.07,4.395,-144.043,138.672,60.547,656.965,379.10658069258136
411,1686273951.07,86.914,-64.453,138.184,83.496,656.969,378.71571325553003
412,1686273951.08,14.16,84.961,126.465,-71.777,656.973,371.86894509195196
413,1686273951.08,-82.031,-289.551,41.016,-106.934,656.977,370.1573736985887
414,1686273951.08,-38.574,-492.676,34.18,33.203,656.981,374.7681710925319
415,1686273951.09,62.5,-410.645,59.57,100.586,656.985,365.2870073728959
416,1686273951.09,38.574,-258.301,116.699,7.324,657.002,355.4710826002643
417,1686273951.09,23.438,-285.156,104.004,-16.602,656.989,359.9539965705574
418,1686273951.1,-63.965,-0.977,97.168,-125.488,657.006,359.7717885408444
419,1686273951.1,-77.148,-90.82,134.277,-128.418,656.992,363.0472765839546
420,1686273951.1,-90.82,-310.547,-11.23,-57.129,657.01,364.29787123189476
421,1686273951.1,-65.918,-607.422,-195.801,-14.16,656.996,361.635521966304
422,1686273951.1,20.996,-37.109,156.738,72.266,657.014,346.5103814734285
423,1686273951.1,35.156,-1000.0,-297.852,123.535,657.0,351.48522583391934
424,1686273951.11,77.637,181.641,187.012,50.293,657.018,360.10719547744606
425,1686273951.11,-20.508,-297.852,-28.809,-75.684,657.021,358.1935756119135
426,1686273951.12,-104.004,-599.121,-41.504,-91.797,657.025,359.30570041385135
427,1686273951.12,-26.367,-105.957,152.344,21.484,657.029,356.08289627528984
428,1686273951.12,69.336,69.824,160.156,62.988,657.033,347.2231430581689
429,1686273951.13,8.301,-446.777,-97.656,-41.016,657.037,353.88229583966955
430,1686273951.13,-100.586,-945.312,-291.992,-79.59,657.041,342.98910110815467
431,1686273951.13,-75.195,-335.449,104.492,-2.93,657.045,338.841205040584
432,1686273951.15,47.363,182.617,199.219,61.523,657.047,328.72967303195406
433,1686273951.16,38.086,-165.039,68.848,-19.531,657.051,323.4102918983451
434,1686273951.16,-73.242,-180.664,97.168,-126.465,657.055,326.67024613919534
435,1686273951.16,-72.754,95.703,154.785,-48.34,657.059,320.95751402334486
436,1686273951.17,48.34,153.32,196.777,75.684,657.063,333.0781448756205
437,1686273951.17,74.219,-322.266,16.602,41.016,657.066,309.2333737525157
438,1686273951.18,-48.34,-631.836,-64.941,-83.984,657.07,313.4034734002999
439,1686273951.18,-110.352,-415.039,58.105,-72.754,657.074,314.10275898463453
440,1686273951.18,0.977,-99.121,130.859,52.734,657.078,301.56861812059924
441,1686273951.19,76.172,-542.969,-170.898,80.566,657.082,297.3146068895616
442,1686273951.19,-29.297,-822.266,-216.797,-62.012,657.086,297.42154321205936
443,1686273951.19,-115.723,-285.156,114.258,-130.371,657.09,296.3073442714682
444,1686273951.2,-31.738,-161.621,94.727,14.648,657.092,300.41472536397714
445,1686273951.2,63.965,-300.781,83.496,75.684,657.096,287.556588225357
446,1686273951.2,7.324,-103.027,139.648,-54.199,657.1,285.4744300218034
447,1686273951.21,-94.727,145.02,157.227,-134.766,657.104,291.14430836542823
448,1686273951.21,-59.082,-52.734,96.68,-8.789,657.108,270.98464902596254
449,1686273951.22,58.594,-368.652,24.414,112.305,657.112,273.1660978498175
450,1686273951.22,46.387,-305.176,71.777,-0.488,657.116,284.21151587367086
451,1686273951.22,-66.895,54.199,199.707,-139.16,657.119,283.79336730842437
452,1686273951.23,-82.031,-276.855,-15.625,-37.598,657.123,271.3262512111689
453,1686273951.23,28.809,-740.234,-128.418,101.074,657.127,271.4967369480713
454,1686273951.24,52.734,-174.316,161.133,14.16,657.131,264.2632678838188
455,1686273951.24,-45.898,115.234,150.879,-121.094,657.135,254.328174352329
456,1686273951.24,-91.309,-214.355,47.363,-98.145,657.14,250.68810444776722
457,1686273951.25,-6.348,-260.742,65.43,46.875,657.144,255.23994102971233
458,1686273951.25,65.43,-139.648,154.785,70.312,657.148,257.9013089448031
459,1686273951.25,-5.859,-9.277,149.902,-83.496,657.152,249.1992637556689
460,1686273951.26,-86.426,-445.312,-84.473,-104.98,657.156,261.6406627895334
461,1686273951.26,-38.574,-786.621,-129.883,33.691,657.16,250.77332207596282
462,1686273951.27,52.246,-418.457,41.504,72.266,657.164,240.08450238285116
463,1686273951.27,14.648,-279.297,80.078,-43.945,657.168,236.72412642359106
464,1686273951.27,-89.355,-679.199,-169.922,-103.027,657.171,235.576049379915
465,1686273951.28,-78.613,-864.258,-250.488,-13.184,657.175,235.1391369309229
466,1686273951.28,31.25,-97.656,134.766,42.48,657.179,233.8002437921722
467,1686273951.28,47.852,34.668,96.191,-26.855,657.183,223.9831846145955
468,1686273951.29,-62.012,-261.23,42.48,-133.789,657.182,224.75676568825656
469,1686273951.29,-97.168,-89.355,133.789,-94.238,657.186,228.68626906024352
470,1686273951.29,18.555,166.016,189.941,35.156,657.19,232.14179289764988
471,1686273951.3,69.336,-41.016,86.914,23.438,657.194,214.95056953415815
472,1686273951.3,-36.133,-479.004,-103.027,-107.91,657.198,221.19568953450107
473,1686273951.31,-122.559,-496.094,-24.414,-109.375,657.202,225.8635216920298
474,1686273951.31,-32.227,-297.363,77.148,35.156,657.206,219.49047978326968
475,1686273951.31,84.473,-352.051,-36.133,85.938,657.21,220.85499344420802
476,1686273951.32,7.324,-886.719,-291.016,-31.738,657.213,221.7974720114095
477,1686273951.32,-123.535,-474.609,-16.602,-155.762,657.217,210.69431321671797
478,1686273951.32,-70.312,122.559,194.824,-52.246,657.221,213.84823675837686
479,1686273951.33,51.758,-186.523,54.199,62.988,657.225,218.32695464777066
480,1686273951.33,17.578,-184.57,62.012,-59.082,657.271,216.70179671944712
481,1686273951.34,-97.168,7.324,108.398,-166.504,657.275,214.4035411776709
482,1686273951.34,-88.379,26.855,130.859,-70.312,657.279,215.16076789011015
483,1686273951.34,32.227,-97.168,139.16,63.477,657.282,226.6952142816135
484,1686273951.35,46.875,-83.008,132.324,-2.441,657.286,213.87381077839592
485,1686273951.35,-65.43,-226.562,40.527,-126.465,657.29,214.2953172537443
486,1686273951.36,-108.887,-435.059,39.062,-90.332,657.294,220.77632778368275
487,1686273951.36,-4.883,-653.809,-134.766,74.219,657.298,210.31112815316573
488,1686273951.36,40.527,-1000.0,-377.441,92.285,657.302,222.00042619175258
489,1686273951.37,-55.176,-455.078,12.207,-107.91,657.306,219.76424810056258
490,1686273951.37,-110.84,7.324,130.859,-136.719,657.31,216.45132484328477
491,1686273951.37,-36.621,-173.828,68.359,15.137,657.314,218.6335005818473
492,1686273951.38,50.293,42.969,176.27,44.434,657.278,208.66532381876027
493,1686273951.38,-7.812,174.805,186.035,-78.613,657.282,221.26891357423764
494,1686273951.39,-103.516,-102.051,45.41,-135.742,657.286,220.0283901913931
495,1686273951.39,-69.824,-268.555,-16.602,-19.043,657.29,231.22907047205595
496,1686273951.39,38.086,-63.477,110.84,70.312,657.294,221.98045717831792
497,1686273951.4,21.484,-194.824,72.754,-24.902,657.298,236.044552121079
498,1686273951.4,-89.844,-562.988,-107.422,-126.465,657.302,233.94846924876833
499,1686273951.4,-97.656,-701.66,-145.996,-45.41,657.306,223.59464629072414
500,1686273951.41,11.23,-142.578,124.512,46.875,657.309,234.05916693140662
501,1686273951.41,46.875,57.129,137.207,-3.906,657.313,231.2490007272705
502,1686273951.42,-57.129,-522.461,-105.469,-106.934,657.317,228.6467274766169
503,1686273951.42,-104.492,-506.836,-69.824,-83.984,657.321,228.95491019448042
504,1686273951.42,-1.465,65.43,191.895,50.293,657.32,235.5229629355065
505,1686273951.43,67.871,127.93,119.629,61.035,657.324,240.0593137190976
506,1686273951.43,-14.16,-406.738,-63.965,-71.289,657.328,229.21723845374748
507,1686273951.43,-98.145,-433.105,52.246,-104.004,657.331,241.4270994140041
508,1686273951.44,-35.645,30.762,177.734,22.461,657.335,222.94855729433766
509,1686273951.44,59.57,-138.184,96.68,81.543,657.339,239.78926732769756
510,1686273951.45,13.672,-627.93,-174.316,-16.113,657.343,240.06537035368083
511,1686273951.45,-104.004,-1000.0,-472.656,-66.406,657.347,243.57337428745964
512,1686273951.45,-94.727,-639.16,-125.977,-12.207,657.351,250.79636685143655
513,1686273951.46,32.227,1.953,134.766,50.293,657.355,240.18953113075838
514,1686273951.46,28.32,-80.566,69.336,-21.973,657.359,245.40541400678364
515,1686273951.46,-92.773,-83.008,98.145,-141.602,657.363,245.1814667860976
516,1686273951.48,-111.328,-89.844,97.656,-73.73,657.381,258.9122166249067
517,1686273951.49,12.207,-63.477,112.305,66.406,657.385,250.2584557672454
518,1686273951.49,53.711,-209.473,59.57,36.133,657.389,263.7494790893774
519,1686273951.49,-49.805,-104.004,104.004,-117.188,657.393,254.92406826480828
520,1686273951.5,-91.797,39.062,126.465,-108.887,657.397,252.81808436841385
521,1686273951.5,-3.418,-257.812,14.16,60.059,657.401,255.0588968749582
522,1686273951.51,53.711,-867.676,-260.254,93.75,657.405,269.65789682437816
523,1686273951.51,-24.902,-579.102,-80.078,-83.008,657.409,257.9440329299002
524,1686273951.51,-105.469,74.219,179.688,-149.902,657.412,269.5153140591749
525,1686273951.52,-41.016,-152.832,43.457,12.207,657.416,270.0210457537863
526,1686273951.52,63.965,-180.176,45.898,84.473,657.42,262.49912015004793
527,1686273951.52,27.344,78.125,142.578,-50.781,657.424,266.720131576093
528,1686273951.54,-75.195,59.082,132.324,-132.324,657.437,273.87829292445434
529,1686273951.54,-69.824,-154.785,95.703,-29.785,657.441,274.6436475463505
530,1686273951.55,31.738,-287.109,25.879,73.73,657.445,267.3500485032403
531,1686273951.55,40.039,-162.109,63.965,-4.883,657.449,285.18354691221214
532,1686273951.56,-64.453,-8.789,131.348,-140.137,657.453,273.81037166368225
533,1686273951.56,-93.262,-415.039,-32.227,-76.66,657.457,281.3078573840298
534,1686273951.56,8.301,-638.672,-49.316,76.66,657.461,279.74670723034296
535,1686273951.57,56.641,-393.066,25.391,45.41,657.464,279.8087730165628
536,1686273951.57,-7.812,-19.043,102.539,-107.91,657.468,286.532246287336
537,1686273951.57,-37.598,-326.66,44.922,-118.164,657.468,285.60361758229163
538,1686273951.58,-103.516,-234.375,21.484,-154.297,657.472,291.3327032279516
539,1686273951.58,-105.957,-654.297,-180.176,-99.121,657.472,279.89784986385166
540,1686273951.58,-66.895,0.977,143.555,-26.367,657.476,279.8134076491819
541,1686273951.58,-29.297,-1000.0,-405.273,75.684,657.476,284.8355091642928
542,1686273951.58,51.758,241.699,192.871,62.988,657.479,290.7978040911318
543,1686273951.58,48.828,-459.961,-18.555,53.223,657.48,285.94054475000576
544,1686273951.59,22.461,-74.219,39.551,-30.762,657.483,299.1478411591071
545,1686273951.59,-89.355,-498.047,-100.586,-116.699,657.487,294.3596088442813
546,1686273951.6,-84.473,-467.285,-32.715,-34.18,657.491,295.57239012018493
547,1686273951.6,22.949,-131.348,120.117,68.359,657.495,301.58488899938664
548,1686273951.6,46.387,-250.0,-11.23,4.395,657.499,291.7240167714331
549,1686273951.61,-62.988,-552.246,-139.16,-119.141,657.503,283.0259370247238
550,1686273951.61,-103.516,-102.051,133.301,-92.285,657.507,300.1966888695519
551,1686273951.61,15.137,199.219,211.426,46.875,657.511,301.69128050287964
552,1686273951.62,83.008,-330.566,-81.543,62.5,657.512,293.6799414420791
553,1686273951.62,-17.09,-971.191,-329.59,-53.223,657.516,297.10970891902616
554,1686273951.62,-102.539,-382.812,52.734,-109.863,657.52,302.4230157577952
555,1686273951.63,-23.438,68.848,171.875,25.879,657.524,296.16539320486885
556,1686273951.63,74.707,-131.836,77.637,83.008,657.528,295.7436038159699
557,1686273951.64,20.508,-339.355,30.762,-48.828,657.531,313.68568521278377
558,1686273951.64,-85.449,-413.574,-21.484,-116.211,657.535,288.0913918951327
559,1686273951.64,-58.105,-380.859,16.602,-6.836,657.539,303.7701234050479
560,1686273951.65,57.129,-648.438,-161.133,106.934,657.543,307.34332417648466
561,1686273951.65,40.039,-1000.0,-378.418,27.344,657.547,310.11317905736973
562,1686273951.66,-85.938,-451.66,-13.672,-140.137,657.551,308.7285315085177
563,1686273951.66,-80.078,-28.32,94.238,-79.59,657.555,311.16810562364446
564,1686273951.66,44.434,-171.875,56.641,68.359,657.558,307.60221225953956
565,1686273951.66,66.895,50.781,177.734,6.836,657.561,301.36980630500886
566,1686273951.67,-33.691,164.062,175.781,-131.836,657.565,310.0149904011911
567,1686273951.67,-77.148,-27.832,71.289,-94.238,657.569,301.251196630147
568,1686273951.68,18.066,-210.449,-6.348,46.875,657.573,300.0774619525183
569,1686273951.68,79.102,-268.066,5.859,52.734,657.577,309.44610515530513
570,1686273951.68,-11.23,-204.59,80.078,-95.215,657.581,308.51287594996296
571,1686273951.69,-90.332,-332.031,-20.508,-124.512,657.585,304.52217308046403
572,1686273951.69,-28.809,-692.871,-175.293,38.574,657.589,313.7224549496787
573,1686273951.7,62.012,-197.266,81.055,62.5,657.593,313.43498484974583
574,1686273951.7,26.367,-5.859,95.215,-65.43,657.597,324.34443393635587
575,1686273951.7,-73.73,-586.426,-142.09,-115.723,657.601,311.643742103664
576,1686273951.71,-63.477,-554.199,-99.121,-21.484,657.602,318.27180640525853
577,1686273951.71,56.152,94.238,192.383,63.477,657.606,319.5165664801535
578,1686273951.71,62.988,69.824,119.141,-11.23,657.61,329.00062040362855
579,1686273951.72,-59.57,-274.902,-19.043,-128.418,657.614,320.2957499973398
580,1686273951.72,-80.078,-167.48,82.52,-73.73,657.618,317.37437792274824
581,1686273951.73,31.738,-145.02,81.543,64.941,657.621,330.1218286410886
582,1686273951.73,67.871,-296.875,37.598,44.922,657.625,335.96148565462914
583,1686273951.73,-36.133,-661.133,-206.055,-69.336,657.629,336.76746494877193
584,1686273951.74,-110.84,-918.457,-312.988,-72.754,657.633,346.07708775010383
585,1686273951.74,-27.344,-152.832,124.023,20.996,657.637,351.41225389033673
586,1686273951.74,56.641,88.379,108.887,47.852,657.641,351.5767722552374
587,1686273951.75,-19.531,-208.496,14.16,-85.938,657.645,333.32563408137634
588,1686273951.75,-100.098,-102.051,97.168,-135.742,657.65,320.0248418909745
589,1686273951.76,-38.574,-74.707,124.023,3.418,657.654,321.4697567128342
590,1686273951.76,61.035,-130.371,57.617,80.078,657.658,322.2132154742929
591,1686273951.76,26.367,-346.191,5.859,-34.18,657.662,321.94440848322523
592,1686273951.77,-80.078,-221.191,82.52,-129.883,657.666,316.9417077552642
593,1686273951.77,-76.172,-216.797,50.293,-27.832,657.67,325.30196610029566
594,1686273951.78,39.062,-487.793,-66.895,90.332,657.674,314.9905196446564
595,1686273951.78,43.457,-723.145,-177.246,29.785,657.678,324.1590505906326
596,1686273951.78,-73.73,-305.664,74.707,-124.512,657.682,323.370123616453
597,1686273951.79,-92.285,117.188,178.223,-86.426,657.685,318.51268914094067
598,1686273951.79,20.508,-124.512,40.039,67.383,657.689,320.0996800827019
599,1686273951.8,74.219,-145.02,79.102,42.969,657.693,327.88762845357223
600,1686273951.8,-19.531,101.074,167.969,-98.145,657.706,318.4009196409786
601,1686273951.8,-82.52,75.195,116.211,-97.656,657.71,317.90479354168485
602,1686273951.8,-9.766,-141.602,77.637,54.199,657.714,325.35244361905865
603,1686273951.81,68.359,-280.273,44.434,94.238,657.718,320.84586985108854
604,1686273951.81,1.953,-220.215,28.32,-57.617,657.722,314.796880760907
605,1686273951.82,-98.633,-259.766,44.434,-119.629,657.726,315.3327339609722
606,1686273951.82,-48.828,-658.691,-163.574,41.504,657.729,326.06507226983877
607,1686273951.82,48.34,-1000.0,-416.504,131.348,657.733,320.32438601741245
608,1686273951.83,13.672,-516.113,-58.105,-32.227,657.737,311.9574631687972
609,1686273951.83,-82.52,-4.883,106.445,-151.855,657.741,317.45707205236687
610,1686273951.84,-85.449,-197.266,10.254,-56.152,657.745,323.56006186868325
611,1686273951.84,29.785,1.465,145.996,60.547,657.749,322.11976538899614
612,1686273951.84,59.082,199.219,167.969,1.953,657.752,321.01359839411043
613,1686273951.84,-49.316,-42.969,51.27,-119.629,657.756,322.58286384431204
614,1686273951.85,-100.586,-230.957,-5.859,-84.473,657.759,321.2638787100324
615,1686273951.85,-3.906,31.738,127.93,51.27,657.763,314.60147109467255
616,1686273951.86,72.266,166.016,150.391,48.828,657.767,320.938575737057
617,1686273951.86,-6.836,-339.355,-80.566,-70.801,657.771,329.52492962475816
618,1686273951.86,-102.051,-830.566,-229.492,-80.078,657.775,327.8215855391328
619,1686273951.87,-37.109,-431.641,34.668,27.344,657.779,321.95189493250024
620,1686273951.87,70.312,174.316,222.168,61.035,657.783,324.6429240319188
621,1686273951.88,13.184,-230.957,-69.824,-41.992,657.787,333.24003110525416
622,1686273951.88,-104.492,-718.75,-196.777,-99.609,657.791,313.0014950983706
623,1686273951.88,-75.684,-90.82,149.414,-26.367,657.795,332.46649251138825
624,1686273951.93,53.711,202.148,187.012,59.082,657.827,320.7541204822044
625,1686273951.93,-38.086,9.277,104.492,-7.812,657.84,316.2093966237458
626,1686273951.94,34.668,-145.996,39.551,-14.16,657.831,327.9255168138595
627,1686273951.94,61.523,-166.992,56.152,59.57,657.844,324.5356991853382
628,1686273951.94,-82.52,-203.613,46.387,-118.652,657.835,324.11331917822037
629,1686273951.94,10.254,-29.297,128.418,-73.242,657.848,326.1014846249195
630,1686273951.94,-84.961,50.293,133.301,-63.477,657.839,335.74120733254745
631,1686273951.95,-95.215,84.961,142.09,-154.785,657.852,330.0861914976767
632,1686273951.95,34.18,76.66,93.75,66.895,657.843,337.6441096274344
633,1686273951.95,-65.918,-98.633,66.895,-36.133,657.856,326.6554568792829
634,1686273951.95,66.406,-332.031,-39.062,53.711,657.847,323.16269527530625
635,1686273951.95,44.434,-486.328,-92.773,86.914,657.86,327.3125232930028
636,1686273951.96,-47.852,-643.066,-104.492,-77.148,657.851,325.69328262070843
637,1686273951.96,-107.91,-459.473,-18.066,-73.73,657.854,323.7253255189805
638,1686273951.96,45.898,-500.977,-43.457,10.742,657.864,329.84828544232556
639,1686273951.96,-59.57,-139.648,109.863,-124.512,657.867,320.05529666129934
640,1686273951.96,-6.836,-200.195,104.492,59.082,657.858,336.9644283571591
641,1686273951.96,-83.984,-316.406,-23.926,-62.988,657.871,346.55476375150045
642,1686273951.97,72.754,-597.168,-178.711,87.402,657.862,328.981125146185
643,1686273951.97,22.949,-494.629,-97.168,80.078,657.875,326.24409928208706
644,1686273951.97,-29.297,-1000.0,-336.426,-53.711,657.866,324.6705710592926
645,1686273951.97,57.129,-14.16,134.277,24.902,657.879,324.5562060483072
646,1686273951.97,-120.117,-321.289,83.496,-140.625,657.87,324.5208269478194
647,1686273951.98,-40.039,-141.602,44.434,-110.84,657.883,324.53393908019854
648,1686273951.99,-93.75,-604.98,-98.633,-76.172,657.887,326.19794129220463
649,1686273952.0,-12.695,-411.133,18.066,55.664,657.891,328.10512218755224
650,1686273952.0,68.848,51.758,158.203,59.57,657.895,334.70145829654564
651,1686273952.0,10.742,37.109,119.141,-82.52,657.899,325.42157587853256
652,1686273952.01,-83.496,-507.324,-130.859,-100.098,657.903,326.85927843857803
653,1686273952.01,-42.48,-1000.0,-426.758,71.289,657.907,328.90228547061065
654,1686273952.02,52.734,-787.598,-198.242,99.609,657.911,325.24493737679467
655,1686273952.02,16.113,-354.492,34.18,-55.176,657.915,328.36693604919395
656,1686273952.02,-91.309,-694.824,-209.961,-120.117,657.918,320.93202883472634
657,1686273952.03,-94.238,-630.371,-136.719,-32.227,657.922,329.81068653700163
658,1686273952.03,18.555,153.32,224.609,44.434,657.926,339.70110636791946
659,1686273952.03,41.016,70.312,96.191,-18.555,657.93,321.96284284175795
660,1686273952.04,-74.707,-193.359,20.02,-147.461,657.935,329.5252470295887
661,1686273952.04,-113.281,-109.863,62.012,-104.004,657.939,329.4121961839195
662,1686273952.04,6.348,-63.965,110.352,49.805,657.943,335.52300792908454
663,1686273952.05,60.059,-145.508,43.945,38.086,657.947,329.97290709316775
664,1686273952.05,-30.273,-442.871,-44.434,-98.633,657.951,330.32361033241017
665,1686273952.06,-100.098,-493.164,17.578,-114.258,657.955,328.1916347903476
666,1686273952.06,-29.297,-211.914,119.629,18.555,657.959,323.0017099539737
667,1686273952.06,71.289,-169.434,49.316,71.777,657.963,326.434285974729
668,1686273952.07,10.254,-675.781,-203.613,-46.387,657.967,328.88104575612545
669,1686273952.07,-99.609,-283.691,64.941,-141.113,657.971,327.62158037507857
670,1686273952.08,-52.734,141.602,155.273,-23.926,657.975,328.46910174958845
671,1686273952.08,60.059,-166.504,39.551,80.566,657.978,331.345978587725
672,1686273952.08,38.574,-217.773,46.875,-27.832,657.982,331.4177856999268
673,1686273952.08,-73.242,52.246,121.582,-140.137,657.986,333.394118346665
674,1686273952.09,-70.801,62.988,122.07,-47.363,657.99,322.74745104251537
675,1686273952.09,41.992,-165.527,32.715,82.031,657.994,339.8095925524925
676,1686273952.1,56.641,-290.527,17.578,23.438,657.998,325.15272418839504
677,1686273952.1,-43.945,-403.809,-5.371,-100.098,658.002,336.83647186431676
678,1686273952.1,-87.891,-437.5,14.648,-72.754,658.006,329.56274771549045
679,1686273952.11,11.23,-646.973,-155.273,89.355,658.01,325.4422986425697
680,1686273952.11,70.801,-1000.0,-404.297,116.699,658.013,335.93135670981223
681,1686273952.12,-20.508,-497.07,-19.531,-83.496,658.017,328.7517961547671
682,1686273952.12,-95.215,-21.973,119.629,-136.719,658.021,328.7916786950197
683,1686273952.12,-33.203,-159.668,53.711,24.414,658.025,352.85692128793124
684,1686273952.13,56.641,41.504,160.645,59.57,658.025,340.9439640507565
685,1686273952.13,13.672,168.457,148.926,-73.242,658.028,340.60252059564704
686,1686273952.14,-91.309,-93.262,49.805,-133.301,658.032,334.1593135075341
687,1686273952.14,-69.336,-222.168,24.414,-18.066,658.036,325.9613284933052
688,1686273952.15,50.293,38.574,143.066,77.637,658.04,330.44570356484047
689,1686273952.15,46.387,-123.535,83.496,-13.672,658.044,337.85707208489725
690,1686273952.15,-73.242,-522.949,-94.238,-115.234,658.048,339.972741020789
691,1686273952.16,-101.074,-938.477,-318.359,-14.648,658.052,336.7542850547844
692,1686273952.16,10.742,-494.141,-3.906,76.66,658.056,341.6691788607068
693,1686273952.16,59.082,204.102,222.168,-6.836,658.06,326.51171446643593
694,1686273952.17,-40.527,-192.383,-14.16,-125.0,658.064,344.4745392563571
695,1686273952.17,-5.859,56.641,155.273,26.367,658.068,337.2214253756678
696,1686273952.17,-100.098,-394.043,-3.418,-108.398,658.067,329.2417311201338
697,1686273952.18,79.59,178.711,149.414,51.758,658.072,321.48975846129713
698,1686273952.18,-8.301,-181.152,19.043,-76.172,658.076,330.3518305325636
699,1686273952.18,-105.957,-231.934,51.758,-118.164,658.079,331.86360567970775
700,1686273952.19,-32.227,-35.645,117.188,14.16,658.083,325.8164961507095
701,1686273952.19,66.895,-196.777,52.734,73.73,658.087,338.72414473683955
702,1686273952.2,20.508,-709.961,-218.262,-7.324,658.091,335.7972507306124
703,1686273952.2,-85.449,-776.855,-222.656,-85.938,658.095,321.83277289486585
704,1686273952.2,-65.43,-112.793,135.742,-43.945,658.099,339.09480261518826
705,1686273952.21,54.688,35.645,119.629,62.012,658.103,332.784401280238
706,1686273952.21,49.316,-642.578,-207.52,26.367,658.107,333.61977975839574
707,1686273952.21,-73.242,-712.402,-169.922,-116.211,658.111,345.57049569246584
708,1686273952.22,-88.867,30.762,203.613,-99.609,658.126,332.7591485813433
709,1686273952.22,31.738,-34.18,62.5,72.266,658.13,337.9178192845289
710,1686273952.22,72.754,-451.66,-53.223,60.059,658.134,338.2522345591669
711,1686273952.23,-30.762,-235.352,97.656,-112.305,658.138,332.0522425244235
712,1686273952.23,-91.797,103.027,157.227,-120.605,658.142,325.9408645500139
713,1686273952.24,8.301,-218.75,-21.973,41.016,658.146,321.4312662715063
714,1686273952.24,88.867,-798.828,-215.82,85.938,658.15,337.45661146515516
715,1686273952.24,8.301,-419.434,15.137,-76.172,658.154,330.27677894860045
716,1686273952.25,-83.008,111.816,169.434,-144.043,658.158,335.40549420249226
717,1686273952.25,-37.598,-157.715,41.016,-5.859,658.161,334.41185635083065
718,1686273952.26,64.453,-202.148,38.574,72.754,658.165,338.346315508843
719,1686273952.26,37.598,32.715,121.582,-42.969,658.169,331.97729492076627
720,1686273952.26,-75.195,-167.969,43.457,-132.812,658.172,336.2764453162351
721,1686273952.27,-77.148,-618.164,-97.656,-24.414,658.175,332.45466837614634
722,1686273952.27,41.016,-496.094,-1.953,90.332,658.179,332.18502659491605
723,1686273952.27,57.617,51.758,175.781,6.836,658.183,333.7543236599325
724,1686273952.28,-38.574,9.277,120.117,-123.535,658.187,328.94103256094627
725,1686273952.28,-79.102,-371.094,-13.184,-68.359,658.191,341.16283556656435
726,1686273952.29,13.184,-503.906,-38.574,84.473,658.195,340.55393418912394
727,1686273952.29,74.219,-350.098,49.316,62.012,658.199,335.0329268288226
728,1686273952.29,-22.461,-119.141,98.145,-107.422,658.203,323.813752273175
729,1686273952.3,-98.633,-597.656,-183.105,-98.145,658.207,335.2746346082053
730,1686273952.3,-20.02,-785.156,-190.918,60.547,658.211,337.3625752399375
731,1686273952.3,73.73,56.641,214.355,56.641,658.215,337.02117855775793
732,1686273952.32,24.902,56.641,87.891,-74.707,658.218,330.00841543761663
733,1686273952.32,-73.73,-350.098,-29.297,-122.07,658.221,333.3754707869597
734,1686273952.33,-45.898,-286.621,45.898,-3.418,658.225,328.11694225520074
735,1686273952.33,57.129,-44.922,123.535,78.125,658.229,335.5771015653191
736,1686273952.34,42.48,-69.824,42.48,-20.996,658.233,328.38216113115215
737,1686273952.34,-71.777,-680.664,-195.312,-114.746,658.237,327.5776394431685
738,1686273952.34,-91.309,-554.199,-25.879,-59.082,658.241,321.4459264719519
739,1686273952.35,29.297,98.145,177.246,28.809,658.245,328.6761951341281
740,1686273952.35,53.711,-158.691,-30.273,8.789,658.249,337.0309856799138
741,1686273952.36,-59.57,-618.164,-131.836,-94.238,658.253,333.3387772795642
742,1686273952.36,-105.957,-141.113,129.395,-99.609,658.257,332.6447738950987
743,1686273952.36,2.441,141.602,129.395,46.875,658.26,329.2452201458174
744,1686273952.37,78.125,-146.484,55.664,66.895,658.262,335.28337484655106
745,1686273952.37,-0.977,-203.613,53.711,-83.496,658.266,329.3958901678405
746,1686273952.37,-72.266,-16.113,127.441,-115.723,658.27,331.45981848106925
747,1686273952.38,-16.602,17.578,148.926,16.113,658.274,331.5425781292438
748,1686273952.38,74.707,-246.094,-24.902,77.637,658.278,324.34319287715095
749,1686273952.39,31.25,-509.277,-111.328,-30.762,658.282,345.0978611935861
750,1686273952.39,-81.055,-492.676,-33.203,-107.422,658.286,337.0900415713826
751,1686273952.39,-60.059,-431.152,33.691,-10.742,658.289,319.9006620740287
752,1686273952.4,52.734,-671.387,-160.156,110.84,658.293,328.30773757695056
753,1686273952.4,32.227,-1000.0,-406.25,49.805,658.297,332.5231888936699
754,1686273952.4,-87.891,-463.379,-8.301,-121.094,658.301,330.34840994374116
755,1686273952.41,-90.332,-7.812,131.836,-78.613,658.305,327.87591642202636
756,1686273952.41,25.391,-100.586,72.754,65.918,658.307,328.8171204096684
757,1686273952.42,63.477,60.059,135.742,11.719,658.311,328.561479987995
758,1686273952.42,-27.832,114.746,137.207,-121.582,658.315,330.7065760444976
759,1686273952.42,-80.078,-89.355,61.035,-97.168,658.319,327.75254175731715
760,1686273952.43,3.418,-196.289,15.625,51.758,658.323,319.2278772831028
761,1686273952.43,79.59,-269.531,31.738,74.219,658.327,316.5196322666136
762,1686273952.44,2.93,-217.773,64.453,-81.543,658.331,325.80265189647633
763,1686273952.44,-81.055,-256.348,-15.625,-120.117,658.335,328.06612837507834
764,1686273952.44,-26.367,-888.672,-308.594,54.688,658.339,343.5851654663793
765,1686273952.45,56.641,-459.961,-9.766,93.75,658.343,328.7452010197541
766,1686273952.45,22.461,168.945,184.57,-53.711,658.346,333.0252061335339
767,1686273952.45,-74.219,-175.293,2.93,-133.789,658.35,332.01037261981537
768,1686273952.46,-66.406,-238.281,38.086,-46.875,658.366,325.9961510815747
769,1686273952.46,40.039,130.859,168.945,59.57,658.369,328.19861552205094
770,1686273952.46,48.828,133.301,121.582,-0.977,658.373,335.4937531989246
771,1686273952.47,-62.012,-199.707,15.625,-117.676,658.377,348.9355759776526
772,1686273952.47,-89.844,-244.629,8.789,-72.754,658.381,334.03864233672056
773,1686273952.48,15.137,-258.789,16.113,68.359,658.385,344.43209783946037
774,1686273952.48,58.105,-338.379,52.734,42.48,658.389,340.7552382738166
775,1686273952.48,-33.691,-687.012,-242.188,-70.801,658.393,336.8931309229079
776,1686273952.49,-110.352,-938.477,-351.074,-62.5,658.397,336.47142765727756
777,1686273952.49,-36.621,-209.473,114.746,34.18,658.401,326.3421904959711
778,1686273952.5,59.082,-6.348,95.703,63.965,658.405,334.16263049437333
779,1686273952.5,-5.859,-492.676,-76.172,-53.223,658.409,328.10561323316506
780,1686273952.5,-107.422,-282.715,67.383,-119.141,658.397,330.0498769806065
781,1686273952.5,-57.129,171.387,203.125,-3.906,658.401,329.5816499428007
782,1686273952.51,52.734,-32.227,49.316,94.238,658.405,345.7538262829085
783,1686273952.51,20.508,-240.723,-13.672,-14.648,658.409,326.99676456215315
784,1686273952.52,-79.59,-72.266,83.008,-130.371,658.412,333.61417621727844
785,1686273952.52,-73.73,-199.707,55.664,-32.227,658.416,330.7128465132476
786,1686273952.52,41.016,-416.016,-42.48,94.238,658.42,337.2763407792682
787,1686273952.53,49.805,-746.582,-198.73,42.969,658.424,338.6912570000985
788,1686273952.53,-70.312,-398.438,39.551,-112.305,658.428,335.53915824359814
789,1686273952.54,-90.82,121.582,196.777,-97.656,658.432,330.3879658685109
790,1686273952.54,17.578,-232.91,-22.949,58.594,658.436,336.3122338267576
791,1686273952.54,71.777,-333.496,-20.508,53.711,658.44,331.5522310153212
792,1686273952.55,-8.301,-45.898,115.234,-99.121,658.446,334.3345683458086
793,1686273952.55,-82.52,-226.562,26.855,-109.863,658.45,342.27456700357874
794,1686273952.55,-16.113,-650.879,-112.305,47.363,658.454,331.88063750881804
795,1686273952.56,67.383,-481.934,-6.348,88.379,658.458,338.30350825940013
796,1686273952.56,15.625,-9.766,135.254,-47.363,658.461,332.9596813356902
797,1686273952.57,-74.707,-270.996,23.438,-113.281,658.465,324.2397143337528
798,1686273952.57,-30.273,-756.348,-216.797,20.02,658.469,336.65787418365693
799,1686273952.57,75.684,-794.922,-175.293,113.281,658.473,334.81946701994104
800,1686273952.58,50.293,-97.168,174.805,-36.133,658.477,333.8182404157392
801,1686273952.58,-60.547,42.48,86.914,-146.484,658.481,334.23637056126654
802,1686273952.58,-71.289,-465.82,-93.262,-55.664,658.485,337.3066777079931
803,1686273952.59,38.574,-404.785,32.227,63.477,658.489,335.8826360302365
804,1686273952.59,67.871,86.426,189.941,6.348,658.517,321.2415401511287
805,1686273952.6,-28.32,-49.805,58.594,-107.91,658.521,316.04598692428533
806,1686273952.6,-75.195,-256.348,-11.23,-85.449,658.525,340.68945930915476
807,1686273952.6,14.16,-170.898,51.27,47.852,658.529,328.0264974864452
808,1686273952.61,76.172,-128.418,51.758,64.453,658.533,340.31481120616183
809,1686273952.61,-7.324,-299.316,-25.879,-68.359,658.537,334.4531705449454
810,1686273952.62,-100.586,-898.438,-310.059,-72.266,658.541,331.22579802410246
811,1686273952.62,-41.992,-622.07,-117.676,29.785,658.545,325.21724223559585
812,1686273952.62,72.266,97.168,186.035,57.617,658.549,339.78732362492923
813,1686273952.63,38.574,-163.574,0.977,-45.898,658.553,340.6438342347528
814,1686273952.63,-76.66,-334.961,-6.348,-132.324,658.556,336.8979928596362
815,1686273952.63,-60.059,14.16,165.527,-33.203,658.56,332.329108803706
816,1686273952.64,62.012,109.375,140.137,75.684,658.547,338.23985278549054
817,1686273952.64,58.594,-192.871,35.645,-3.418,658.551,341.39756972982093
818,1686273952.64,-67.383,-277.832,45.898,-134.766,658.554,328.07459569055453
819,1686273952.65,-92.773,-24.414,140.625,-94.238,658.558,340.73851785172116
820,1686273952.65,26.855,51.27,131.348,53.223,658.562,337.98645386479313
821,1686273952.66,63.965,-365.234,-51.758,39.062,658.566,333.2565238333924
822,1686273952.66,-46.387,-656.25,-170.41,-98.145,658.57,330.4513421176958
823,1686273952.66,-103.027,-495.605,-48.34,-98.633,658.574,328.9611288304074
824,1686273952.67,-9.766,-421.875,20.02,38.574,658.578,331.2177166565067
825,1686273952.67,69.336,-458.008,-32.715,53.223,658.582,330.1815234611265
826,1686273952.68,-11.719,-272.949,48.828,-96.68,658.586,326.96343515311975
827,1686273952.68,-101.562,-8.301,141.113,-143.066,658.59,328.3932292732439
828,1686273952.7,-38.086,27.344,128.906,-1.953,658.592,335.7196973651683
829,1686273952.7,64.941,-609.863,-194.824,111.328,658.596,337.6398475604492
830,1686273952.7,25.391,-918.945,-290.527,-5.371,658.6,334.89670304430484
831,1686273952.71,-77.148,-203.613,101.562,-149.414,658.604,330.14855984891665
832,1686273952.71,-64.453,-86.914,79.102,-48.34,658.608,325.6123514860807
833,1686273952.72,41.992,-457.52,-73.242,82.031,658.612,332.9011816403333
834,1686273952.72,37.598,-295.898,41.504,-1.465,658.615,333.6275196201627
835,1686273952.72,-67.871,100.098,189.941,-141.602,658.619,328.17421332333646
836,1686273952.73,-89.844,-208.496,-5.859,-79.102,658.623,329.79570412894327
837,1686273952.73,-0.488,-844.238,-228.516,88.379,658.627,319.51697324209675
838,1686273952.74,48.34,-357.91,60.059,35.156,658.631,341.2411695891391
839,1686273952.74,-28.809,185.547,175.293,-124.023,658.635,340.3777637708081
840,1686273952.74,-105.469,-324.219,-41.016,-103.027,658.637,337.03161678694545
841,1686273952.74,-36.133,-437.5,-29.297,25.879,658.641,329.87071581092556
842,1686273952.75,60.547,91.797,174.805,42.48,658.645,335.775027994867
843,1686273952.75,4.883,120.117,121.094,-83.984,658.649,335.01345086504034
844,1686273952.76,-93.262,-438.965,-78.125,-120.605,658.653,321.89669923884003
845,1686273952.76,-59.57,-743.652,-103.027,12.207,658.657,331.67283675390644
846,1686273952.76,51.758,-392.578,39.551,88.379,658.661,332.90243285519136
847,1686273952.77,35.645,-237.793,84.961,-24.902,658.665,329.5083552400964
848,1686273952.77,-78.613,-659.18,-199.707,-108.887,658.668,336.15939760062605
849,1686273952.78,-88.379,-841.309,-224.609,-23.926,658.672,340.55543737134053
850,1686273952.78,23.926,-96.68,171.387,50.781,658.676,337.2229093311255
851,1686273952.78,49.316,-44.922,66.406,3.906,658.68,324.35593305781146
852,1686273952.79,-66.406,-621.582,-110.84,-106.934,658.682,332.98411694273915
853,1686273952.79,-110.84,-356.934,74.707,-103.027,658.686,323.23480382057033
854,1686273952.79,0.977,235.84,241.211,27.344,658.69,336.5969765415002
855,1686273952.8,76.66,33.203,84.961,40.527,658.694,336.7216746048135
856,1686273952.8,0.0,-272.949,-16.113,-105.469,658.698,330.2614807162451
857,1686273952.81,-75.195,-331.543,26.855,-110.84,658.701,327.05552679090965
858,1686273952.81,-7.812,-286.133,65.43,46.875,658.705,334.39734601473936
859,1686273952.81,79.59,-337.891,-29.785,87.891,658.709,330.8081133424396
860,1686273952.82,16.113,-715.332,-199.219,-41.016,658.713,333.06050287727186
861,1686273952.82,-93.262,-311.035,32.227,-143.555,658.717,328.17821289325855
862,1686273952.82,-50.781,166.504,171.387,-43.945,658.721,327.37330272886186
863,1686273952.83,71.289,-74.707,70.801,75.684,658.725,331.69427929030314
864,1686273952.83,53.711,-131.348,73.242,-7.812,658.73,328.4536280363843
865,1686273952.84,-62.012,2.441,111.816,-122.559,658.734,342.18098581299506
866,1686273952.84,-67.871,-144.531,74.219,-38.574,658.737,329.5352271235681
867,1686273952.84,43.945,-504.395,-35.645,106.445,658.741,337.34626497407896
868,1686273952.85,71.289,-432.129,11.23,43.945,658.745,334.4802994424627
869,1686273952.85,-28.32,-255.371,43.457,-102.051,658.749,325.66940779410373
870,1686273952.86,-79.59,-385.742,36.133,-82.031,658.753,336.10593488322223
871,1686273952.86,10.742,-656.25,-137.695,75.195,658.757,322.1906320761727
872,1686273952.86,68.848,-917.48,-268.066,94.727,658.761,335.41156067820833
873,1686273952.87,-10.742,-206.055,113.77,-99.609,658.765,331.56577764812334
874,1686273952.87,-83.008,44.922,108.398,-131.836,658.769,328.68191593844716
875,1686273952.88,-26.855,-171.387,83.496,14.16,658.773,341.4575533019989
876,1686273952.88,62.012,54.688,171.387,57.617,658.772,334.1754585151801
877,1686273952.88,15.137,166.504,139.648,-62.5,658.776,334.20454634005705
878,1686273952.88,-91.797,-123.535,6.836,-143.555,658.78,329.6859361033814
879,1686273952.89,-69.824,-301.27,-32.227,-34.668,658.784,338.1404342617154
880,1686273952.89,51.758,-203.613,65.43,73.73,658.788,339.5087185876104
881,1686273952.9,51.758,-272.949,56.152,-6.348,658.791,345.86888316496055
882,1686273952.9,-59.57,-488.77,-71.777,-112.793,658.795,328.3833900490048
883,1686273952.9,-95.215,-933.105,-296.875,-35.156,658.799,333.3243345178381
884,1686273952.91,0.488,-548.828,-43.945,74.707,658.803,330.24838514197927
885,1686273952.91,53.711,130.371,197.266,18.555,658.807,331.89017089374556
886,1686273952.92,-37.598,-142.09,23.926,-99.121,658.811,329.4397459866467
887,1686273952.92,-105.469,-260.254,19.043,-94.727,658.815,333.98989408399973
888,1686273952.92,-16.113,117.188,193.848,33.691,658.831,326.35646663294847
889,1686273952.92,79.102,144.531,161.621,63.965,658.835,331.6197951303731
890,1686273952.93,5.371,-224.609,24.414,-64.453,658.839,329.5469379302516
891,1686273952.93,-101.562,-233.398,74.219,-120.605,658.843,342.199983947746
892,1686273952.94,-43.457,24.414,151.367,4.883,658.846,326.02782156147583
893,1686273952.94,67.871,-144.531,100.098,83.008,658.85,333.7007487673745
894,1686273952.94,29.297,-679.199,-199.707,0.0,658.854,331.5508288341391
895,1686273952.95,-88.867,-904.785,-301.27,-93.75,658.858,330.67242249841127
896,1686273952.95,-90.332,-425.781,77.148,-46.875,658.862,325.15473380278905
897,1686273952.96,37.109,12.207,186.035,64.453,658.866,324.91416171531984
898,1686273952.96,57.129,-512.207,-146.973,29.785,658.87,333.5077917776702
899,1686273952.96,-60.059,-680.664,-127.93,-108.887,658.874,333.45242778953525
900,1686273952.97,-96.191,40.039,192.871,-104.98,658.877,329.1220368409744
901,1686273952.97,12.207,24.414,87.891,49.316,658.881,333.7362742156033
902,1686273952.97,75.195,-205.566,32.715,48.828,658.884,337.23227450231855
903,1686273952.98,-22.949,-38.086,134.766,-103.027,658.888,326.72071525358206
904,1686273952.98,-101.074,14.648,130.859,-126.465,658.892,327.0998326176581
905,1686273952.99,-16.113,-323.73,-16.602,24.902,658.896,330.18052551334785
906,1686273952.99,62.988,-770.996,-153.32,73.73,658.9,335.7533789013757
907,1686273952.99,-9.766,-407.227,42.969,-89.844,658.904,340.6453210915751
908,1686273953.0,-100.098,93.75,181.641,-170.41,658.908,328.23785110283524
909,1686273953.0,-54.199,-319.336,-46.387,-16.113,658.912,332.8770366201137
910,1686273953.0,52.734,-776.367,-168.457,100.586,658.916,336.5116573342939
911,1686273953.01,29.297,-288.086,99.121,-36.621,658.92,329.2852295337474
912,1686273953.03,-71.777,62.012,152.832,-160.645,658.923,330.4101429335353
913,1686273953.03,-72.754,-231.445,59.57,-60.059,658.927,329.7295494923719
914,1686273953.03,39.062,-211.426,83.496,63.965,658.93,338.08123260710056
915,1686273953.04,61.035,82.031,174.316,3.906,658.934,332.8045354671316
916,1686273953.04,-46.387,53.223,126.465,-130.859,658.938,329.9306640803537
917,1686273953.05,-84.473,-336.426,-47.852,-84.473,658.942,328.26543159512
918,1686273953.05,6.348,-588.867,-44.922,63.477,658.946,328.1494944068865
919,1686273953.05,53.223,-440.43,42.48,39.062,658.95,326.05728382628433
920,1686273953.06,-29.297,-126.953,127.441,-121.582,658.954,338.2286154421097
921,1686273953.06,-89.355,-569.824,-153.809,-102.051,658.958,328.98903679562113
922,1686273953.06,-35.156,-797.852,-193.359,49.316,658.962,326.041294429943
923,1686273953.07,51.758,-36.133,180.176,41.992,658.966,320.64624522958394
924,1686273953.07,10.742,-155.762,36.621,-70.312,658.967,334.5158393572771
925,1686273953.08,-103.027,-565.43,-71.289,-127.93,658.971,312.4532963837671
926,1686273953.08,-78.613,-220.703,95.215,-35.645,658.975,324.6273013738637
927,1686273953.08,45.41,188.965,200.195,52.246,658.979,342.8872253916659
928,1686273953.09,42.48,-35.156,64.453,-22.949,658.982,329.62950166613024
929,1686273953.09,-68.848,-472.656,-70.801,-122.559,658.986,329.8822727350091
930,1686273953.1,-89.355,-391.113,51.27,-73.242,658.99,320.1583466467652
931,1686273953.1,24.414,109.375,240.234,38.574,658.994,334.22475710394986
932,1686273953.1,78.613,-103.027,25.391,22.461,658.998,321.0545383093942
933,1686273953.11,-35.156,-838.379,-259.766,-92.285,659.002,326.9998289748816
934,1686273953.11,-103.516,-388.672,65.43,-112.305,659.006,326.77187476772673
935,1686273953.11,9.277,176.758,212.891,35.645,659.01,329.2687570432166
936,1686273953.12,77.148,-140.137,66.895,66.895,659.056,326.9600747716932
937,1686273953.12,-8.789,-252.93,55.664,-84.961,659.06,330.8338341002672
938,1686273953.12,-100.098,-168.945,47.363,-132.812,659.064,334.9877295380074
939,1686273953.13,-42.969,-271.484,21.484,-4.395,659.068,330.451666029955
940,1686273953.13,59.082,-538.574,-35.156,83.008,659.072,331.9001487351176
941,1686273953.14,16.602,-708.496,-72.754,-31.25,659.075,338.88774013581775
942,1686273953.14,-90.82,-504.395,-2.93,-142.09,659.079,338.5864304585699
943,1686273953.14,-70.312,-353.516,67.871,-47.363,659.083,337.4134253099923
944,1686273953.15,58.105,-629.883,-136.719,90.332,659.087,323.27219341194257
945,1686273953.15,43.945,-905.273,-272.949,19.043,659.091,320.83243978500735
946,1686273953.16,-76.66,-182.617,123.047,-154.297,659.095,329.5493991451108
947,1686273953.16,-76.66,35.645,135.254,-89.355,659.099,331.05340001176484
948,1686273953.16,32.715,-171.387,71.289,66.895,659.065,327.99670072338205
949,1686273953.17,60.547,51.758,173.34,30.273,659.069,325.4888200962419
950,1686273953.17,-40.039,158.691,162.598,-114.258,659.072,326.7190385036318
951,1686273953.18,-99.121,-46.875,69.336,-117.188,659.076,333.1327032597365
952,1686273953.18,-8.789,-244.629,18.555,32.227,659.08,330.67635450727
953,1686273953.18,71.289,-248.047,62.5,68.848,659.084,331.6042107188669
954,1686273953.19,-5.859,-300.781,53.711,-69.824,659.088,339.26461205395816
955,1686273953.19,-97.656,-529.785,-83.496,-124.512,659.092,334.3254662127421
956,1686273953.19,-49.805,-681.152,-109.375,-0.488,659.096,336.90731585840564
957,1686273953.2,53.223,-200.195,96.191,66.406,659.1,328.2071079016521
958,1686273953.2,32.715,182.129,198.73,-42.48,659.104,340.9790640705261
959,1686273953.21,-77.148,-367.188,-66.406,-115.234,659.108,320.31914008592787
960,1686273953.22,-83.496,-662.109,-145.996,-25.391,659.133,325.6111778232014
961,1686273953.22,32.227,23.926,221.68,65.918,659.137,326.2409945575237
962,1686273953.23,53.223,173.828,179.688,14.16,659.141,340.9513122642816
963,1686273953.23,-58.594,-339.355,7.812,-108.398,659.145,323.5635182176215
964,1686273953.24,-107.91,-448.73,24.414,-88.867,659.148,326.92454980607295
965,1686273953.24,0.977,-257.812,59.082,44.922,659.152,334.89292735084587
966,1686273953.24,67.383,-351.562,52.246,39.062,659.156,337.06051057604776
967,1686273953.25,-25.879,-639.16,-138.672,-72.266,659.16,333.463085920508
968,1686273953.25,-92.773,-45.898,125.0,-145.996,659.147,337.0875543085664
969,1686273953.25,-109.863,-1000.0,-441.895,-50.781,659.164,327.7203963308301
970,1686273953.26,-53.223,237.305,228.516,-26.855,659.151,334.99371562596457
971,1686273953.26,-44.922,-888.672,-220.215,53.223,659.168,326.3969456131
972,1686273953.26,63.477,146.973,149.902,77.148,659.155,322.195820591281
973,1686273953.26,62.988,-244.629,80.566,50.293,659.172,335.189777031583
974,1686273953.26,43.457,-59.57,101.562,-19.043,659.159,334.3294952407304
975,1686273953.26,13.672,-82.52,69.336,-84.473,659.176,336.6720509885708
976,1686273953.27,-72.266,8.789,138.672,-142.09,659.163,346.22044569181054
977,1686273953.27,-80.078,-118.164,126.465,-59.57,659.167,324.91060212694435
978,1686273953.28,38.086,-358.398,28.32,82.52,659.17,332.2905629208681
979,1686273953.28,65.43,-395.996,-23.926,34.668,659.174,342.3499692864377
980,1686273953.28,-53.223,-37.598,131.348,-125.0,659.178,328.162138906033
981,1686273953.29,-88.867,114.746,167.969,-104.98,659.182,324.72489512077607
982,1686273953.29,16.113,-343.75,-64.453,68.359,659.186,328.63361419488376
983,1686273953.29,66.406,-841.309,-222.168,74.707,659.19,333.77190075056455
984,1686273953.3,-18.555,-345.215,88.379,-98.145,659.206,321.6675790194916
985,1686273953.3,-87.402,155.762,232.91,-136.719,659.21,326.1150868371209
986,1686273953.3,-17.09,-427.734,-67.871,31.738,659.214,328.8318293470757
987,1686273953.31,72.754,-683.594,-151.367,88.867,659.218,320.1057554189685
988,1686273953.31,26.367,-58.594,114.258,-62.988,659.221,337.5995032333471
989,1686273953.32,-79.59,-177.246,69.336,-124.023,659.225,329.7644090730375
990,1686273953.32,-61.035,-711.914,-173.828,8.789,659.229,325.3137749303157
991,1686273953.32,46.875,-834.961,-230.469,111.328,659.233,341.48844515623045
992,1686273953.33,41.504,-116.211,150.391,-24.902,659.237,322.29891518841447
993,1686273953.33,-53.223,60.059,115.234,-148.438,659.241,325.9494176691557
994,1686273953.33,-66.406,-220.215,71.289,-62.012,659.245,333.8232523983522
995,1686273953.34,36.621,-8.789,194.824,69.824,659.249,327.1927178744311
996,1686273953.34,75.684,187.988,176.27,29.297,659.241,337.7458638258375
997,1686273953.35,-24.414,-177.246,42.48,-99.121,659.245,328.28765901885015
998,1686273953.35,-91.309,-511.23,23.926,-86.914,659.249,329.36759346139775
999,1686273953.35,-4.395,-174.805,145.996,45.41,659.253,337.32011217754444
1000,1686273953.36,85.938,165.039,166.504,58.105,659.257,339.1284567038818
1001,1686273953.36,19.531,-297.852,-7.812,-50.293,659.26,331.2137573569385
1002,1686273953.37,-88.867,-719.238,-127.93,-87.402,659.264,341.5158461751419
1003,1686273953.37,-46.875,-214.355,93.262,-2.441,659.268,332.4447009003881
1004,1686273953.37,68.359,191.406,204.59,56.152,659.272,336.9251068964193
1005,1686273953.38,40.039,-211.914,-15.137,-39.062,659.276,332.6434057007759
1006,1686273953.38,-81.055,-468.75,-71.289,-129.395,659.28,331.7150790006195
1007,1686273953.38,-79.59,-49.316,172.852,-45.41,659.284,340.417009882738
1008,1686273953.4,50.781,112.305,181.152,84.473,659.311,321.15502679944035
1009,1686273953.4,54.199,-192.871,67.871,23.926,659.315,320.5759217727307
1010,1686273953.41,-64.941,-284.668,77.148,-114.746,659.319,333.43634694918757
1011,1686273953.41,-85.449,-190.43,51.27,-73.242,659.323,324.12402196796813
1012,1686273953.42,22.949,-273.926,48.828,62.5,659.326,326.41419946744526
1013,1686273953.42,75.195,-604.98,-116.699,71.289,659.33,333.82513589089683
1014,1686273953.42,-26.855,-986.816,-322.754,-52.734,659.334,338.1418485069313
1015,1686273953.43,-106.934,-505.371,9.766,-115.234,659.338,331.708016209299
1016,1686273953.43,-20.508,-4.395,157.227,10.742,659.342,336.97123110448683
1017,1686273953.44,68.359,-415.039,-8.789,77.637,659.346,332.3585867115358
1018,1686273953.44,1.465,-518.555,-11.719,-52.246,659.35,324.387840657889
1019,1686273953.44,-86.914,-68.848,131.348,-119.141,659.354,333.23581821043126
1020,1686273953.45,-39.062,-108.398,101.074,0.488,659.342,335.3197262005851
1021,1686273953.45,73.73,-223.145,80.566,78.125,659.346,330.54907298326384
1022,1686273953.45,48.828,-56.641,137.695,-26.367,659.35,337.3617109446816
1023,1686273953.46,-51.758,38.086,147.461,-123.047,659.354,328.7517200466905
1024,1686273953.46,-53.223,-123.047,66.895,-28.809,659.358,330.3229649015285
1025,1686273953.47,49.316,-454.102,-45.898,102.539,659.362,328.8877762633755
1026,1686273953.47,57.129,-491.699,-12.207,43.457,659.366,335.82746425445873
1027,1686273953.47,-62.012,-227.051,108.887,-107.422,659.37,320.9806999486236
1028,1686273953.48,-95.215,-290.527,14.648,-83.496,659.374,344.42561174413134
1029,1686273953.48,0.977,-778.809,-182.129,74.219,659.377,332.171201126
1030,1686273953.48,54.688,-379.395,65.43,46.875,659.381,335.25420353092784
1031,1686273953.49,-12.207,129.883,191.895,-109.375,659.385,323.7796466065215
1032,1686273953.49,-89.355,-395.02,-83.008,-104.98,659.392,338.7976442351743
1033,1686273953.5,-35.156,-705.078,-143.555,38.086,659.396,329.0619137256601
1034,1686273953.5,62.988,-17.09,177.246,53.711,659.4,325.75610147813177
1035,1686273953.5,15.137,83.984,141.602,-75.684,659.403,332.74935739407056
1036,1686273953.51,-89.355,-304.199,-21.484,-135.742,659.407,329.77655678308844
1037,1686273953.51,-61.523,-505.859,-39.551,-10.742,659.411,331.30390926317574
1038,1686273953.52,53.711,-403.32,30.273,92.773,659.415,326.9825762820956
1039,1686273953.52,47.363,-326.66,81.543,-10.254,659.419,327.27297418288833
1040,1686273953.52,-62.988,-641.113,-159.668,-109.863,659.423,339.7986721989514
1041,1686273953.53,-83.496,-1000.0,-401.367,-13.672,659.427,328.5921487225909
1042,1686273953.53,23.438,-420.898,32.227,67.871,659.431,328.57459760799543
1043,1686273953.53,64.941,73.73,145.508,1.953,659.435,333.4841184181553
1044,1686273953.54,-35.645,-213.379,28.809,-119.141,659.432,336.72611262757715
1045,1686273953.54,-91.309,-85.938,137.207,-101.074,659.436,331.9510482360896
1046,1686273953.54,0.0,181.641,189.453,44.434,659.44,334.9486304163047
1047,1686273953.55,69.336,19.043,106.934,58.105,659.444,328.476283557658
1048,1686273953.55,-10.254,-194.824,54.688,-85.938,659.447,326.87614561906486
1049,1686273953.56,-97.168,-325.195,47.852,-126.953,659.451,327.94546007309947
1050,1686273953.56,-47.852,-275.879,122.07,6.836,659.455,334.40249546431835
1051,1686273953.56,57.129,-176.758,72.266,75.195,659.459,330.7105780875358
1052,1686273953.57,14.16,-659.18,-155.273,-30.273,659.463,335.4802172206751
1053,1686273953.57,-102.539,-342.773,65.918,-148.926,659.467,324.47980268958077
1054,1686273953.58,-65.43,151.855,197.266,-53.223,659.471,336.2789651733395
1055,1686273953.58,53.711,-221.68,9.277,72.754,659.475,336.9792834313867
1056,1686273953.58,47.363,-320.312,34.18,-14.16,659.477,331.3034688017956
1057,1686273953.58,-62.988,14.16,184.57,-142.578,659.481,336.84961276557635
1058,1686273953.59,-86.914,36.133,159.668,-82.031,659.485,338.13825594954477
1059,1686273953.59,24.902,-261.23,99.121,68.359,659.489,336.26305269351695
1060,1686273953.6,59.082,-292.48,57.129,37.598,659.493,327.6335265788162
1061,1686273953.6,-45.41,-304.199,19.531,-108.398,659.497,330.8118575196234
1062,1686273953.6,-106.934,-456.055,38.574,-117.188,659.501,342.1677082475044
1063,1686273953.61,-18.066,-688.965,-142.09,42.969,659.505,329.7488274948509
1064,1686273953.61,58.105,-973.633,-272.949,85.938,659.508,325.64423411492
1065,1686273953.62,-16.113,-342.773,93.75,-96.68,659.512,338.4631322196349
1066,1686273953.62,-103.027,-13.184,105.469,-143.066,659.516,334.18019591473757
1067,1686273953.62,-56.152,-217.773,47.363,6.836,659.52,336.71140855455104
1068,1686273953.63,56.641,-13.672,164.551,73.73,659.525,343.8889926264145
1069,1686273953.63,20.508,99.609,166.504,-41.992,659.529,336.5677489590247
1070,1686273953.64,-93.262,-274.902,24.902,-126.953,659.533,331.53634485689827
1071,1686273953.64,-88.867,-527.832,32.227,-31.738,659.537,332.53926865295927
1072,1686273953.64,24.414,-147.461,176.758,68.359,659.541,335.02097219586545
1073,1686273953.65,40.039,-133.301,93.262,3.906,659.545,343.0404721464337
1074,1686273953.65,-71.289,-600.586,-83.008,-95.215,659.549,337.0273861650076
1075,1686273953.65,-112.305,-854.98,-181.152,-49.316,659.553,329.8681455901777
1076,1686273953.66,-12.695,-339.844,102.051,52.734,659.557,342.00060463618405
1077,1686273953.66,51.758,182.129,220.703,28.809,659.56,329.108208009292
1078,1686273953.67,-30.273,-165.039,15.625,-100.098,659.564,326.1545258648836
1079,1686273953.67,-101.074,-322.266,10.254,-109.863,659.568,338.9800876923924
1080,1686273953.67,-25.879,57.129,195.801,13.184,659.567,335.9191140401797
1081,1686273953.68,70.801,166.992,189.941,50.293,659.571,327.7995418998835
1082,1686273953.68,14.648,-182.617,73.73,-74.707,659.575,332.0751926567678
1083,1686273953.68,-86.426,-256.836,75.684,-136.23,659.578,339.3429764714462
1084,1686273953.69,-50.781,-123.047,83.008,-10.254,659.582,331.5318765519397
1085,1686273953.69,47.363,-273.438,81.055,83.984,659.586,327.7369179339059
1086,1686273953.7,21.484,-644.043,-149.414,15.137,659.59,344.12385820378535
1087,1686273953.7,-93.75,-1000.0,-364.258,-85.449,659.594,334.7362080949753
1088,1686273953.7,-108.398,-507.324,20.02,-74.707,659.598,333.93596010921254
1089,1686273953.71,22.949,35.645,148.926,52.246,659.602,330.4211065456237
1090,1686273953.71,59.57,-344.238,-12.207,20.508,659.606,332.5143467020371
1091,1686273953.71,-58.105,-332.52,55.664,-137.695,659.61,330.073797334973
1092,1686273953.72,-103.027,129.395,183.594,-106.934,659.626,336.55774845563593
1093,1686273953.72,1.465,-0.488,112.305,39.062,659.63,330.12323504423523
1094,1686273953.72,67.383,-236.328,70.312,38.574,659.634,331.903745677144
1095,1686273953.73,-18.555,-52.246,139.16,-101.074,659.638,338.4617798137998
1096,1686273953.73,-96.68,62.988,141.602,-127.93,659.642,337.0600778412177
1097,1686273953.74,-27.832,-253.418,33.203,39.551,659.646,338.2238552719356
1098,1686273953.74,57.617,-737.305,-113.77,113.77,659.65,331.1375347224797
1099,1686273953.74,0.0,-619.629,-1.953,-48.828,659.654,324.0700374216591
1100,1686273953.75,-88.379,-102.539,157.227,-147.949,659.658,336.78956329797217
1101,1686273953.75,-51.27,-243.652,1.953,-18.066,659.662,319.15938286161315
1102,1686273953.76,55.176,-512.207,-63.477,87.402,659.665,325.9289069076735
1103,1686273953.76,52.246,-62.988,176.758,-13.672,659.669,341.9444738461909
1104,1686273953.78,-58.594,89.844,150.879,-129.395,659.672,333.3493101008578
1105,1686273953.78,-81.543,-187.012,55.664,-58.105,659.676,336.1864101787109
1106,1686273953.78,33.691,-182.617,93.75,63.477,659.68,334.64203363622056
1107,1686273953.79,74.219,97.656,183.105,6.348,659.684,342.61199359510147
1108,1686273953.79,-28.809,-48.34,104.004,-114.258,659.687,338.0883979537071
1109,1686273953.8,-86.426,-475.098,-51.27,-69.824,659.691,322.1900333967319
1110,1686273953.8,8.301,-568.359,-13.672,68.359,659.695,339.61196515907136
1111,1686273953.8,80.078,-358.398,68.848,66.895,659.699,330.43639414247366
1112,1686273953.81,0.977,-104.492,155.762,-89.355,659.703,329.4828386044025
1113,1686273953.81,-85.938,-535.156,-131.836,-96.68,659.707,328.5652132503459
1114,1686273953.82,-48.34,-1000.0,-314.941,64.453,659.711,342.918659762322
1115,1686273953.82,42.48,-246.582,145.508,66.895,659.715,328.4369310266875
1116,1686273953.82,12.207,43.457,140.137,-65.43,659.717,332.0119795681464
1117,1686273953.82,-93.262,-272.949,12.695,-141.602,659.721,332.4933328241856
1118,1686273953.83,-78.613,-98.145,127.93,-40.039,659.725,318.6286872790689
1119,1686273953.83,44.922,193.359,208.008,68.359,659.729,333.2125306713733
1120,1686273953.84,64.941,13.672,91.309,-0.488,659.733,328.97542093596076
1121,1686273953.84,-41.992,-457.52,-54.688,-104.98,659.737,333.92963031824837
1122,1686273953.84,-73.242,-434.57,33.691,-53.711,659.74,324.26023388656404
1123,1686273953.85,30.762,47.852,197.266,61.523,659.744,333.6491094352999
1124,1686273953.85,75.195,-120.605,58.105,45.41,659.748,334.2099955094238
1125,1686273953.86,-25.391,-720.703,-174.805,-71.289,659.752,325.4883107949714
1126,1686273953.86,-106.934,-368.652,32.715,-106.445,659.756,328.68917631045576
1127,1686273953.86,-16.113,-7.812,136.23,20.02,659.76,339.8378329416272
1128,1686273953.87,70.801,-301.758,1.465,73.242,659.762,326.4935860278448
1129,1686273953.87,-4.395,-385.254,17.09,-65.918,659.766,323.886978977146
1130,1686273953.87,-105.957,-8.301,167.969,-140.625,659.77,331.2149900343806
1131,1686273953.88,-63.477,104.004,174.805,-7.324,659.774,324.49374444326753
1132,1686273953.88,49.805,-273.438,40.527,89.844,659.778,327.3085530346038
1133,1686273953.89,20.996,-516.113,-11.719,-7.812,659.782,334.14729400381003
1134,1686273953.89,-80.078,-454.102,29.297,-118.652,659.785,330.21399992577847
1135,1686273953.89,-64.941,-412.598,75.195,-46.387,659.789,332.78482883296715
1136,1686273953.9,44.434,-656.25,-134.766,99.121,659.793,328.58689568004866
1137,1686273953.9,50.293,-938.477,-291.016,41.504,659.797,323.07787086877676
1138,1686273953.9,-58.105,-278.32,106.445,-134.277,659.801,322.91809334599475
1139,1686273953.91,-80.078,-13.672,130.371,-96.191,659.805,327.2636589290937
1140,1686273953.91,26.855,-195.312,63.965,51.758,659.807,333.38827912619865
1141,1686273953.92,73.242,-5.859,142.578,32.227,659.811,330.7609066640947
1142,1686273953.92,-30.762,57.617,104.492,-112.793,659.815,329.4843663947448
1143,1686273953.92,-106.445,-261.23,17.09,-114.258,659.819,334.166249255074
1144,1686273953.93,-29.297,-513.184,10.254,37.109,659.823,339.30739028237076
1145,1686273953.93,59.57,-464.844,40.527,79.59,659.827,330.76084806054973
1146,1686273953.94,-3.418,-209.473,132.812,-72.754,659.831,335.67136557730714
1147,1686273953.94,-99.121,-229.98,55.664,-141.602,659.834,332.4375528834035
1148,1686273953.94,-60.547,-694.336,-122.559,8.301,659.838,325.7532368336905
1149,1686273953.95,44.434,-240.723,111.328,76.66,659.842,333.2516799944524
1150,1686273953.95,37.109,228.027,223.145,-32.715,659.846,335.54542094554535
1151,1686273953.95,-68.359,-156.25,49.316,-126.953,659.85,343.83865717047524
1152,1686273953.96,-79.59,-265.137,51.27,-60.059,659.852,333.9398702391123
1153,1686273953.96,36.133,98.145,200.684,59.57,659.856,336.8234293601712
1154,1686273953.96,69.824,118.164,143.555,16.602,659.86,326.9725896299085
1155,1686273953.97,-39.551,-208.008,38.086,-110.352,659.864,329.5439120654159
1156,1686273953.97,-95.215,-291.016,30.762,-95.703,659.868,323.1693761132174
1157,1686273953.98,-1.465,-262.207,57.129,51.27,659.871,332.2302629212808
1158,1686273953.98,68.359,-347.656,83.008,68.848,659.875,325.9764155138748
1159,1686273953.98,-7.324,-651.855,-165.039,-49.316,659.879,331.11469529469167
1160,1686273953.99,-100.098,-1000.0,-420.898,-60.059,659.883,327.401265296898
1161,1686273953.99,-48.34,-519.043,-6.836,22.461,659.887,341.87772624590184
1162,1686273954.0,65.43,64.941,170.41,49.805,659.891,336.80754487602263
1163,1686273954.0,28.809,-136.719,87.402,-54.688,659.895,326.8101040844237
1164,1686273954.0,-79.59,-98.633,162.598,-140.137,659.897,334.14215056936393
1165,1686273954.0,-63.477,151.855,181.641,-39.062,659.901,326.610350807925
1166,1686273954.01,56.641,-13.672,95.215,66.895,659.905,329.46302464635784
1167,1686273954.01,54.688,-249.512,70.801,-20.996,659.909,332.1700017217991
1168,1686273954.02,-61.523,-128.906,97.656,-143.066,659.913,327.7324381403197
1169,1686273954.02,-76.66,-276.367,39.062,-75.684,659.916,328.82381018684873
1170,1686273954.02,33.203,-404.297,-2.441,79.102,659.92,327.51906531753485
1171,1686273954.03,72.266,-714.844,-137.207,65.918,659.924,326.4701510078426
1172,1686273954.03,-33.691,-649.414,-7.812,-94.727,659.928,342.371926536188
1173,1686273954.04,-88.379,-17.578,189.941,-115.723,659.932,317.0422506356584
1174,1686273954.04,-4.883,-219.238,-7.324,42.48,659.936,327.853436417584
1175,1686273954.04,51.758,-532.227,-95.215,70.801,659.94,333.54863081090963
1176,1686273954.05,-16.602,-172.852,125.977,-85.938,659.942,334.5784402261044
1177,1686273954.05,-94.238,-7.812,152.344,-129.883,659.946,335.8498462999046
1178,1686273954.05,-44.434,-237.793,79.59,15.625,659.95,325.7696711826927
1179,1686273954.06,59.082,-183.105,114.746,73.73,659.954,329.9978475898153
1180,1686273954.06,25.879,69.336,155.762,-45.898,659.958,333.9510321914318
1181,1686273954.07,-80.078,-236.816,74.219,-114.746,659.961,337.2374334619335
1182,1686273954.07,-67.871,-688.965,-146.484,1.465,659.965,338.7538295505348
1183,1686273954.07,30.273,-854.004,-171.875,109.863,659.969,323.5643559352258
1184,1686273954.08,31.25,-276.367,127.93,-11.719,659.973,332.35946517414425
1185,1686273954.08,-60.547,46.875,145.02,-140.137,659.977,332.01327362436217
1186,1686273954.08,-85.449,-623.535,-149.414,-47.852,659.981,331.387702633385
1187,1686273954.09,6.348,-647.461,-79.102,78.613,659.985,329.67422564513765
1188,1686273954.11,61.035,161.133,248.047,18.555,660.004,328.64979268879864
1189,1686273954.11,-27.832,15.137,102.539,-104.492,660.007,338.8413989532406
1190,1686273954.11,-103.516,-367.188,18.555,-101.074,660.011,332.16337855524876
1191,1686273954.12,-16.113,-119.629,134.277,29.785,660.015,332.5676378191362
1192,1686273954.12,76.66,116.699,185.547,60.059,660.019,325.57968377534604
1193,1686273954.13,13.184,-282.227,2.93,-50.781,660.023,344.58973480580113
1194,1686273954.13,-87.402,-774.414,-153.32,-86.426,660.027,336.3295013426887
1195,1686273954.13,-50.781,-380.859,72.754,9.766,660.031,338.0258607751325
1196,1686273954.14,64.941,159.18,188.965,69.336,660.035,329.5982155656097
1197,1686273954.14,34.668,114.746,149.414,77.637,660.046,330.9416634882862
1198,1686273954.14,41.992,-83.008,43.457,-14.16,660.039,326.9468566462227
1199,1686273954.14,45.41,-308.594,31.738,23.438,660.05,329.43520014814635
1200,1686273954.14,-77.637,-299.805,7.324,-112.305,660.043,328.36923524885947
1201,1686273954.14,-69.336,-417.48,21.973,-125.488,660.054,329.068878189314
1202,1686273954.15,-78.613,-15.137,140.137,-44.434,660.046,329.15088361060066
1203,1686273954.15,-107.422,-4.395,131.348,-108.398,660.058,325.5825047876952
1204,1686273954.15,3.418,72.754,148.926,40.527,660.062,333.10282476372294
1205,1686273954.16,64.453,-440.43,-1.953,59.57,660.065,334.297226230926
1206,1686273954.16,-36.133,-698.73,-40.527,-76.66,660.069,328.91524570209515
1207,1686273954.16,-119.629,-478.516,24.902,-105.957,660.073,321.5094872218229
1208,1686273954.17,-39.551,-186.523,151.367,21.484,660.077,347.6927407747327
1209,1686273954.17,68.848,-507.324,-101.074,92.285,660.081,329.14149054385456
1210,1686273954.18,1.465,-1000.0,-348.145,-18.066,660.085,332.26389500030615
1211,1686273954.18,-110.84,-346.68,102.051,-142.09,660.089,330.964388131507
1212,1686273954.2,-70.801,-0.977,147.949,-30.273,660.093,333.8205498864857
1213,1686273954.2,45.898,-174.805,70.801,77.148,660.096,334.3659707047955
1214,1686273954.2,35.645,-15.625,153.32,-27.344,660.1,334.8175654996118
1215,1686273954.21,-67.871,-15.625,100.586,-139.648,660.104,336.466276535712
1216,1686273954.21,-71.289,-280.762,17.578,-56.152,660.108,322.83849074657513
1217,1686273954.22,30.273,-728.027,-130.371,98.145,660.112,339.11398685518435
1218,1686273954.22,40.527,-518.066,40.527,16.602,660.116,314.6980590766182
1219,1686273954.22,-56.152,58.105,182.617,-148.438,660.12,333.4702572924457
1220,1686273954.23,-94.238,-263.672,-42.48,-102.539,660.124,327.96540537114885
1221,1686273954.23,-5.859,-527.832,-36.133,50.781,660.128,325.51828118959713
1222,1686273954.24,71.289,-53.223,158.691,37.109,660.132,338.5912946665595
1223,1686273954.24,0.488,135.742,172.363,-100.098,660.136,325.20348201648613
1224,1686273954.24,-91.797,-207.031,63.477,-115.723,660.137,323.5207944327585
1225,1686273954.24,-42.969,-261.23,58.594,10.742,660.141,325.9072394281104
1226,1686273954.25,53.711,97.168,173.34,64.453,660.145,331.515245497013
1227,1686273954.25,20.996,78.613,145.996,-51.758,660.149,324.79864175258894
1228,1686273954.26,-80.566,-253.906,35.645,-125.0,660.152,321.6340628388099
1229,1686273954.26,-54.199,-510.254,-15.137,-12.207,660.156,328.84068942064374
1230,1686273954.26,57.129,-463.867,11.23,81.543,660.16,329.3406895355139
1231,1686273954.27,39.551,-375.977,35.156,-10.742,660.164,331.1071486207705
1232,1686273954.27,-65.43,-677.246,-179.199,-93.262,660.168,346.7940471693772
1233,1686273954.28,-91.797,-1000.0,-377.441,-10.254,660.172,333.8820573553808
1234,1686273954.28,1.953,-527.344,-5.859,72.266,660.176,319.22359890199704
1235,1686273954.28,53.223,-178.711,76.172,23.438,660.18,323.12469200011446
1236,1686273954.29,-36.133,-275.391,18.066,-105.957,660.182,322.1318829035418
1237,1686273954.29,-95.215,-47.363,142.578,-108.398,660.186,331.78543194578026
1238,1686273954.29,-14.16,152.344,163.086,39.551,660.19,327.7946638296118
1239,1686273954.3,70.312,1.465,94.727,76.172,660.194,329.89984163172556
1240,1686273954.3,0.0,-241.211,30.762,-68.359,660.198,325.2172318854655
1241,1686273954.31,-99.121,-368.164,-6.348,-121.094,660.202,328.43324056813566
1242,1686273954.31,-56.641,-172.852,119.141,-11.23,660.206,337.21064720332697
1243,1686273954.31,51.27,-64.453,103.516,57.129,660.21,327.75388269059147
1244,1686273954.32,25.391,-683.594,-161.621,-20.996,660.213,340.0146434695744
1245,1686273954.32,-94.238,-618.164,-17.578,-125.0,660.217,328.8333822096937
1246,1686273954.32,-80.566,20.02,212.402,-59.082,660.221,336.914682022504
1247,1686273954.33,46.875,-219.238,-24.902,76.172,660.225,337.1320514263268
1248,1686273954.33,59.57,-572.266,-157.227,18.555,660.241,346.5753704436763
1249,1686273954.34,-54.199,-109.863,109.863,-132.812,660.245,330.2916401655551
1250,1686273954.34,-90.332,39.551,136.23,-87.402,660.249,335.0738303924934
1251,1686273954.34,10.742,-169.922,114.258,55.664,660.253,335.6677716864794
1252,1686273954.35,68.359,-145.996,104.004,33.203,660.257,333.87129977793927
1253,1686273954.35,-20.02,-234.863,41.504,-85.449,660.261,317.7894354574339
1254,1686273954.36,-96.68,-430.664,38.574,-84.473,660.265,333.75924402115254
1255,1686273954.36,-20.508,-680.664,-149.414,73.73,660.269,321.36413048842877
1256,1686273954.36,59.082,-949.707,-259.766,108.398,660.272,330.04949254300755
1257,1686273954.37,-12.695,-305.176,113.281,-86.426,660.276,326.5890860145209
1258,1686273954.37,-97.168,32.715,135.742,-134.766,660.28,320.87798623556284
1259,1686273954.37,-46.387,-345.703,12.207,5.371,660.284,335.55912561488077
1260,1686273954.38,57.617,-264.16,83.008,76.66,660.275,331.9972308942362
1261,1686273954.38,36.133,138.672,181.641,-40.039,660.279,340.7769626894256
1262,1686273954.38,-67.871,-41.992,68.359,-139.16,660.283,321.4569383549808
1263,1686273954.39,-77.148,-464.844,-26.855,-53.223,660.287,325.8013556481335
1264,1686273954.39,27.832,-208.984,128.906,60.547,660.291,329.9613261264641
1265,1686273954.4,51.758,-134.766,89.355,20.508,660.295,332.7199003501746
1266,1686273954.4,-58.594,-492.188,-74.707,-107.422,660.299,333.26628969492435
1267,1686273954.4,-108.398,-684.57,-115.234,-85.938,660.303,336.5521432100547
1268,1686273954.41,-7.812,-297.852,72.266,37.598,660.306,328.14821564797035
1269,1686273954.41,59.57,189.941,195.312,17.578,660.31,329.06530790513665
1270,1686273954.42,-13.672,-229.004,-52.246,-91.309,660.314,327.66758831258676
1271,1686273954.42,-94.727,-646.484,-133.301,-99.121,660.318,339.7898639653673
1272,1686273954.42,-32.715,-27.832,185.547,20.02,660.331,332.93478295527245
1273,1686273954.43,75.195,219.727,162.598,68.848,660.335,333.07312620549806
1274,1686273954.43,20.02,-329.59,8.789,-45.898,660.338,331.6279754229442
1275,1686273954.43,-84.473,-375.0,74.707,-114.746,660.342,315.40926927754805
1276,1686273954.44,-46.387,59.082,153.32,-10.742,660.346,329.98766576033796
1277,1686273954.44,66.895,-93.75,103.516,93.262,660.35,332.1321049197729
1278,1686273954.45,48.828,-611.816,-131.348,19.531,660.354,325.73676361978977
1279,1686273954.45,-78.125,-1000.0,-439.941,-72.266,660.358,331.7015381522333
1280,1686273954.45,-104.98,-572.266,-98.145,-60.059,660.362,337.1225975134753
1281,1686273954.46,13.184,71.289,171.387,28.32,660.366,332.27010387271145
1282,1686273954.46,56.641,-101.074,102.539,-4.395,660.37,319.2087368191311
1283,1686273954.46,-41.504,-121.094,116.699,-140.137,660.374,326.3235135345146
1284,1686273954.47,-95.703,98.145,149.414,-125.977,660.376,337.19638681192697
1285,1686273954.47,1.953,72.754,101.074,27.344,660.38,333.2193651604021
1286,1686273954.47,76.66,-118.652,78.613,43.457,660.384,335.3321723450242
1287,1686273954.48,1.465,-28.809,134.277,-102.539,660.388,331.8853059346472
1288,1686273954.48,-81.543,-96.68,39.062,-134.766,660.392,341.2506614534078
1289,1686273954.49,-31.738,-341.309,-31.25,11.719,660.395,331.20935931967335
1290,1686273954.49,56.641,-791.016,-191.406,112.793,660.399,336.2981476238298
1291,1686273954.49,14.16,-576.172,-14.648,-34.668,660.403,329.20321269492393
1292,1686273954.5,-78.125,66.895,191.406,-145.508,660.407,322.2791252535904
1293,1686273954.5,-56.152,-239.258,-20.996,-18.066,660.411,329.87029717488076
1294,1686273954.5,54.688,-347.656,-0.977,87.402,660.415,330.50487598922575
1295,1686273954.51,53.223,50.293,176.27,-3.418,660.419,333.59982429497984
