,timestamps,TP9,AF7,AF8,TP10,Secondary Timestamp,emg_signal
0,1685400402.74,-17.578,-525.391,-273.438,-17.09,4603.637,315.3451181931754
1,1685400402.74,-10.742,-637.695,-208.984,-6.836,4603.641,306.79160944419726
2,1685400402.75,4.883,259.766,233.398,-1.465,4603.644,309.0573267941209
3,1685400402.75,-2.93,230.469,81.543,-5.371,4603.648,307.3335886320979
4,1685400402.76,-30.273,-337.402,-132.324,-5.371,4603.652,301.6303106155066
5,1685400402.76,-33.691,-383.789,-38.086,-1.953,4603.656,307.5330815253363
6,1685400402.76,-18.555,-70.801,104.492,-14.648,4603.66,309.1037201295244
7,1685400402.77,-15.625,-137.695,32.227,-22.949,4603.664,317.29829888924445
8,1685400402.77,-20.508,-469.238,-122.07,-33.203,4603.668,299.48788445465954
9,1685400402.78,-22.461,-188.477,16.113,-18.066,4603.672,307.20550341823065
10,1685400402.78,-0.488,313.965,199.707,-0.488,4603.676,307.0376528767199
11,1685400402.78,0.488,166.504,86.426,-13.672,4603.68,304.9973602659277
12,1685400402.79,-23.438,-782.227,-379.883,-18.066,4603.683,307.53378313224465
13,1685400402.79,-36.621,-768.066,-266.602,-17.09,4603.687,306.5231508165368
14,1685400402.79,-19.043,132.812,187.5,-6.836,4603.691,305.2829718993119
15,1685400402.8,3.418,141.113,97.168,1.953,4603.695,305.4197322593108
16,1685400402.8,-3.418,-11.23,28.32,-8.789,4603.699,302.4319021256682
17,1685400402.81,-19.043,-175.293,-74.707,-18.555,4603.703,301.1669174044181
18,1685400402.81,-9.277,-203.613,-65.43,-12.207,4603.707,308.3381872806996
19,1685400402.81,13.672,-407.715,-101.562,9.766,4603.711,306.3636551322505
20,1685400402.82,-1.953,-916.016,-280.762,1.953,4603.715,307.5668832986821
21,1685400402.82,-27.344,-280.762,28.809,-29.297,4603.719,305.97796986441756
22,1685400402.82,-13.184,219.727,135.254,-19.531,4603.722,309.71196889185484
23,1685400402.83,5.859,64.941,115.234,0.977,4603.726,299.98586142465916
24,1685400402.84,4.395,185.059,166.016,-12.695,4603.741,309.4071627544462
25,1685400402.85,-11.719,326.172,139.648,-21.484,4603.745,299.57545680425176
26,1685400402.85,-23.926,154.785,62.988,-10.742,4603.749,306.4326943827361
27,1685400402.86,-12.207,68.848,101.074,-0.977,4603.753,300.0966916847519
28,1685400402.86,-6.836,32.715,121.582,5.859,4603.757,306.5482929499092
29,1685400402.86,-20.996,-168.945,-8.789,0.0,4603.761,305.2648496312082
30,1685400402.87,-28.809,-258.789,-93.262,-19.531,4603.765,297.5338748342901
31,1685400402.87,-9.766,-800.293,-313.477,-5.371,4603.768,302.12350951524166
32,1685400402.88,8.301,-696.289,-161.133,9.766,4603.772,302.7741735859383
33,1685400402.88,4.395,145.508,192.871,1.953,4603.785,310.2526961946308
34,1685400402.88,-15.625,183.105,178.223,-12.207,4603.776,306.43545071323854
35,1685400402.88,-1.465,456.055,207.031,-3.906,4603.789,315.0366115427456
36,1685400402.88,-35.156,-135.742,-81.543,-19.531,4603.78,307.74479515812305
37,1685400402.88,-10.254,-29.297,-3.418,-10.254,4603.793,298.8397347287228
38,1685400402.89,-6.836,-152.832,-0.977,-7.324,4603.797,297.36777687569753
39,1685400402.89,-15.625,-485.84,-124.023,-5.371,4603.784,305.0655782925795
40,1685400402.89,11.719,263.184,172.363,7.324,4603.8,309.44823024947317
41,1685400402.9,17.578,105.957,80.566,7.812,4603.804,304.29550280288123
42,1685400402.9,-10.742,-432.617,-123.047,-9.277,4603.808,302.6196599176944
43,1685400402.9,-28.809,-404.297,-47.852,-13.672,4603.812,304.10019190727394
44,1685400402.91,-13.672,138.184,164.062,-0.977,4603.816,304.88198058395096
45,1685400402.91,-2.93,412.598,220.703,0.977,4603.82,310.56142671184244
46,1685400402.92,-14.648,-327.148,-142.09,-9.277,4603.824,296.7420413676761
47,1685400402.92,-25.391,-734.863,-268.066,-15.137,4603.828,313.21402145580106
48,1685400402.92,-20.996,-33.203,86.426,-5.859,4603.82,308.7390782899105
49,1685400402.92,-12.695,-13.184,43.457,0.0,4603.824,304.54113249210644
50,1685400402.93,-29.785,-338.379,-64.941,-15.137,4603.828,304.78896573314563
51,1685400402.93,-49.316,-174.316,31.738,-24.902,4603.832,310.0677006372385
52,1685400402.94,-35.645,-42.48,71.777,-14.648,4603.836,309.52004776680155
53,1685400402.94,-3.906,-108.887,73.242,-2.93,4603.84,308.2144769231162
54,1685400402.94,-7.324,-583.984,-164.062,-12.207,4603.844,307.3037909354581
55,1685400402.95,-32.715,-806.152,-232.91,-27.344,4603.848,300.91660022523524
56,1685400402.95,-30.273,57.617,163.086,-24.902,4603.852,307.98155710309476
57,1685400402.96,-2.441,114.258,73.73,-7.324,4603.856,310.9096900368984
58,1685400402.96,0.488,-103.516,14.648,-4.883,4603.86,304.73712241812206
59,1685400402.96,-26.367,188.477,138.184,-20.996,4603.863,317.6134385495502
60,1685400402.97,-23.438,172.363,76.172,-15.137,4603.876,312.65572969041034
61,1685400402.97,1.953,-123.047,5.371,3.906,4603.879,309.0513745377673
62,1685400402.97,9.277,12.695,71.289,-1.953,4603.883,303.08980388342286
63,1685400402.98,-1.953,32.715,37.598,-12.695,4603.887,307.2292898464452
64,1685400402.98,-14.16,-40.527,41.992,-15.137,4603.891,306.1679382101959
65,1685400402.99,-12.207,-379.883,-103.516,-3.418,4603.895,309.42709963536316
66,1685400402.99,1.465,-906.25,-267.09,11.719,4603.899,311.0985991631531
67,1685400402.99,-2.93,-228.027,67.871,-6.836,4603.903,308.8752580796308
68,1685400403.0,-18.555,159.18,107.422,-13.672,4603.907,306.99242823507205
69,1685400403.0,-16.113,-80.566,-14.648,-1.953,4603.911,312.38705732068206
70,1685400403.0,4.395,104.004,105.469,8.789,4603.915,299.2097928461604
71,1685400403.01,13.184,394.531,204.102,8.301,4603.919,309.3065332428524
72,1685400403.02,-1.953,170.898,60.059,-4.883,4603.922,305.39193525237505
73,1685400403.03,-5.859,-140.625,-11.23,4.395,4603.926,296.3620872434661
74,1685400403.03,-1.953,97.656,140.137,13.184,4603.93,309.1741395029131
75,1685400403.04,-2.441,353.516,197.266,-3.418,4603.934,304.0689431543959
76,1685400403.04,-13.672,14.648,30.762,-13.184,4603.937,307.216356405185
77,1685400403.04,-14.16,-658.691,-234.375,-6.836,4603.941,316.5236685868526
78,1685400403.05,-0.977,-599.609,-138.184,-7.324,4603.945,304.1559215366261
79,1685400403.05,4.395,-84.473,110.352,-12.695,4603.949,301.78300490545416
80,1685400403.06,-7.324,19.531,53.711,-21.484,4603.953,311.6794314821183
81,1685400403.06,-21.484,-640.625,-262.207,-23.438,4603.957,309.1822964120425
82,1685400403.06,-12.207,-468.262,-78.125,-17.09,4603.961,312.3755685984599
83,1685400403.07,9.277,404.297,246.582,-9.277,4603.965,313.42455231089815
84,1685400403.08,9.766,186.035,65.918,-7.324,4603.972,308.3744163107672
85,1685400403.08,-20.508,-84.961,8.789,-15.137,4603.976,306.3239319552017
86,1685400403.08,-27.344,130.859,104.98,-9.766,4603.98,304.9670381585309
87,1685400403.09,-5.859,306.641,145.996,-3.418,4603.984,311.84908752138176
88,1685400403.09,0.488,86.914,84.473,-4.883,4603.988,309.70039663286923
89,1685400403.1,-17.578,-329.59,-80.566,-8.301,4603.992,307.6356820982076
90,1685400403.1,-20.02,-311.035,-92.773,-5.859,4603.996,307.5404431592531
91,1685400403.1,-2.441,135.254,96.68,8.789,4604.0,309.07419137788224
92,1685400403.11,4.395,-297.852,-103.516,12.695,4604.004,304.0923676200302
93,1685400403.11,-6.348,-926.27,-327.637,-6.836,4604.008,307.1295276769318
94,1685400403.11,-16.113,-223.633,33.203,-21.973,4604.011,301.8823096479161
95,1685400403.11,21.484,-14.648,90.332,8.301,4604.011,306.37211793866567
96,1685400403.12,5.859,156.738,137.695,-4.395,4604.015,310.64954314410096
97,1685400403.12,1.465,45.898,114.746,-5.859,4604.015,308.36085535836054
98,1685400403.12,-16.113,192.871,127.441,-22.461,4604.019,312.85437881398747
99,1685400403.13,-5.859,135.254,59.082,-13.184,4604.023,309.9317233161005
100,1685400403.13,24.414,-155.762,6.836,13.672,4604.027,299.13560611048496
101,1685400403.13,16.602,-294.434,37.598,6.836,4604.031,310.2895980417987
102,1685400403.14,-14.648,-308.594,-63.477,-22.949,4604.035,300.52504282785014
103,1685400403.14,-14.16,-212.891,-120.117,-19.531,4604.039,302.93215592567356
104,1685400403.14,3.906,-694.336,-294.434,1.953,4604.042,305.2161294394116
105,1685400403.15,-1.953,-634.766,-138.184,-9.766,4604.046,300.69560855445957
106,1685400403.15,-21.484,185.059,174.316,-24.902,4604.05,310.4433321031742
107,1685400403.16,-21.973,-252.93,-147.461,-11.719,4604.054,307.32259944186984
108,1685400403.18,-10.254,-446.777,-113.77,-3.906,4604.073,301.2665563354493
109,1685400403.18,6.836,232.91,219.727,-4.883,4604.076,307.51970770899885
110,1685400403.18,5.859,383.301,153.32,-18.066,4604.08,306.96404614194466
111,1685400403.19,-8.301,-87.891,-24.414,-27.344,4604.084,310.6746139200739
112,1685400403.19,0.0,-131.348,33.691,-11.719,4604.088,316.4623862244287
113,1685400403.2,8.301,35.156,109.863,1.953,4604.092,309.62436217063976
114,1685400403.2,-6.836,-61.035,73.73,-9.277,4604.096,306.8764812484752
115,1685400403.2,-22.949,-554.688,-212.402,-17.578,4604.1,310.1022034600942
116,1685400403.2,-28.32,-20.508,23.438,-22.461,4604.105,307.8627303627813
117,1685400403.21,-19.531,-686.035,-213.379,-11.23,4604.104,300.0894671227006
118,1685400403.21,0.488,122.07,95.703,-6.836,4604.108,307.83683068327264
119,1685400403.21,-6.836,209.473,223.145,-12.207,4604.108,307.0890958108061
120,1685400403.21,-1.953,-17.09,40.039,-3.418,4604.112,309.86688867924477
121,1685400403.21,-2.93,381.836,183.594,-19.043,4604.112,311.3557680300712
122,1685400403.22,-23.438,-327.148,-60.547,-14.648,4604.116,311.37446784043675
123,1685400403.22,-30.762,-21.484,-6.348,-24.902,4604.116,316.05139383692125
124,1685400403.22,-34.18,-446.289,-145.02,-20.996,4604.12,306.36314032731576
125,1685400403.22,-16.602,-217.285,-19.043,-9.277,4604.124,309.72478028182314
126,1685400403.23,-2.441,-164.062,52.246,-6.836,4604.128,307.7171906582125
127,1685400403.23,-18.555,-362.305,-65.43,-20.508,4604.132,316.4972569983043
128,1685400403.24,-32.715,-184.082,-8.301,-22.461,4604.136,311.5938203180341
129,1685400403.24,-25.391,234.375,166.992,-11.719,4604.14,310.72628753712127
130,1685400403.24,-4.395,153.32,104.492,-3.418,4604.144,309.9087280283734
131,1685400403.25,-8.301,-725.586,-289.551,-5.859,4604.147,315.5357259034289
132,1685400403.25,-34.18,-621.094,-139.16,-20.508,4604.148,301.1050287927015
133,1685400403.26,-23.438,210.938,195.801,-7.324,4604.152,306.1353423508832
134,1685400403.26,7.324,120.117,64.941,10.254,4604.156,309.7355102680066
135,1685400403.26,6.348,57.129,76.66,6.836,4604.16,312.24911375937717
136,1685400403.27,-22.461,-14.648,35.645,-6.348,4604.164,306.95501289583024
137,1685400403.27,-27.832,-202.148,-64.453,-4.883,4604.168,314.0181241053803
138,1685400403.28,-0.488,-448.242,-135.742,23.438,4604.172,310.2398544595202
139,1685400403.28,7.324,-857.422,-233.887,13.184,4604.176,307.9126607102029
140,1685400403.28,-20.508,-253.906,30.273,-26.367,4604.179,308.860551630853
141,1685400403.29,-22.461,145.508,91.309,-21.973,4604.183,308.56291824347903
142,1685400403.29,7.324,-21.484,102.539,7.324,4604.187,309.4025713780748
143,1685400403.29,28.32,173.828,181.152,12.207,4604.191,304.52969809535983
144,1685400403.3,11.23,334.473,162.598,-7.324,4604.204,312.8613960398345
145,1685400403.3,-16.113,73.242,43.945,-18.555,4604.208,311.76902343386183
146,1685400403.3,-19.531,-110.352,47.363,-8.301,4604.212,310.27717761851693
147,1685400403.31,-2.93,156.25,169.434,3.418,4604.216,312.52336339382214
148,1685400403.31,-2.93,66.895,88.379,-0.488,4604.22,312.82606219197066
149,1685400403.32,-14.648,-248.535,-50.781,-12.695,4604.224,316.1967252199713
150,1685400403.32,-0.488,-760.254,-314.453,7.812,4604.228,310.5473558363922
151,1685400403.32,11.23,-845.215,-269.531,23.926,4604.232,309.8996050847629
152,1685400403.33,12.695,97.168,170.898,9.766,4604.236,309.86991883772214
153,1685400403.33,2.93,129.883,68.359,3.906,4604.24,312.4057245060634
154,1685400403.33,-6.836,-225.098,-62.988,4.883,4604.243,313.45956283255816
155,1685400403.34,17.578,161.133,143.066,14.648,4604.247,309.14749397022115
156,1685400403.34,19.531,426.758,217.285,12.695,4604.25,307.84553900005346
157,1685400403.34,-12.695,70.312,43.457,-9.766,4604.254,305.325321395521
158,1685400403.35,-20.02,-155.762,-10.742,-11.23,4604.258,309.7162963602927
159,1685400403.35,6.836,171.875,149.414,4.883,4604.262,313.42301100765036
160,1685400403.36,14.648,402.344,205.078,5.859,4604.266,304.29705054477756
161,1685400403.36,-4.883,-247.559,-77.637,0.977,4604.27,305.87368116114834
162,1685400403.36,-19.531,-708.496,-194.824,-0.977,4604.274,313.780712788488
163,1685400403.37,-18.066,60.059,166.992,-9.277,4604.278,313.473043256027
164,1685400403.37,14.16,390.137,176.758,1.953,4604.282,303.05035858536036
165,1685400403.38,9.277,-257.324,-50.781,9.277,4604.285,310.37325832074833
166,1685400403.38,-27.832,-441.895,-57.129,-0.977,4604.289,306.94682772225434
167,1685400403.38,-29.297,145.02,126.953,1.465,4604.293,311.8188311909179
168,1685400403.4,-0.977,239.258,137.695,14.16,4604.297,310.87971976637186
169,1685400403.4,17.09,-11.719,37.109,15.625,4604.301,311.73291035892345
170,1685400403.41,-3.906,-25.391,30.273,0.977,4604.304,315.76544667964873
171,1685400403.41,-31.738,111.328,61.035,-8.789,4604.308,310.3322079382417
172,1685400403.42,-20.508,6.836,78.613,0.977,4604.312,305.0748218559277
173,1685400403.42,-0.977,-596.191,-156.738,1.465,4604.316,308.32089482535895
174,1685400403.42,-28.32,-808.105,-278.32,-27.344,4604.32,304.2031045696497
175,1685400403.43,-46.875,-32.227,69.336,-41.504,4604.324,305.9546664074705
176,1685400403.43,-28.32,89.355,70.312,-21.484,4604.328,303.20637922294264
177,1685400403.44,-28.32,-202.148,22.461,-17.578,4604.332,309.5403996529057
178,1685400403.44,-33.203,81.543,133.301,-26.855,4604.336,305.00689207205795
179,1685400403.44,-35.156,233.398,112.305,-21.484,4604.34,304.05950000157776
180,1685400403.44,-17.578,-248.535,-89.844,-0.977,4604.356,309.0237807081426
181,1685400403.45,0.0,-375.488,-94.238,7.812,4604.359,307.34169009495497
182,1685400403.45,-11.23,195.312,163.574,-4.395,4604.363,312.0432801405444
183,1685400403.46,-24.902,273.926,131.836,-20.02,4604.367,309.7381119776667
184,1685400403.46,-24.902,-145.996,-32.227,-8.301,4604.371,311.4289261665288
185,1685400403.46,-1.465,-348.145,-73.73,16.113,4604.375,305.2464617436026
186,1685400403.47,15.625,-28.809,107.91,16.113,4604.379,308.88949392943
187,1685400403.47,3.906,266.113,173.828,-5.859,4604.383,306.79866118352436
188,1685400403.48,-2.93,-419.434,-198.73,-5.371,4604.387,312.1572066271094
189,1685400403.48,13.184,-717.285,-242.676,21.484,4604.391,308.8353570519731
190,1685400403.48,16.602,171.387,210.938,15.137,4604.395,315.0603400690821
191,1685400403.49,-0.488,234.863,116.699,-5.371,4604.398,306.7404143456876
192,1685400403.49,-10.742,-139.16,-56.152,-7.812,4604.386,308.61911115759216
193,1685400403.49,-1.953,-19.043,24.414,1.465,4604.39,304.327131129293
194,1685400403.5,16.113,116.211,117.188,14.648,4604.394,302.64545912987535
195,1685400403.5,0.488,-67.871,58.594,-1.465,4604.398,315.60161461725346
196,1685400403.5,-22.461,-604.492,-246.582,-23.438,4604.402,303.5722995143437
197,1685400403.51,-12.695,-741.211,-279.785,-24.414,4604.406,306.83265999286084
198,1685400403.51,3.418,-206.055,42.48,-15.137,4604.41,311.9561881890879
199,1685400403.52,2.93,-3.906,81.055,-14.648,4604.413,314.63527248119914
200,1685400403.52,-22.949,-343.75,-107.422,-20.508,4604.417,303.53101349396655
201,1685400403.52,-23.438,-212.891,-1.465,-18.066,4604.421,302.836059744228
202,1685400403.53,4.883,325.195,209.473,-13.672,4604.425,305.0886404786662
203,1685400403.53,3.418,98.145,48.34,-10.742,4604.429,309.5818153693074
204,1685400403.54,-20.02,-490.723,-165.039,-12.695,4604.433,306.0411189965389
205,1685400403.54,-36.621,-167.969,19.043,-19.531,4604.437,304.11138181198334
206,1685400403.54,-17.578,263.184,178.223,-11.23,4604.441,306.9863012034154
207,1685400403.55,5.859,111.328,70.801,-1.465,4604.445,305.4944162002403
208,1685400403.55,-4.883,-66.895,-22.461,-15.137,4604.449,312.95786184658874
209,1685400403.56,-24.414,-186.035,-58.105,-26.367,4604.453,311.1575493101694
210,1685400403.56,-17.578,-198.242,-90.82,-16.113,4604.457,308.02340141980886
211,1685400403.56,6.836,-448.73,-153.809,2.93,4604.461,307.29405345178697
212,1685400403.57,6.836,-843.75,-250.488,-1.465,4604.465,312.9974778735599
213,1685400403.57,-10.254,-241.699,37.598,-19.043,4604.469,309.74258232395505
214,1685400403.58,-6.348,150.879,105.469,-12.695,4604.473,311.34476190759676
215,1685400403.58,15.137,63.477,109.863,-5.371,4604.476,311.521499976473
216,1685400403.58,34.668,194.824,175.293,-8.301,4604.476,303.48272820292294
217,1685400403.58,18.555,281.738,111.816,-17.578,4604.48,309.54833112490235
218,1685400403.59,-1.465,61.035,24.414,-11.23,4604.484,306.7308443703461
219,1685400403.59,-2.441,-37.109,71.777,1.465,4604.488,308.97473721716284
220,1685400403.6,3.418,24.902,122.07,-4.883,4604.492,305.4696828116835
221,1685400403.6,-13.184,-181.641,-21.973,-20.02,4604.496,306.49644403919774
222,1685400403.6,-32.715,-293.945,-127.93,-22.949,4604.5,311.4495150073713
223,1685400403.61,-16.602,-735.352,-315.918,6.348,4604.504,309.86072100527866
224,1685400403.61,-5.859,-958.008,-284.668,14.648,4604.507,312.3104053348652
225,1685400403.61,-18.555,-98.633,83.008,-12.695,4604.511,312.2364084222451
226,1685400403.62,-26.367,43.457,18.555,-18.066,4604.515,314.08570633532617
227,1685400403.62,-17.578,-174.316,-61.035,4.883,4604.519,308.4471282339436
228,1685400403.63,-20.996,224.609,152.344,3.906,4604.524,308.9200410765374
229,1685400403.63,-33.691,426.758,218.262,-20.996,4604.527,311.73835627421823
230,1685400403.63,-31.25,38.574,-1.465,-22.461,4604.531,307.6942378204058
231,1685400403.64,-32.227,-114.258,-24.414,-22.949,4604.535,306.1755201814059
232,1685400403.64,-16.113,175.293,107.422,-15.137,4604.539,312.14902368985145
233,1685400403.65,-8.301,108.398,85.938,-5.859,4604.543,315.24518510706605
234,1685400403.65,-23.438,-471.191,-173.34,-13.672,4604.547,307.5107574392868
235,1685400403.65,-20.508,-714.355,-240.234,-14.648,4604.551,305.4529298043887
236,1685400403.66,-7.324,107.91,177.734,-10.742,4604.555,309.98844672948206
237,1685400403.66,0.488,359.863,158.203,-2.93,4604.559,301.03886867439235
238,1685400403.66,-15.625,-145.996,-49.316,-8.301,4604.563,309.99368916111183
239,1685400403.67,-34.18,-203.125,2.441,-12.695,4604.566,311.98028397798043
240,1685400403.67,-9.766,212.891,158.691,3.418,4604.57,313.31688314135215
241,1685400403.67,18.555,279.785,129.883,19.043,4604.573,303.5884582624536
242,1685400403.68,0.488,-59.082,-26.855,11.23,4604.577,310.8759650979211
243,1685400403.68,-20.02,-80.566,8.301,-1.953,4604.581,312.15278798609336
244,1685400403.69,-10.742,-72.266,27.344,5.371,4604.585,304.3410700098583
245,1685400403.69,0.977,-134.766,47.363,9.277,4604.589,316.1876463312286
246,1685400403.69,-13.672,-620.117,-184.082,11.719,4604.593,316.2144589058551
247,1685400403.7,-48.828,-825.195,-319.824,-4.883,4604.597,307.16731321402654
248,1685400403.7,-54.199,11.719,68.848,-19.043,4604.601,311.4015748643486
249,1685400403.7,-10.742,130.371,91.797,2.441,4604.605,307.34785954596873
250,1685400403.71,0.488,19.531,69.336,2.441,4604.609,306.0743214569668
251,1685400403.71,-30.273,188.965,110.352,-22.461,4604.613,310.1162444464933
252,1685400403.72,-35.156,132.324,71.289,-30.762,4604.624,310.6008208929798
253,1685400403.72,-10.742,-239.746,-42.969,-10.254,4604.628,312.641138569205
254,1685400403.72,-10.742,-229.98,-34.668,-10.254,4604.632,306.11507289504317
255,1685400403.73,-31.25,221.191,134.277,-25.879,4604.636,307.4926664866014
256,1685400403.73,-28.809,181.152,79.102,-26.367,4604.64,303.64461423964246
257,1685400403.74,-10.254,-453.613,-199.219,-13.184,4604.644,304.4658079705109
258,1685400403.74,5.371,-933.594,-300.293,2.441,4604.648,304.0574387699535
259,1685400403.74,-15.625,-198.242,73.242,-23.438,4604.652,304.863881675843
260,1685400403.75,-27.832,250.977,127.93,-42.969,4604.656,311.8691598515901
261,1685400403.75,-16.113,-279.297,-68.848,-22.461,4604.66,305.21958845941145
262,1685400403.76,-5.371,-183.105,40.039,-14.648,4604.663,311.6447971423865
263,1685400403.76,-4.883,375.977,201.66,-34.668,4604.667,311.6934785330082
264,1685400403.78,-31.25,221.191,75.195,-30.273,4604.671,312.2201897194064
265,1685400403.78,-43.945,-74.219,-38.086,-15.137,4604.675,310.6839506467579
266,1685400403.78,-13.672,114.746,89.844,-7.324,4604.679,311.6339606124234
267,1685400403.79,-5.859,164.062,116.211,-2.93,4604.683,312.4897365014141
268,1685400403.79,-23.438,-111.816,11.719,-16.113,4604.687,313.93785719742834
269,1685400403.8,-33.203,-688.965,-312.5,-7.812,4604.691,307.947079024108
270,1685400403.8,-33.203,-871.094,-344.238,8.789,4604.695,303.7756744381229
271,1685400403.8,-23.926,-10.254,111.328,-4.883,4604.699,301.19017305828027
272,1685400403.81,-25.879,130.371,53.223,-17.09,4604.703,312.8362826423614
273,1685400403.81,-35.645,-356.934,-124.512,-23.926,4604.706,309.7963974492188
274,1685400403.81,-15.625,-49.805,60.059,-9.277,4604.71,314.27009409791856
275,1685400403.82,6.836,420.41,208.496,2.93,4604.714,309.0568606233825
276,1685400403.82,-6.348,102.539,21.484,-13.184,4604.718,306.31705810490496
277,1685400403.82,-26.855,-222.656,-86.426,-29.785,4604.722,310.63078446318224
278,1685400403.83,-17.09,78.613,95.703,-18.555,4604.726,303.4194942457147
279,1685400403.83,14.16,321.289,181.641,10.742,4604.73,303.5011504585724
280,1685400403.84,17.578,33.691,36.133,8.301,4604.733,313.52960476086207
281,1685400403.84,-0.488,-411.133,-154.785,-8.301,4604.737,315.76244983788865
282,1685400403.84,3.906,-416.992,-169.922,7.324,4604.741,303.02518691345665
283,1685400403.85,16.602,-8.789,45.41,20.996,4604.745,307.2458627102438
284,1685400403.85,6.836,-255.371,-59.082,4.883,4604.749,308.0760897464584
285,1685400403.86,-29.785,-917.969,-351.562,-23.438,4604.753,308.9022488080831
286,1685400403.86,-41.016,-277.832,-2.93,-24.414,4604.757,313.75649956421563
287,1685400403.86,-21.484,172.852,119.629,-10.742,4604.761,312.50698508295056
288,1685400403.86,-10.254,89.844,117.188,-3.906,4604.761,315.31461516027645
289,1685400403.87,-14.648,163.574,129.395,-12.207,4604.765,309.1012942094197
290,1685400403.87,-34.668,195.801,61.035,-34.18,4604.769,307.99922806999564
291,1685400403.88,-24.902,85.938,43.457,-10.742,4604.773,311.7691135451949
292,1685400403.88,-3.906,-127.441,-44.434,23.438,4604.777,313.9537446037171
293,1685400403.88,-11.719,-247.07,-37.109,8.789,4604.781,311.2260112485126
294,1685400403.89,-31.25,-248.535,-34.18,-10.742,4604.784,316.5463102066805
295,1685400403.89,-33.691,-89.844,5.859,-12.695,4604.788,306.4736213558348
296,1685400403.9,-9.766,-664.062,-241.211,3.418,4604.792,311.34894379962196
297,1685400403.9,2.93,-731.445,-208.008,8.301,4604.796,307.78410976235824
298,1685400403.9,-20.508,172.852,180.664,-18.555,4604.8,298.4687811628992
299,1685400403.91,-31.25,-24.414,-29.297,-10.254,4604.804,307.0918305841972
300,1685400403.92,-17.578,-204.102,-61.523,12.207,4604.823,301.4919569864685
301,1685400403.93,-7.812,252.441,153.809,6.836,4604.827,310.7854279533245
302,1685400403.93,-23.438,370.605,145.02,-14.648,4604.831,318.65839505217275
303,1685400403.94,-35.645,-105.469,-86.426,-20.508,4604.834,308.6478345616469
304,1685400403.94,-18.555,-240.234,-117.188,0.0,4604.838,304.15215922883215
305,1685400403.94,-3.906,-117.188,22.949,9.277,4604.842,308.8288312721849
306,1685400403.95,-7.812,0.977,88.379,-1.465,4604.846,302.7022625298222
307,1685400403.95,-27.832,-373.535,-158.203,-9.766,4604.85,305.32209540873885
308,1685400403.95,-29.297,-184.082,4.395,-13.184,4604.851,307.0947969363846
309,1685400403.96,-19.043,-716.797,-243.164,0.488,4604.854,308.6775985977523
310,1685400403.96,-13.184,281.25,177.734,-3.418,4604.855,303.83122656650954
311,1685400403.96,-0.488,170.41,195.801,7.324,4604.858,306.38643284106786
312,1685400403.96,-13.184,318.848,125.0,-3.906,4604.859,311.71346613121216
313,1685400403.96,-8.301,346.191,131.348,-13.184,4604.862,306.9817321850464
314,1685400403.97,-26.855,-99.609,-73.73,-6.348,4604.863,308.4599995592811
315,1685400403.97,-22.949,-193.359,-79.102,-20.508,4604.866,301.0048086319211
316,1685400403.97,-37.109,-348.145,-180.664,1.953,4604.867,311.7204963332144
317,1685400403.97,-28.809,-224.609,-85.449,7.812,4604.87,305.80590653791575
318,1685400403.98,-2.441,-159.18,29.785,10.254,4604.874,303.85922675466117
319,1685400403.98,-21.484,-390.625,-47.363,-3.418,4604.878,304.2684301412162
320,1685400403.98,-45.898,-264.648,-21.973,-21.484,4604.882,299.16225884073646
321,1685400403.99,-38.086,189.941,135.742,-15.137,4604.886,302.4542051827436
322,1685400403.99,-12.207,238.77,120.117,-6.836,4604.89,304.3462967603848
323,1685400404.0,-0.977,-624.023,-250.0,-9.766,4604.894,309.47472751004705
324,1685400404.0,-16.113,-640.137,-189.453,-20.02,4604.903,312.86111237882284
325,1685400404.01,-25.391,81.055,98.145,-17.578,4604.907,306.92515924377875
326,1685400404.01,-19.043,-248.047,-96.68,-9.766,4604.911,312.2662941139965
327,1685400404.01,-14.16,-321.777,-83.496,-18.066,4604.915,308.76899520136527
328,1685400404.02,-23.438,112.793,100.098,-28.32,4604.919,309.91396558112643
329,1685400404.02,-18.066,-7.324,-41.504,-21.484,4604.922,306.49890329211973
330,1685400404.03,11.23,-577.148,-272.949,-2.441,4604.926,306.05482669519705
331,1685400404.03,20.996,-620.605,-157.715,1.465,4604.93,305.91806526752345
332,1685400404.03,-13.672,125.488,131.836,-21.484,4604.934,306.7867018342245
333,1685400404.04,-15.625,230.957,77.148,-20.508,4604.938,308.3618748369883
334,1685400404.04,10.254,-2.93,13.184,-5.371,4604.942,300.99171406238077
335,1685400404.04,13.672,152.344,87.402,-10.742,4604.946,310.63741762769575
336,1685400404.04,-5.859,375.977,157.227,-26.367,4604.955,303.07929747567607
337,1685400404.05,-20.996,138.184,21.973,-19.043,4604.959,303.632021406393
338,1685400404.05,-7.812,-75.684,28.32,0.0,4604.963,299.5584369684256
339,1685400404.06,3.418,145.996,155.273,0.977,4604.967,314.8055688219159
340,1685400404.06,0.977,76.66,63.965,-3.906,4604.971,311.8730884199621
341,1685400404.06,-23.438,-201.172,-84.473,-16.113,4604.975,311.90283954988024
342,1685400404.07,-29.785,-698.73,-329.102,-10.254,4604.979,302.6189663516221
343,1685400404.07,-2.93,-978.516,-333.496,-2.441,4604.983,307.7794123288626
344,1685400404.08,-7.812,-104.492,115.723,-22.461,4604.987,307.4130780645351
345,1685400404.08,-34.668,149.414,55.664,-27.344,4604.99,309.46837532734315
346,1685400404.08,-45.41,-110.84,-72.266,-21.973,4604.994,303.1206692923647
347,1685400404.09,-23.926,250.488,164.062,-16.113,4604.998,315.4780252236799
348,1685400404.09,-8.789,504.395,233.398,-16.113,4605.001,310.2562019686475
349,1685400404.1,-27.832,133.789,8.789,-29.297,4605.004,305.4440208825958
350,1685400404.1,-31.738,-142.09,-66.895,-31.738,4605.008,309.74606819452356
351,1685400404.1,-9.766,188.965,145.996,-16.602,4605.012,309.9900258787652
352,1685400404.11,-3.906,433.594,199.707,-17.09,4605.016,307.47272953708296
353,1685400404.11,-10.742,-149.414,-82.52,-29.297,4605.02,315.7749817195485
354,1685400404.12,-32.715,-665.527,-248.047,-22.949,4605.024,310.6898374809345
355,1685400404.12,-56.152,-245.117,20.996,-15.625,4605.028,304.7555949431158
356,1685400404.12,-37.598,275.879,219.238,-14.16,4605.032,312.71217782187466
357,1685400404.13,-25.391,-235.84,-88.379,-9.277,4605.036,310.225549242088
358,1685400404.13,-40.039,-758.301,-261.719,-10.742,4605.04,308.56122595466275
359,1685400404.13,-47.363,-17.09,103.027,-22.461,4605.044,310.99695799958886
360,1685400404.15,-37.109,230.469,120.605,-17.578,4605.046,303.46302031246114
361,1685400404.15,-26.367,66.895,100.586,-10.742,4605.05,313.58656719296334
362,1685400404.16,-35.645,70.801,97.168,-23.438,4605.054,305.31220725710557
363,1685400404.16,-34.18,78.125,36.133,-19.531,4605.058,307.4701571189961
364,1685400404.16,-14.16,-69.824,27.832,-0.488,4605.062,311.50317493091643
365,1685400404.17,-4.395,-561.523,-139.16,-10.254,4605.066,309.47913009520585
366,1685400404.17,-11.23,-648.926,-166.504,-36.133,4605.07,314.01069764647804
367,1685400404.18,-20.508,-20.508,50.293,-40.527,4605.074,312.70057088287183
368,1685400404.18,-7.324,104.492,43.457,-22.461,4605.077,307.45817409951616
369,1685400404.18,17.578,-441.406,-141.602,-8.789,4605.081,308.15844846664544
370,1685400404.19,7.324,-289.062,-15.137,-22.461,4605.085,306.67383425036496
371,1685400404.19,-19.531,245.605,145.02,-28.32,4605.089,310.3425839829479
372,1685400404.2,-13.184,-63.477,-55.664,-1.953,4605.093,298.8359706011586
373,1685400404.2,8.301,-316.895,-83.984,7.812,4605.097,310.0239637040432
374,1685400404.2,2.441,155.273,146.484,0.977,4605.101,307.99978912764027
375,1685400404.21,-15.625,301.27,138.672,0.0,4605.104,315.89866562842695
376,1685400404.21,-18.555,-89.844,-41.016,2.441,4605.108,312.85019049065716
377,1685400404.22,3.418,-352.539,-107.91,12.695,4605.112,301.1617297997293
378,1685400404.22,12.207,-107.422,42.48,14.648,4605.116,309.3786065416446
379,1685400404.22,-15.625,214.844,129.883,-10.742,4605.12,305.93488809955556
380,1685400404.23,-20.02,-413.574,-193.359,-12.207,4605.124,311.16155556844456
381,1685400404.23,2.441,-704.59,-216.797,-0.977,4605.128,308.6859569621581
382,1685400404.23,14.648,202.637,206.055,-5.371,4605.132,314.300982023139
383,1685400404.24,0.977,279.297,86.914,-17.09,4605.136,315.0604738090039
384,1685400404.24,-19.043,-329.59,-178.711,-18.555,4605.136,316.0033349753887
385,1685400404.24,-3.906,-289.062,-60.059,-0.488,4605.14,313.5354763889412
386,1685400404.25,13.672,272.949,191.406,2.441,4605.144,302.77868118055557
387,1685400404.25,8.301,246.582,87.891,-0.977,4605.148,312.2142586768104
388,1685400404.26,-4.883,-441.895,-170.898,-6.836,4605.152,306.5130474566426
389,1685400404.26,-7.324,-615.723,-201.172,-10.254,4605.156,315.24400562435915
390,1685400404.26,8.301,-193.359,-17.578,-0.488,4605.16,306.5385296879458
391,1685400404.27,9.766,73.73,96.191,-1.953,4605.164,313.70656707074124
392,1685400404.27,-5.859,-604.98,-312.012,-5.371,4605.168,312.3803913721367
393,1685400404.27,-12.695,-769.043,-280.762,0.488,4605.171,302.16755102143827
394,1685400404.28,6.836,229.004,200.684,7.324,4605.175,315.058129422431
395,1685400404.28,21.973,230.469,74.707,4.883,4605.179,309.75870077059966
396,1685400404.3,-0.488,-47.852,-37.598,-7.324,4605.198,310.05665772644613
397,1685400404.3,-17.578,114.746,47.363,-3.418,4605.202,309.2346127696692
398,1685400404.31,-12.207,146.484,81.055,-3.906,4605.206,305.37852718646906
399,1685400404.31,-9.277,-213.379,-80.566,-7.324,4605.21,308.80562398677915
400,1685400404.32,-16.602,-337.891,-144.043,-11.719,4605.214,309.00800665069374
401,1685400404.32,-31.738,-201.172,-77.637,-18.555,4605.218,305.2839685214911
402,1685400404.32,-18.555,-221.191,-121.094,-7.812,4605.222,302.92045528447534
403,1685400404.33,4.883,-493.652,-185.059,-1.465,4605.226,308.8311598957926
404,1685400404.33,5.371,159.668,130.859,-10.742,4605.226,306.0768170376347
405,1685400404.33,0.977,-613.281,-152.344,-8.789,4605.23,312.9802423511603
406,1685400404.33,-8.301,297.852,127.93,-19.043,4605.23,314.3385239735901
407,1685400404.34,-29.297,38.086,102.539,-30.762,4605.233,305.5351658843886
408,1685400404.34,-26.855,104.98,30.762,-14.648,4605.234,309.6028529921516
409,1685400404.34,-20.508,189.453,70.312,-26.367,4605.237,308.47084819705026
410,1685400404.34,-5.859,-27.832,71.289,7.324,4605.238,300.57508258212664
411,1685400404.34,0.977,39.551,83.008,-8.789,4605.241,306.87332933306607
412,1685400404.34,0.0,-92.773,94.238,7.812,4605.242,306.0195337520643
413,1685400404.35,-26.855,-205.566,-28.32,-13.672,4605.246,309.096924387554
414,1685400404.35,-26.367,-270.02,-133.789,-13.184,4605.25,309.08991276835917
415,1685400404.36,-3.906,-708.008,-242.676,1.465,4605.254,308.0741990355127
416,1685400404.36,3.418,-379.395,-6.836,-6.836,4605.258,315.3336365403843
417,1685400404.36,-12.695,291.016,166.504,-26.367,4605.261,304.4888830418214
418,1685400404.37,-32.227,68.359,5.371,-27.832,4605.265,302.78991344219895
419,1685400404.37,-19.531,-785.645,-352.051,-9.766,4605.269,298.6243743902686
420,1685400404.38,-1.953,-676.758,-195.312,-10.254,4605.274,309.8048550596574
421,1685400404.38,-10.742,312.5,225.098,-23.438,4605.278,304.0557997870485
422,1685400404.38,-23.926,25.879,-36.621,-31.25,4605.282,307.5974431715904
423,1685400404.39,-26.367,-163.574,-104.004,-25.879,4605.285,305.7152886815162
424,1685400404.39,-11.719,261.23,133.301,-14.648,4605.289,296.85208348191577
425,1685400404.4,4.395,200.684,109.375,-10.742,4605.293,302.4187352160065
426,1685400404.4,-21.484,-399.414,-169.922,-19.531,4605.297,302.5292000473049
427,1685400404.4,-38.574,-744.141,-284.668,-23.926,4605.301,309.85259853750375
428,1685400404.41,-22.949,-138.184,76.172,-11.719,4605.305,309.33286521362686
429,1685400404.41,0.977,354.004,195.801,1.465,4605.309,305.85340430155514
430,1685400404.42,-9.277,-147.461,-29.785,-12.207,4605.313,307.4329375731029
431,1685400404.42,-27.832,-339.355,-52.734,-35.156,4605.317,308.8091988038262
432,1685400404.42,-4.883,235.352,149.414,-20.02,4605.33,304.81360067830224
433,1685400404.42,20.02,328.613,147.461,-1.953,4605.334,306.3022677081957
434,1685400404.43,15.137,96.68,69.824,-11.23,4605.337,311.0856703099573
435,1685400404.43,-16.602,65.918,86.426,-30.273,4605.341,305.92984050785145
436,1685400404.44,-20.996,-76.172,-19.043,-17.578,4605.345,310.8208555796148
437,1685400404.44,-4.395,-159.18,40.039,-2.441,4605.349,307.9124712293999
438,1685400404.44,-0.488,-585.938,-179.199,-4.395,4605.353,295.5700760263336
439,1685400404.45,-21.484,-862.305,-356.445,-19.531,4605.357,300.8813229307045
440,1685400404.45,-30.762,-15.137,82.52,-22.949,4605.361,300.06566890748286
441,1685400404.46,-3.906,219.727,113.281,0.977,4605.365,296.4578575643829
442,1685400404.46,2.93,-108.887,-2.441,0.0,4605.369,305.70943331499893
443,1685400404.46,-15.625,40.039,71.777,-21.973,4605.373,305.9675121641614
444,1685400404.47,-25.879,317.383,138.184,-27.344,4605.375,314.33716565242275
445,1685400404.47,-10.254,32.227,-4.395,-7.812,4605.379,303.4258339467665
446,1685400404.48,-1.465,-244.141,-63.965,-7.324,4605.383,307.19462327354256
447,1685400404.48,-18.555,169.434,122.07,-16.113,4605.387,297.7894507313676
448,1685400404.49,-28.809,310.059,82.031,-9.277,4605.391,307.458405162798
449,1685400404.49,-16.113,-367.188,-187.012,14.16,4605.395,299.9681950708388
450,1685400404.49,-2.441,-589.355,-150.391,24.902,4605.399,302.80627412975775
451,1685400404.5,-14.648,151.367,159.668,14.16,4605.403,316.6002903820227
452,1685400404.5,-30.762,237.305,91.797,-0.977,4605.407,303.12042618602624
453,1685400404.5,-13.672,-164.062,-43.945,-4.883,4605.41,303.2220561793312
454,1685400404.51,14.648,-40.527,58.105,7.812,4605.414,294.6978210264696
455,1685400404.51,8.301,354.98,177.734,15.137,4605.418,305.59531478744117
456,1685400404.52,-14.16,179.199,48.34,-6.348,4605.425,298.66452640112294
457,1685400404.53,-4.395,-235.352,-101.562,-21.484,4605.429,308.9540866664207
458,1685400404.53,15.137,-71.289,30.762,-6.348,4605.432,309.5268388085247
459,1685400404.54,33.203,347.656,178.223,15.625,4605.436,309.1485381320886
460,1685400404.54,31.25,132.812,21.973,17.09,4605.44,299.5460993586254
461,1685400404.54,-12.207,-686.035,-354.492,-13.184,4605.444,307.75211716136425
462,1685400404.55,-21.973,-839.844,-334.961,-13.672,4605.448,314.7679448119047
463,1685400404.55,3.418,50.293,112.793,-1.465,4605.452,305.6584457990239
464,1685400404.56,12.207,218.262,90.82,-6.836,4605.456,306.2253955604126
465,1685400404.56,-3.906,-483.887,-212.891,-3.418,4605.46,319.9667779815342
466,1685400404.56,-3.418,-267.578,-12.695,10.254,4605.464,305.80129023399627
467,1685400404.57,7.324,384.277,225.586,21.973,4605.468,315.04485044427145
468,1685400404.57,-15.137,147.949,31.25,25.391,4605.468,312.2142152267731
469,1685400404.58,-38.574,-161.621,-77.148,17.09,4605.472,313.4458130197282
470,1685400404.58,-35.156,64.941,67.871,17.578,4605.476,312.3581540865363
471,1685400404.58,-6.836,157.715,92.773,44.922,4605.48,321.10235179702056
472,1685400404.59,13.184,-260.742,-85.449,66.406,4605.484,313.5677068487558
473,1685400404.59,1.465,-621.094,-269.043,63.965,4605.488,312.76780757487757
474,1685400404.6,1.465,-318.359,-98.633,70.801,4605.492,311.3345672583787
475,1685400404.6,23.926,218.262,167.969,78.125,4605.496,315.3273805053372
476,1685400404.6,35.645,-206.543,-73.73,82.52,4605.5,313.6334460496629
477,1685400404.61,21.973,-900.391,-327.637,76.172,4605.504,315.97721329385934
478,1685400404.61,10.742,-243.652,29.785,67.871,4605.507,317.33394306210295
479,1685400404.61,30.762,210.938,148.438,74.219,4605.511,319.0533332905651
480,1685400404.62,41.016,59.57,96.68,69.336,4605.511,324.9996479197598
481,1685400404.62,26.367,103.516,113.77,54.199,4605.515,323.7449611196849
482,1685400404.62,13.184,180.176,107.422,51.758,4605.519,327.56991823892804
483,1685400404.63,12.695,105.957,55.664,60.547,4605.523,321.2584322726567
484,1685400404.63,30.762,-83.984,21.484,69.824,4605.527,333.2321311185583
485,1685400404.64,31.738,-178.711,54.688,64.453,4605.531,329.19814169540757
486,1685400404.64,4.395,-248.535,-59.57,36.133,4605.535,333.1661361240886
487,1685400404.64,-3.906,-289.551,-140.137,24.902,4605.538,336.1154474267063
488,1685400404.65,19.531,-695.801,-255.371,46.387,4605.542,334.43465240162084
489,1685400404.65,27.832,-951.66,-257.324,45.41,4605.546,330.0681119293642
490,1685400404.65,3.418,-157.227,74.707,15.137,4605.55,329.04384078310676
491,1685400404.66,-6.348,42.969,29.297,16.602,4605.554,330.4029343632912
492,1685400404.66,5.371,-99.121,-27.832,32.715,4605.558,345.99851966137004
493,1685400404.66,16.113,252.441,152.832,31.25,4605.562,333.93237609488534
494,1685400404.67,5.859,412.109,163.086,18.066,4605.566,334.2335973665921
495,1685400404.67,-7.812,-3.418,-27.832,15.137,4605.57,338.5117456264013
496,1685400404.68,-2.93,-85.449,-11.719,35.156,4605.574,343.1005743195088
497,1685400404.68,5.859,23.438,67.383,47.363,4605.578,341.88225079653915
498,1685400404.68,-2.441,103.027,106.934,31.25,4605.582,339.78274939228544
499,1685400404.69,-13.184,-273.438,-132.324,10.742,4605.586,342.5456804193032
500,1685400404.69,-0.977,-804.199,-299.316,15.137,4605.59,341.295239906336
501,1685400404.7,17.578,-83.984,131.836,34.18,4605.594,345.17020299416254
502,1685400404.7,9.766,377.93,192.383,31.25,4605.598,347.42417171259444
503,1685400404.7,-10.742,-216.797,-56.641,9.277,4605.601,347.139445752338
504,1685400404.7,-14.648,-324.219,-19.043,4.395,4605.601,346.69669262684386
505,1685400404.71,3.906,262.695,163.574,19.043,4605.605,352.7293065734776
506,1685400404.71,10.742,307.129,129.883,16.602,4605.609,347.2211930944267
507,1685400404.72,-13.672,36.621,52.246,0.977,4605.613,354.8596721728934
508,1685400404.72,-28.32,-195.801,-15.625,-14.16,4605.616,357.064076297422
509,1685400404.72,-12.207,-274.414,-71.289,-9.277,4605.62,355.69648434362085
510,1685400404.73,0.0,-84.961,84.473,4.883,4605.624,357.89222803079826
511,1685400404.73,-8.301,-594.238,-189.941,1.465,4605.628,357.1325407936202
512,1685400404.74,-26.367,-780.273,-251.953,-2.93,4605.632,359.16136133570467
513,1685400404.74,-22.949,148.438,182.617,-3.418,4605.636,355.64817564779634
514,1685400404.74,0.977,251.465,114.746,8.301,4605.64,357.3877917849542
515,1685400404.75,-4.395,-139.648,-19.531,3.906,4605.644,356.43997939900953
516,1685400404.75,-23.438,-43.457,33.691,-10.254,4605.65,353.0666730075612
517,1685400404.76,-23.926,298.34,167.969,5.371,4605.654,354.6287892421399
518,1685400404.76,-11.23,46.875,33.691,26.367,4605.658,352.9396962629531
519,1685400404.76,-17.09,-248.535,-68.848,10.254,4605.662,348.9343161159639
520,1685400404.77,-38.086,56.152,71.777,-19.531,4605.666,359.7050805783381
521,1685400404.77,-38.086,-53.223,-17.578,-13.672,4605.67,357.7571996323678
522,1685400404.78,-10.254,-512.695,-184.57,2.93,4605.674,360.1540268246348
523,1685400404.78,-6.348,-563.965,-122.07,-7.812,4605.677,360.5126604858027
524,1685400404.78,-32.227,79.102,146.973,-35.156,4605.681,357.1394038797012
525,1685400404.79,-30.762,175.293,72.754,-28.809,4605.685,353.3109534973078
526,1685400404.79,1.465,-27.832,28.809,7.812,4605.689,356.447725960764
527,1685400404.8,-0.977,146.484,130.859,3.418,4605.693,364.10022588278224
528,1685400404.8,-36.621,349.121,173.34,-33.203,4605.704,350.42977092773873
529,1685400404.8,-43.945,118.652,68.359,-36.133,4605.708,347.6308446759443
530,1685400404.8,-23.926,-195.312,-48.34,-11.719,4605.712,358.1411767629873
531,1685400404.81,-10.742,72.754,83.008,-3.906,4605.716,352.797431374143
532,1685400404.81,-14.648,114.258,112.793,-10.254,4605.72,348.96485072018726
533,1685400404.82,-33.203,-218.75,-64.453,-18.555,4605.724,353.8785134141645
534,1685400404.82,-29.785,-746.582,-336.426,-5.859,4605.728,357.322147151452
535,1685400404.82,-13.184,-854.004,-262.695,13.184,4605.732,359.5813891203122
536,1685400404.83,-11.23,108.398,178.711,6.836,4605.736,360.5170547880041
537,1685400404.83,-20.508,229.98,70.801,-5.371,4605.74,352.49476287419395
538,1685400404.83,-32.227,-109.375,-62.988,-1.465,4605.743,361.37351466081844
539,1685400404.84,-20.02,172.363,129.395,18.555,4605.747,351.3372361154645
540,1685400404.84,-3.418,432.617,229.004,13.184,4605.751,352.0593888817936
541,1685400404.84,-6.348,128.906,35.645,-9.277,4605.754,351.9678400690646
542,1685400404.85,-28.32,-139.16,-64.453,-20.02,4605.758,351.0288357133454
543,1685400404.85,-22.949,163.086,116.699,-10.742,4605.762,353.23610934411744
544,1685400404.86,5.371,247.07,148.926,7.324,4605.766,357.14690654126304
545,1685400404.86,-2.93,-317.383,-120.117,7.812,4605.77,356.5869826100867
546,1685400404.86,-23.438,-899.414,-375.488,-4.395,4605.774,348.09124808301726
547,1685400404.87,-27.344,-333.984,-32.715,-10.254,4605.778,346.7748708168624
548,1685400404.87,2.93,260.254,182.129,8.301,4605.782,354.04385538766286
549,1685400404.88,12.207,-24.902,22.461,4.883,4605.786,347.83206023864483
550,1685400404.88,-24.414,-114.746,4.883,-20.02,4605.79,355.1260542333155
551,1685400404.88,-27.344,160.156,116.699,-8.301,4605.793,352.65719273842694
552,1685400404.9,0.977,237.793,138.184,7.324,4605.796,349.1155486447748
553,1685400404.9,11.23,69.336,93.75,2.441,4605.8,353.9092782934522
554,1685400404.91,-15.137,16.113,62.988,-8.301,4605.804,352.58737017263485
555,1685400404.91,-31.25,121.094,70.801,-12.207,4605.808,353.27125769377113
556,1685400404.92,-13.672,-1.465,78.125,2.93,4605.812,340.8166525256816
557,1685400404.92,-8.301,-566.406,-150.879,9.766,4605.816,345.3555561093549
558,1685400404.92,-24.902,-719.727,-209.961,-15.137,4605.82,346.0817014601614
559,1685400404.93,-41.016,-288.574,-14.16,-23.926,4605.824,345.4828726774983
560,1685400404.93,-20.02,-35.645,34.18,2.93,4605.827,345.49170896980934
561,1685400404.93,1.465,-556.152,-161.133,11.719,4605.831,350.841402851146
562,1685400404.94,-15.137,-433.105,-41.992,-18.066,4605.835,353.2651318447427
563,1685400404.94,-25.879,261.719,163.086,-31.25,4605.839,345.8235388924326
564,1685400404.94,-15.625,-27.344,-18.066,-17.578,4605.842,347.56052348660603
565,1685400404.95,-0.488,-20.996,18.066,-4.395,4605.846,350.8140052129418
566,1685400404.95,-5.371,310.547,172.852,-4.883,4605.85,341.79115987965093
567,1685400404.96,-29.785,262.207,111.816,-22.949,4605.854,349.76001048712436
568,1685400404.96,-29.785,-135.742,-64.453,-20.02,4605.858,354.1299854085181
569,1685400404.96,-1.465,-360.352,-94.238,-0.977,4605.862,343.2410526307475
570,1685400404.97,10.254,-42.969,87.402,-1.953,4605.866,349.262424515004
571,1685400404.97,-8.789,273.438,165.039,-27.832,4605.87,345.029188272246
572,1685400404.98,-22.949,-346.191,-194.336,-22.461,4605.874,346.0300055468671
573,1685400404.98,-7.812,-834.961,-317.383,11.23,4605.878,343.3479141068607
574,1685400404.98,-0.488,-97.168,111.328,7.812,4605.882,339.0316610302787
575,1685400404.99,-8.789,275.391,119.629,-20.996,4605.885,335.1737676384097
576,1685400404.99,-23.926,-307.129,-101.074,-30.273,4605.887,344.0617331125112
577,1685400404.99,-29.297,-362.305,-26.367,-16.113,4605.89,337.0238014804418
578,1685400405.0,-12.207,257.324,163.086,-5.859,4605.894,342.4577285652248
579,1685400405.0,-7.324,268.066,84.961,-10.742,4605.898,338.5900111890973
580,1685400405.01,-29.297,-271.973,-150.391,-15.625,4605.902,337.31999694083123
581,1685400405.01,-35.645,-491.699,-175.781,-12.695,4605.906,337.1956227748149
582,1685400405.01,-10.254,-220.703,4.883,0.977,4605.91,335.9765606546157
583,1685400405.02,-9.277,77.637,111.816,-0.977,4605.914,331.33272120498793
584,1685400405.02,-36.621,-569.336,-279.297,-22.461,4605.918,334.33291513969453
585,1685400405.02,-49.316,-758.301,-270.02,-26.855,4605.922,332.4503157397145
586,1685400405.03,-20.02,203.613,194.336,-11.23,4605.926,330.9888381945816
587,1685400405.03,2.93,174.316,86.914,1.465,4605.929,339.6676770367606
588,1685400405.04,-13.184,-287.109,-104.98,-8.789,4605.937,332.2871280898191
589,1685400405.04,-31.25,-83.008,5.371,-21.484,4605.941,327.94767495472024
590,1685400405.04,-18.555,337.402,187.012,-0.977,4605.945,327.2484351040331
591,1685400405.05,-4.395,22.949,-17.578,1.465,4605.949,328.40848421443354
592,1685400405.05,-18.066,-372.07,-131.348,-15.625,4605.953,331.147584053071
593,1685400405.06,-39.551,-234.375,-45.41,-22.949,4605.957,318.47336667638257
594,1685400405.06,-20.508,-147.461,-102.539,-14.16,4605.961,317.045073643823
595,1685400405.06,6.836,-409.18,-164.551,2.441,4605.965,313.612720036501
596,1685400405.07,-5.371,-604.004,-140.137,-2.441,4605.968,316.4025856402208
597,1685400405.07,-27.832,8.789,105.469,-17.578,4605.972,310.51767467127854
598,1685400405.08,-21.973,138.672,49.805,-0.977,4605.976,319.2551110766567
599,1685400405.08,13.672,136.719,128.418,1.465,4605.976,309.8329190467476
600,1685400405.08,4.395,35.645,113.77,13.184,4605.98,314.99984533626963
601,1685400405.08,-7.324,141.602,42.48,-15.625,4605.98,320.07964676615677
602,1685400405.09,-28.809,-20.02,-16.602,-15.625,4605.984,302.23909071778513
603,1685400405.09,-17.578,-98.633,9.766,-5.371,4605.988,315.9018547608938
604,1685400405.1,2.441,-57.129,91.797,2.441,4605.992,311.3784742433359
605,1685400405.1,-7.324,-188.965,-6.836,-4.883,4605.996,305.3399165601814
606,1685400405.1,-29.785,-245.605,-95.703,-21.484,4606.0,303.4481358311309
607,1685400405.11,-27.832,-684.082,-280.762,0.977,4606.004,303.72630690393066
608,1685400405.11,-5.371,-973.145,-271.973,20.996,4606.007,300.912033338581
609,1685400405.11,-8.301,-79.102,114.746,0.0,4606.011,291.4008937870731
610,1685400405.12,-27.832,125.0,32.715,-9.277,4606.015,292.3820530174585
611,1685400405.12,-21.973,-128.906,-80.078,-4.883,4606.019,302.7268056470873
612,1685400405.13,-1.953,240.723,123.047,6.836,4606.024,292.0014101705619
613,1685400405.13,-6.348,441.406,193.848,-0.977,4606.028,294.67871714998216
614,1685400405.13,-33.203,14.16,-46.875,-23.438,4606.032,296.8140663589044
615,1685400405.14,-35.645,-191.895,-87.402,-23.438,4606.035,289.8125754452563
616,1685400405.14,-4.395,168.945,107.91,-7.324,4606.039,288.7702831085793
617,1685400405.15,6.348,104.004,58.594,0.0,4606.043,296.29225641312763
618,1685400405.15,-11.719,-452.637,-179.688,-1.953,4606.047,282.6611594767403
619,1685400405.15,-16.602,-959.961,-367.676,-1.465,4606.051,279.25933844586547
620,1685400405.16,4.883,-198.73,68.359,13.184,4606.055,284.45453661571065
621,1685400405.16,6.836,346.191,190.43,18.555,4606.059,283.2232318405202
622,1685400405.16,-25.879,17.09,-17.09,-16.113,4606.063,287.19025472341457
623,1685400405.17,-43.945,0.977,12.207,-28.32,4606.067,283.1107585058797
624,1685400405.17,-33.203,245.605,143.066,-2.441,4606.08,281.44355890338426
625,1685400405.17,-11.719,263.672,98.145,5.371,4606.084,275.235153925133
626,1685400405.18,-21.484,20.508,-10.742,-7.812,4606.088,273.2693338463984
627,1685400405.18,-48.828,-14.16,5.859,-16.602,4606.092,281.6954553455931
628,1685400405.18,-44.922,-138.672,-63.477,-16.113,4606.096,280.4283779361291
629,1685400405.19,-15.137,-180.664,-18.555,2.441,4606.1,287.99377946715134
630,1685400405.19,-9.766,-494.629,-140.625,3.906,4606.103,275.48702297242744
631,1685400405.2,-30.762,-919.434,-350.098,-10.254,4606.107,276.47043089949506
632,1685400405.2,-28.32,-358.398,-107.422,-17.09,4606.111,283.67320882167076
633,1685400405.2,3.906,39.551,21.484,-0.977,4606.115,270.7319783755296
634,1685400405.21,11.23,-139.16,17.09,6.836,4606.119,283.9582548253723
635,1685400405.21,-8.789,60.059,90.332,-11.719,4606.123,279.2255430554399
636,1685400405.22,-19.531,245.117,83.984,-9.766,4606.125,275.9828662567024
637,1685400405.22,-11.719,54.199,16.113,6.836,4606.129,270.5042993836029
638,1685400405.22,3.418,62.012,63.477,13.672,4606.133,273.6007399694449
639,1685400405.23,-9.766,308.105,160.645,-3.906,4606.137,275.0871568347829
640,1685400405.23,-24.902,173.828,75.684,-13.184,4606.14,279.7982880950817
641,1685400405.24,-4.883,-511.23,-249.023,7.812,4606.144,272.0433302638973
642,1685400405.24,7.324,-547.852,-147.949,15.625,4606.148,272.8105690601475
643,1685400405.24,0.488,177.246,167.969,-3.906,4606.152,276.692501880006
644,1685400405.25,-19.043,277.344,89.844,-14.16,4606.156,275.91468034579543
645,1685400405.25,-19.043,-318.359,-96.68,0.488,4606.16,272.90855017011665
646,1685400405.26,-11.719,-522.461,-120.605,3.906,4606.164,272.5985712395325
647,1685400405.26,-18.555,33.691,111.328,-4.883,4606.168,278.98206941377657
648,1685400405.28,-26.855,178.711,73.242,-19.531,4606.171,272.9490053451992
649,1685400405.28,-23.438,-358.398,-108.398,-17.578,4606.175,272.487069510738
650,1685400405.28,-5.371,-319.336,1.953,6.348,4606.179,270.03286252018756
651,1685400405.29,0.0,243.164,141.113,-1.465,4606.183,268.7336964195959
652,1685400405.29,-21.484,104.492,4.883,-19.043,4606.187,269.9385903483151
653,1685400405.3,-28.32,-649.902,-337.891,-9.277,4606.191,273.3805703013419
654,1685400405.3,-10.742,-791.504,-251.953,0.488,4606.195,274.8024030003737
655,1685400405.3,1.953,30.273,134.766,5.371,4606.199,272.39301701735724
656,1685400405.31,-1.953,167.48,71.777,4.395,4606.202,271.64007987050314
657,1685400405.31,-16.602,-287.598,-125.0,-5.859,4606.206,272.13388557699665
658,1685400405.31,-12.207,-53.223,27.832,3.906,4606.21,276.0219289624507
659,1685400405.32,6.836,403.32,222.168,9.766,4606.214,261.71880226971535
660,1685400405.32,8.301,121.094,54.199,0.488,4606.22,261.0150333106673
661,1685400405.33,-12.695,-321.289,-175.781,-2.93,4606.224,268.89489561177055
662,1685400405.33,-16.113,-85.449,-5.371,5.859,4606.228,268.3868564940162
663,1685400405.33,7.812,310.547,209.473,21.484,4606.231,272.907263934889
664,1685400405.34,10.742,-40.527,-61.523,19.043,4606.235,274.5131387734569
665,1685400405.34,-8.789,-668.457,-302.246,2.93,4606.239,271.4506364148867
666,1685400405.35,-12.695,-364.746,-46.875,-6.836,4606.243,256.81519627752033
667,1685400405.35,5.859,229.004,174.805,-0.488,4606.247,261.6159989725878
668,1685400405.35,17.578,-194.336,-49.316,9.766,4606.251,258.74422061151097
669,1685400405.36,3.906,-664.062,-215.82,5.859,4606.255,262.8685520379356
670,1685400405.36,-15.137,-8.789,99.609,-17.578,4606.259,261.4729326764949
671,1685400405.36,9.277,53.223,91.797,-0.977,4606.261,267.0888091671182
672,1685400405.36,-5.859,180.176,99.609,-14.16,4606.263,265.96639675224645
673,1685400405.37,-6.348,145.996,129.883,-18.555,4606.265,258.3050945802589
674,1685400405.37,-30.762,176.27,66.895,-26.855,4606.269,251.45722753296383
675,1685400405.38,-28.32,24.414,3.906,-14.16,4606.273,259.6547072648215
676,1685400405.38,-7.812,-187.988,-64.453,7.324,4606.277,254.48427013196542
677,1685400405.38,-14.16,-243.164,-24.414,-6.836,4606.281,257.03109438164836
678,1685400405.39,-39.062,-246.094,-63.965,-35.645,4606.284,251.39176305270612
679,1685400405.39,-28.32,-220.703,-143.066,-21.484,4606.288,257.06382855418104
680,1685400405.4,5.859,-678.711,-259.766,13.184,4606.292,250.98547149965282
681,1685400405.4,1.953,-814.453,-220.215,4.395,4606.296,254.8990481656063
682,1685400405.4,-27.344,91.309,120.605,-20.508,4606.3,241.1050255915419
683,1685400405.41,-36.621,91.797,24.902,-12.207,4606.304,249.23089516955778
684,1685400405.41,-13.184,-99.609,-33.203,14.16,4606.309,252.3795559900241
685,1685400405.42,1.953,279.785,159.18,10.254,4606.313,251.53547626562994
686,1685400405.42,-14.16,384.277,184.082,-20.508,4606.317,244.62828920732346
687,1685400405.42,-29.785,15.625,3.906,-18.555,4606.32,247.4954034406742
688,1685400405.43,-18.555,-144.043,-59.082,1.465,4606.324,248.80066580316446
689,1685400405.43,-3.418,-35.156,42.969,5.371,4606.328,246.8498272384771
690,1685400405.44,-14.16,-29.297,70.801,-14.648,4606.332,254.5407183736179
691,1685400405.44,-40.527,-460.938,-194.824,-26.367,4606.336,259.84569628425675
692,1685400405.44,-42.48,-946.777,-353.516,-8.789,4606.34,254.5531268148169
693,1685400405.45,-15.625,-153.809,94.727,2.441,4606.344,252.05317351502785
694,1685400405.45,-12.695,346.191,170.898,-11.719,4606.348,250.0266639070888
695,1685400405.45,-39.062,-29.297,-46.875,-36.621,4606.352,255.6562432718562
696,1685400405.47,-52.734,-46.387,12.695,-37.109,4606.366,251.9476022681248
697,1685400405.47,-38.086,250.488,167.969,-23.926,4606.37,252.11187563021207
698,1685400405.48,-23.438,295.41,100.098,-20.508,4606.374,253.40430076198058
699,1685400405.48,-37.109,-27.344,-49.316,-20.996,4606.378,258.2910047399795
700,1685400405.48,-43.457,-294.922,-133.789,-20.508,4606.382,259.849918513665
701,1685400405.49,-18.555,-264.648,-128.906,-1.953,4606.386,252.98596079320293
702,1685400405.49,3.906,-105.469,18.066,13.184,4606.39,257.8962940961921
703,1685400405.5,-7.812,-572.266,-187.988,4.883,4606.394,261.1105615691276
704,1685400405.5,-30.762,-896.484,-401.855,-7.812,4606.397,260.36453927668816
705,1685400405.5,-27.344,-11.719,67.383,-16.602,4606.398,260.4587789809201
706,1685400405.5,-18.555,-168.945,-5.371,1.953,4606.401,260.2634065783972
707,1685400405.5,-29.297,127.441,75.684,-10.742,4606.402,253.38314661898065
708,1685400405.51,12.695,107.422,91.797,23.926,4606.405,259.502137487232
709,1685400405.51,-1.465,82.031,65.918,4.883,4606.406,257.734634459916
710,1685400405.51,6.836,-157.715,-10.254,15.137,4606.409,266.1928075255625
711,1685400405.51,2.441,110.352,78.613,-8.789,4606.41,264.11402563227193
712,1685400405.52,-8.789,230.957,110.84,-20.02,4606.414,257.7099550605656
713,1685400405.52,-22.949,-87.891,-86.914,-20.996,4606.418,265.51178824298074
714,1685400405.52,-13.184,-430.176,-163.086,-0.488,4606.422,261.21761366671393
715,1685400405.53,4.395,-169.922,32.227,12.695,4606.426,266.6488494038266
716,1685400405.53,-17.09,227.051,142.09,-8.301,4606.43,270.4817884829598
717,1685400405.54,-38.086,266.113,114.746,-20.508,4606.434,262.0194482414203
718,1685400405.54,-15.137,-338.379,-130.859,4.395,4606.437,266.7144847984673
719,1685400405.54,3.906,-788.574,-227.051,19.531,4606.441,266.26842091028965
720,1685400405.54,-20.02,-87.402,94.727,-4.883,4606.445,269.41861178341355
721,1685400405.55,-38.086,170.41,51.758,-26.855,4606.449,263.60327742396134
722,1685400405.55,-33.203,-277.344,-106.445,-13.672,4606.453,270.3260766255694
723,1685400405.56,-19.043,-131.836,45.898,1.465,4606.457,262.08820595837136
724,1685400405.56,-15.625,78.125,81.543,-8.301,4606.46,276.55185196790467
725,1685400405.56,-28.809,-149.902,-53.223,-13.672,4606.464,282.25282227560695
726,1685400405.57,-32.227,-687.012,-323.242,-7.812,4606.468,270.2150884452967
727,1685400405.57,-22.949,-744.141,-210.938,2.441,4606.472,271.8211987393382
728,1685400405.58,-22.461,203.125,206.543,-3.418,4606.476,267.1027333512164
729,1685400405.58,-34.18,218.262,22.949,-15.625,4606.48,272.9446589576078
730,1685400405.58,-38.574,-70.801,-74.219,-12.695,4606.484,274.4449246883387
731,1685400405.59,-17.578,225.586,134.766,2.93,4606.488,277.40658615476946
732,1685400405.6,-8.301,490.723,227.051,-0.977,4606.504,276.74919152243837
733,1685400405.61,-23.926,101.074,14.16,-7.812,4606.508,281.02325670343436
734,1685400405.61,-34.668,-326.172,-194.336,-16.113,4606.512,282.74228241978807
735,1685400405.62,-21.973,56.641,50.293,-12.695,4606.516,278.14340547089574
736,1685400405.62,6.348,378.906,196.777,6.348,4606.52,279.8848973127546
737,1685400405.62,7.324,-199.707,-136.23,0.0,4606.524,272.6429752218068
738,1685400405.63,-16.113,-923.34,-387.695,-11.719,4606.528,282.9581316589841
739,1685400405.63,-12.207,-262.695,30.273,-10.254,4606.532,281.98351224052715
740,1685400405.64,15.625,380.859,212.891,7.812,4606.536,297.1304063083756
741,1685400405.64,16.602,101.562,28.809,3.906,4606.54,286.9649755589395
742,1685400405.64,-17.09,-18.066,-3.906,-30.273,4606.544,288.09070435165376
743,1685400405.65,-20.996,151.855,103.516,-21.484,4606.547,285.07669327744736
744,1685400405.65,1.465,233.887,122.559,5.859,4606.547,284.41909557749216
745,1685400405.65,3.906,97.656,93.75,0.977,4606.551,291.239085704621
746,1685400405.66,-22.461,83.008,98.145,-20.02,4606.555,286.9574467711971
747,1685400405.66,-27.344,147.949,60.059,-27.832,4606.558,290.3257856274786
748,1685400405.66,-7.812,-38.574,-54.688,-11.23,4606.562,296.21986528213307
749,1685400405.67,0.977,-511.23,-152.344,5.371,4606.566,291.02998569812144
750,1685400405.67,-16.113,-597.168,-139.16,-11.23,4606.57,292.9690842530603
751,1685400405.68,-41.016,-312.988,-125.0,-25.879,4606.574,293.03302105443805
752,1685400405.68,-35.156,-89.355,3.906,-16.113,4606.578,289.71901720708007
753,1685400405.68,-14.16,-639.648,-209.961,-2.93,4606.582,302.19762027328585
754,1685400405.69,-24.414,-696.289,-212.402,-17.09,4606.586,298.4643561017086
755,1685400405.69,-40.039,144.531,121.094,-33.203,4606.59,297.7646398679819
756,1685400405.7,-24.902,10.742,-0.977,-17.09,4606.593,294.87826939144094
757,1685400405.7,-3.906,-67.383,-2.441,-2.93,4606.597,284.2072555387499
758,1685400405.7,-18.555,264.648,154.297,-11.23,4606.601,289.96633528023045
759,1685400405.71,-42.48,304.688,134.766,-30.273,4606.605,299.1542232312589
760,1685400405.71,-48.34,-61.523,-67.871,-23.438,4606.608,295.5728213258257
761,1685400405.72,-28.32,-320.312,-108.887,4.395,4606.612,298.5347383729851
762,1685400405.72,-20.996,-81.543,54.688,-2.441,4606.616,303.46348032716105
763,1685400405.72,-49.805,-29.785,18.555,-27.344,4606.62,297.6844896772885
764,1685400405.73,-47.363,-562.5,-246.094,-24.414,4606.624,293.3591001927154
765,1685400405.73,-28.32,-913.086,-307.617,-11.719,4606.628,299.3680873009303
766,1685400405.73,-11.719,-76.66,96.68,-12.695,4606.632,301.84199335325576
767,1685400405.74,-5.371,319.336,153.32,-15.137,4606.636,300.99546786436224
768,1685400405.74,-21.484,-72.754,-52.734,-8.301,4606.636,302.0868846573329
769,1685400405.74,-20.508,-7.812,13.672,6.836,4606.64,310.78238636781794
770,1685400405.75,-5.371,327.148,171.875,2.441,4606.644,306.38929475752
771,1685400405.75,-1.953,311.035,116.699,-11.23,4606.648,307.20688152211073
772,1685400405.76,-17.09,-195.801,-76.172,-13.672,4606.652,298.1308477533232
773,1685400405.76,-21.484,-389.16,-160.645,-12.207,4606.656,301.88760131493086
774,1685400405.76,1.953,-167.969,-44.922,-10.254,4606.66,307.0470295307845
775,1685400405.77,3.906,91.797,93.262,-15.137,4606.664,304.18937514642903
776,1685400405.77,-12.695,-507.812,-246.094,-8.301,4606.668,304.245445226298
777,1685400405.77,-23.438,-886.719,-352.539,-10.742,4606.672,304.24288956817094
778,1685400405.78,-4.395,-58.594,102.539,-8.301,4606.676,306.2115645771697
779,1685400405.78,11.23,165.527,83.984,-2.93,4606.679,303.9298333998409
780,1685400405.79,-7.812,-187.988,-45.898,-12.695,4606.683,303.70259597602444
781,1685400405.79,-33.691,11.23,68.359,-20.02,4606.687,309.7139269682072
782,1685400405.79,-26.367,262.695,97.656,-7.324,4606.691,305.1176079108123
783,1685400405.8,-9.277,120.117,67.871,8.301,4606.695,299.833397619137
784,1685400405.8,-22.949,11.23,8.301,-7.324,4606.699,307.4290365667684
785,1685400405.81,-46.387,-170.41,-90.82,-20.996,4606.703,306.84638971725286
786,1685400405.81,-34.668,-78.613,-11.719,-3.906,4606.707,309.94993677782986
787,1685400405.81,-5.859,-227.051,-57.617,8.789,4606.71,309.7167188573105
788,1685400405.82,-2.93,-593.75,-174.805,-2.93,4606.714,301.6668597884736
789,1685400405.82,-21.973,24.414,97.656,-24.414,4606.718,308.8758820522416
790,1685400405.82,-31.25,222.656,94.727,-17.578,4606.722,304.67817337833566
791,1685400405.83,-0.488,41.992,45.898,5.859,4606.726,304.7909400592962
792,1685400405.83,10.254,-52.734,20.02,8.301,4606.73,307.80167281274504
793,1685400405.83,-17.09,104.98,69.824,-5.371,4606.734,300.81700219522395
794,1685400405.84,-20.02,211.914,65.43,-17.578,4606.738,308.77886073803563
795,1685400405.84,0.0,-180.664,-50.293,-1.953,4606.741,300.9795696150766
796,1685400405.85,3.418,-255.859,34.668,-2.93,4606.745,299.9849902255665
797,1685400405.85,-7.324,-141.602,-16.113,-24.902,4606.749,313.69182140251513
798,1685400405.85,-19.043,-197.266,-130.859,-30.273,4606.753,310.4306812389844
799,1685400405.86,-16.602,-701.66,-278.809,-9.277,4606.757,307.8553555989031
800,1685400405.86,-0.488,-717.773,-171.875,3.418,4606.761,304.11288411865985
801,1685400405.86,-6.348,200.684,200.195,-14.16,4606.765,303.84391196921115
802,1685400405.87,-37.109,109.863,35.156,-27.344,4606.769,303.9328810480235
803,1685400405.87,-43.457,-109.375,-26.855,-30.273,4606.773,302.94867539042554
804,1685400405.88,-15.625,257.812,151.367,-5.859,4606.78,302.32583612944615
805,1685400405.88,-7.812,440.918,205.566,1.465,4606.784,305.5306479593103
806,1685400405.89,-23.926,9.766,-21.484,-16.113,4606.788,300.53846555200374
807,1685400405.89,-20.996,-310.059,-123.047,2.93,4606.792,303.79850263288137
808,1685400405.9,-7.812,131.836,131.836,16.602,4606.795,308.09484228779974
809,1685400405.9,0.488,177.734,128.906,0.488,4606.799,295.9065135467316
810,1685400405.9,-6.348,-425.781,-181.641,-9.277,4606.803,308.88844876872434
811,1685400405.91,-25.391,-930.176,-379.883,-20.02,4606.807,302.6516388125714
812,1685400405.91,-11.23,-200.684,54.688,-19.531,4606.811,295.75571500247884
813,1685400405.92,17.09,392.09,208.008,-4.883,4606.815,303.5048103908014
814,1685400405.92,3.906,32.227,-3.906,-19.531,4606.819,305.4083419424891
815,1685400405.92,-38.086,-38.086,-11.23,-35.645,4606.823,301.928413845797
816,1685400405.93,-46.875,150.879,88.379,-21.973,4606.831,298.44371703962184
817,1685400405.94,-18.555,45.41,66.895,-7.324,4606.835,296.15336606278754
818,1685400405.94,-13.672,-34.18,85.938,-13.672,4606.839,298.63418437938196
819,1685400405.95,-41.016,72.754,93.262,-26.855,4606.843,302.1815814904601
820,1685400405.95,-21.973,-116.211,-2.93,-3.418,4606.847,300.2841352014398
821,1685400405.95,19.043,-168.945,37.598,25.391,4606.851,299.7453850428141
822,1685400405.96,2.441,-558.105,-178.711,-3.418,4606.855,298.73327424800624
823,1685400405.96,-47.363,-939.453,-332.031,-44.922,4606.859,305.4883678073896
824,1685400405.96,-59.082,-80.566,76.172,-53.711,4606.863,306.293881038701
825,1685400405.97,-99.121,282.715,117.188,-106.445,4606.876,306.2447582022623
826,1685400405.97,-39.062,179.688,111.328,-49.316,4606.867,299.1228776892035
827,1685400405.97,-89.844,45.41,50.293,-94.727,4606.88,302.976826730414
828,1685400405.97,-51.27,-47.852,45.41,-76.66,4606.87,301.9347677786229
829,1685400405.97,-78.613,-25.879,44.434,-100.586,4606.884,299.2165086690015
830,1685400405.98,-78.613,204.102,118.652,-103.516,4606.874,310.8505762242832
831,1685400405.98,-104.98,262.207,148.438,-123.535,4606.887,307.9059585391897
832,1685400405.98,-134.766,239.258,119.141,-127.441,4606.891,303.89001779503764
833,1685400405.99,-133.789,-242.676,-60.547,-119.629,4606.895,304.2113583689853
834,1685400405.99,-116.211,-236.328,-20.508,-127.441,4606.899,307.7227282132325
835,1685400405.99,-104.004,166.016,140.137,-125.977,4606.903,310.8966805166281
836,1685400406.0,-119.629,-46.387,-15.137,-127.93,4606.907,306.3207609838478
837,1685400406.0,-121.582,-615.234,-300.293,-122.559,4606.911,309.9658696542128
838,1685400406.0,-98.633,-868.652,-294.434,-109.863,4606.915,312.31388273784506
839,1685400406.01,-95.215,-57.617,108.887,-121.582,4606.919,306.85781789106017
840,1685400406.02,-107.422,235.352,102.051,-134.766,4606.921,314.3124702813595
841,1685400406.03,-113.281,-108.398,-61.035,-134.766,4606.925,303.82520823598617
842,1685400406.03,-88.867,90.82,99.609,-117.188,4606.929,309.7618734888623
843,1685400406.04,-69.336,370.117,192.871,-101.562,4606.933,312.9555404578625
844,1685400406.04,-89.844,110.352,39.062,-122.07,4606.937,307.8225029064812
845,1685400406.04,-106.934,-633.301,-267.578,-131.836,4606.941,316.2921002897755
846,1685400406.05,-88.867,-680.664,-202.148,-122.07,4606.945,308.3339782651056
847,1685400406.05,-70.801,173.828,175.781,-125.0,4606.949,308.3623353077615
848,1685400406.06,-97.168,292.48,107.91,-120.605,4606.953,305.2127424730216
849,1685400406.06,-117.676,-375.0,-138.672,-104.492,4606.956,321.2641081932043
850,1685400406.06,-91.309,-377.441,-75.195,-88.379,4606.96,309.44962815383565
851,1685400406.07,-57.129,142.09,127.441,-75.684,4606.964,320.41365353494115
852,1685400406.07,-45.898,109.375,35.645,-62.988,4606.966,314.95745794387017
853,1685400406.07,-47.852,-258.789,-106.934,-50.781,4606.97,306.1873196162581
854,1685400406.08,-37.109,25.391,48.34,-48.34,4606.974,322.44934709953014
855,1685400406.08,-5.371,383.301,149.902,-32.227,4606.978,314.0165192787316
856,1685400406.09,1.465,232.91,81.543,-19.531,4606.981,315.20736985224795
857,1685400406.09,-17.09,-199.707,-114.258,-24.414,4606.985,319.05742808786
858,1685400406.09,-27.832,-131.836,-44.922,-16.113,4606.989,309.3587309904287
859,1685400406.1,-20.508,345.703,182.129,-0.977,4606.993,304.20563958066754
860,1685400406.1,11.23,-86.426,-54.199,15.625,4606.997,317.90139221067386
861,1685400406.1,17.578,-567.383,-192.383,15.137,4607.001,308.2808987025577
862,1685400406.11,-3.418,82.031,95.703,-1.953,4607.005,312.0777066581566
863,1685400406.11,7.324,311.035,113.281,9.277,4607.009,316.24782366538034
864,1685400406.12,31.25,149.902,90.332,22.461,4607.013,315.6196005436272
865,1685400406.12,29.297,0.977,51.27,19.043,4607.016,315.7879135542514
866,1685400406.12,20.02,85.938,62.988,16.113,4607.02,316.4399355427193
867,1685400406.13,21.484,315.43,130.859,23.438,4607.024,315.78671018631815
868,1685400406.13,37.109,-383.301,-144.531,45.41,4607.028,313.7873948585612
869,1685400406.14,34.668,-788.574,-214.844,34.18,4607.032,310.0878402233529
870,1685400406.14,20.508,-205.078,-12.695,14.648,4607.036,310.6740773069809
871,1685400406.14,13.184,-98.633,-136.719,12.695,4607.04,311.8450972423014
872,1685400406.15,14.648,-479.004,-154.785,26.855,4607.044,318.832466403499
873,1685400406.15,23.438,-167.969,74.219,25.879,4607.048,321.43515878709843
874,1685400406.15,12.695,454.59,168.945,8.789,4607.052,318.67410328364844
875,1685400406.16,10.742,63.477,-31.25,15.137,4607.055,320.5452797449899
876,1685400406.16,23.926,-24.902,-11.23,30.762,4607.059,315.5942281718766
877,1685400406.16,32.715,373.047,177.734,33.691,4607.063,316.68485508418007
878,1685400406.17,25.391,481.445,162.109,24.414,4607.067,309.56795015564484
879,1685400406.17,-2.441,-13.672,-96.191,21.973,4607.071,309.7136188118735
880,1685400406.18,6.348,-284.668,-127.441,37.109,4607.074,309.8092917366958
881,1685400406.18,35.156,-33.691,48.34,51.758,4607.078,308.72898973172977
882,1685400406.18,23.926,175.293,126.465,33.691,4607.082,317.4029283659541
883,1685400406.19,0.977,-232.91,-125.977,21.484,4607.086,312.29531987974985
884,1685400406.19,4.395,-797.852,-353.027,27.832,4607.09,307.28461546013915
885,1685400406.2,31.25,24.902,90.332,29.785,4607.094,314.3409491732875
886,1685400406.2,43.945,470.703,198.73,27.344,4607.098,318.5800819361842
887,1685400406.2,29.785,92.285,-4.395,16.602,4607.102,310.05745387373287
888,1685400406.2,23.438,6.836,-18.066,25.879,4607.101,313.6825559243516
889,1685400406.21,30.273,337.891,165.527,35.645,4607.105,305.9273922707303
890,1685400406.21,33.691,405.273,144.531,29.297,4607.109,313.7228075467724
891,1685400406.22,12.695,79.59,0.977,12.695,4607.113,309.245933412608
892,1685400406.22,1.465,-192.383,-120.605,22.461,4607.117,310.9557614392186
893,1685400406.22,18.066,-281.738,-162.598,40.527,4607.121,319.3556522180403
894,1685400406.23,26.855,-103.516,25.391,27.344,4607.125,308.5960059933292
895,1685400406.23,23.438,-531.25,-203.613,15.625,4607.128,308.17255754888146
896,1685400406.24,-6.348,-1000.0,-405.273,-0.488,4607.132,321.04103153694706
897,1685400406.24,-9.277,-118.652,68.848,2.93,4607.136,324.7394459856912
898,1685400406.24,21.973,318.359,139.16,27.832,4607.14,319.09209087102306
899,1685400406.25,9.766,141.602,60.547,25.391,4607.144,315.03914123507764
900,1685400406.25,-8.789,289.551,129.395,17.09,4607.148,312.3457893100002
901,1685400406.26,7.324,337.402,108.887,24.414,4607.152,313.94158440059743
902,1685400406.26,24.902,128.906,23.438,37.598,4607.156,313.49927259376483
903,1685400406.26,14.16,74.707,55.176,33.203,4607.16,315.1432516864523
904,1685400406.27,-17.578,206.543,79.102,2.93,4607.164,308.22838165263255
905,1685400406.27,-21.484,-20.508,-63.477,-6.348,4607.168,317.2489363500317
906,1685400406.28,5.859,-432.129,-207.52,15.625,4607.172,320.06299933349095
907,1685400406.28,12.695,-540.039,-142.09,20.996,4607.176,311.44723339252664
908,1685400406.28,-10.254,55.176,130.371,-0.977,4607.18,314.09181240033143
909,1685400406.29,-27.832,30.273,-34.668,-3.418,4607.184,309.34636520218754
910,1685400406.29,-23.438,-426.27,-189.453,10.742,4607.187,311.0656661312281
911,1685400406.29,-2.93,-147.461,39.551,10.742,4607.191,322.23828436458314
912,1685400406.29,-2.441,394.043,186.035,8.789,4607.205,307.76423400550254
913,1685400406.3,-20.996,176.27,30.762,2.93,4607.209,323.5972299959275
914,1685400406.3,-21.973,-67.383,33.203,-8.301,4607.213,321.40235242455026
915,1685400406.31,2.441,186.523,158.691,2.93,4607.217,316.0203501016603
916,1685400406.31,17.578,182.617,104.004,2.93,4607.221,312.59430387229946
917,1685400406.31,0.488,-163.574,-41.016,-12.207,4607.225,319.4820694343047
918,1685400406.32,-3.418,-747.07,-353.516,0.0,4607.229,314.17200943073226
919,1685400406.32,6.348,-744.629,-211.914,5.371,4607.233,313.9862266242745
920,1685400406.32,15.137,229.98,231.934,-1.953,4607.237,318.1806571141281
921,1685400406.33,-4.883,245.117,53.223,-3.418,4607.241,307.95999807096405
922,1685400406.33,-36.621,-79.102,-56.641,-7.324,4607.244,320.4275335475228
923,1685400406.34,-17.09,11.23,66.895,-6.836,4607.248,313.07120894932933
924,1685400406.34,4.883,187.988,150.879,-2.93,4607.25,311.68828255816277
925,1685400406.35,-7.812,-41.016,-35.645,-9.766,4607.253,309.20019216307753
926,1685400406.35,-26.855,-414.551,-143.555,-18.066,4607.257,312.28715025751694
927,1685400406.35,-24.414,28.809,113.281,-13.672,4607.261,320.7700479529598
928,1685400406.36,-0.977,377.93,183.105,-1.953,4607.265,319.7670802675772
929,1685400406.36,0.977,-183.105,-108.887,-3.418,4607.269,317.03358374323483
930,1685400406.37,-21.484,-638.672,-242.188,-14.16,4607.273,317.86080584957756
931,1685400406.37,-15.625,10.254,114.258,-6.836,4607.277,312.3813482559309
932,1685400406.37,11.23,314.453,168.945,5.371,4607.281,320.28895265923416
933,1685400406.38,11.719,-10.742,41.016,7.324,4607.285,317.9754915564015
934,1685400406.38,-15.137,-92.285,30.762,-4.883,4607.289,317.95315111650257
935,1685400406.38,-19.531,152.832,113.281,-8.789,4607.292,312.67827072733957
936,1685400406.4,3.906,234.375,136.23,13.672,4607.297,320.2319485927846
937,1685400406.4,16.602,57.617,119.141,9.277,4607.301,320.09953783646006
938,1685400406.41,-2.93,-192.871,21.973,-13.184,4607.305,315.9012858495695
939,1685400406.41,-20.02,-28.32,29.785,-22.949,4607.309,314.0791579363322
940,1685400406.42,3.906,68.359,85.938,-10.742,4607.313,313.281587142517
941,1685400406.42,18.555,-556.641,-197.266,16.113,4607.317,316.7318859787959
942,1685400406.42,-4.395,-989.258,-345.215,4.883,4607.321,313.0338029028353
943,1685400406.43,-37.598,-258.789,41.992,-26.367,4607.324,314.80440714037843
944,1685400406.43,-33.203,100.586,66.406,-10.254,4607.328,318.8874974180723
945,1685400406.44,5.859,-33.203,28.809,11.719,4607.332,315.9874012850558
946,1685400406.44,-5.371,201.172,155.762,-1.465,4607.336,312.95857481758776
947,1685400406.44,-30.762,239.258,104.98,-7.812,4607.34,312.400009588319
948,1685400406.44,-26.855,-58.105,-27.344,5.371,4607.342,325.35401010907384
949,1685400406.45,-3.418,-68.848,14.16,20.508,4607.346,324.34184066711924
950,1685400406.45,8.789,271.484,167.969,7.324,4607.35,318.8539518039574
951,1685400406.46,-11.719,267.578,91.309,-10.254,4607.354,322.5856581002229
952,1685400406.46,-22.949,-229.98,-147.461,-3.906,4607.358,314.54728256271176
953,1685400406.46,-11.719,-500.0,-157.227,1.465,4607.362,318.22691507898907
954,1685400406.47,-3.418,-187.012,54.199,3.906,4607.366,322.8101144711229
955,1685400406.47,-20.996,175.293,153.809,-3.418,4607.37,308.78236162878113
956,1685400406.48,-29.785,-315.43,-152.344,-11.719,4607.374,313.43891375849745
957,1685400406.48,-12.695,-810.547,-304.688,-3.906,4607.378,321.24900029328865
958,1685400406.48,-6.348,68.359,145.02,-2.441,4607.381,322.2642512029137
959,1685400406.49,-23.438,343.75,156.25,-9.277,4607.385,313.90710113548926
960,1685400406.49,-35.156,-84.961,-47.363,-8.789,4607.386,317.13590171902894
961,1685400406.49,-23.438,-75.684,12.207,-2.441,4607.39,312.3887410413632
962,1685400406.5,-2.93,264.16,179.199,3.906,4607.394,323.84563823699557
963,1685400406.5,-3.906,298.34,120.117,-4.883,4607.398,310.5169166432531
964,1685400406.51,-25.391,-215.332,-101.074,-22.461,4607.402,311.60055306225416
965,1685400406.51,-26.367,-475.098,-173.34,-17.578,4607.406,302.1472869450775
966,1685400406.51,-10.254,-233.887,-23.926,-10.742,4607.409,314.87590348254867
967,1685400406.52,-10.254,-66.406,104.492,-16.113,4607.413,317.9390897510655
968,1685400406.52,-27.832,-613.77,-240.234,-17.578,4607.417,317.9394300970705
969,1685400406.52,-39.062,-908.691,-383.301,-26.367,4607.421,316.0494766023955
970,1685400406.53,-16.602,-23.926,101.074,-18.066,4607.425,323.3351492306017
971,1685400406.53,3.418,166.992,101.562,-0.488,4607.429,314.10044973029045
972,1685400406.54,-19.531,-69.336,-26.367,-19.043,4607.433,328.68497154950455
973,1685400406.54,-46.387,159.18,118.164,-29.297,4607.437,307.9222832320784
974,1685400406.54,-22.949,329.59,174.316,-14.648,4607.441,317.7821135271667
975,1685400406.55,6.836,162.109,76.172,0.977,4607.445,315.23784383658284
976,1685400406.55,8.789,10.254,26.855,0.977,4607.449,318.66847871327445
977,1685400406.56,-1.465,-102.051,-54.199,-9.766,4607.453,310.344733222233
978,1685400406.56,-16.602,-196.777,-123.047,-5.371,4607.457,313.9611829856126
979,1685400406.56,-1.465,-403.32,-149.414,20.996,4607.461,311.2872075528037
980,1685400406.57,-4.883,-545.898,-116.211,13.672,4607.465,323.0801998055973
981,1685400406.57,-38.086,-59.57,87.402,-19.531,4607.469,317.7205642259752
982,1685400406.58,-32.227,-98.145,-51.758,-13.672,4607.473,320.4616652252118
983,1685400406.58,-7.812,-395.02,-105.957,11.23,4607.476,318.93738978593996
984,1685400406.58,-5.859,-112.305,87.891,8.301,4607.476,325.9078366738842
985,1685400406.58,-27.344,290.527,141.113,-16.602,4607.48,315.4412802947924
986,1685400406.59,-38.574,63.965,8.789,-20.508,4607.484,318.7206430863708
987,1685400406.59,-21.484,-70.312,70.801,-2.93,4607.488,317.72404380726044
988,1685400406.6,-2.441,-22.461,121.582,6.836,4607.492,317.5181263141168
989,1685400406.6,-13.184,-119.141,8.789,3.418,4607.496,317.4927349091255
990,1685400406.6,-29.297,-219.238,-82.031,-5.371,4607.5,319.5815302904962
991,1685400406.61,-14.648,-741.699,-299.316,5.859,4607.504,322.89084137416677
992,1685400406.61,4.395,-726.074,-162.109,11.23,4607.507,316.9740591580619
993,1685400406.62,-3.906,228.027,216.309,-20.508,4607.511,317.317643795949
994,1685400406.62,-18.066,121.582,36.133,-32.715,4607.515,314.18470612777116
995,1685400406.62,-18.555,-154.785,-51.758,-22.949,4607.519,325.60455953848367
996,1685400406.63,-1.953,-3.906,61.035,-6.348,4607.527,321.3522675614367
997,1685400406.63,1.953,157.227,157.715,-1.953,4607.531,326.86468747027874
998,1685400406.64,-25.879,-78.613,-23.926,-17.578,4607.535,318.3501680782637
999,1685400406.64,-35.645,-456.055,-145.02,-18.066,4607.539,319.5696958766687
1000,1685400406.64,-14.648,38.574,118.164,1.465,4607.543,324.2276607207025
1001,1685400406.65,-5.859,128.906,92.773,2.93,4607.547,317.8071088468448
1002,1685400406.65,-23.926,-451.172,-165.527,-14.16,4607.551,317.8711332619281
1003,1685400406.65,-41.504,-714.355,-242.676,-13.672,4607.555,317.8936320210527
1004,1685400406.66,-33.203,20.996,135.742,-9.766,4607.559,319.2195282408677
1005,1685400406.66,-11.23,377.441,202.148,-7.324,4607.562,309.07447063031145
1006,1685400406.67,-24.902,79.102,30.762,-25.391,4607.566,314.60848409616
1007,1685400406.67,-43.457,-19.043,36.133,-40.039,4607.57,310.70877132063697
1008,1685400406.67,-30.273,214.355,159.18,-27.832,4607.58,318.32753957557566
1009,1685400406.67,-18.555,314.453,147.949,-19.531,4607.584,315.76692263165785
1010,1685400406.68,-25.879,72.266,94.238,-22.461,4607.588,314.9107011973311
1011,1685400406.68,-43.457,-189.453,-27.832,-30.273,4607.592,318.94800563756877
1012,1685400406.69,-38.086,-235.84,-84.961,-27.832,4607.596,322.5850450570295
1013,1685400406.69,-19.531,-123.047,67.383,-12.695,4607.6,314.71679456373516
1014,1685400406.69,-17.09,-535.156,-175.781,-4.883,4607.604,316.2392314116348
1015,1685400406.7,-31.738,-1000.0,-375.977,-14.16,4607.607,321.81120358766026
1016,1685400406.7,-39.062,-217.285,49.805,-24.902,4607.611,326.43952811953835
1017,1685400406.7,-12.207,230.957,128.906,-6.836,4607.615,317.55829616626744
1018,1685400406.71,4.395,132.812,122.07,-4.395,4607.619,322.8244416324309
1019,1685400406.71,-11.23,256.348,143.555,-20.02,4607.623,316.4177868455045
1020,1685400406.73,-24.414,235.84,98.145,-17.09,4607.628,316.74157259778644
1021,1685400406.74,-4.395,51.758,69.824,0.0,4607.632,317.13293239028513
1022,1685400406.74,14.16,47.852,63.477,1.953,4607.636,316.89111400960456
1023,1685400406.74,-8.789,324.219,157.227,-17.09,4607.64,305.5627912195247
1024,1685400406.75,-34.18,202.148,79.59,-17.578,4607.644,317.4652156109264
1025,1685400406.75,-29.297,-425.781,-243.164,-8.301,4607.648,316.18037242106254
1026,1685400406.76,-9.277,-701.172,-223.633,0.0,4607.652,313.08784479430426
1027,1685400406.76,-2.93,-99.609,128.906,-2.93,4607.656,316.42480111320236
1028,1685400406.76,-20.508,311.523,166.504,-20.02,4607.66,306.8501065545239
1029,1685400406.77,-17.578,-388.672,-199.707,-6.348,4607.663,314.4498802913988
1030,1685400406.77,-3.418,-621.094,-193.848,14.648,4607.667,317.9721429572733
1031,1685400406.77,-6.836,269.531,231.934,4.395,4607.671,309.87160560964577
1032,1685400406.78,-22.949,235.352,80.566,-13.184,4607.671,313.8719009933674
1033,1685400406.78,-23.438,-167.48,-105.469,-13.184,4607.675,320.4978999403115
1034,1685400406.78,2.441,-31.738,43.457,4.395,4607.679,309.37097866656364
1035,1685400406.79,1.465,290.039,186.035,4.883,4607.683,315.216442165223
1036,1685400406.79,-30.762,65.43,54.688,-15.625,4607.687,321.53235284876854
1037,1685400406.8,-36.621,-422.363,-149.902,-22.461,4607.691,317.9363987419047
1038,1685400406.8,-18.066,-386.23,-90.332,-12.207,4607.694,315.98401027734127
1039,1685400406.8,-1.953,65.918,112.793,-3.418,4607.698,309.20883663492725
1040,1685400406.81,-3.906,61.035,82.52,-12.695,4607.702,309.0318043256874
1041,1685400406.81,-26.855,-690.918,-335.449,-23.926,4607.706,310.94520024105867
1042,1685400406.81,-26.855,-990.723,-369.629,-10.742,4607.71,318.19192152863286
1043,1685400406.82,1.465,-44.922,145.02,-5.371,4607.714,311.5396266555308
1044,1685400406.82,6.348,250.0,112.305,-9.277,4607.717,318.4300577723846
1045,1685400406.82,-19.043,-61.035,-2.441,-16.602,4607.721,305.9000467894494
1046,1685400406.83,-24.414,154.785,115.723,-8.301,4607.725,322.39157756052737
1047,1685400406.83,1.953,398.438,174.805,9.766,4607.729,320.2184397803512
1048,1685400406.84,3.418,232.422,94.727,-0.488,4607.733,307.50526812237405
1049,1685400406.84,-19.531,-254.395,-69.824,-23.926,4607.737,318.2496315570245
1050,1685400406.84,-18.555,-230.469,0.0,-23.926,4607.741,315.8361421176829
1051,1685400406.85,8.301,277.344,219.727,0.0,4607.745,313.9503283933182
1052,1685400406.85,23.926,-93.75,-18.555,17.09,4607.749,318.8878271385274
1053,1685400406.86,7.812,-600.586,-180.664,4.395,4607.753,316.6831369963147
1054,1685400406.86,-18.555,-147.949,36.133,-14.648,4607.756,319.36482490550816
1055,1685400406.86,-8.789,-109.375,-12.207,-5.371,4607.76,314.92259923205717
1056,1685400406.86,9.766,-298.34,-12.695,0.977,4607.761,309.34955897516187
1057,1685400406.87,-2.93,-119.141,58.105,-4.883,4607.765,321.825441449167
1058,1685400406.87,-18.555,215.332,108.398,-13.184,4607.769,312.4702200446541
1059,1685400406.88,-10.254,81.055,41.016,-9.277,4607.773,316.4029430072937
1060,1685400406.88,8.301,-200.684,-46.875,3.906,4607.777,316.28785110409325
1061,1685400406.88,-2.441,-264.16,-36.621,-4.883,4607.781,319.21174796564816
1062,1685400406.89,-27.832,-206.055,-43.457,-23.926,4607.785,311.8053770786815
1063,1685400406.89,-33.691,-55.176,16.602,-25.879,4607.788,315.8372752657478
1064,1685400406.9,-12.695,-615.723,-167.969,-6.836,4607.792,315.5157345174659
1065,1685400406.9,-6.348,-687.012,-131.348,-2.93,4607.796,308.5304752298663
1066,1685400406.9,-23.438,222.168,200.684,-20.508,4607.8,308.5778332867239
1067,1685400406.91,-26.367,43.457,-1.465,-20.508,4607.804,317.4434042097661
1068,1685400406.91,-4.883,-87.402,-15.137,-1.953,4607.812,310.73358544817665
1069,1685400406.92,7.324,101.562,102.539,7.324,4607.816,312.84936202155177
1070,1685400406.92,-8.789,220.703,140.625,-21.973,4607.82,312.0743013089572
1071,1685400406.92,-25.391,-77.637,-38.086,-31.25,4607.824,318.15965490583034
1072,1685400406.93,-13.672,-425.293,-138.672,-7.324,4607.827,310.291020690053
1073,1685400406.93,-0.488,-130.859,86.426,-2.93,4607.831,317.3481218592064
1074,1685400406.94,-11.719,-9.766,107.422,-14.648,4607.835,316.8916362578084
1075,1685400406.94,-37.598,-423.828,-147.461,-30.762,4607.839,320.63902667095977
1076,1685400406.94,-36.133,-703.125,-210.938,-31.738,4607.843,315.32899668151094
1077,1685400406.95,-15.625,119.141,177.246,-25.391,4607.847,313.54811273625955
1078,1685400406.95,-14.648,382.812,181.641,-22.461,4607.851,320.2052353494575
1079,1685400406.95,-28.809,-22.949,12.695,-32.715,4607.851,314.81869627592533
1080,1685400406.96,-29.785,-4.883,-0.488,-34.668,4607.855,317.2324726554292
1081,1685400406.96,-5.859,257.812,158.203,-10.254,4607.855,314.63710393608454
1082,1685400406.96,-3.906,339.355,162.598,-2.441,4607.859,317.73317738049616
1083,1685400406.97,-11.719,4.395,8.301,-13.184,4607.863,306.7777424060108
1084,1685400406.97,-20.996,-335.938,-165.039,-22.949,4607.867,308.20464088657053
1085,1685400406.97,-16.113,-257.812,-72.754,-16.602,4607.871,310.3995458964416
1086,1685400406.98,-0.977,-40.039,109.863,-4.883,4607.875,311.28275929091285
1087,1685400406.98,-10.254,-546.387,-215.332,-4.883,4607.879,311.8356315300477
1088,1685400406.98,-39.551,-1000.0,-409.18,-23.438,4607.882,308.58508144008806
1089,1685400406.99,-29.785,-169.434,91.309,-31.25,4607.886,305.1642308142153
1090,1685400406.99,1.465,284.668,138.184,-10.254,4607.89,311.3572835260057
1091,1685400407.0,-1.953,101.562,25.879,-13.184,4607.894,308.0827927791661
1092,1685400407.0,-26.367,184.57,81.543,-32.715,4607.898,305.314571906046
1093,1685400407.0,-24.414,268.066,104.004,-22.461,4607.902,303.9406295864485
1094,1685400407.01,6.348,137.207,56.641,3.906,4607.906,317.8722518219396
1095,1685400407.01,16.602,89.355,72.266,8.789,4607.91,316.8376824595343
1096,1685400407.02,0.0,249.023,124.512,-9.766,4607.914,308.80064000475824
1097,1685400407.02,-14.16,-60.547,-25.391,-11.23,4607.918,317.8194838491312
1098,1685400407.02,-4.883,-479.98,-184.57,4.883,4607.922,307.2442081306367
1099,1685400407.03,0.0,-820.801,-239.746,2.93,4607.926,312.8172987953754
1100,1685400407.03,-16.602,-213.379,62.5,-25.391,4607.93,315.64248318645696
1101,1685400407.04,-32.227,243.652,122.07,-33.203,4607.934,300.9608979696237
1102,1685400407.04,-14.648,-90.82,-26.855,-9.277,4607.937,304.64907893402307
1103,1685400407.04,13.672,87.402,74.219,8.789,4607.941,311.6133139323109
1104,1685400407.04,-1.465,420.41,196.289,-3.418,4607.955,306.5408917225069
1105,1685400407.05,-24.902,230.469,90.82,-5.859,4607.959,314.2273039631692
1106,1685400407.05,-23.438,-54.688,38.086,4.883,4607.963,304.91776945700497
1107,1685400407.06,-4.883,76.66,104.98,7.812,4607.967,313.7766718653288
1108,1685400407.06,2.441,62.988,78.613,4.395,4607.971,302.02650518408893
1109,1685400407.06,-22.949,-166.016,-45.898,-12.695,4607.975,317.0673361436737
1110,1685400407.07,-26.855,-723.145,-357.91,-7.324,4607.979,309.0872445442571
1111,1685400407.07,-3.906,-768.555,-186.035,4.395,4607.982,304.29687172405744
1112,1685400407.08,1.465,110.352,214.355,-0.488,4607.986,306.40759284671634
1113,1685400407.08,-18.555,-11.719,5.371,-9.277,4607.99,309.75234838958886
1114,1685400407.08,-31.738,-396.484,-70.312,-18.066,4607.994,313.5609628010827
1115,1685400407.09,-12.207,9.277,118.164,-6.836,4607.998,315.92522001714184
1116,1685400407.09,14.16,436.035,221.68,-1.465,4608.0,312.4864505230726
1117,1685400407.1,11.23,62.012,27.832,-9.766,4608.004,307.7075112673662
1118,1685400407.1,-18.066,-484.375,-135.254,-28.809,4608.008,312.5290357151655
1119,1685400407.1,-25.391,-54.199,83.496,-31.25,4608.012,307.07864827381746
1120,1685400407.11,1.465,383.789,218.75,-20.02,4608.016,309.48090558800874
1121,1685400407.11,9.277,-192.383,-85.938,-15.625,4608.02,302.12341599088603
1122,1685400407.12,-18.066,-675.293,-248.535,-28.809,4608.023,311.7955893636248
1123,1685400407.12,-21.484,-27.832,116.699,-41.016,4608.027,316.3829523101813
1124,1685400407.12,3.906,348.145,192.383,-21.973,4608.031,310.29927994293365
1125,1685400407.13,4.395,50.293,79.59,-13.672,4608.035,303.9690611310172
1126,1685400407.13,-10.254,-58.594,19.531,-23.438,4608.039,310.5026148754033
1127,1685400407.13,-19.043,-21.484,26.367,-17.578,4608.043,315.12669896745876
1128,1685400407.15,-2.441,-136.719,21.484,-2.93,4608.061,302.61480589780894
1129,1685400407.15,10.742,-321.289,-3.906,8.301,4608.064,309.81707351203767
1130,1685400407.16,-13.184,-208.008,48.828,-9.277,4608.068,314.99851636381237
1131,1685400407.16,-23.438,71.289,54.199,-20.996,4608.072,309.6386886443379
1132,1685400407.16,-5.859,-52.734,43.945,-8.301,4608.076,310.03128296947176
1133,1685400407.17,5.859,-578.125,-159.668,-3.418,4608.08,301.95889976127773
1134,1685400407.17,-10.742,-809.57,-226.562,-17.578,4608.084,318.60697335033586
1135,1685400407.18,-19.043,-28.32,114.258,-27.344,4608.088,311.9233328056673
1136,1685400407.18,-7.812,78.125,67.871,-9.277,4608.092,308.1789301213848
1137,1685400407.18,7.324,-222.168,49.316,5.371,4608.096,310.0112343475707
1138,1685400407.19,1.465,91.309,170.898,-7.812,4608.1,308.3878293615784
1139,1685400407.19,-21.973,290.039,148.926,-31.738,4608.104,300.7551121336125
1140,1685400407.2,-12.695,-9.277,15.625,-19.531,4608.097,311.75991788641414
1141,1685400407.2,9.766,-75.195,34.18,-4.883,4608.1,306.59746861406774
1142,1685400407.2,10.742,56.152,108.887,-13.672,4608.104,312.0402965060552
1143,1685400407.21,-17.578,172.852,134.766,-24.902,4608.108,303.83870941442194
1144,1685400407.21,-30.273,-129.883,-71.289,-25.879,4608.112,308.2767375761778
1145,1685400407.22,-7.812,-626.953,-222.656,-8.301,4608.116,310.1564390903784
1146,1685400407.22,-8.301,-109.863,105.469,-5.859,4608.12,314.00795442060434
1147,1685400407.22,-23.926,320.801,187.5,-19.531,4608.124,302.2361275132002
1148,1685400407.23,-28.32,-205.566,-54.199,-13.184,4608.128,298.5793085921748
1149,1685400407.23,-14.648,-317.383,-28.809,5.859,4608.132,307.3084233941816
1150,1685400407.24,-4.883,283.203,206.543,2.93,4608.136,312.9281825446781
1151,1685400407.24,-11.719,373.535,179.688,-12.207,4608.14,311.8124611876865
1152,1685400407.24,-22.461,-389.648,-159.18,-16.602,4608.136,310.2542466882738
1153,1685400407.24,-18.555,-577.637,-172.363,-11.719,4608.14,307.1216587637168
1154,1685400407.25,3.906,259.766,197.754,-5.859,4608.144,323.6927380791232
1155,1685400407.25,-1.465,339.355,138.672,-16.602,4608.148,305.9227860010191
1156,1685400407.26,-28.32,-227.051,-96.191,-28.809,4608.152,306.5253077412879
1157,1685400407.26,-28.32,-477.539,-158.691,-20.508,4608.156,311.2846571527059
1158,1685400407.26,-4.395,-252.93,-18.066,0.977,4608.16,305.4315827381195
1159,1685400407.27,-4.883,-66.895,106.445,-0.977,4608.163,311.29810100717754
1160,1685400407.27,-20.02,-590.332,-213.867,-7.812,4608.167,316.52117970385916
1161,1685400407.27,-34.668,-905.273,-375.0,-7.812,4608.171,303.88118452030096
1162,1685400407.28,-25.391,-0.488,128.418,-8.301,4608.175,306.89503744605827
1163,1685400407.28,5.371,278.32,160.156,6.348,4608.179,301.7529407061337
1164,1685400407.3,-6.348,47.852,26.855,-0.977,4608.196,302.63005052201686
1165,1685400407.3,-31.25,130.859,64.941,-15.625,4608.2,310.1110612369933
1166,1685400407.31,-20.996,222.656,121.582,-11.719,4608.204,306.26120409892553
1167,1685400407.31,0.0,107.422,86.426,4.883,4608.208,315.0098616106513
1168,1685400407.32,-6.836,-35.156,4.395,5.859,4608.212,307.3090162642459
1169,1685400407.32,-27.832,-218.262,-97.168,-16.113,4608.216,310.07283391563396
1170,1685400407.32,-19.531,-167.48,-25.879,-14.16,4608.219,305.5559183996872
1171,1685400407.33,5.371,-236.328,-39.062,4.395,4608.223,306.43585181991483
1172,1685400407.33,11.719,111.816,104.492,8.301,4608.224,310.61090543893357
1173,1685400407.33,3.906,-833.496,-251.465,-2.441,4608.227,306.36845941310077
1174,1685400407.33,3.906,314.941,161.133,-3.906,4608.228,313.79203905102355
1175,1685400407.34,-14.648,125.488,50.293,-12.695,4608.232,303.4961241778321
1176,1685400407.34,-21.484,-293.945,31.25,-27.832,4608.231,305.32207588803453
1177,1685400407.34,-19.043,174.805,119.141,-17.09,4608.235,318.9840216753563
1178,1685400407.34,-1.465,19.531,98.633,1.953,4608.236,307.0315048501901
1179,1685400407.34,1.465,-47.363,26.855,5.859,4608.239,310.19419704228534
1180,1685400407.34,14.648,-5.859,113.77,2.93,4608.24,303.9284848991243
1181,1685400407.35,7.812,-107.422,22.461,-11.719,4608.244,306.82416209219525
1182,1685400407.35,-11.719,-330.078,-112.793,-16.113,4608.248,309.20506947814687
1183,1685400407.36,-14.16,-426.758,-123.535,-2.441,4608.252,307.0606024096808
1184,1685400407.36,4.395,51.758,119.141,13.672,4608.255,314.210017083166
1185,1685400407.36,-2.93,216.797,103.516,12.207,4608.259,314.2055836390639
1186,1685400407.37,-20.996,-50.781,-3.418,2.441,4608.263,303.199360308955
1187,1685400407.37,-20.996,-720.703,-310.547,6.836,4608.267,309.07251850364395
1188,1685400407.38,-0.488,-895.996,-277.832,21.484,4608.271,303.3099516293532
1189,1685400407.38,6.836,75.684,179.199,10.254,4608.275,308.4821643438828
1190,1685400407.38,-8.301,67.871,0.0,-4.883,4608.279,299.3129260965839
1191,1685400407.39,-11.719,-188.965,-84.473,-2.93,4608.283,306.89078826911174
1192,1685400407.39,5.859,196.777,133.789,3.906,4608.287,300.7160209213135
1193,1685400407.4,5.371,181.641,125.977,3.906,4608.291,312.97500541445424
1194,1685400407.4,-5.859,-352.539,-150.879,1.465,4608.295,303.5854395143391
1195,1685400407.4,-23.438,-679.199,-295.41,-5.371,4608.299,298.45305738950685
1196,1685400407.41,-18.555,55.664,107.422,-4.883,4608.302,304.2524704195606
1197,1685400407.41,11.719,486.328,242.676,4.395,4608.306,312.03983438637414
1198,1685400407.41,2.93,185.547,106.934,-5.371,4608.31,313.0825630282255
1199,1685400407.42,-22.461,50.293,25.879,-16.602,4608.314,308.6275315063815
1200,1685400407.42,-12.695,73.242,65.918,-3.906,4608.316,308.28607350040954
1201,1685400407.42,12.695,-0.977,90.332,10.254,4608.32,310.88746034173266
1202,1685400407.43,9.277,-249.512,13.184,-0.488,4608.323,298.2852625503523
1203,1685400407.43,-7.812,-157.715,49.316,-11.719,4608.327,306.26158753111343
1204,1685400407.44,-10.742,-79.59,-8.301,-5.371,4608.331,306.1371234059312
1205,1685400407.44,8.789,-151.855,8.301,2.93,4608.335,298.6708378948684
1206,1685400407.44,21.484,-525.879,-144.531,16.113,4608.339,307.35985710267323
1207,1685400407.45,-0.977,-817.871,-306.152,4.395,4608.343,301.60913930359237
1208,1685400407.45,-20.996,23.926,91.309,-19.043,4608.347,307.33266294345003
1209,1685400407.45,-4.395,201.172,124.512,1.953,4608.351,306.5796109993122
1210,1685400407.46,18.066,55.176,89.844,13.672,4608.355,302.0722249647437
1211,1685400407.46,6.836,239.746,160.645,1.953,4608.359,304.2475170855081
1212,1685400407.46,-16.602,275.391,138.184,-7.324,4608.373,307.46666204784435
1213,1685400407.47,-6.348,86.426,59.57,2.93,4608.377,300.979375540242
1214,1685400407.47,20.996,8.789,58.594,13.672,4608.381,306.9252405799244
1215,1685400407.48,10.742,26.855,93.75,0.488,4608.385,309.6178163756379
1216,1685400407.48,-22.949,36.621,88.867,-22.461,4608.389,299.18145486299534
1217,1685400407.48,-17.578,-320.801,-123.047,-9.766,4608.393,305.6668129616002
1218,1685400407.49,-2.441,-896.484,-298.828,7.812,4608.397,311.772921969122
1219,1685400407.49,-12.207,-287.598,59.082,-5.859,4608.401,305.7758277038066
1220,1685400407.5,-24.414,260.254,149.414,-11.719,4608.405,312.9241191638591
1221,1685400407.5,-21.973,-54.199,-16.113,-2.441,4608.408,310.94192589869715
1222,1685400407.5,-1.953,73.242,99.609,9.766,4608.412,309.02761967548435
1223,1685400407.51,12.695,444.824,213.379,10.254,4608.416,309.46723030018893
1224,1685400407.52,7.812,269.043,113.281,2.441,4608.433,310.78461193633893
1225,1685400407.53,-2.441,-103.516,-31.738,-1.953,4608.437,308.69566194299324
1226,1685400407.53,19.043,13.672,64.453,19.531,4608.441,306.10477554368646
1227,1685400407.54,9.766,355.957,229.004,-3.418,4608.445,309.9288754569905
1228,1685400407.54,-27.832,49.316,49.805,-37.109,4608.449,301.36291689084726
1229,1685400407.54,-39.551,-720.215,-321.289,-27.832,4608.453,308.0971936815649
1230,1685400407.55,-14.648,-700.684,-236.816,-16.113,4608.457,309.8172469001605
1231,1685400407.55,5.371,-117.676,76.66,-17.09,4608.461,305.30760293958537
1232,1685400407.55,-11.719,163.574,125.0,-31.25,4608.464,311.9245731900974
1233,1685400407.56,-32.715,-536.133,-238.77,-36.133,4608.468,311.13171867399353
1234,1685400407.56,-38.086,-610.352,-184.082,-45.41,4608.472,307.1475341755386
1235,1685400407.57,-17.578,356.934,257.812,-30.762,4608.476,316.45375469970026
1236,1685400407.57,-11.23,254.883,105.469,-15.137,4608.466,304.54591116516707
1237,1685400407.57,-26.367,-48.34,-32.227,-31.25,4608.47,301.1632083069024
1238,1685400407.58,-37.598,81.055,60.547,-26.367,4608.474,315.4993012145946
1239,1685400407.58,-21.973,267.578,161.133,-9.766,4608.477,305.57226590295943
1240,1685400407.58,-2.93,155.273,92.773,0.977,4608.481,308.2576690379362
1241,1685400407.59,-11.719,-287.598,-114.258,-13.184,4608.485,305.8108680889139
1242,1685400407.59,-29.785,-251.465,-41.504,-23.926,4608.489,309.45830916993424
1243,1685400407.6,-19.043,208.008,164.062,-5.859,4608.493,304.58671944534973
1244,1685400407.6,-0.977,-185.059,-43.945,7.324,4608.497,305.96940272162766
1245,1685400407.6,-11.23,-600.586,-169.434,-5.371,4608.501,302.64028192601
1246,1685400407.61,-29.297,-45.898,97.168,-22.461,4608.505,298.1463333595123
1247,1685400407.61,-15.625,296.387,168.457,-10.254,4608.509,305.98474683324474
1248,1685400407.61,18.555,-299.316,-82.031,10.742,4608.509,304.0546609958079
1249,1685400407.62,9.277,-714.355,-158.203,8.301,4608.513,306.08799425132935
1250,1685400407.62,-8.301,50.293,139.648,-2.441,4608.517,302.75925495069936
1251,1685400407.62,0.488,212.402,94.238,7.324,4608.521,303.6878328434968
1252,1685400407.63,12.207,-111.816,-27.344,20.508,4608.525,305.8684631525896
1253,1685400407.63,3.906,-252.441,-7.324,13.672,4608.529,301.92191133915344
1254,1685400407.64,-9.277,-198.73,18.066,-10.742,4608.533,313.4887888515876
1255,1685400407.64,-12.207,-25.879,27.832,-11.23,4608.537,316.61647628665065
1256,1685400407.64,4.395,-567.383,-176.758,15.625,4608.541,306.6142400872851
1257,1685400407.65,24.414,-659.668,-153.809,12.695,4608.544,306.183321220592
1258,1685400407.65,9.766,121.094,122.07,-3.906,4608.548,305.0644395503364
1259,1685400407.66,-11.23,-190.43,-148.438,-4.883,4608.552,309.21300007998656
1260,1685400407.66,8.301,-381.348,-111.328,14.16,4608.556,304.1709789982401
1261,1685400407.66,24.902,192.383,207.52,16.113,4608.56,305.1345127330584
1262,1685400407.67,11.23,481.445,207.031,-10.254,4608.564,304.7911289099731
1263,1685400407.67,-6.348,17.578,-39.062,-13.184,4608.568,302.87176278464545
1264,1685400407.68,-0.977,-124.512,-45.898,6.836,4608.572,304.46056317170707
1265,1685400407.68,16.602,41.992,111.816,15.625,4608.576,303.5833016395709
1266,1685400407.68,2.441,19.531,105.469,-5.859,4608.58,298.16372908839395
1267,1685400407.69,-19.531,-425.781,-175.293,-20.02,4608.584,302.67676552774276
1268,1685400407.69,-19.531,-725.098,-246.582,-11.719,4608.588,308.73228834765507
1269,1685400407.7,0.488,91.797,175.293,-5.859,4608.592,303.0428149109297
1270,1685400407.7,11.719,449.707,224.609,0.488,4608.595,312.0916799958471
1271,1685400407.7,-11.23,70.312,42.969,-10.254,4608.599,302.4799809285161
1272,1685400407.7,-23.438,-51.758,5.859,-26.367,4608.601,303.97129976888465
1273,1685400407.71,-6.348,-15.137,65.918,-9.766,4608.605,309.56557761030547
1274,1685400407.71,7.324,99.121,97.656,-0.488,4608.609,307.0617220365141
1275,1685400407.72,-17.09,-137.695,-2.441,-17.09,4608.613,305.89001126901474
1276,1685400407.72,-43.945,-473.145,-122.559,-28.809,4608.617,308.19283395405563
1277,1685400407.72,-25.391,-304.688,-36.621,-11.719,4608.621,313.9221808941007
1278,1685400407.73,-9.277,-66.895,106.445,2.441,4608.625,303.634065479759
1279,1685400407.73,-5.371,-523.926,-177.246,5.859,4608.629,308.08833554496977
1280,1685400407.74,-16.113,-830.078,-338.379,4.883,4608.633,305.8152837396795
1281,1685400407.74,-18.555,70.801,103.516,1.465,4608.637,296.14055100951714
1282,1685400407.74,8.301,248.535,149.902,13.184,4608.64,300.34383140147503
1283,1685400407.75,15.137,76.172,95.703,10.742,4608.644,303.81769246593456
1284,1685400407.75,-14.648,223.633,143.066,-12.207,4608.646,313.84780204748824
1285,1685400407.75,-31.738,250.977,142.578,-19.043,4608.65,302.64052600939976
1286,1685400407.76,1.465,89.844,78.613,7.812,4608.654,303.6486678521744
1287,1685400407.76,10.254,-3.418,56.641,-0.488,4608.658,303.1373236874957
1288,1685400407.77,-22.949,-49.805,52.734,-28.809,4608.662,313.3131342765608
1289,1685400407.77,-41.504,-236.328,-59.57,-31.738,4608.666,310.2407500816337
1290,1685400407.77,-16.113,-354.492,-121.582,-9.277,4608.67,300.35498441375495
1291,1685400407.78,8.789,-845.703,-278.32,3.418,4608.674,298.7031287338407
1292,1685400407.78,-10.254,-395.996,-20.996,-21.973,4608.678,310.9960486223723
1293,1685400407.78,-25.391,229.98,143.555,-31.25,4608.681,312.9792497813984
1294,1685400407.79,-26.855,-33.691,-9.766,-20.508,4608.685,305.9219427954536
1295,1685400407.79,-4.395,122.559,112.793,-6.836,4608.689,301.6849241510722
