,timestamps,TP9,AF7,AF8,TP10,Secondary Timestamp,emg_signal
0,1686879541.71,-22.461,4.883,-24.414,-19.043,769.615,389.8094755699954
1,1686879541.71,-75.684,-548.828,-64.453,-117.676,769.619,386.5682508622508
2,1686879541.71,-73.242,-510.254,38.574,-86.914,769.623,385.8632112040419
3,1686879541.72,-17.578,197.754,49.805,19.531,769.626,384.85135517365126
4,1686879541.72,-8.789,267.578,-34.668,-4.395,769.63,386.1686214248369
5,1686879541.73,-72.754,-610.352,-60.059,-108.887,769.634,385.6451142753474
6,1686879541.73,-89.844,-916.504,43.457,-107.91,769.638,384.41012713827615
7,1686879541.73,-29.785,-97.168,82.031,-4.395,769.642,387.6734041009424
8,1686879541.74,-24.414,248.535,-22.461,10.742,769.646,392.0582048094249
9,1686879541.74,-88.867,-607.422,-39.062,-97.168,769.65,389.22080878055004
10,1686879541.74,-99.121,-339.844,50.781,-134.277,769.654,388.86470439661196
11,1686879541.75,-44.922,402.832,9.766,-28.809,769.658,388.7329980383447
12,1686879541.77,-8.789,305.664,-24.414,36.133,769.663,377.79484953414317
13,1686879541.77,-40.527,176.758,4.395,-48.34,769.667,374.67470565477475
14,1686879541.77,-86.914,25.879,-24.902,-131.836,769.671,377.99004565329693
15,1686879541.78,-54.199,92.773,19.043,-64.453,769.675,382.7854051613661
16,1686879541.78,1.465,129.883,-6.836,44.434,769.679,383.1057459044078
17,1686879541.79,-24.902,-603.516,0.977,-7.324,769.683,388.0326732986566
18,1686879541.79,-83.984,-462.402,40.039,-122.07,769.687,374.41598523502506
19,1686879541.79,-76.172,169.922,4.883,-95.215,769.691,381.2521651881473
20,1686879541.8,-16.113,-28.809,-12.695,21.484,769.695,380.0318910109997
21,1686879541.8,-9.766,-299.805,50.781,20.02,769.699,384.1784220175001
22,1686879541.8,-64.453,188.965,33.691,-91.309,769.702,385.8961000752385
23,1686879541.81,-76.172,229.004,-22.949,-109.375,769.706,383.657770561312
24,1686879541.81,-20.508,-80.566,-18.555,-0.977,769.705,383.79322675838966
25,1686879541.81,2.441,157.715,14.648,36.133,769.709,379.92598923380774
26,1686879541.82,-39.062,328.125,-4.883,-66.895,769.713,388.58095632602453
27,1686879541.82,-66.895,119.629,-26.855,-113.281,769.717,383.4795575840685
28,1686879541.82,-28.32,-196.777,-17.578,-20.02,769.721,382.644642316237
29,1686879541.83,1.465,-221.191,-6.348,38.086,769.725,380.4233477039941
30,1686879541.83,-38.086,-151.367,-8.789,-46.875,769.729,394.2142994565929
31,1686879541.84,-81.055,-294.922,-18.066,-123.047,769.733,388.04837854150855
32,1686879541.84,-58.594,-853.027,-36.621,-55.176,769.737,385.9841629630635
33,1686879541.84,-10.742,-1000.0,18.066,41.992,769.741,380.6238267040521
34,1686879541.85,-20.508,-66.895,60.547,-2.93,769.745,382.0034022989488
35,1686879541.85,-72.266,195.312,-14.648,-108.887,769.748,386.575077472841
36,1686879541.87,-70.801,-37.109,10.254,-88.379,769.768,381.7460812078709
37,1686879541.87,-13.184,323.73,18.066,27.344,769.772,377.23188462880364
38,1686879541.88,-8.301,420.898,-32.715,41.992,769.776,379.84118656122786
39,1686879541.88,-71.777,129.883,-45.898,-62.988,769.78,380.643409297368
40,1686879541.89,-96.68,-21.484,-2.441,-99.609,769.784,384.887588594013
41,1686879541.89,-44.434,-117.188,-8.789,7.324,769.788,374.97000481708574
42,1686879541.89,-8.301,36.621,15.625,54.199,769.792,378.30057092276235
43,1686879541.9,-50.293,-123.047,-30.762,-39.062,769.796,391.45835009590786
44,1686879541.9,-85.449,21.484,-6.836,-107.91,769.796,378.6030843739008
45,1686879541.9,-93.75,-878.418,-37.598,-90.82,769.8,381.23898692985216
46,1686879541.9,-55.176,287.109,8.301,-60.059,769.8,389.14824979790365
47,1686879541.9,-52.734,-219.238,63.477,-19.043,769.804,380.6970664839754
48,1686879541.91,5.371,315.918,-20.02,44.922,769.804,392.0678871917206
49,1686879541.91,-4.883,448.73,11.719,50.781,769.808,387.5684168844364
50,1686879541.91,-19.531,38.086,-28.809,4.395,769.807,382.2572772764082
51,1686879541.91,-36.621,77.637,-57.129,-16.602,769.811,380.91337227125075
52,1686879541.92,-72.266,-68.848,-18.555,-97.168,769.811,390.731390425105
53,1686879541.92,-68.848,-124.512,-9.277,-83.008,769.815,382.7420915354953
54,1686879541.92,-26.367,-231.934,-20.02,14.648,769.819,388.73976693436566
55,1686879541.93,-19.043,-576.66,-21.973,24.414,769.823,388.4755762285111
56,1686879541.93,-61.523,-164.062,20.02,-83.496,769.827,393.5826215720014
57,1686879541.93,-65.43,227.051,-7.324,-104.98,769.831,379.78942284994736
58,1686879541.94,-13.672,-24.414,-28.809,-2.93,769.835,380.4324479503763
59,1686879541.94,7.812,-767.09,-50.293,59.57,769.839,384.4128187703121
60,1686879541.95,-38.574,-987.793,24.902,-26.367,769.855,386.4057616201087
61,1686879541.95,-74.219,-93.262,62.012,-116.699,769.859,391.172748188787
62,1686879541.95,-41.504,89.844,-11.719,-38.086,769.863,382.6435190053241
63,1686879541.96,1.465,100.098,31.738,45.898,769.866,381.44118883333397
64,1686879541.96,-25.391,345.215,6.348,-33.203,769.87,387.0994329651443
65,1686879541.97,-82.031,35.645,-44.922,-124.512,769.874,390.7412752256138
66,1686879541.97,-67.383,-391.602,-26.855,-65.43,769.878,389.6727115873461
67,1686879541.97,-15.625,-610.352,55.664,29.297,769.882,377.5740474605887
68,1686879541.98,-25.879,126.953,64.453,-12.695,769.886,373.60417317720567
69,1686879541.98,-79.102,412.598,-23.438,-112.305,769.89,382.19871570624855
70,1686879541.98,-71.289,-78.125,-30.273,-94.238,769.894,374.5995760500215
71,1686879541.99,-23.926,30.762,23.438,6.836,769.898,387.33030771837946
72,1686879542.0,-24.902,341.797,4.883,6.836,769.902,382.9067134262888
73,1686879542.01,-80.078,29.297,-37.109,-95.215,769.906,389.1770896553527
74,1686879542.01,-106.934,-500.488,-40.527,-134.766,769.91,381.2100682139052
75,1686879542.02,-60.547,-146.973,30.273,-39.551,769.914,384.3589857622389
76,1686879542.02,-20.02,362.305,19.043,19.531,769.918,376.9287710635577
77,1686879542.02,-49.805,-29.297,-40.039,-64.453,769.922,383.5099462863622
78,1686879542.03,-91.797,-787.598,-37.598,-131.836,769.926,379.45573244000155
79,1686879542.03,-56.641,-687.988,81.543,-60.059,769.929,382.9411984009803
80,1686879542.04,-0.488,331.055,65.918,24.414,769.933,390.9045977069197
81,1686879542.04,-31.738,292.969,-52.246,-32.227,769.937,388.0855463289561
82,1686879542.04,-88.379,-431.152,25.391,-128.906,769.941,383.78501557387114
83,1686879542.05,-69.336,-11.719,54.688,-89.844,769.945,384.46832517482807
84,1686879542.05,-13.672,467.285,-8.301,16.602,769.948,381.9798281247824
85,1686879542.05,-11.719,303.223,-26.367,-3.906,769.951,389.26545628554794
86,1686879542.06,-73.73,23.926,-22.949,-115.234,769.955,384.2295003958221
87,1686879542.06,-85.938,-82.031,-7.324,-118.164,769.959,379.8077614885617
88,1686879542.07,-32.227,163.086,12.207,-10.742,769.963,373.9424366503493
89,1686879542.07,-20.508,-43.945,-18.066,18.555,769.967,385.4907774839614
90,1686879542.07,-71.289,-410.156,26.367,-82.52,769.971,390.6033885557585
91,1686879542.08,-96.68,-4.883,16.602,-128.906,769.975,379.4486170224066
92,1686879542.08,-41.992,349.121,-15.625,-32.715,769.979,387.1605381963995
93,1686879542.08,6.348,-52.734,-52.246,44.922,769.983,379.49467276201966
94,1686879542.09,-44.922,-728.516,17.578,-37.109,769.987,375.8810705996901
95,1686879542.09,-93.75,-86.914,61.035,-132.324,769.99,384.47106891180425
96,1686879542.1,-57.129,246.582,-0.488,-64.453,769.994,382.7491972676989
97,1686879542.1,-13.672,-42.48,-17.578,30.762,769.998,385.1023510502919
98,1686879542.11,-26.367,137.207,-3.906,-18.066,770.001,384.14839795223827
99,1686879542.11,-74.219,311.523,-6.348,-123.535,770.005,380.3665796020768
100,1686879542.11,-74.219,89.355,-33.691,-112.793,770.009,391.5137062799174
101,1686879542.12,-13.184,-425.781,-13.672,8.301,770.013,377.45034994560956
102,1686879542.12,-7.324,-329.102,-2.441,14.648,770.017,384.99886133617383
103,1686879542.12,-67.871,-181.152,-24.902,-103.516,770.021,384.5469368714973
104,1686879542.13,-84.473,-294.922,-23.438,-121.582,770.025,383.14668557977325
105,1686879542.13,-38.574,-823.73,-53.223,-6.348,770.029,376.9464393813394
106,1686879542.14,-19.043,-893.066,43.945,30.273,770.033,384.0700842224353
107,1686879542.14,-89.355,145.996,-35.156,-128.418,770.038,379.47243289521515
108,1686879542.14,-58.594,57.129,53.223,-71.777,770.037,377.75430019308976
109,1686879542.14,-41.016,-18.066,19.531,-41.992,770.042,385.8480415834636
110,1686879542.15,5.371,346.191,18.555,36.621,770.046,384.13911106632776
111,1686879542.15,-27.344,385.254,-26.855,-38.574,770.05,377.50369908988847
112,1686879542.16,-79.59,48.34,-44.922,-122.07,770.054,393.51559578565536
113,1686879542.16,-66.406,-280.273,-7.324,-62.012,770.057,378.12551224976505
114,1686879542.16,-15.625,-35.156,42.48,24.902,770.061,384.9273793801269
115,1686879542.17,-26.367,387.207,-8.301,-12.207,770.065,377.9562437879627
116,1686879542.17,-77.637,-146.484,-72.266,-108.398,770.069,385.35495036805946
117,1686879542.18,-76.66,-717.773,48.34,-95.703,770.073,373.3346592138915
118,1686879542.18,-17.09,52.734,82.031,7.812,770.077,383.4284257754859
119,1686879542.18,-5.859,446.289,-24.902,23.926,770.081,385.3250302294649
120,1686879542.18,-70.312,-202.637,-68.848,-86.914,770.081,378.8337690947948
121,1686879542.19,-95.703,-299.316,26.367,-133.789,770.084,377.2455748141335
122,1686879542.19,-36.133,266.113,36.133,-23.438,770.088,372.92255723714266
123,1686879542.2,-9.277,343.262,-23.438,29.297,770.092,384.6198085818828
124,1686879542.2,-61.035,-89.355,-35.645,-69.824,770.096,374.4627828627874
125,1686879542.2,-101.074,-385.742,-20.02,-129.883,770.1,376.2742056952262
126,1686879542.21,-65.918,-237.305,11.23,-45.41,770.104,384.90607146106856
127,1686879542.21,-18.555,-81.543,-18.555,36.621,770.108,385.74847127008695
128,1686879542.22,-47.363,-711.914,-56.641,-27.344,770.112,375.5357399436667
129,1686879542.22,-86.914,-799.316,62.5,-115.234,770.116,375.6841148445934
130,1686879542.22,-65.43,78.125,53.223,-74.219,770.12,384.0038465635139
131,1686879542.23,-29.785,1.953,-34.668,29.297,770.124,376.2830271460074
132,1686879542.23,-36.621,-324.707,61.523,-8.301,770.129,393.79122728899404
133,1686879542.24,-88.379,130.859,44.434,-129.883,770.133,385.78816362899676
134,1686879542.24,-98.633,300.781,-33.203,-120.605,770.137,381.40992777911543
135,1686879542.25,-38.574,97.168,-29.297,-3.418,770.141,375.4120362099509
136,1686879542.25,-23.438,143.555,-0.977,27.832,770.145,385.9144161550847
137,1686879542.25,-74.707,-45.898,-22.949,-74.707,770.149,381.0337075141009
138,1686879542.26,-84.473,-50.781,4.883,-116.211,770.152,384.10129956104765
139,1686879542.26,-41.016,-99.121,-23.438,-20.996,770.156,385.5970711355118
140,1686879542.26,-11.23,-558.594,33.691,33.203,770.16,383.11520430705264
141,1686879542.27,-36.133,53.223,43.457,-55.176,770.164,384.6853513813802
142,1686879542.27,-82.031,258.789,-38.574,-137.207,770.168,381.65025645009433
143,1686879542.28,-3.906,156.738,4.395,35.645,770.174,380.83091526870345
144,1686879542.28,-57.617,-103.516,-34.18,-64.941,770.172,387.78747398565037
145,1686879542.28,-28.32,254.883,-6.348,-16.602,770.178,379.4243755449236
146,1686879542.28,-79.102,-158.203,-40.039,-109.863,770.182,385.6957703563705
147,1686879542.29,-68.359,-520.02,-53.711,-94.238,770.185,383.26264365493876
148,1686879542.29,-24.414,-172.852,-6.348,-11.719,770.189,383.15366764763246
149,1686879542.3,-35.645,2.93,-12.207,-31.25,770.193,380.18194343784216
150,1686879542.3,-95.703,-243.652,-33.203,-140.137,770.197,378.40515390411815
151,1686879542.3,-110.352,-818.848,-65.43,-138.184,770.201,373.6474007947689
152,1686879542.31,-40.039,-796.875,54.199,-24.902,770.205,381.37791796412625
153,1686879542.31,-6.348,253.418,62.012,0.977,770.209,381.00408027755253
154,1686879542.31,-69.824,272.461,-44.922,-101.562,770.213,380.84274846472266
155,1686879542.32,-109.375,-107.422,0.0,-165.527,770.217,383.4212494214283
156,1686879542.32,-57.129,205.566,8.789,-68.359,770.232,381.5826406688561
157,1686879542.32,-12.207,430.176,-21.973,10.742,770.236,378.08705070655895
158,1686879542.33,-46.875,193.359,-44.922,-71.289,770.239,378.96723347517644
159,1686879542.33,-94.727,-47.363,-20.508,-157.715,770.243,382.75624603821757
160,1686879542.34,-70.312,-60.059,-30.762,-78.125,770.247,380.3229988476252
161,1686879542.34,-20.02,-11.23,-13.672,20.508,770.251,375.48974926505787
162,1686879542.34,-35.156,-216.309,-29.297,-25.879,770.255,377.24445456315
163,1686879542.35,-79.102,-854.492,-35.156,-123.047,770.259,381.16605030152164
164,1686879542.35,-65.918,-276.855,44.434,-99.121,770.263,377.7717941516363
165,1686879542.36,-18.555,397.949,8.301,14.648,770.267,383.1113364533201
166,1686879542.36,-17.578,120.117,-49.805,9.766,770.271,371.7780972131779
167,1686879542.36,-65.918,87.891,-16.113,-104.004,770.275,382.1569662113368
168,1686879542.36,-78.125,290.039,-1.465,-121.582,770.274,386.80827615238815
169,1686879542.37,-30.762,237.305,-11.719,-6.836,770.278,385.23380824374664
170,1686879542.37,-12.695,-45.41,-15.137,29.297,770.282,377.75491276332843
171,1686879542.38,-55.176,75.195,-9.277,-75.195,770.286,381.83233996887554
172,1686879542.38,-86.914,136.23,-22.949,-138.184,770.29,378.35197457677936
173,1686879542.38,-49.805,-178.223,-30.273,-55.176,770.294,385.5617698290984
174,1686879542.39,-2.441,-745.605,-41.992,33.203,770.298,375.8587933664998
175,1686879542.39,-31.738,-833.496,45.898,-40.527,770.301,387.2697104534307
176,1686879542.4,-78.125,-141.113,60.059,-145.996,770.305,380.6496251790585
177,1686879542.4,-52.246,89.844,-35.156,-85.449,770.309,387.4374387736967
178,1686879542.4,-1.465,-524.414,-19.531,22.949,770.313,378.09289845454003
179,1686879542.41,-18.066,-226.074,52.734,-11.23,770.317,388.6290213080276
180,1686879542.42,-70.312,321.289,0.488,-116.211,770.322,373.4806936574789
181,1686879542.43,-69.336,123.047,-29.785,-102.539,770.326,377.77284387574895
182,1686879542.43,-21.973,109.375,20.508,2.441,770.329,381.5203088081484
183,1686879542.44,-9.277,346.68,8.301,7.812,770.333,384.52224161486123
184,1686879542.44,-55.176,322.754,-23.926,-100.586,770.337,376.4440981033393
185,1686879542.44,-63.965,-235.352,-35.645,-110.84,770.341,379.213897048959
186,1686879542.45,-24.414,-515.625,64.941,6.348,770.345,378.3122763221596
187,1686879542.45,-26.855,176.758,64.453,29.297,770.349,391.3395455360369
188,1686879542.46,-84.473,362.793,-41.016,-76.66,770.353,383.77826814661285
189,1686879542.46,-121.094,-288.086,-41.504,-136.719,770.357,380.25012249065617
190,1686879542.46,-76.172,-353.516,57.617,-52.246,770.361,381.3400344309928
191,1686879542.47,-27.344,276.367,54.199,37.598,770.365,381.094875639852
192,1686879542.47,-67.383,315.43,-21.973,-31.25,770.366,384.38386865461746
193,1686879542.47,-128.418,-244.141,-58.594,-130.371,770.37,378.91442489558165
194,1686879542.48,-104.98,-192.383,13.672,-76.66,770.373,381.2995228596757
195,1686879542.48,-41.992,294.434,42.48,29.297,770.377,384.3667990732779
196,1686879542.48,-52.246,238.281,-30.762,0.0,770.381,385.8516081461402
197,1686879542.49,-104.492,-553.223,-66.895,-107.91,770.385,385.6765018522622
198,1686879542.49,-95.215,-699.707,-10.742,-85.449,770.389,382.4512627560524
199,1686879542.5,-38.574,-189.453,26.367,18.066,770.393,381.6336981340691
200,1686879542.5,-19.043,52.734,-24.414,27.344,770.397,379.9821983497353
201,1686879542.5,-75.195,-696.289,-45.898,-70.801,770.401,388.6697959264729
202,1686879542.51,-101.074,-548.828,95.703,-114.258,770.405,387.1053464895485
203,1686879542.51,-25.879,139.16,-16.113,8.301,770.409,384.6039683959111
204,1686879542.52,-17.578,-306.152,-18.066,21.973,770.413,375.14026611464254
205,1686879542.52,-88.379,-279.785,72.754,-110.352,770.417,382.33683596795214
206,1686879542.52,-87.402,182.129,6.348,-109.863,770.421,386.18627382103176
207,1686879542.53,-27.344,172.852,-4.395,8.789,770.425,372.82031010456427
208,1686879542.53,-13.184,20.996,-9.766,29.785,770.429,381.1070335069194
209,1686879542.54,-62.012,-220.703,-20.02,-72.266,770.432,378.9063863879504
210,1686879542.54,-88.867,-187.5,32.227,-116.211,770.436,374.59872497900994
211,1686879542.54,-48.34,125.977,3.418,-24.414,770.44,379.6711179793479
212,1686879542.55,-10.742,-425.781,17.578,46.875,770.444,378.70908434207666
213,1686879542.55,-41.504,-354.98,101.562,-34.668,770.448,390.43352777959
214,1686879542.56,-79.59,275.879,9.277,-112.793,770.452,393.97948964533066
215,1686879542.56,-51.27,10.742,-44.922,-47.852,770.456,383.8089570765027
216,1686879542.56,-1.953,-41.504,-3.418,27.344,770.459,392.41165467126905
217,1686879542.56,-18.555,167.48,-17.09,-26.855,770.463,371.4180938430088
218,1686879542.57,-78.125,-60.547,-31.25,-119.629,770.467,366.78063833232835
219,1686879542.57,-75.195,-405.762,-38.574,-85.449,770.471,384.2360905668614
220,1686879542.58,-4.883,-538.574,-31.25,33.203,770.475,383.046745873357
221,1686879542.58,7.324,-250.977,-3.906,22.949,770.478,384.0891246389986
222,1686879542.58,-60.547,-191.406,-20.996,-103.027,770.482,383.31399620705287
223,1686879542.59,-81.543,-510.254,-32.227,-117.188,770.486,381.11700235538297
224,1686879542.59,-26.367,-960.449,3.418,13.672,770.49,388.43738140733484
225,1686879542.6,-6.348,-253.418,86.914,45.898,770.494,386.4034977314565
226,1686879542.6,-51.758,345.703,-28.809,-69.336,770.498,381.2470626178394
227,1686879542.6,-80.566,-32.227,-26.367,-122.07,770.502,377.2999876223839
228,1686879542.61,-30.273,70.801,38.574,-25.391,770.503,385.6169747429332
229,1686879542.61,10.254,432.129,6.348,46.387,770.507,385.9892408671816
230,1686879542.61,-31.25,327.637,-41.992,-40.527,770.511,375.962662580461
231,1686879542.62,-81.543,0.488,-35.156,-123.047,770.515,381.7526989893485
232,1686879542.62,-62.012,-69.336,0.488,-68.359,770.519,379.73024800481335
233,1686879542.63,-13.184,-65.918,-16.113,15.137,770.522,379.8899524213299
234,1686879542.63,-32.227,-71.777,-19.043,-24.414,770.526,387.1837791132043
235,1686879542.63,-95.215,-665.039,-29.297,-120.117,770.53,369.6147119821386
236,1686879542.64,-93.75,-727.051,33.691,-107.422,770.534,390.3855827560563
237,1686879542.64,-25.879,225.098,48.34,-5.859,770.538,381.67440796966406
238,1686879542.64,-20.996,248.047,-43.457,0.0,770.542,381.8472331470172
239,1686879542.65,-76.172,-56.152,-44.434,-111.816,770.546,388.70473661305755
240,1686879542.65,-85.938,145.508,-9.766,-137.207,770.545,386.27812439708254
241,1686879542.65,-44.434,297.852,-13.672,-30.762,770.549,383.3716894386149
242,1686879542.66,-29.297,71.777,-37.598,17.578,770.553,385.06557510137776
243,1686879542.66,-66.406,-43.457,-45.898,-73.242,770.557,383.76837689482886
244,1686879542.67,-100.098,-80.566,-19.531,-130.371,770.561,375.86257040487624
245,1686879542.67,-62.5,-182.617,1.953,-48.34,770.565,383.6500022917868
246,1686879542.67,-21.973,-367.676,-33.691,32.715,770.569,384.0542968683396
247,1686879542.68,-53.711,-1000.0,-55.176,-17.578,770.573,386.35817880735266
248,1686879542.68,-92.285,-687.988,36.621,-113.281,770.577,393.38712344938745
249,1686879542.68,-68.848,139.16,29.297,-77.637,770.581,384.3202360377084
250,1686879542.69,-20.508,122.07,-14.648,23.438,770.585,382.9594273000019
251,1686879542.69,-23.926,145.508,22.949,-0.488,770.588,386.2696435050104
252,1686879542.7,-70.801,311.035,6.348,-108.887,770.604,373.9076965272366
253,1686879542.7,-76.172,226.074,-35.156,-112.305,770.608,381.9297662328148
254,1686879542.7,-17.09,72.754,-10.254,6.348,770.612,371.2546144796673
255,1686879542.71,11.719,222.168,25.391,37.598,770.616,378.2846054450596
256,1686879542.71,-53.711,259.766,-21.973,-77.148,770.62,381.83275370414503
257,1686879542.72,-98.145,-73.73,-52.246,-119.629,770.624,377.55944546916004
258,1686879542.72,-45.41,-644.043,5.859,-9.766,770.628,376.0905963180975
259,1686879542.72,-14.648,-380.859,79.59,34.668,770.632,377.1134527231538
260,1686879542.73,-48.828,332.031,11.719,-65.43,770.635,387.20235693617286
261,1686879542.73,-75.195,10.742,-42.969,-125.0,770.639,376.4006732040242
262,1686879542.74,-40.039,-258.789,7.812,-39.062,770.643,375.1750948756711
263,1686879542.74,7.324,142.09,41.016,47.363,770.647,373.2882800846093
264,1686879542.74,-15.137,395.02,0.977,-16.602,770.65,385.3865152107864
265,1686879542.74,-68.848,-48.34,-61.523,-111.328,770.654,379.6575154384153
266,1686879542.75,-52.734,-333.984,-20.508,-55.664,770.658,378.7772176234718
267,1686879542.75,9.766,187.5,25.391,61.523,770.661,377.48041511442915
268,1686879542.76,0.488,138.184,-19.043,38.086,770.665,379.97824371478515
269,1686879542.76,-83.984,-531.738,-66.406,-84.961,770.669,384.67231105954596
270,1686879542.76,-107.422,-953.125,-11.719,-95.215,770.673,387.4104591636798
271,1686879542.77,-35.645,-272.949,113.77,9.766,770.677,381.36935683966124
272,1686879542.77,-14.648,371.582,4.883,35.645,770.681,375.3185718403737
273,1686879542.77,-67.871,-74.219,-18.066,-65.918,770.685,381.189131956576
274,1686879542.78,-73.73,-201.172,62.012,-108.398,770.689,379.6729725813919
275,1686879542.78,-19.043,223.145,18.066,-9.277,770.693,379.79559496153286
276,1686879542.79,18.066,174.805,-40.527,66.895,770.695,379.025832757037
277,1686879542.79,-14.648,-366.699,-0.488,-21.973,770.699,381.32682327998276
278,1686879542.8,-58.105,-313.477,62.5,-108.398,770.703,376.04641570163324
279,1686879542.8,-17.09,226.074,1.953,-17.09,770.706,387.2755350154545
280,1686879542.8,39.062,218.262,-28.809,75.684,770.71,383.3510330091297
281,1686879542.81,11.23,-209.961,-29.785,11.23,770.714,377.69127357811624
282,1686879542.81,-35.645,-276.367,0.488,-91.797,770.718,374.0437492360859
283,1686879542.81,-16.602,125.977,15.137,-60.059,770.722,373.69533440851507
284,1686879542.82,36.621,168.945,-50.781,50.781,770.726,384.46097434753455
285,1686879542.82,29.785,-354.98,10.254,48.34,770.73,375.58169781307885
286,1686879542.83,-14.16,-330.566,41.504,-57.617,770.734,377.34151057471314
287,1686879542.83,-26.367,48.828,-30.273,-83.984,770.738,375.6949953172798
288,1686879542.84,10.254,-3.906,-25.879,23.438,770.74,377.387729411785
289,1686879542.85,31.738,-12.695,-33.691,49.316,770.744,378.37634373105544
290,1686879542.85,-16.113,115.234,-32.715,-67.871,770.748,379.4813716539496
291,1686879542.86,-57.617,-113.77,-20.02,-125.0,770.752,377.06732846877077
292,1686879542.86,-20.02,-443.848,-59.57,-27.344,770.756,371.4822643542132
293,1686879542.86,12.695,-864.258,-31.738,50.781,770.76,385.9691378318053
294,1686879542.87,-17.09,-563.477,90.82,-34.18,770.764,391.0906132687192
295,1686879542.87,-56.641,84.961,6.348,-133.789,770.768,376.73743663627215
296,1686879542.88,-35.645,-333.496,-31.738,-72.754,770.772,385.1662708770239
297,1686879542.88,15.625,-555.664,44.922,32.227,770.776,379.36452521905795
298,1686879542.88,-3.418,239.746,28.32,-21.484,770.779,375.8776882861974
299,1686879542.89,-59.57,235.84,-44.922,-136.719,770.783,376.6708132581473
300,1686879542.89,-49.805,-144.531,-12.207,-108.887,770.789,384.0601974372747
301,1686879542.9,4.883,37.109,39.551,0.977,770.793,382.0419417766871
302,1686879542.9,8.789,330.566,-5.859,-7.812,770.796,376.96555215492157
303,1686879542.9,-54.199,177.246,-39.062,-110.84,770.8,378.57642046816034
304,1686879542.91,-71.289,-192.871,-36.621,-128.418,770.804,377.7148998021775
305,1686879542.91,-10.254,-283.203,-22.949,-25.391,770.808,370.6070544703496
306,1686879542.91,14.16,-166.504,-1.953,18.555,770.812,385.15129334319397
307,1686879542.92,-35.645,-104.004,-5.371,-78.125,770.816,375.5582718873271
308,1686879542.92,-81.055,-663.574,-38.574,-138.672,770.82,378.33058948456625
309,1686879542.93,-48.828,-736.328,23.438,-51.27,770.824,383.59753146093965
310,1686879542.93,5.371,216.309,37.109,21.973,770.828,380.5647858411528
311,1686879542.93,-81.055,-134.277,-33.691,-150.879,770.831,384.043307100794
312,1686879542.93,-20.996,174.805,-41.504,-53.711,770.832,377.13706019101295
313,1686879542.94,-62.012,140.137,-6.836,-93.262,770.835,379.59370911645016
314,1686879542.94,-6.836,332.031,-11.23,13.672,770.838,376.4082080850418
315,1686879542.95,-15.625,77.637,-34.668,-13.672,770.842,380.3102059041378
316,1686879542.95,-73.73,-327.637,-38.574,-126.953,770.846,375.1743405757068
317,1686879542.95,-78.613,-359.863,-16.602,-123.047,770.85,381.678914648444
318,1686879542.96,-20.996,-190.43,-9.766,-5.859,770.854,376.60606542452314
319,1686879542.96,-14.648,-366.699,-34.668,7.812,770.858,379.91773368473645
320,1686879542.96,-74.219,-1000.0,-57.617,-97.168,770.862,375.17216114471734
321,1686879542.97,-87.402,-674.805,40.039,-140.625,770.866,380.92294662900133
322,1686879542.97,-27.832,187.5,35.156,-40.527,770.87,369.34454814233754
323,1686879542.98,-7.324,172.852,-11.719,26.367,770.874,373.5190477456563
324,1686879542.98,-52.734,149.902,9.766,-72.266,770.878,370.1359008733704
325,1686879542.98,-87.402,280.762,-11.719,-154.297,770.882,368.2770875127399
326,1686879542.99,-52.734,208.008,-42.969,-70.312,770.886,376.83982507096187
327,1686879542.99,-3.418,-2.93,-15.137,26.855,770.89,370.82843437969774
328,1686879543.0,-47.363,-17.578,-11.23,-42.969,770.893,377.3898602582678
329,1686879543.0,-109.375,-206.055,-52.246,-144.531,770.897,382.6884224214349
330,1686879543.0,-83.008,-273.438,-29.785,-100.586,770.901,375.58567053907444
331,1686879543.01,-28.809,-545.898,8.789,12.695,770.905,376.909384953694
332,1686879543.01,-22.949,-331.543,62.5,-14.648,770.909,389.3126492062906
333,1686879543.02,-69.336,291.992,-11.719,-146.484,770.913,390.1547930167831
334,1686879543.02,-83.496,-38.574,-63.477,-138.672,770.917,376.38707302164215
335,1686879543.02,-27.344,-215.332,-16.113,-11.719,770.921,373.444490829702
336,1686879543.02,-3.418,190.918,14.16,7.812,770.921,381.8821252752314
337,1686879543.03,-55.176,330.078,-25.391,-108.887,770.925,382.9354319016356
338,1686879543.03,-85.449,-164.551,-58.105,-146.973,770.929,387.5905855419276
339,1686879543.04,-41.992,-305.176,-22.461,-39.551,770.932,381.61859733524744
340,1686879543.04,-7.812,1.953,-3.418,16.602,770.936,375.984387030312
341,1686879543.04,-48.34,-110.352,-17.09,-67.871,770.94,386.7673615777028
342,1686879543.05,-92.773,-496.582,-58.594,-134.766,770.944,377.48687606339735
343,1686879543.05,-62.5,-1000.0,-18.555,-63.477,770.948,379.3988000260271
344,1686879543.06,-0.977,-383.301,98.633,29.785,770.952,369.88221446459653
345,1686879543.06,-19.531,304.688,-5.859,-24.902,770.956,390.4039351600852
346,1686879543.06,-80.566,-53.223,-44.434,-134.277,770.96,387.7996446354636
347,1686879543.07,-70.312,-56.152,10.254,-94.727,770.964,384.94715912694625
348,1686879543.07,-0.977,284.668,0.488,36.621,770.979,395.84344354547466
349,1686879543.08,4.395,125.977,-31.25,28.32,770.983,386.2423578379981
350,1686879543.08,-66.895,-418.457,1.465,-91.309,770.986,387.95955295364257
351,1686879543.08,-83.008,-286.133,55.176,-104.004,770.99,391.44235958466095
352,1686879543.09,-24.414,237.793,-2.441,9.277,770.994,384.8878050790805
353,1686879543.09,-1.465,80.078,-47.363,39.551,770.998,394.51857688825254
354,1686879543.1,-52.246,-603.027,-17.578,-71.777,771.002,397.4356449797204
355,1686879543.1,-83.496,-525.879,51.758,-126.953,771.006,397.2270932387596
356,1686879543.1,-29.785,226.562,21.484,-26.855,771.01,400.06444526486496
357,1686879543.11,16.113,187.988,-31.738,46.387,771.014,399.3875074084968
358,1686879543.11,-24.414,-66.406,-24.902,-35.156,771.018,406.9406770961772
359,1686879543.11,-47.363,229.004,2.93,-59.082,771.025,395.5233018090811
360,1686879543.12,-74.219,56.641,5.371,-121.582,771.022,398.2084100109432
361,1686879543.12,0.977,48.828,-33.691,54.199,771.029,400.0978536406258
362,1686879543.12,-19.531,-90.332,-32.715,4.883,771.033,399.98939640294077
363,1686879543.13,-70.312,-14.648,-26.855,-111.328,771.037,409.0676663634589
364,1686879543.13,-65.918,-211.426,-21.484,-82.52,771.041,399.9442569530918
365,1686879543.13,-18.555,-435.547,-41.016,33.203,771.044,404.4949828702065
366,1686879543.14,-15.625,-976.074,-60.547,36.133,771.048,409.29668078484247
367,1686879543.14,-62.012,-718.75,37.598,-91.797,771.052,407.36958348436906
368,1686879543.14,-80.566,20.02,1.465,-130.371,771.056,406.47372266375544
369,1686879543.15,-34.18,-135.742,3.906,-18.066,771.06,410.67001032342125
370,1686879543.15,3.906,-25.879,62.5,30.762,771.064,414.478810616151
371,1686879543.16,-40.527,324.219,-11.23,-86.426,771.068,404.4375935505543
372,1686879543.18,-82.52,124.023,-41.504,-160.645,771.072,423.00245173703405
373,1686879543.18,-48.34,-112.305,1.465,-58.594,771.076,422.01613163429283
374,1686879543.18,-6.836,73.73,21.973,32.227,771.08,412.476451287448
375,1686879543.19,-38.574,246.582,-13.672,-43.945,771.084,433.3114795634655
376,1686879543.19,-88.379,41.504,-45.41,-140.625,771.087,427.82257461243
377,1686879543.2,-77.148,-390.137,-31.738,-78.613,771.091,429.41902141105544
378,1686879543.2,-21.973,-430.176,12.695,33.691,771.095,433.885934889229
379,1686879543.2,-22.461,-72.266,11.23,-0.488,771.099,429.26662191068937
380,1686879543.21,-81.543,59.57,-24.414,-110.352,771.103,434.0722277598305
381,1686879543.21,-90.82,-646.484,-12.207,-97.656,771.107,440.19913490059747
382,1686879543.21,-40.527,-571.289,79.102,8.301,771.111,432.5572424071406
383,1686879543.22,-31.25,290.527,35.156,8.789,771.115,441.7737192063046
384,1686879543.22,-83.008,71.289,-52.246,-103.027,771.116,435.96306200770124
385,1686879543.22,-102.539,-216.309,-40.527,-142.578,771.12,427.39627457972097
386,1686879543.23,-53.711,99.609,4.883,-41.504,771.123,440.32179522847196
387,1686879543.23,-14.16,310.059,-16.113,14.16,771.127,436.22709193396213
388,1686879543.24,-52.734,-231.445,-71.289,-80.566,771.131,435.56300008779243
389,1686879543.24,-96.68,-803.223,-64.941,-157.227,771.135,441.6617877739649
390,1686879543.24,-62.012,-489.746,13.184,-83.984,771.139,449.07029968980055
391,1686879543.25,-10.254,114.258,34.668,14.16,771.143,457.92942317809525
392,1686879543.25,-32.715,-217.773,-69.336,-37.598,771.147,447.25080549685066
393,1686879543.25,-92.773,-999.512,-9.277,-145.996,771.151,447.8211278008106
394,1686879543.26,-81.543,-375.0,85.938,-113.77,771.155,447.77847049401345
395,1686879543.26,-15.137,172.852,-13.672,10.742,771.159,456.4580411547242
396,1686879543.27,-16.602,41.016,-12.207,-3.418,771.163,453.1285415998977
397,1686879543.27,-80.078,10.742,6.348,-135.742,771.167,457.1403530125985
398,1686879543.27,-85.938,154.297,-5.371,-142.09,771.171,452.2713930092858
399,1686879543.28,-32.715,202.637,-25.879,-13.184,771.175,454.36626226101265
400,1686879543.28,-25.391,82.031,-38.574,8.301,771.179,451.00763661522063
401,1686879543.29,-74.707,-212.891,-41.016,-99.121,771.182,454.4568175864228
402,1686879543.29,-97.656,-273.438,-0.977,-144.043,771.186,451.1292428404075
403,1686879543.29,-50.781,45.898,-5.371,-47.852,771.19,450.42524056098307
404,1686879543.3,-15.625,-408.691,12.695,27.344,771.194,458.26310102951066
405,1686879543.3,-45.41,-397.461,75.684,-68.359,771.198,452.1569433927047
406,1686879543.3,-86.914,180.664,-1.953,-161.621,771.202,446.18192929590316
407,1686879543.31,-64.453,-127.441,-40.527,-87.891,771.206,450.71475341869507
408,1686879543.31,-18.066,-236.816,-9.766,10.254,771.22,451.5126163327316
409,1686879543.31,-40.039,174.805,4.395,-40.039,771.224,461.4522134623336
410,1686879543.32,-89.355,272.461,-20.508,-151.855,771.228,448.48166678336435
411,1686879543.32,-79.102,-147.949,-56.641,-123.535,771.231,450.6957327950927
412,1686879543.32,-18.066,-437.012,-37.598,9.766,771.235,454.0298917856734
413,1686879543.33,-14.16,-219.727,3.906,0.0,771.239,443.5477011548028
414,1686879543.33,-71.289,-214.355,-15.625,-119.141,771.243,446.2083451398695
415,1686879543.34,-79.102,-548.34,-58.594,-124.023,771.247,449.34970472856907
416,1686879543.34,-27.832,-997.559,-14.648,-1.465,771.251,452.14334321171157
417,1686879543.34,-2.441,-322.266,100.586,27.344,771.255,449.8021971617923
418,1686879543.35,-49.805,286.621,-2.441,-91.309,771.259,448.12867850067954
419,1686879543.35,-94.727,-89.844,-20.02,-151.367,771.263,444.7982122476192
420,1686879543.36,-51.758,-23.926,35.645,-54.199,771.258,451.0097971104347
421,1686879543.36,0.488,272.949,0.977,30.273,771.262,451.516521325751
422,1686879543.36,-35.645,18.066,-31.25,-51.758,771.266,450.5679364030411
423,1686879543.37,-92.285,-485.84,10.742,-138.184,771.27,447.48804306229306
424,1686879543.37,-66.895,-292.969,42.48,-72.754,771.274,454.82031226430564
425,1686879543.38,-0.977,28.32,-11.23,29.785,771.277,445.4891626149538
426,1686879543.38,-17.09,-200.684,-28.809,-15.137,771.281,439.5219076581022
427,1686879543.38,-77.148,-343.262,18.555,-135.254,771.285,453.4752504952018
428,1686879543.39,-62.988,-70.801,41.016,-109.375,771.289,444.7909904507421
429,1686879543.39,-14.648,311.523,-0.488,12.207,771.293,440.81659171920785
430,1686879543.4,-26.855,187.5,-55.664,4.883,771.297,449.45197123875323
431,1686879543.4,-87.891,-254.395,63.965,-118.652,771.296,445.97336139248904
432,1686879543.4,-83.496,-461.914,-8.301,-108.398,771.301,436.90835391574586
433,1686879543.4,-19.531,328.613,5.371,3.906,771.3,437.6942052326419
434,1686879543.41,8.301,141.602,-28.809,46.387,771.304,438.8340241675927
435,1686879543.41,-38.086,-64.453,-36.621,-60.059,771.308,444.5788335047224
436,1686879543.42,-79.102,-190.43,-34.18,-134.766,771.311,441.9255971017964
437,1686879543.42,-47.363,-281.738,-0.977,-45.41,771.315,440.8820502941907
438,1686879543.42,0.0,-377.441,-29.785,56.641,771.319,434.72324692232553
439,1686879543.43,-30.273,-999.023,-63.965,-8.301,771.323,431.4713063678229
440,1686879543.43,-77.637,-738.281,44.434,-125.0,771.327,427.8840754326796
441,1686879543.43,-54.199,65.918,34.18,-85.938,771.331,437.28075732207117
442,1686879543.44,1.465,71.777,-10.254,27.344,771.335,428.30379085978535
443,1686879543.44,-10.742,97.656,24.902,-9.766,771.339,438.22201028458056
444,1686879543.45,-73.73,267.09,-3.418,-131.348,771.354,430.95681958065296
445,1686879543.45,-75.195,110.352,-41.016,-108.398,771.358,421.8315628869402
446,1686879543.45,-19.531,-81.543,-1.953,11.719,771.362,418.89796649348426
447,1686879543.46,-6.836,129.395,41.504,14.648,771.366,427.02028696753905
448,1686879543.46,-64.941,229.98,-26.855,-106.445,771.37,419.37850224458714
449,1686879543.47,-94.727,-93.262,-56.152,-141.602,771.374,417.5709533248488
450,1686879543.47,-42.48,-642.09,-3.906,-13.672,771.378,429.2511054549578
451,1686879543.47,-6.348,-617.188,66.895,43.457,771.382,416.5085926513015
452,1686879543.48,-42.969,89.844,33.203,-63.965,771.386,415.4576276474228
453,1686879543.48,-83.984,73.73,-42.969,-142.09,771.39,415.43510838805497
454,1686879543.48,-55.664,-222.168,-1.953,-57.129,771.393,410.71741855710303
455,1686879543.49,3.906,91.797,49.316,33.203,771.397,414.8625034448191
456,1686879543.49,-15.137,370.117,-2.441,-36.133,771.4,411.2450135294118
457,1686879543.49,-81.055,-59.57,-70.312,-134.766,771.404,412.7861232543604
458,1686879543.5,-76.172,-490.234,-12.695,-93.75,771.408,411.7335265898218
459,1686879543.5,-17.578,44.434,25.391,20.508,771.412,405.1492922897222
460,1686879543.5,-17.578,107.422,-22.461,10.254,771.416,404.8208495356728
461,1686879543.51,-80.566,-487.793,-63.477,-100.098,771.42,400.1187186125859
462,1686879543.51,-90.82,-918.945,-10.742,-97.656,771.423,408.8460563342039
463,1686879543.52,-30.762,-237.305,119.629,17.09,771.427,411.46980687954215
464,1686879543.52,-5.859,422.852,-1.953,40.527,771.431,405.49384323539573
465,1686879543.52,-53.223,-130.371,-24.902,-66.406,771.435,400.24969110116444
466,1686879543.53,-91.797,-401.855,35.645,-120.117,771.439,398.42648132009595
467,1686879543.53,-45.41,116.211,20.508,-37.598,771.443,401.2841954542812
468,1686879543.57,-4.883,328.125,-39.551,30.762,771.465,390.97205318699315
469,1686879543.57,-46.387,-228.516,-10.742,-49.316,771.469,393.40010849800086
470,1686879543.57,-88.867,-389.648,64.453,-136.23,771.472,392.8256608180446
471,1686879543.58,-55.664,132.812,-1.465,-63.965,771.476,384.16733844767896
472,1686879543.58,-5.371,194.824,-41.992,40.039,771.48,400.2839504990949
473,1686879543.59,-37.109,-230.469,-48.828,-17.09,771.484,387.1381772860382
474,1686879543.59,-86.914,-344.238,-9.766,-135.742,771.488,388.7821040661788
475,1686879543.59,-69.824,71.289,8.301,-111.328,771.492,387.1217829527481
476,1686879543.59,-31.738,-88.379,-42.48,-12.695,771.491,397.2803333894432
477,1686879543.6,-20.996,161.133,-26.855,1.953,771.496,388.2483873890067
478,1686879543.6,-1.953,-209.473,-28.809,36.621,771.494,385.5226391836116
479,1686879543.6,-13.672,-366.699,25.391,3.418,771.5,384.06325786234385
480,1686879543.6,-48.828,121.582,-3.418,-85.449,771.498,389.84496398112003
481,1686879543.6,-61.035,-301.27,55.176,-117.676,771.504,379.5666919179095
482,1686879543.61,-83.496,134.766,10.742,-151.367,771.502,385.95594799527566
483,1686879543.61,-83.008,160.156,-15.137,-141.602,771.508,387.90509283124163
484,1686879543.61,-47.852,-312.5,0.977,-47.852,771.506,388.26926518121934
485,1686879543.61,-15.137,-527.344,-25.391,24.902,771.51,387.64197746200983
486,1686879543.62,-45.898,-302.734,6.836,-61.035,771.514,382.0715808702194
487,1686879543.62,-83.984,-62.988,-1.465,-142.09,771.518,377.7469355253409
488,1686879543.62,-60.059,-301.27,-1.953,-63.965,771.522,382.51806449942006
489,1686879543.63,-4.883,-340.82,47.852,40.039,771.526,383.27795524501886
490,1686879543.63,-18.555,150.391,1.953,-14.648,771.53,374.8448696121475
491,1686879543.64,-72.754,169.434,-37.109,-130.859,771.534,379.49858128800344
492,1686879543.64,-74.707,-448.242,-55.664,-99.609,771.547,378.00370870446443
493,1686879543.65,-20.02,-1000.0,21.973,36.133,771.551,373.43836053142826
494,1686879543.65,1.465,-343.75,80.078,33.691,771.555,369.5813925149161
495,1686879543.66,-61.523,-49.316,-30.762,-98.633,771.558,373.1460467978859
496,1686879543.66,-86.426,-492.188,-18.066,-119.629,771.562,374.6843527881266
497,1686879543.66,-22.949,-473.633,26.367,13.184,771.566,378.7804302058249
498,1686879543.67,-6.836,-20.02,21.484,49.316,771.57,378.7230576816967
499,1686879543.67,-60.547,190.43,-21.973,-67.871,771.574,372.7802311488406
500,1686879543.68,-95.215,-489.746,-1.953,-125.488,771.578,366.9626017816592
501,1686879543.68,-57.617,-366.211,94.238,-44.434,771.582,375.54807441848754
502,1686879543.68,-26.855,380.859,6.836,13.672,771.586,363.356403254745
503,1686879543.68,-108.887,-160.645,-25.879,-145.02,771.581,361.5680911992957
504,1686879543.69,-90.332,124.512,3.906,-96.191,771.585,373.3270789041453
505,1686879543.69,-64.941,54.199,-66.406,-61.035,771.59,366.97523478520964
506,1686879543.69,-34.18,372.07,0.977,22.949,771.589,368.3135638123986
507,1686879543.7,-41.016,186.523,-31.25,-5.371,771.593,360.1999262396937
508,1686879543.7,-99.121,-307.617,-32.715,-121.582,771.597,362.5195575275291
509,1686879543.7,-101.562,-369.629,-8.301,-105.957,771.601,371.9075009546965
510,1686879543.71,-39.551,-143.066,-0.977,11.719,771.605,361.960280318531
511,1686879543.71,-22.461,-309.082,-34.668,33.203,771.609,359.13684636224957
512,1686879543.72,-74.707,-1000.0,-61.035,-65.43,771.613,360.6969710939166
513,1686879543.72,-96.68,-709.961,40.527,-110.84,771.616,363.01207226437486
514,1686879543.72,-40.527,184.082,24.902,-15.625,771.62,359.8464775949497
515,1686879543.73,-9.277,24.414,9.766,37.598,771.624,351.39089258285424
516,1686879543.73,-57.617,-37.598,54.199,-64.453,771.629,357.0504041093219
517,1686879543.74,-99.609,298.34,-5.859,-139.16,771.633,348.4505298714265
518,1686879543.74,-59.082,226.074,-23.438,-54.199,771.637,351.6480598933907
519,1686879543.74,-6.348,94.727,0.488,42.48,771.641,349.6052694951261
520,1686879543.75,-33.691,185.547,9.277,-20.996,771.645,342.84021397668977
521,1686879543.75,-88.379,-26.367,-31.25,-117.676,771.649,331.21286297953367
522,1686879543.75,-72.266,-214.355,-23.926,-84.961,771.652,339.4619323281821
523,1686879543.76,-19.043,-541.504,1.465,26.855,771.656,335.97753778763627
524,1686879543.76,-22.461,-587.891,69.336,0.488,771.66,324.1016094480316
525,1686879543.77,-73.73,70.801,36.621,-130.371,771.664,329.57336455295354
526,1686879543.77,-86.426,106.445,-48.828,-131.348,771.668,323.16369635087176
527,1686879543.77,-35.156,-341.309,5.859,-3.418,771.672,320.57740957510737
528,1686879543.77,-18.555,-46.875,52.734,12.207,771.671,325.0329837334748
529,1686879543.78,-74.219,363.77,-13.672,-106.445,771.675,324.3473258893456
530,1686879543.78,-107.91,10.742,-41.504,-141.113,771.678,321.19656310894425
531,1686879543.79,-58.105,-125.0,-29.785,-31.738,771.682,318.56778520108907
532,1686879543.79,-15.625,-28.32,-26.367,31.25,771.686,320.42109773775474
533,1686879543.79,-50.781,-154.297,-7.324,-61.035,771.69,298.98684870445845
534,1686879543.8,-91.309,-420.898,-31.25,-138.672,771.694,301.65162936061387
535,1686879543.8,-65.43,-1000.0,-44.434,-55.664,771.698,302.313585758383
536,1686879543.8,-9.766,-562.988,71.777,35.645,771.702,309.5688763029698
537,1686879543.81,-16.113,336.914,13.672,-30.762,771.706,302.9263413126172
538,1686879543.81,-71.289,-95.215,-27.832,-141.113,771.71,312.9622059054011
539,1686879543.82,-69.824,-279.785,40.039,-105.957,771.714,306.48378572014207
540,1686879543.82,-5.371,233.398,16.113,10.254,771.729,304.7056414212551
541,1686879543.82,0.0,414.551,-39.062,0.0,771.733,302.77601153813936
542,1686879543.83,-75.195,-303.223,-25.879,-115.723,771.737,293.347469305051
543,1686879543.83,-92.773,-454.102,63.965,-127.93,771.741,301.0793858259422
544,1686879543.84,-34.18,248.047,-0.977,-17.578,771.745,300.2318008019178
545,1686879543.84,-12.695,122.559,-59.082,11.719,771.749,294.4960031187474
546,1686879543.84,-64.453,-582.031,-8.789,-89.355,771.753,290.58833444851405
547,1686879543.85,-97.656,-563.965,58.105,-144.043,771.757,292.6064861694303
548,1686879543.85,-48.828,192.383,20.508,-49.805,771.761,293.58485643381556
549,1686879543.86,-12.207,223.633,-37.598,23.438,771.765,293.7995706602965
550,1686879543.86,-47.852,-25.391,-27.344,-60.547,771.768,298.07619795895585
551,1686879543.86,-94.727,42.969,-6.836,-150.879,771.772,290.642953336014
552,1686879543.86,-69.824,188.965,-13.672,-83.008,771.774,299.3280024758066
553,1686879543.87,-16.113,-91.309,-39.551,32.715,771.778,292.5943627112141
554,1686879543.87,-33.203,-377.441,-10.254,-18.555,771.782,284.3276403185669
555,1686879543.88,-82.52,-55.176,9.766,-146.973,771.786,293.36838126007734
556,1686879543.88,-79.59,-61.035,-19.531,-122.559,771.79,297.6874116910931
557,1686879543.88,-23.438,-451.172,-49.316,11.23,771.794,299.9894618950195
558,1686879543.89,-26.855,-896.484,-20.996,16.113,771.798,311.8791442182352
559,1686879543.89,-84.473,-439.453,68.848,-117.188,771.802,299.30829600569245
560,1686879543.9,-94.727,198.242,-2.441,-139.16,771.806,309.9993668912438
561,1686879543.9,-46.387,-229.492,-17.578,-16.113,771.81,293.3043354229947
562,1686879543.9,-18.066,-343.75,52.246,31.738,771.813,299.32151571396406
563,1686879543.91,-50.781,192.383,14.648,-74.219,771.817,302.71884413459753
564,1686879543.94,-91.797,148.926,-37.598,-137.207,771.837,309.85578809791656
565,1686879543.94,-64.941,-54.688,-4.883,-45.41,771.841,313.88106616603886
566,1686879543.95,-16.602,100.098,20.996,36.133,771.845,315.48227230204674
567,1686879543.95,-48.828,184.57,-31.738,-37.598,771.849,315.29911882731255
568,1686879543.96,-99.121,-125.977,-62.5,-142.09,771.853,306.88001529296315
569,1686879543.96,-83.008,-742.676,-37.109,-79.102,771.857,322.445529948018
570,1686879543.96,-26.855,-663.086,62.012,38.086,771.861,325.69478666553294
571,1686879543.97,-28.32,192.383,38.086,-13.672,771.864,311.55534523826947
572,1686879543.97,-52.734,7.324,-35.645,-93.75,771.866,303.9367750612011
573,1686879543.97,-88.379,46.387,-58.105,-133.789,771.868,326.82050566478085
574,1686879543.97,-78.613,-284.18,-31.738,-126.953,771.87,316.21159294776334
575,1686879543.98,-88.379,-303.711,17.578,-123.535,771.872,320.55088473213914
576,1686879543.98,-22.949,63.965,5.859,-14.16,771.874,314.20725357003647
577,1686879543.98,-19.043,25.879,42.969,-2.441,771.876,317.23840469763206
578,1686879543.98,0.977,299.316,-5.859,35.645,771.878,328.94198346262806
579,1686879543.98,4.395,331.543,-4.883,21.484,771.88,317.3751670494181
580,1686879543.98,-52.734,-243.652,-76.66,-57.617,771.882,325.2346888802486
581,1686879543.99,-96.68,-849.121,-53.223,-133.789,771.885,329.4530585658327
582,1686879543.99,-52.246,-497.559,33.203,-51.758,771.889,327.8957306569463
583,1686879544.0,2.93,-201.172,-7.324,39.062,771.893,331.3018717548292
584,1686879544.0,-29.785,-488.77,-5.859,-30.762,771.897,324.04492666675117
585,1686879544.0,-77.148,-450.684,41.504,-127.441,771.901,327.5892838288877
586,1686879544.01,-56.641,-41.016,9.766,-74.219,771.905,327.7325118151969
587,1686879544.01,-5.371,193.848,-15.137,41.992,771.909,324.85843091036617
588,1686879544.02,-17.578,-318.848,-68.359,11.23,771.913,328.82713452175034
589,1686879544.02,-84.961,-981.445,8.789,-111.328,771.917,323.24105038548487
590,1686879544.02,-91.797,-289.062,80.566,-115.723,771.921,336.2247562817538
591,1686879544.03,-27.344,158.203,-15.137,11.23,771.925,340.01299124868007
592,1686879544.03,-5.371,-46.387,-28.32,27.344,771.928,341.6164713418328
593,1686879544.04,-62.5,-303.223,-27.344,-97.168,771.932,336.7690351184933
594,1686879544.04,-97.656,-224.609,3.906,-142.09,771.936,341.7948218151019
595,1686879544.04,-50.781,102.051,-5.371,-31.738,771.94,345.6863722307337
596,1686879544.05,-7.324,-474.609,-14.16,64.941,771.944,332.59439345625157
597,1686879544.05,-39.062,-596.191,54.199,-25.391,771.948,337.43954132288724
598,1686879544.06,-83.496,142.09,20.508,-129.395,771.952,340.0482227330163
599,1686879544.06,-52.246,38.574,-52.246,-48.828,771.956,342.39241355997
600,1686879544.06,0.488,-289.062,-19.531,53.223,771.956,338.67346242076314
601,1686879544.06,-14.648,11.23,26.855,-7.812,771.96,346.4974526270022
602,1686879544.07,-66.895,202.637,-8.789,-109.863,771.964,339.3542050805592
603,1686879544.07,-64.941,-74.707,-24.902,-75.195,771.968,344.1424189505691
604,1686879544.08,-10.254,-326.66,-22.461,43.945,771.971,341.7759238698088
605,1686879544.08,-2.441,-269.043,-4.395,32.715,771.975,354.0379698717472
606,1686879544.08,-60.059,-287.598,2.93,-93.75,771.979,346.0904854215069
607,1686879544.09,-76.172,-535.156,-48.34,-101.562,771.983,349.8706265789506
608,1686879544.09,-28.32,-988.77,-2.441,22.461,771.987,344.0618089386258
609,1686879544.1,-10.742,-339.355,117.676,43.945,771.991,347.79115232294396
610,1686879544.1,-46.875,223.145,-12.695,-74.707,771.995,343.344555604855
611,1686879544.1,-77.637,-291.504,-46.875,-123.535,771.999,349.62344755583695
612,1686879544.1,-40.039,-225.098,32.227,-22.461,772.003,352.19127543866864
613,1686879544.11,10.254,286.621,17.578,50.781,772.007,350.8774711843113
614,1686879544.11,-25.391,308.105,-51.27,-28.32,772.011,354.0856600760287
615,1686879544.12,-86.914,-330.078,-20.508,-126.953,772.014,346.70242748782033
616,1686879544.12,-60.547,-347.168,49.316,-69.336,772.018,352.6454943744103
617,1686879544.12,-0.488,-34.18,-2.93,48.828,772.022,339.6110138952496
618,1686879544.13,-16.602,-137.207,-32.227,0.0,772.026,352.88209029801897
619,1686879544.13,-74.707,-586.914,-5.371,-116.211,772.03,348.88875668947287
620,1686879544.14,-60.547,-536.621,71.289,-90.82,772.034,358.92663640288407
621,1686879544.14,4.395,234.863,34.18,18.555,772.038,359.4304443680447
622,1686879544.14,-0.488,183.594,-31.25,15.625,772.042,350.03590995597756
623,1686879544.15,-62.988,-109.863,-20.02,-101.562,772.046,355.19301185765835
624,1686879544.15,-79.102,64.453,8.301,-122.07,772.049,358.81302669482136
625,1686879544.15,-22.461,273.438,0.0,-7.324,772.053,350.300602965456
626,1686879544.16,12.207,-66.895,-48.828,47.363,772.057,369.9992876156504
627,1686879544.16,-33.203,-427.246,-44.922,-55.176,772.061,359.32319177071264
628,1686879544.17,-71.289,-324.707,-14.16,-135.254,772.065,353.70243637420174
629,1686879544.17,-32.227,-277.344,-9.766,-42.969,772.069,349.43175291385927
630,1686879544.17,6.348,-388.672,-31.738,53.223,772.073,352.20729170896135
631,1686879544.18,-29.785,-952.148,-27.344,-12.695,772.077,354.8181835532413
632,1686879544.18,-61.523,-514.648,78.613,-121.094,772.081,360.75314284941396
633,1686879544.18,-35.156,207.031,4.883,-74.219,772.085,352.3851848236609
634,1686879544.19,5.371,41.504,-13.184,32.715,772.088,357.4816309345845
635,1686879544.19,-8.789,41.992,26.855,-6.348,772.092,363.91455776797875
636,1686879544.2,-62.012,216.309,-8.789,-121.582,772.093,351.7356738412034
637,1686879544.2,-60.059,151.367,-24.414,-99.121,772.097,358.856062521678
638,1686879544.2,-1.465,30.273,8.301,25.879,772.1,359.3018752530183
639,1686879544.21,-1.953,147.461,10.742,22.461,772.104,370.296048267619
640,1686879544.21,-56.641,53.223,-39.551,-90.82,772.108,356.5737463558889
641,1686879544.22,-72.754,-187.988,-18.555,-103.027,772.112,362.92931977492543
642,1686879544.22,-23.926,-697.754,-35.156,22.949,772.116,359.107790048369
643,1686879544.22,5.859,-670.41,45.41,73.73,772.12,354.77885500445353
644,1686879544.23,-30.273,159.668,45.41,-41.016,772.124,364.58368816353016
645,1686879544.23,-74.219,3.418,-52.734,-110.352,772.128,368.87923175733766
646,1686879544.24,-53.223,-168.457,1.465,-25.391,772.132,375.39876742607083
647,1686879544.24,-18.066,319.336,-18.066,7.324,772.15,365.93803781833554
648,1686879544.24,-1.465,183.594,18.066,61.523,772.136,366.2803995041513
649,1686879544.24,-59.082,-95.215,-44.922,-85.938,772.154,362.64210819028136
650,1686879544.25,-43.457,-319.336,-11.23,-53.711,772.158,365.69944463176205
651,1686879544.25,11.719,76.172,2.93,49.805,772.162,368.9756303706772
652,1686879544.26,5.371,-0.977,-26.855,38.574,772.166,365.63052760740686
653,1686879544.26,-58.594,-506.836,-83.984,-71.777,772.17,367.109103338552
654,1686879544.26,-70.312,-978.516,-57.617,-71.289,772.174,360.9570688309789
655,1686879544.27,-11.719,-683.105,89.355,42.48,772.177,381.65442645427646
656,1686879544.27,11.719,94.727,25.391,60.547,772.181,373.636669500257
657,1686879544.27,-40.039,-215.332,-25.391,-37.598,772.185,379.3438898692257
658,1686879544.28,-75.684,-483.398,44.922,-84.473,772.189,383.1233111180326
659,1686879544.28,-22.949,126.465,23.926,5.371,772.193,377.5697209697146
660,1686879544.32,13.672,245.117,-19.531,68.359,772.211,371.40346013102044
661,1686879544.32,-29.297,-8.301,-15.137,-27.832,772.215,389.974421089109
662,1686879544.32,-74.707,-80.566,9.766,-115.723,772.219,376.8718155658132
663,1686879544.33,-46.387,162.598,0.0,-32.715,772.223,390.97946301619197
664,1686879544.33,11.719,163.086,-25.879,80.566,772.226,375.18525009544067
665,1686879544.34,-8.301,-269.531,-33.691,32.227,772.23,382.63380496680634
666,1686879544.34,-65.43,-480.469,5.371,-76.172,772.234,368.79817979463627
667,1686879544.34,-51.758,-72.754,27.344,-48.34,772.238,385.0328836214247
668,1686879544.34,7.324,-28.32,-40.039,45.41,772.24,384.52392109999073
669,1686879544.35,13.672,113.281,-23.926,63.965,772.242,384.79682395053294
670,1686879544.35,24.414,-355.469,-22.461,83.496,772.244,385.84413172167774
671,1686879544.35,13.672,-479.492,0.488,52.734,772.246,385.0597704337943
672,1686879544.35,-29.785,-108.887,23.438,-32.715,772.248,391.2882708970289
673,1686879544.35,-42.48,-626.465,45.41,-73.73,772.25,383.7973022455548
674,1686879544.36,-56.152,99.121,-12.207,-87.891,772.252,385.75832841357527
675,1686879544.36,-47.363,-41.504,19.531,-87.402,772.254,386.29391124375223
676,1686879544.36,-11.719,-348.145,-69.336,12.207,772.256,394.596272980476
677,1686879544.36,26.855,-735.352,-35.156,85.938,772.26,371.9400101528124
678,1686879544.37,6.836,-388.672,44.434,0.0,772.264,380.6343850047469
679,1686879544.37,-38.086,-40.527,-14.648,-90.82,772.268,384.56352797262684
680,1686879544.38,-15.137,-306.152,-9.277,-20.996,772.272,385.30739477029005
681,1686879544.38,43.945,-317.383,50.293,84.961,772.276,378.16372646618277
682,1686879544.38,31.25,177.246,3.418,34.668,772.28,394.81665529552606
683,1686879544.39,-22.461,125.977,-36.621,-76.172,772.283,385.08494475325745
684,1686879544.39,-25.879,-561.035,-71.289,-37.109,772.288,382.99167955368034
685,1686879544.4,28.32,-862.305,40.527,86.914,772.292,382.5441290908294
686,1686879544.4,40.527,-75.195,75.684,73.242,772.296,384.86267517965337
687,1686879544.4,-14.16,148.438,-49.316,-45.41,772.3,380.5857498314893
688,1686879544.41,-29.297,-244.629,-40.039,-67.383,772.304,380.65777081781505
689,1686879544.41,15.625,-358.398,-12.695,48.34,772.308,380.9469696867991
690,1686879544.41,40.039,-116.699,11.23,95.703,772.312,391.7561935355637
691,1686879544.42,3.418,51.27,-28.809,-14.648,772.315,377.6936685324065
692,1686879544.42,-31.738,-531.738,-23.438,-68.848,772.319,384.1200827603762
693,1686879544.43,4.395,-479.004,69.824,25.879,772.323,387.73318779427115
694,1686879544.43,43.945,261.23,20.02,101.074,772.327,389.6476946003636
695,1686879544.43,9.277,73.73,-47.363,27.344,772.331,385.9987797599258
696,1686879544.43,-32.227,-217.285,-33.691,-62.5,772.331,389.14817973909885
697,1686879544.44,-9.277,39.062,12.207,-12.695,772.335,389.1350345326458
698,1686879544.44,44.922,261.23,6.348,89.355,772.339,386.52610541644765
699,1686879544.45,33.691,-166.504,-59.57,57.617,772.343,387.690055302616
700,1686879544.45,-19.531,-738.77,-58.105,-55.176,772.347,388.12305135929915
701,1686879544.45,-9.277,-528.32,-1.465,-34.18,772.351,383.55542381430075
702,1686879544.46,46.875,-200.195,7.324,83.984,772.355,385.188691288095
703,1686879544.46,48.34,-378.906,-48.828,95.703,772.359,387.7587066137906
704,1686879544.46,-10.254,-972.656,-43.945,-17.578,772.362,386.2354469268762
705,1686879544.47,-16.113,-497.07,77.148,-49.805,772.366,386.7661741451832
706,1686879544.47,44.922,240.234,10.742,69.824,772.37,386.37327537394714
707,1686879544.48,66.895,101.562,-25.879,124.512,772.374,379.14479689606486
708,1686879544.48,20.996,18.555,-0.488,22.949,772.378,393.9153273321961
709,1686879544.48,-20.996,163.086,-12.695,-60.059,772.382,390.31950268586934
710,1686879544.49,11.23,153.809,-31.738,20.996,772.386,383.78868360785015
711,1686879544.49,59.57,65.43,-4.883,115.723,772.39,381.51442825509764
712,1686879544.5,34.18,25.391,-3.906,47.852,772.394,374.60216631993353
713,1686879544.5,-18.555,-268.066,-46.875,-48.828,772.397,387.89678486336885
714,1686879544.5,-0.977,-300.781,-18.066,-3.418,772.401,377.42420101652687
715,1686879544.51,54.688,-684.57,-25.879,112.793,772.405,391.1578144743849
716,1686879544.51,53.223,-703.613,20.996,88.379,772.409,381.54242282160106
717,1686879544.52,3.906,87.891,29.785,-39.062,772.413,385.82788962045805
718,1686879544.52,-6.348,-23.438,-47.363,-30.273,772.417,386.43333808744603
719,1686879544.52,49.805,-123.535,-20.996,87.891,772.421,387.49310030651674
720,1686879544.52,70.312,226.562,8.789,110.352,772.421,384.15968235968865
721,1686879544.53,18.555,317.871,-20.02,4.395,772.424,380.8046735627871
722,1686879544.53,-11.23,-94.727,-34.668,-41.016,772.428,385.5974642376125
723,1686879544.54,28.809,-241.699,-20.508,59.082,772.432,385.68488344930404
724,1686879544.54,67.383,-78.125,-20.02,127.441,772.436,391.48624282334805
725,1686879544.54,35.645,-240.723,9.766,30.273,772.44,379.6995454020495
726,1686879544.55,-15.625,-555.664,-23.926,-53.223,772.444,387.3174688838289
727,1686879544.55,8.789,-999.023,-32.715,33.691,772.448,392.94729888098993
728,1686879544.56,66.895,-634.277,85.449,133.789,772.452,379.8626367585523
729,1686879544.56,54.199,131.348,15.137,69.336,772.456,384.5826535238819
730,1686879544.56,4.395,-252.441,-36.133,-39.551,772.46,383.5788069267835
731,1686879544.57,16.113,-425.293,32.227,-3.906,772.464,387.4891745177821
732,1686879544.6,74.219,251.953,28.32,114.746,772.498,375.5064225331239
733,1686879544.6,83.496,287.109,-24.414,112.305,772.502,385.58368185260827
734,1686879544.61,19.043,-65.43,-32.227,-11.23,772.505,388.49962695538676
735,1686879544.61,-5.371,-59.082,22.461,-25.879,772.509,374.6758016204188
736,1686879544.61,32.227,62.012,18.066,13.672,772.525,380.09756838915484
737,1686879544.62,61.523,180.176,-9.277,91.309,772.513,380.10408608292596
738,1686879544.62,68.359,-9.766,-57.617,110.352,772.529,379.75503027285845
739,1686879544.62,83.984,-28.809,-58.594,114.746,772.517,385.14011077489994
740,1686879544.62,54.688,-422.363,-36.621,66.895,772.533,377.5158436026518
741,1686879544.62,33.203,-651.367,-11.719,16.602,772.521,388.9667599129541
742,1686879544.63,4.395,-191.895,8.789,-45.898,772.537,381.92378322772703
743,1686879544.63,9.766,-570.801,61.035,-32.715,772.525,382.2059395803264
744,1686879544.63,12.207,-161.621,-21.973,-11.23,772.54,382.76880959276923
745,1686879544.63,42.48,172.363,19.531,49.316,772.529,381.13455559023924
746,1686879544.63,75.684,-522.949,-38.086,119.629,772.544,382.7388305754763
747,1686879544.64,65.43,125.977,-35.156,100.098,772.533,377.1825457952185
748,1686879544.64,81.055,-541.992,-15.625,115.234,772.548,392.7007601775612
749,1686879544.64,34.18,-285.645,-39.551,14.16,772.537,376.2890270969075
750,1686879544.64,34.668,-88.867,21.484,-1.953,772.552,383.0379584107442
751,1686879544.64,7.812,-306.641,1.465,-48.828,772.541,383.7930645830441
752,1686879544.64,21.484,98.145,-41.016,-22.949,772.556,376.9431403402306
753,1686879544.65,76.66,-273.438,7.324,94.238,772.56,376.54557619517135
754,1686879544.65,105.469,-287.109,70.312,139.648,772.564,384.80839881249784
755,1686879544.66,56.152,89.355,-12.695,25.879,772.568,371.7665189401479
756,1686879544.68,22.949,41.992,-32.715,-37.598,772.572,381.42491026590056
757,1686879544.68,66.895,-465.82,-47.363,70.312,772.576,376.911395775586
758,1686879544.68,104.98,-1000.0,-20.02,163.574,772.58,377.7726338063086
759,1686879544.69,81.543,-557.129,61.523,75.684,772.584,365.6950916677881
760,1686879544.69,34.18,41.992,-8.301,-22.461,772.588,374.8210690571611
761,1686879544.7,53.223,-416.016,-33.691,44.434,772.592,381.3893088642065
762,1686879544.7,112.793,-355.469,28.809,158.203,772.595,378.55371125547117
763,1686879544.7,102.539,205.078,-1.953,113.77,772.599,385.7059136013124
764,1686879544.71,47.852,78.125,-61.035,-0.977,772.603,369.4131088519767
765,1686879544.71,40.039,-537.598,12.695,15.625,772.607,375.87293977924736
766,1686879544.71,102.539,-328.613,85.449,128.418,772.611,376.94351479711423
767,1686879544.72,111.816,273.438,4.395,136.719,772.615,377.4481846452655
768,1686879544.72,52.734,-1.465,-49.805,20.02,772.618,373.44994830100086
769,1686879544.72,41.992,-300.293,-26.855,-5.859,772.622,373.43228208320005
770,1686879544.73,93.75,26.855,0.488,119.141,772.626,366.2004504288605
771,1686879544.73,125.0,226.562,-17.09,179.199,772.63,372.38308059235914
772,1686879544.74,87.891,-305.176,-82.031,85.449,772.634,370.76552150254435
773,1686879544.74,45.898,-842.773,-57.129,5.859,772.638,378.07804591711675
774,1686879544.74,79.102,-556.641,23.926,74.219,772.642,373.13588432797195
775,1686879544.75,133.301,-217.285,-4.883,170.898,772.645,370.6554850733342
776,1686879544.75,113.281,-527.832,-60.059,115.723,772.649,370.12147753202817
777,1686879544.75,50.781,-945.801,0.488,19.531,772.653,375.69234863686614
778,1686879544.76,68.359,-276.367,96.191,62.988,772.657,372.820289735495
779,1686879544.76,135.742,258.301,-14.16,171.875,772.661,379.7808988460923
780,1686879544.77,131.836,-19.531,-39.551,145.02,772.663,375.28642453518074
781,1686879544.77,74.707,-101.074,-0.977,29.297,772.666,369.04142119543206
782,1686879544.77,66.406,144.531,-10.742,42.48,772.67,370.34042993234317
783,1686879544.78,112.793,167.48,-36.621,153.32,772.674,362.5635274041513
784,1686879544.78,123.535,-28.809,-48.34,166.016,772.678,369.706663968667
785,1686879544.79,76.66,-322.266,-20.508,62.012,772.682,365.96635469066337
786,1686879544.79,44.922,-434.082,3.906,24.414,772.686,377.8036874972253
787,1686879544.79,89.844,-173.828,-6.348,133.789,772.69,372.2221869802044
788,1686879544.8,133.301,-604.492,-43.457,211.426,772.694,374.1286741690101
789,1686879544.8,99.121,-728.027,20.508,123.535,772.698,372.5015413469026
790,1686879544.8,65.43,44.922,36.621,41.992,772.702,363.16074131033645
791,1686879544.81,94.727,-12.207,-31.738,125.977,772.706,374.41114347652245
792,1686879544.81,139.648,-91.309,-18.066,219.238,772.706,368.21981412175023
793,1686879544.81,121.094,110.84,0.977,162.109,772.71,368.61087265419707
794,1686879544.82,67.871,158.691,-17.09,56.641,772.713,370.54104041622264
795,1686879544.82,68.848,-140.625,-43.945,84.961,772.717,378.0598619713622
796,1686879544.82,124.023,-407.227,-30.762,198.242,772.721,365.4776222266086
797,1686879544.83,131.348,-314.941,-23.926,185.059,772.725,367.7643434742584
798,1686879544.83,74.707,-344.238,-10.254,54.688,772.729,366.30027837996244
799,1686879544.84,49.316,-585.449,-43.945,43.457,772.733,363.05958805916856
800,1686879544.84,101.562,-1000.0,-37.109,180.176,772.737,381.0324125839371
801,1686879544.84,129.883,-624.512,77.148,209.961,772.741,359.5385494506581
802,1686879544.85,80.078,121.094,1.953,92.773,772.745,361.965806885701
803,1686879544.85,42.969,-322.754,-33.203,28.32,772.749,366.32866686524665
804,1686879544.86,83.008,-425.781,67.871,121.582,772.753,363.25893688447167
805,1686879544.86,130.859,268.066,24.902,197.266,772.757,362.53908445202677
806,1686879544.86,94.238,202.148,-50.781,105.957,772.761,357.3044389267345
807,1686879544.87,44.434,-123.047,-14.648,17.09,772.765,364.1745948905786
808,1686879544.87,78.125,-80.078,-6.348,96.68,772.769,352.9119964368454
809,1686879544.88,130.859,-95.703,-41.992,207.52,772.773,366.6934212362318
810,1686879544.88,114.746,-198.73,-23.438,159.18,772.777,362.0501078037436
811,1686879544.88,61.035,-618.164,-19.043,40.039,772.781,369.192186119356
812,1686879544.89,65.43,-562.988,54.199,58.594,772.784,362.09696971326053
813,1686879544.89,129.395,189.453,17.09,179.688,772.788,356.72909532204324
814,1686879544.9,133.789,106.445,-51.758,178.711,772.792,367.0384747580946
815,1686879544.9,79.59,-337.402,-50.293,61.035,772.796,360.9058258987649
816,1686879544.9,61.523,-292.48,-3.418,39.062,772.797,364.5599557033791
817,1686879544.9,115.234,134.766,13.672,161.621,772.801,371.0041784352373
818,1686879544.91,141.113,-6.836,-53.223,202.637,772.805,363.46888698773597
819,1686879544.91,92.285,-466.797,-52.734,91.797,772.809,374.2196667531393
820,1686879544.92,72.266,-365.723,-5.371,37.598,772.813,366.6069828885667
821,1686879544.92,119.141,-281.738,-2.93,136.719,772.817,367.17599121465815
822,1686879544.92,159.18,-453.613,-51.27,215.332,772.821,371.57187223690727
823,1686879544.93,125.0,-971.191,-43.457,140.137,772.825,363.5324851139193
824,1686879544.93,71.289,-620.605,80.566,44.434,772.829,370.54166564265864
825,1686879544.93,90.332,68.848,-7.324,86.426,772.832,370.66238594724166
826,1686879544.94,138.672,-108.887,-38.574,185.059,772.836,361.69585306632126
827,1686879544.94,117.676,-178.223,5.859,146.484,772.84,364.98492261140154
828,1686879544.96,66.406,120.605,-21.973,26.855,772.856,375.21528829841
829,1686879544.96,66.406,58.105,-44.922,44.434,772.86,357.5855241797452
830,1686879544.97,114.746,-305.176,-16.602,160.645,772.863,366.0910417280293
831,1686879544.97,134.766,-145.508,32.227,177.246,772.867,359.93355645382604
832,1686879544.98,77.148,95.215,-41.016,62.988,772.871,362.50463706079887
833,1686879544.98,45.898,-221.191,-64.453,18.555,772.875,363.01800036337977
834,1686879544.98,94.238,-772.461,-13.184,131.836,772.879,359.81858504161295
835,1686879544.99,127.93,-667.969,24.902,179.199,772.883,366.3989880802004
836,1686879544.99,82.52,255.859,-41.504,94.238,772.9,364.5526569676341
837,1686879544.99,94.238,90.82,-8.301,65.43,772.887,354.32358117293865
838,1686879544.99,30.762,-98.145,-75.195,-9.277,772.904,371.1981905599089
839,1686879544.99,52.734,-8.789,-59.57,-4.395,772.891,366.4576846804134
840,1686879545.0,54.199,-301.758,-37.598,46.387,772.908,364.1324702493068
841,1686879545.0,82.031,-182.129,-21.484,78.125,772.895,364.4155231011831
842,1686879545.0,90.332,62.012,-19.531,140.137,772.912,366.6216553219687
843,1686879545.0,117.676,87.891,-8.789,161.621,772.899,365.29529089152976
844,1686879545.0,60.547,-17.09,-62.5,94.238,772.916,360.03073980106336
845,1686879545.01,2.93,-547.363,-105.469,-6.836,772.92,358.66499367333137
846,1686879545.01,-10.742,-958.496,-52.734,-1.465,772.924,358.1758700793795
847,1686879545.02,52.246,-614.746,41.016,100.098,772.928,367.1041842663696
848,1686879545.02,74.219,50.781,-32.227,114.746,772.932,359.51846471535123
849,1686879545.02,15.625,-372.07,-100.586,9.766,772.936,369.7656850996501
850,1686879545.03,-16.602,-807.129,-15.625,-28.809,772.939,366.56016778400397
851,1686879545.03,38.086,-50.293,13.184,73.242,772.943,361.52522701019234
852,1686879545.05,79.102,207.031,-65.918,123.047,772.96,353.6585461964024
853,1686879545.05,35.645,-135.742,-66.895,24.414,772.964,361.44935998228283
854,1686879545.06,-11.23,-210.938,-31.738,-54.688,772.968,366.81264830071314
855,1686879545.06,13.184,62.988,-36.133,15.137,772.972,362.14936621713827
856,1686879545.06,52.734,149.414,-83.496,101.562,772.976,373.128045685667
857,1686879545.07,19.043,-304.199,-79.59,50.293,772.979,370.87814394591913
858,1686879545.07,-25.879,-440.43,-37.109,-54.199,772.983,362.7745933454843
859,1686879545.08,-14.648,-199.707,-52.734,-37.598,772.987,365.38449382523766
860,1686879545.08,31.25,-203.125,-55.176,70.801,772.991,362.01113246328487
861,1686879545.08,28.809,-669.434,-53.223,66.895,772.995,362.73443120948355
862,1686879545.09,-29.297,-679.199,-19.531,-60.547,772.999,369.23757053766826
863,1686879545.09,-45.898,13.184,-47.852,-80.078,773.003,370.3021487981697
864,1686879545.09,4.883,-34.668,-75.195,53.223,773.004,366.08796178153733
865,1686879545.1,25.879,-88.867,-72.266,83.984,773.008,357.35636824326053
866,1686879545.1,-25.391,76.66,-64.941,-29.785,773.012,358.8930032277458
867,1686879545.11,-64.941,134.766,-60.547,-85.449,773.015,365.66646091928556
868,1686879545.11,-27.344,-323.242,-100.586,8.789,773.019,368.0260909539835
869,1686879545.11,11.719,-738.77,-83.008,86.426,773.023,364.45270859470384
870,1686879545.12,-33.691,-457.52,-41.016,-3.906,773.027,371.91148379246835
871,1686879545.12,-82.031,-176.758,-63.477,-104.98,773.031,369.6106978711494
872,1686879545.12,-56.152,-422.363,-71.777,-42.969,773.035,362.41465465905713
873,1686879545.13,-9.277,-703.613,-52.734,47.852,773.039,364.9511543640843
874,1686879545.13,-20.02,-262.207,-34.18,-11.719,773.043,378.28639468052336
875,1686879545.14,-71.289,26.855,-61.523,-119.141,773.047,378.0899499780606
876,1686879545.14,-75.195,-473.145,-91.797,-81.543,773.037,368.10006290778864
877,1686879545.14,-20.02,-767.578,-35.645,36.133,773.041,373.2986143961045
878,1686879545.15,-3.906,5.859,-14.16,24.902,773.045,363.20901271992346
879,1686879545.15,-61.035,113.77,-76.172,-90.82,773.049,370.07893007251795
880,1686879545.16,-93.75,-236.328,-83.984,-114.746,773.053,353.8613296242604
881,1686879545.16,-52.734,-376.465,-49.316,-2.93,773.057,373.5067195648648
882,1686879545.16,-26.855,-245.117,-23.438,34.668,773.061,362.6695853856391
883,1686879545.17,-73.242,-103.516,-66.406,-75.684,773.065,360.0267311283009
884,1686879545.17,-118.652,-602.539,-62.012,-145.508,773.069,378.2113484884345
885,1686879545.18,-84.961,-520.996,12.207,-65.43,773.072,369.8016513023225
886,1686879545.18,-32.715,199.707,-47.363,14.648,773.076,365.86139090065035
887,1686879545.18,-68.359,25.879,-92.773,-65.43,773.08,368.91083343577867
888,1686879545.18,-123.535,-541.504,-81.055,-169.922,773.094,365.15110996246943
889,1686879545.19,-100.098,-396.484,-43.945,-106.445,773.098,369.08376210189357
890,1686879545.19,-48.34,163.086,-43.945,0.977,773.102,359.62058863940337
891,1686879545.2,-62.5,-57.617,-106.934,-43.457,773.106,366.8217586699989
892,1686879545.2,-125.977,-742.188,-111.816,-150.391,773.11,373.4196454672258
893,1686879545.2,-126.465,-639.648,-48.828,-139.16,773.114,370.26997543212315
894,1686879545.21,-63.965,-306.152,-48.34,-23.438,773.118,368.9989150336696
895,1686879545.21,-57.129,-463.379,-99.609,-7.812,773.122,369.3619701635106
896,1686879545.22,-115.723,-971.68,-83.496,-130.859,773.126,375.4950877881142
897,1686879545.22,-135.254,-593.262,7.812,-172.363,773.13,379.0085281739852
898,1686879545.22,-80.078,68.848,-55.176,-66.895,773.133,370.94169736067386
899,1686879545.23,-51.27,-36.133,-68.359,-13.184,773.137,366.13040519067334
900,1686879545.24,-104.98,-66.895,-41.016,-119.141,773.142,374.77523042295655
901,1686879545.25,-150.879,100.098,-62.988,-204.102,773.146,372.91160871407686
902,1686879545.25,-109.863,34.668,-88.867,-116.211,773.15,376.03082309869706
903,1686879545.26,-64.453,-241.211,-58.594,-30.762,773.154,375.73682946994484
904,1686879545.26,-97.656,-206.543,-63.477,-116.699,773.158,376.95823415852976
905,1686879545.26,-150.879,-298.34,-97.168,-217.285,773.162,363.61892228568666
906,1686879545.27,-133.789,-341.309,-64.453,-163.086,773.166,370.0609591106177
907,1686879545.27,-80.078,-647.949,-61.523,-44.434,773.17,365.1059858491489
908,1686879545.27,-89.355,-63.477,-43.945,-59.082,773.171,363.60957418730413
909,1686879545.28,-89.844,-612.305,-37.598,-68.848,773.174,368.4439687933924
910,1686879545.28,-143.555,164.551,-70.801,-183.594,773.175,381.1853343448787
911,1686879545.28,-141.113,98.633,-67.383,-188.477,773.178,366.80449768941037
912,1686879545.28,-170.41,-159.668,-84.473,-213.867,773.178,370.4694863650407
913,1686879545.28,-154.297,-52.246,-88.379,-184.082,773.182,368.5260356241072
914,1686879545.29,-125.977,-223.145,-78.125,-103.516,773.182,375.86110128587495
915,1686879545.29,-108.887,-357.91,-62.988,-63.477,773.185,373.292258192839
916,1686879545.29,-101.074,-90.82,-72.266,-44.434,773.186,373.0900954270484
917,1686879545.29,-140.625,-313.965,-74.219,-140.137,773.19,381.6732881341355
918,1686879545.3,-179.199,-643.066,-99.609,-210.449,773.194,366.8305215315548
919,1686879545.3,-150.391,-757.324,-67.383,-132.324,773.198,380.3251756866134
920,1686879545.3,-103.027,-149.414,-21.484,-51.758,773.202,372.75903978662654
921,1686879545.31,-117.676,177.246,-73.73,-107.91,773.206,382.63852793299776
922,1686879545.31,-175.293,-395.996,-117.676,-208.008,773.21,383.5787947653295
923,1686879545.32,-181.152,-1000.0,-55.176,-177.246,773.214,376.4989170291367
924,1686879545.32,-119.629,-511.719,27.832,-74.219,773.229,378.7595692730757
925,1686879545.32,-110.84,166.504,-69.824,-86.426,773.233,373.7251087795417
926,1686879545.33,-169.922,-195.801,-99.609,-199.707,773.237,376.8454422863387
927,1686879545.33,-186.523,-271.484,-50.293,-222.656,773.241,379.23215862289624
928,1686879545.34,-130.371,3.418,-61.035,-110.352,773.245,381.4341521398276
929,1686879545.34,-108.887,-140.137,-86.914,-69.336,773.249,380.24669911064365
930,1686879545.34,-166.016,-717.285,-57.129,-181.152,773.253,378.5325775766978
931,1686879545.35,-196.289,-623.047,-4.395,-240.723,773.257,386.17655084675357
932,1686879545.35,-145.02,-187.988,-48.828,-138.672,773.26,379.7735849965608
933,1686879545.36,-115.723,-258.789,-69.824,-64.941,773.264,381.13217628498427
934,1686879545.36,-155.762,-460.449,-45.41,-144.043,773.268,364.5941287694396
935,1686879545.36,-198.242,-382.812,-45.898,-229.98,773.272,378.0353248624477
936,1686879545.36,-171.875,31.25,-46.387,-169.922,773.275,377.1180319945019
937,1686879545.37,-121.094,-72.754,-63.965,-59.57,773.279,378.42342797509224
938,1686879545.37,-138.672,-196.289,-78.125,-103.027,773.283,378.2822595505754
939,1686879545.38,-191.406,-10.254,-63.477,-216.309,773.287,377.2456469716091
940,1686879545.38,-194.336,-127.93,-56.641,-188.477,773.291,374.36273570533194
941,1686879545.38,-141.602,-530.273,-110.352,-69.336,773.294,391.79923365506727
942,1686879545.39,-140.137,-935.059,-74.219,-73.242,773.298,379.44409303625963
943,1686879545.39,-186.523,-479.492,33.691,-207.031,773.302,375.5639034797685
944,1686879545.4,-194.336,57.129,-73.73,-230.469,773.306,385.3308134538755
945,1686879545.4,-145.02,-236.816,-28.809,-108.398,773.31,384.05716353062644
946,1686879545.4,-112.305,-263.184,-0.488,-65.43,773.314,383.5454860200872
947,1686879545.41,-162.598,-141.113,-68.359,-174.316,773.318,380.9617793265483
948,1686879545.43,-200.684,-73.73,-66.895,-242.188,773.327,378.7007115030256
949,1686879545.43,-158.203,-376.953,-28.32,-143.066,773.331,380.51333354424946
950,1686879545.44,-116.211,-366.699,9.277,-63.965,773.334,385.54725802390794
951,1686879545.44,-140.625,125.0,-73.242,-132.324,773.338,379.40582177987574
952,1686879545.44,-182.617,7.324,-85.938,-215.332,773.342,374.49051828591826
953,1686879545.45,-166.992,-439.941,-62.988,-156.25,773.346,387.6716292623658
954,1686879545.45,-106.934,-385.742,-25.879,-50.781,773.35,384.6246804800149
955,1686879545.45,-109.863,90.82,-54.199,-96.191,773.354,371.20515561743065
956,1686879545.46,-172.363,-47.363,-86.426,-208.984,773.358,388.2299485661079
957,1686879545.46,-176.27,-591.309,-30.273,-185.547,773.362,384.2659153970743
958,1686879545.47,-125.0,-350.098,1.465,-74.219,773.366,381.2348543349569
959,1686879545.47,-167.969,-98.145,-74.219,-180.176,773.366,375.306304732758
960,1686879545.47,-117.188,187.988,-53.223,-73.242,773.37,383.97787653463143
961,1686879545.47,-189.453,-539.062,-78.613,-212.891,773.37,386.825833909343
962,1686879545.48,-133.301,-308.594,-44.434,-107.422,773.374,382.54777744081275
963,1686879545.48,-98.145,148.926,-53.711,-55.176,773.378,388.04713452572366
964,1686879545.48,-147.461,-258.789,-108.887,-149.902,773.382,382.8111398938777
965,1686879545.49,-191.895,-844.727,-93.262,-220.703,773.386,377.7838080521863
966,1686879545.49,-155.762,-591.797,-29.785,-140.625,773.39,391.938037314494
967,1686879545.5,-111.328,-71.777,-21.484,-52.246,773.394,381.8961201243515
968,1686879545.5,-136.23,-243.164,-73.242,-116.211,773.398,386.9071881868305
969,1686879545.5,-191.895,-1000.0,-99.609,-220.215,773.402,378.78114955561705
970,1686879545.51,-183.105,-747.559,2.93,-184.57,773.406,385.3345166226244
971,1686879545.51,-126.953,58.594,-15.137,-67.383,773.409,394.70294438099734
972,1686879545.52,-133.301,-28.809,-61.523,-80.566,773.414,386.83708330943017
973,1686879545.52,-188.477,-140.625,-36.133,-196.289,773.418,386.8530140752583
974,1686879545.52,-189.453,58.594,-45.898,-200.684,773.422,385.69738233314393
975,1686879545.53,-136.719,56.641,-50.293,-94.238,773.426,388.8875898331615
976,1686879545.53,-126.465,-214.355,-63.477,-76.66,773.429,383.7608654887095
977,1686879545.54,-170.41,-484.863,-52.246,-187.012,773.433,385.8216168904167
978,1686879545.54,-191.895,-341.797,-24.414,-225.098,773.437,393.91808532692033
979,1686879545.54,-145.508,3.418,-51.27,-121.094,773.441,385.487489880827
980,1686879545.55,-112.305,-582.031,-71.289,-46.387,773.445,387.23597479933113
981,1686879545.55,-145.02,-707.52,-4.395,-132.812,773.449,391.1948978938754
982,1686879545.56,-185.547,39.551,-30.273,-225.098,773.453,382.8895502065701
983,1686879545.56,-161.621,-62.012,-68.359,-154.297,773.457,387.7714255912511
984,1686879545.56,-110.84,-176.758,-54.688,-59.082,773.47,391.69871212602413
985,1686879545.56,-123.535,11.719,-38.086,-110.352,773.473,392.7413315919957
986,1686879545.57,-168.457,55.176,-38.086,-213.867,773.477,390.0072577432251
987,1686879545.57,-161.621,-169.434,-61.035,-177.246,773.481,392.99117832962173
988,1686879545.58,-112.305,-427.734,-52.734,-67.383,773.485,386.3347533228718
989,1686879545.58,-116.699,-388.672,-30.273,-88.379,773.489,387.55616978746383
990,1686879545.58,-171.875,-449.707,-43.945,-202.148,773.493,395.2102523779133
991,1686879545.59,-174.805,-656.738,-69.824,-209.473,773.497,393.8723620720854
992,1686879545.59,-121.094,-1000.0,-68.848,-88.867,773.501,392.6653907976385
993,1686879545.59,-95.703,-669.434,35.156,-56.152,773.505,392.84537544765567
994,1686879545.6,-137.695,64.453,-15.137,-168.457,773.509,391.417465884211
995,1686879545.6,-168.945,-170.41,-55.176,-211.914,773.513,390.8929264621096
996,1686879545.61,-125.0,-102.051,8.301,-106.934,773.503,403.52018545079824
997,1686879545.61,-75.195,276.855,-29.297,-33.691,773.507,392.8922563935524
998,1686879545.61,-97.656,175.293,-68.359,-117.188,773.511,398.2913669007462
999,1686879545.62,-151.367,-180.176,-36.133,-208.496,773.515,395.0774991533783
1000,1686879545.62,-129.395,-160.156,-31.25,-148.926,773.519,398.5201618716987
1001,1686879545.63,-82.031,-150.879,-52.734,-53.711,773.522,394.43745027133997
1002,1686879545.63,-104.492,-250.0,-52.734,-102.051,773.526,391.5811752444155
1003,1686879545.63,-154.785,-583.496,-21.973,-210.938,773.53,400.37838541499065
1004,1686879545.64,-152.832,-483.887,56.641,-190.43,773.534,391.96173045691097
1005,1686879545.64,-98.145,-39.062,-12.207,-72.754,773.538,395.7854450507194
1006,1686879545.64,-91.309,-169.434,-74.707,-66.406,773.542,397.3185600450194
1007,1686879545.65,-150.391,-605.469,-4.395,-184.57,773.546,401.7004064655067
1008,1686879545.65,-160.645,-415.039,66.895,-213.379,773.546,395.0585627741676
1009,1686879545.65,-107.422,178.711,-5.371,-100.586,773.549,396.79546816657165
1010,1686879545.66,-94.238,-6.836,-42.48,-52.734,773.553,398.72389938815206
1011,1686879545.66,-139.16,-193.848,-46.387,-161.133,773.557,401.08986616866713
1012,1686879545.66,-171.387,-222.656,-22.949,-224.609,773.561,391.7586500852303
1013,1686879545.67,-128.906,-299.316,0.977,-126.465,773.565,402.5465239308983
1014,1686879545.67,-84.473,-464.844,-61.035,-40.039,773.569,399.4626847094543
1015,1686879545.68,-123.047,-994.141,-58.105,-107.422,773.573,395.2581646617182
1016,1686879545.68,-156.25,-613.281,67.871,-191.406,773.577,389.2768816365075
1017,1686879545.68,-120.605,39.551,0.488,-140.137,773.581,394.7572724856668
1018,1686879545.69,-85.449,-74.219,-5.859,-57.617,773.585,392.48985320729923
1019,1686879545.69,-105.469,-124.023,-3.906,-99.609,773.589,388.12363909857294
1020,1686879545.7,-150.391,-154.297,-39.062,-205.078,773.597,395.6620623373275
1021,1686879545.7,-152.832,-33.203,-33.203,-186.035,773.601,403.97345033387137
1022,1686879545.71,-104.004,-280.762,0.0,-61.523,773.605,402.0424158634217
1023,1686879545.71,-95.215,-300.293,63.965,-56.641,773.609,405.7075386517422
1024,1686879545.71,-139.648,23.926,-36.133,-181.641,773.613,401.83275232686907
1025,1686879545.72,-151.855,-201.172,-46.387,-204.59,773.617,400.256403072641
1026,1686879545.72,-101.562,-704.102,1.465,-73.73,773.621,404.1403123699611
1027,1686879545.72,-62.5,-511.719,54.688,-12.207,773.625,401.12064163598717
1028,1686879545.73,-93.75,173.828,-5.859,-112.305,773.629,398.01447478859455
1029,1686879545.73,-124.512,-31.738,-65.918,-190.918,773.633,398.78237357932534
1030,1686879545.74,-92.285,-198.242,-7.812,-111.816,773.636,404.2748055733594
1031,1686879545.74,-70.801,247.559,-28.32,-92.285,773.65,410.80067750385774
1032,1686879545.74,-43.945,88.867,16.113,-22.949,773.64,406.557532302558
1033,1686879545.74,-134.766,-103.516,-60.547,-191.895,773.654,396.8627024882008
1034,1686879545.75,-123.535,-511.23,-38.574,-151.367,773.658,401.52879303648064
1035,1686879545.75,-66.406,-132.812,-10.254,-43.457,773.662,403.3409159815301
1036,1686879545.76,-69.336,-9.277,-48.34,-70.312,773.666,405.5089304055118
1037,1686879545.76,-133.301,-500.488,-74.707,-185.059,773.67,402.24215416230055
1038,1686879545.76,-145.02,-1000.0,-93.75,-175.293,773.674,393.0731690518098
1039,1686879545.77,-85.449,-709.961,43.457,-46.875,773.678,403.1182896008661
1040,1686879545.77,-71.289,153.809,13.184,-33.691,773.682,410.77264186238455
1041,1686879545.77,-125.488,16.602,-27.832,-151.855,773.685,411.0605212418432
1042,1686879545.78,-151.855,-175.293,9.277,-195.312,773.689,410.2218579029965
1043,1686879545.78,-93.262,29.297,-23.926,-88.867,773.693,400.008236679673
1044,1686879545.8,-58.105,213.379,-22.461,-26.855,773.697,401.69822133003004
1045,1686879545.8,-114.258,31.738,-51.27,-126.953,773.701,414.7471739439924
1046,1686879545.81,-149.902,-67.871,-10.254,-192.871,773.705,406.626872145655
1047,1686879545.81,-104.004,166.992,-7.812,-102.051,773.709,411.51507808619994
1048,1686879545.82,-47.363,157.715,-44.434,-4.883,773.713,400.22164202975404
1049,1686879545.82,-83.008,-250.0,-45.898,-71.777,773.716,401.27025142947844
1050,1686879545.82,-146.973,-533.203,-9.766,-182.617,773.72,403.26839197482593
1051,1686879545.83,-129.883,-238.77,8.301,-148.438,773.724,400.3247489431796
1052,1686879545.83,-70.801,141.113,-15.137,-43.457,773.728,405.9488158400549
1053,1686879545.83,-88.867,-545.898,-53.711,-54.199,773.732,405.0054097650582
1054,1686879545.84,-143.555,-693.359,30.273,-168.945,773.736,406.2168475106909
1055,1686879545.84,-143.066,143.555,17.09,-176.758,773.74,403.8128380703384
1056,1686879545.84,-88.867,87.402,-40.039,-51.27,773.741,407.9945483184617
1057,1686879545.85,-59.57,-86.914,-32.715,-22.949,773.745,405.8379044239007
1058,1686879545.85,-102.051,44.434,-16.602,-132.812,773.748,397.54358879918186
1059,1686879545.86,-137.695,154.297,2.441,-185.059,773.752,402.30416330577555
1060,1686879545.86,-90.82,-187.5,-49.316,-86.914,773.756,411.26876690202573
1061,1686879545.86,-49.316,-613.77,-47.852,-3.906,773.76,411.0901411393092
1062,1686879545.87,-94.727,-381.836,16.602,-93.75,773.764,410.98911278544574
1063,1686879545.87,-141.113,-206.055,21.973,-191.406,773.768,405.7424646588477
1064,1686879545.88,-119.629,-457.52,-38.574,-116.699,773.772,410.318733018693
1065,1686879545.88,-73.73,-971.191,-5.371,-1.953,773.776,415.7973784415258
1066,1686879545.88,-80.566,-372.559,99.121,-61.523,773.78,402.2901234780789
1067,1686879545.89,-134.766,183.105,-9.277,-185.547,773.784,403.5210806768952
1068,1686879545.89,-122.07,-132.812,-15.137,-141.113,773.788,409.30004546223086
1069,1686879545.9,-56.152,54.199,46.387,-12.207,773.792,408.5395967162211
1070,1686879545.9,-51.27,359.863,4.883,-18.066,773.796,408.9522507115332
1071,1686879545.9,-109.375,220.703,-34.18,-142.578,773.8,404.0677355258108
1072,1686879545.91,-118.652,-149.414,-34.18,-144.043,773.804,399.23491513096445
1073,1686879545.91,-59.082,-290.039,3.906,-12.207,773.807,404.2212803111855
1074,1686879545.91,-46.387,-49.805,36.133,8.789,773.811,409.2264319354924
1075,1686879545.92,-89.844,153.809,-2.93,-106.445,773.815,411.1829829538387
1076,1686879545.92,-122.559,-501.465,-0.977,-158.691,773.819,410.4462025597125
1077,1686879545.93,-83.984,-500.0,89.844,-52.734,773.823,404.92197063047684
1078,1686879545.93,-23.926,120.605,44.434,21.973,773.827,395.9012133045189
1079,1686879545.93,-51.758,8.789,-15.625,-57.617,773.831,406.0270419105616
1080,1686879545.93,-104.98,-303.711,8.301,-151.367,773.844,391.3295198390567
1081,1686879545.94,-84.961,-53.223,62.988,-99.121,773.848,408.01942556596833
1082,1686879545.94,-36.621,370.605,27.344,3.418,773.852,395.4666630352213
1083,1686879545.95,-57.617,143.555,-20.508,-33.691,773.856,407.9025468174829
1084,1686879545.95,-108.887,-267.578,-26.855,-131.836,773.86,414.85426204944656
1085,1686879545.95,-97.168,-302.734,2.93,-110.84,773.864,402.4473841416125
1086,1686879545.96,-38.086,-105.469,30.273,-0.488,773.868,406.74373161394766
1087,1686879545.96,-27.344,-238.77,-29.297,7.324,773.872,406.2816981401769
1088,1686879545.96,-87.402,-925.293,-25.879,-95.703,773.876,418.9282281155436
1089,1686879545.97,-106.934,-500.488,104.492,-126.465,773.879,403.08680006033626
1090,1686879545.97,-49.805,306.152,38.086,-21.973,773.883,406.98002669158495
1091,1686879545.98,-27.832,199.707,5.371,40.039,773.887,401.565116551688
1092,1686879545.98,-82.031,-24.902,13.672,-52.246,773.882,404.1066823354117
1093,1686879545.99,-120.605,3.418,29.297,-137.207,773.886,399.15181008591395
1094,1686879545.99,-69.824,239.746,4.395,-60.547,773.889,405.0548071511941
1095,1686879545.99,-13.184,-89.844,20.02,39.551,773.893,403.63122811392077
1096,1686879546.0,-47.363,-195.801,77.637,-31.738,773.897,403.04923264096686
1097,1686879546.0,-105.469,-118.652,-3.418,-136.23,773.901,400.08690157865675
1098,1686879546.0,-90.332,-161.621,-5.371,-81.055,773.905,405.5682511049091
1099,1686879546.01,-42.969,-458.496,46.875,30.273,773.909,397.7732164571077
1100,1686879546.01,-49.805,-293.457,103.027,-3.418,773.913,399.9664095395446
1101,1686879546.02,-103.027,318.359,22.461,-123.535,773.917,411.3001869584797
1102,1686879546.02,-104.004,116.699,-15.625,-118.164,773.921,406.53242603981784
1103,1686879546.02,-24.414,252.93,44.922,24.902,773.921,401.3849753370975
1104,1686879546.02,-41.992,-16.113,35.645,5.859,773.925,404.9654046424347
1105,1686879546.03,-70.801,396.484,2.93,-90.332,773.925,409.893261080449
1106,1686879546.03,-99.609,24.902,-32.715,-126.465,773.928,399.8981750358755
1107,1686879546.04,-61.523,-404.297,-10.742,-25.879,773.932,396.48604174776654
1108,1686879546.04,-31.738,-177.246,33.203,25.391,773.936,405.7812160875558
1109,1686879546.04,-72.754,-54.199,11.719,-62.012,773.94,413.55550821719476
1110,1686879546.05,-118.164,-367.188,-31.738,-141.113,773.944,400.6083049449342
1111,1686879546.05,-85.938,-1000.0,-55.176,-63.965,773.948,391.80485070510895
1112,1686879546.06,-24.902,-676.27,109.375,35.156,773.952,403.4572489955535
1113,1686879546.06,-44.922,251.953,101.074,-40.527,773.956,407.61702991159194
1114,1686879546.06,-100.586,76.66,6.348,-145.02,773.96,402.5295417620257
1115,1686879546.07,-90.332,47.852,54.688,-97.656,773.964,402.4133700544727
1116,1686879546.07,-38.574,449.707,38.086,15.137,773.968,410.07892576428225
1117,1686879546.08,-47.363,465.82,-1.465,-6.348,773.972,405.0944046395355
1118,1686879546.08,-108.887,152.344,-6.348,-123.047,773.976,392.8209821458861
1119,1686879546.08,-115.234,115.723,43.945,-121.094,773.98,398.68584570879926
1120,1686879546.09,-57.617,307.129,11.719,-5.371,773.984,405.87734967300094
1121,1686879546.09,-40.039,179.688,-24.902,17.09,773.988,407.0198773749953
1122,1686879546.09,-95.215,-553.223,-27.832,-96.68,773.991,401.73813556492433
1123,1686879546.1,-127.441,-688.477,48.34,-158.203,773.995,407.1619799671505
1124,1686879546.1,-75.684,261.23,87.402,-71.777,773.999,412.435032720061
1125,1686879546.11,-34.668,351.562,0.488,-1.953,774.003,413.1097266479945
1126,1686879546.11,-73.242,-21.484,35.156,-81.543,774.007,405.2173990871124
1127,1686879546.11,-115.234,106.934,74.219,-164.551,774.011,404.99764467528513
1128,1686879546.11,-81.055,369.141,31.25,-95.215,774.025,407.32291270536393
1129,1686879546.12,-27.832,205.566,29.297,7.324,774.029,407.70007028123655
1130,1686879546.12,-46.387,6.836,44.434,-44.922,774.033,402.10984492866703
1131,1686879546.13,-98.145,141.602,8.301,-153.32,774.037,407.69233285421313
1132,1686879546.13,-92.773,21.973,1.953,-120.605,774.041,400.0995114745624
1133,1686879546.13,-41.504,-216.309,-28.32,0.0,774.045,408.7294177866416
1134,1686879546.14,-35.645,-853.027,-41.992,1.953,774.049,397.0173147835699
1135,1686879546.14,-83.984,-584.473,82.031,-122.559,774.052,402.99817577273706
1136,1686879546.14,-101.562,134.277,37.109,-151.855,774.056,400.12772393081207
1137,1686879546.15,-60.547,-279.297,-20.996,-32.715,774.06,402.28283759526573
1138,1686879546.15,-40.527,-207.031,54.199,4.883,774.064,407.5740871218739
1139,1686879546.16,-84.961,399.902,44.922,-109.863,774.068,408.46510394208275
1140,1686879546.17,-121.094,343.262,-15.137,-172.852,774.071,405.42755613120676
1141,1686879546.18,-80.566,64.453,9.766,-77.148,774.075,405.75424435512343
1142,1686879546.18,-30.762,211.914,29.297,6.348,774.079,403.3519360744929
1143,1686879546.19,-51.758,471.68,7.812,-70.312,774.083,412.45232995412636
1144,1686879546.19,-107.422,341.797,-26.855,-158.203,774.087,403.5088415723129
1145,1686879546.19,-100.586,-180.176,-18.066,-98.633,774.091,405.93606933167325
1146,1686879546.2,-44.434,-128.418,50.293,-4.395,774.095,398.9721694971801
1147,1686879546.2,-53.223,395.02,24.414,-50.293,774.098,411.70549384900283
1148,1686879546.2,-112.305,283.203,-45.898,-163.086,774.102,408.78035042304157
1149,1686879546.21,-112.793,-353.516,19.043,-135.742,774.106,405.68364989032335
1150,1686879546.21,-43.945,-168.945,74.219,-10.254,774.11,407.42608973352174
1151,1686879546.22,-34.668,204.102,-12.695,-16.602,774.114,404.6762238228133
1152,1686879546.22,-91.797,-144.043,-42.48,-132.812,774.116,416.0052267957872
1153,1686879546.22,-112.793,-304.688,13.184,-160.645,774.119,408.1863284029771
1154,1686879546.23,-66.406,134.766,62.988,-58.105,774.123,409.36171169483794
1155,1686879546.23,-21.973,483.398,6.348,-5.859,774.127,398.4303254019131
1156,1686879546.24,-64.941,25.879,-68.359,-89.355,774.131,397.2667141461854
1157,1686879546.24,-112.793,-720.215,-27.832,-134.277,774.135,406.04993487959746
1158,1686879546.24,-81.543,-416.016,77.148,-58.105,774.139,401.50486032354326
1159,1686879546.25,-31.738,344.727,36.133,1.465,774.143,402.2802983910664
1160,1686879546.25,-55.176,-19.531,-63.477,-64.941,774.147,410.28701372672646
1161,1686879546.25,-110.84,-611.328,-5.859,-148.438,774.151,400.94276750294586
1162,1686879546.26,-88.867,79.59,72.754,-99.121,774.155,407.1307300271514
1163,1686879546.26,-25.391,479.492,-14.16,11.23,774.159,405.18708752501743
1164,1686879546.27,-27.832,224.609,-14.16,-16.113,774.167,404.96414855178796
1165,1686879546.27,-85.449,-15.137,4.883,-136.719,774.171,409.0164766483149
1166,1686879546.28,-92.773,13.672,14.16,-142.09,774.175,410.2716933852211
1167,1686879546.28,-36.621,316.895,-3.418,-16.602,774.179,404.90864005310254
1168,1686879546.28,-21.484,18.066,-10.742,11.719,774.183,404.08918509572334
1169,1686879546.29,-78.125,-371.582,6.348,-102.539,774.187,404.33345311501705
1170,1686879546.29,-109.375,-189.453,5.371,-165.527,774.19,405.9366555213645
1171,1686879546.29,-57.129,205.566,-5.371,-78.125,774.194,393.04585417535924
1172,1686879546.3,-24.902,-303.223,-28.809,0.977,774.198,395.19400716602075
1173,1686879546.3,-63.965,-407.715,45.41,-87.891,774.202,404.21869215398965
1174,1686879546.31,-106.934,323.73,15.137,-184.082,774.206,405.4480401713375
1175,1686879546.31,-83.496,221.68,-30.762,-100.098,774.21,389.292002077829
1176,1686879546.31,-30.762,167.48,-1.465,-2.441,774.206,403.00496247242285
1177,1686879546.31,-43.457,380.371,5.859,-69.336,774.21,406.4611653278795
1178,1686879546.32,-91.797,434.082,-14.648,-155.273,774.214,404.8944806733359
1179,1686879546.32,-97.168,145.996,-28.809,-107.422,774.218,407.6155601600893
1180,1686879546.33,-49.805,-140.137,-25.391,-16.113,774.221,398.6830448221125
1181,1686879546.33,-38.086,-72.754,5.859,-34.18,774.225,411.6041841904188
1182,1686879546.33,-95.703,-83.496,-1.953,-136.23,774.229,402.55428108410973
1183,1686879546.34,-110.84,-260.742,-42.969,-135.742,774.233,414.2071770988877
1184,1686879546.34,-57.129,-933.105,-55.176,-26.855,774.237,407.66469562096995
1185,1686879546.34,-29.297,-629.395,57.129,5.859,774.241,415.5438325929623
1186,1686879546.35,-72.266,352.051,37.598,-112.305,774.245,396.11703352749765
1187,1686879546.35,-116.211,172.363,-16.602,-168.457,774.249,409.9785841315238
1188,1686879546.36,-71.289,205.078,39.062,-49.316,774.265,414.41904784615076
1189,1686879546.36,-19.043,565.43,22.461,17.578,774.269,407.63563226871906
1190,1686879546.36,-58.105,490.234,-31.738,-81.543,774.273,405.64844392265707
1191,1686879546.37,-106.934,145.996,-18.555,-167.969,774.277,413.786984267742
1192,1686879546.37,-70.312,189.941,16.602,-73.242,774.281,405.73478026635655
1193,1686879546.38,-21.973,224.609,-29.297,31.738,774.285,408.6990328756881
1194,1686879546.38,-42.969,85.449,-31.738,-25.391,774.289,413.2489832812592
1195,1686879546.38,-98.145,-529.297,-43.457,-132.324,774.293,406.5212218296954
1196,1686879546.39,-91.797,-683.594,41.992,-104.004,774.297,409.50946850350755
1197,1686879546.39,-29.297,376.465,83.984,21.973,774.301,403.3614170115419
1198,1686879546.4,-26.367,443.359,-6.836,11.719,774.304,412.0909659777904
1199,1686879546.4,-86.914,90.82,-10.742,-111.328,774.308,406.07428260510744
1200,1686879546.4,-114.746,270.02,12.695,-133.789,774.296,404.5984377180707
1201,1686879546.4,-69.336,500.0,-4.395,-24.902,774.299,410.0884359354576
1202,1686879546.41,-33.691,345.703,-29.297,28.32,774.303,410.2519495796104
1203,1686879546.41,-75.684,83.984,-38.086,-67.871,774.307,407.53742805935053
1204,1686879546.42,-111.328,1.953,-17.578,-130.371,774.311,409.0704164435476
1205,1686879546.42,-63.965,21.973,17.09,-41.504,774.315,407.05658540911287
1206,1686879546.42,-23.438,-154.297,-53.223,45.898,774.319,404.6056242366378
1207,1686879546.43,-64.941,-604.004,-7.812,-34.18,774.323,407.2418985756323
1208,1686879546.43,-107.91,-92.773,72.266,-135.254,774.327,410.08405140123466
1209,1686879546.43,-76.66,300.293,-5.859,-79.59,774.331,403.7467026137314
1210,1686879546.44,-26.855,-217.285,-34.18,28.809,774.335,403.0499774001537
1211,1686879546.44,-49.316,-599.121,35.645,-12.695,774.339,404.0474078252424
1212,1686879546.45,-98.633,86.914,79.59,-134.277,774.343,401.14293442175335
1213,1686879546.45,-89.355,394.043,-6.836,-103.027,774.347,402.5460145215545
1214,1686879546.45,-36.133,172.363,19.531,17.578,774.351,401.2997359532309
1215,1686879546.46,-26.855,375.977,40.039,21.973,774.355,410.4478890498098
1216,1686879546.46,-74.707,452.637,-18.066,-96.68,774.358,396.8317958539599
1217,1686879546.47,-103.516,181.641,-38.086,-123.047,774.362,399.66565329369996
1218,1686879546.47,-51.27,-504.395,-0.977,6.836,774.366,395.411849822691
1219,1686879546.47,-17.578,-389.648,79.59,49.316,774.37,399.9568209535502
1220,1686879546.48,-66.895,470.703,33.691,-66.406,774.374,409.8973159927952
1221,1686879546.48,-111.328,311.035,-41.992,-138.184,774.378,397.81278894055765
1222,1686879546.48,-73.73,153.809,24.902,-49.805,774.382,396.881771961897
1223,1686879546.49,-28.809,359.375,18.066,39.062,774.386,404.9691294301834
1224,1686879546.49,-48.828,291.504,-11.23,-35.645,774.414,401.44692113817536
1225,1686879546.49,-95.703,55.664,-12.207,-142.09,774.418,401.8700081687774
1226,1686879546.5,-79.59,-147.461,12.207,-93.262,774.422,405.8921566386718
1227,1686879546.5,-17.578,264.648,50.293,12.695,774.426,406.87739791078
1228,1686879546.51,-24.902,321.777,15.137,-18.066,774.43,393.3958658313727
1229,1686879546.51,-88.867,-143.555,-41.504,-122.559,774.433,410.18677029049167
1230,1686879546.51,-103.516,-895.996,-79.102,-116.211,774.437,397.3318338368913
1231,1686879546.52,-32.227,-466.797,104.004,-13.672,774.441,395.3538394247529
1232,1686879546.52,-7.324,550.781,41.016,0.488,774.445,400.0044601901744
1233,1686879546.52,-68.359,209.961,-13.672,-109.375,774.449,399.1843012512867
1234,1686879546.53,-98.633,99.121,61.035,-151.855,774.453,405.3623374874043
1235,1686879546.53,-54.688,495.605,6.348,-41.992,774.457,390.7285755172673
1236,1686879546.55,-23.438,564.941,-26.855,25.391,774.446,396.99847362082954
1237,1686879546.55,-64.453,253.418,-13.184,-74.707,774.45,394.19374932496834
1238,1686879546.56,-103.027,-32.227,12.695,-158.203,774.454,389.57640215123547
1239,1686879546.56,-68.848,122.559,30.273,-74.219,774.458,397.2744872673209
1240,1686879546.57,-17.578,564.941,10.742,29.297,774.462,398.50878088360105
1241,1686879546.57,-41.504,-226.074,-58.594,-15.625,774.466,389.44320258198746
1242,1686879546.57,-99.121,-740.723,25.879,-127.93,774.47,384.5313378052095
1243,1686879546.58,-82.52,228.516,70.801,-106.934,774.474,400.07787908109077
1244,1686879546.58,-21.484,461.914,-9.766,17.09,774.478,398.8292120415278
1245,1686879546.58,-20.02,208.496,9.277,4.395,774.482,400.48581138663
1246,1686879546.59,-74.707,281.25,35.645,-116.211,774.485,388.7013529282323
1247,1686879546.59,-91.797,418.457,4.395,-125.977,774.489,391.02850134030535
1248,1686879546.59,-39.062,269.043,-13.672,-14.16,774.49,396.0287614988164
1249,1686879546.6,-25.391,114.258,-7.812,16.113,774.494,395.67271080775583
1250,1686879546.6,-69.824,298.828,24.902,-91.797,774.498,389.1056829011757
1251,1686879546.61,-103.027,399.902,1.953,-137.207,774.502,390.2974023527985
1252,1686879546.61,-72.266,-7.812,-46.387,-31.25,774.506,388.6853108664958
1253,1686879546.61,-22.461,-370.117,-17.09,41.016,774.51,392.3189854372418
1254,1686879546.62,-50.781,-156.738,30.762,-45.898,774.514,390.65248853311994
1255,1686879546.62,-98.633,-37.109,16.113,-140.137,774.518,397.53202075415
1256,1686879546.62,-82.031,-228.516,-36.621,-75.684,774.522,399.1716744423986
1257,1686879546.63,-31.738,-858.887,-19.043,40.039,774.525,389.9757008535642
1258,1686879546.63,-39.551,-346.68,64.941,-6.348,774.529,383.1983417478851
1259,1686879546.64,-89.355,324.707,-14.648,-127.441,774.533,390.22059713792004
1260,1686879546.66,-86.914,126.953,8.789,-100.586,774.553,393.05455373234577
1261,1686879546.66,-31.738,298.828,39.062,19.043,774.557,397.53523843925035
1262,1686879546.66,-28.809,576.66,-0.977,19.043,774.561,395.9757241323911
1263,1686879546.67,-89.844,467.285,-29.297,-99.609,774.565,387.154748702557
1264,1686879546.67,-105.957,174.805,-19.043,-120.117,774.569,382.3435296134493
1265,1686879546.68,-52.246,-1.465,5.371,-6.836,774.573,383.29919566033874
1266,1686879546.68,-20.996,165.527,0.977,36.133,774.577,396.79126145134137
1267,1686879546.68,-68.848,354.004,-9.766,-72.754,774.581,386.2728169951212
1268,1686879546.69,-112.793,-509.277,-40.527,-124.023,774.585,385.195859458653
1269,1686879546.69,-67.871,-662.109,49.805,-14.16,774.588,386.4657019716365
1270,1686879546.7,-14.648,473.145,78.125,52.734,774.592,384.43787969678937
1271,1686879546.7,-51.27,457.52,-24.414,-23.926,774.596,384.2563632357744
1272,1686879546.7,-109.863,98.633,-8.789,-113.281,774.596,385.282598211093
1273,1686879546.7,-90.82,358.887,19.531,-56.641,774.6,386.45016477474996
1274,1686879546.71,-35.645,620.117,2.441,53.223,774.603,382.9751220324812
1275,1686879546.71,-45.41,416.016,-29.785,14.16,774.607,389.2256347195675
1276,1686879546.72,-93.262,-99.609,-11.719,-89.844,774.611,388.45802954264275
1277,1686879546.72,-92.773,-130.371,18.555,-72.266,774.615,384.94876727228944
1278,1686879546.72,-39.551,80.566,-2.93,31.738,774.619,385.5329039429433
1279,1686879546.73,-22.461,-99.121,-22.461,43.457,774.623,382.54202900701216
1280,1686879546.73,-73.73,-69.336,11.719,-65.918,774.627,386.29336968039325
1281,1686879546.73,-68.359,-928.223,-20.02,-33.691,774.628,375.9630628666873
1282,1686879546.73,-92.773,345.215,26.367,-94.238,774.631,387.1143506052162
1283,1686879546.74,-102.539,-595.703,89.355,-109.863,774.632,385.54496947506095
1284,1686879546.74,-47.363,318.359,9.766,8.301,774.635,385.08611446503505
1285,1686879546.74,-62.5,347.656,53.223,-30.762,774.636,390.9745099196526
1286,1686879546.74,-22.949,-61.035,-21.484,55.664,774.639,385.9827419280509
1287,1686879546.74,-20.02,336.426,17.09,54.199,774.64,380.5535507929213
1288,1686879546.75,-45.898,391.113,15.625,-26.367,774.644,378.96863935486624
1289,1686879546.75,-96.191,246.582,-27.832,-127.93,774.647,384.11049065109
1290,1686879546.75,-86.914,46.875,-3.906,-73.73,774.651,373.3706305764349
1291,1686879546.76,-27.344,67.383,41.504,37.598,774.655,383.7780204686503
1292,1686879546.76,-21.484,318.848,53.711,12.207,774.659,381.5360286822292
1293,1686879546.77,-77.148,549.316,4.395,-101.074,774.663,386.5137516194975
1294,1686879546.77,-90.82,387.207,-33.203,-101.562,774.667,392.5586915732417
1295,1686879546.77,-45.41,-247.07,20.996,1.953,774.671,388.395042216206
