,timestamps,TP9,AF7,AF8,TP10,Secondary Timestamp,emg_signal
0,1685412951.59,-34.668,651.855,44.434,-32.227,1812.515,298
1,1685412951.594,-33.691,589.355,-1.465,-27.832,1812.519,298
2,1685412951.598,-43.457,334.473,15.137,-50.293,1812.523,298
3,1685412951.602,-36.621,310.059,37.109,-49.805,1812.527,299
4,1685412951.606,-21.973,260.254,17.09,-26.855,1812.531,299
5,1685412951.61,-16.602,198.73,7.812,-22.461,1812.535,299
6,1685412951.613,-17.578,-459.961,18.066,-24.902,1812.538,300
7,1685412951.617,-24.414,-518.066,106.445,-28.32,1812.542,300
8,1685412951.621,-18.555,431.152,99.609,-23.438,1812.546,300
9,1685412951.625,-11.23,625.0,10.254,-18.066,1812.55,299
10,1685412951.629,-28.32,-382.812,-9.277,-22.949,1812.554,299
11,1685412951.633,-42.48,-576.172,108.398,-40.527,1812.558,299
12,1685412951.637,-37.109,511.23,93.262,-49.805,1812.546,299
13,1685412951.641,-23.438,422.852,5.859,-29.297,1812.55,299
14,1685412951.645,-21.484,248.047,13.672,-30.762,1812.554,299
15,1685412951.649,-33.691,440.918,47.852,-47.852,1812.558,299
16,1685412951.653,-31.25,490.723,25.391,-39.551,1812.562,299
17,1685412951.657,-14.648,6.836,-27.832,-20.02,1812.566,299
18,1685412951.66,-10.742,-312.012,41.504,-23.438,1812.57,299
19,1685412951.664,-14.648,328.613,90.332,-39.551,1812.574,299
20,1685412951.668,-20.996,477.539,2.93,-37.109,1812.577,300
21,1685412951.672,-11.23,-12.207,68.359,-11.23,1812.581,300
22,1685412951.676,6.348,110.84,150.391,-4.883,1812.585,300
23,1685412951.68,2.441,556.641,48.828,-24.902,1812.589,300
24,1685412951.695,-16.113,547.363,-2.93,-40.039,1812.592,302
25,1685412951.699,-18.555,-155.762,39.551,-17.578,1812.596,302
26,1685412951.703,-7.324,-179.688,132.812,2.441,1812.6,302
27,1685412951.707,-14.648,497.559,31.25,-17.578,1812.604,301
28,1685412951.711,-23.438,294.434,-4.883,-25.391,1812.607,301
29,1685412951.715,-26.367,-515.137,21.484,-6.348,1812.611,301
30,1685412951.718,-24.902,-588.867,97.168,5.859,1812.615,301
31,1685412951.722,-18.555,480.469,106.934,-8.301,1812.619,301
32,1685412951.726,-19.043,460.938,-10.742,-28.32,1812.623,301
33,1685412951.73,-22.949,-29.785,79.102,-29.297,1812.627,301
34,1685412951.734,-13.184,218.262,97.168,-12.207,1812.631,301
35,1685412951.738,-3.906,386.719,6.348,-6.348,1812.635,301
36,1685412951.743,-13.184,55.176,-11.23,-25.879,1812.643,301
37,1685412951.747,-12.207,-157.715,38.086,-34.18,1812.647,301
38,1685412951.751,1.953,283.691,97.656,-24.414,1812.651,301
39,1685412951.755,5.371,618.164,29.297,-13.184,1812.655,301
40,1685412951.759,-0.488,293.945,8.789,-16.113,1812.659,301
41,1685412951.763,-17.578,-105.957,28.32,-31.25,1812.662,301
42,1685412951.766,-24.414,104.98,88.867,-20.02,1812.666,302
43,1685412951.77,-20.996,638.184,69.824,-5.859,1812.67,302
44,1685412951.774,-24.902,110.84,-4.395,-6.348,1812.674,302
45,1685412951.778,-36.621,-488.281,66.895,-32.227,1812.678,303
46,1685412951.782,-34.18,266.602,110.84,-37.109,1812.682,303
47,1685412951.786,-23.438,611.328,6.348,-21.484,1812.686,303
48,1685412951.786,-24.414,225.586,17.578,-23.438,1812.687,303
49,1685412951.79,-34.18,122.07,65.918,-32.227,1812.691,303
50,1685412951.794,-33.691,198.242,56.641,-29.785,1812.695,302
51,1685412951.798,-22.461,272.461,55.664,-19.531,1812.699,302
52,1685412951.802,-12.695,131.836,41.016,-12.695,1812.702,302
53,1685412951.806,-18.555,-99.609,58.594,-25.879,1812.706,302
54,1685412951.809,-34.668,36.133,57.129,-40.527,1812.71,302
55,1685412951.813,-28.32,380.371,59.57,-27.344,1812.714,302
56,1685412951.817,-19.531,-238.281,-1.465,-15.625,1812.718,302
57,1685412951.821,-29.297,-918.945,90.82,-24.902,1812.722,302
58,1685412951.825,-36.133,13.672,133.789,-44.434,1812.726,302
59,1685412951.829,-30.273,307.617,5.859,-28.32,1812.73,302
60,1685412951.832,-19.043,220.215,19.043,-9.277,1812.729,302
61,1685412951.836,-12.695,552.734,55.664,-9.766,1812.733,302
62,1685412951.84,-29.785,546.387,37.598,-26.367,1812.737,302
63,1685412951.844,-38.086,240.234,19.043,-27.344,1812.741,302
64,1685412951.848,-16.602,82.52,33.203,4.395,1812.745,303
65,1685412951.852,-12.695,159.18,53.223,5.859,1812.749,303
66,1685412951.855,-28.32,146.484,49.316,-14.16,1812.753,303
67,1685412951.859,-21.484,-172.852,12.695,-17.09,1812.757,303
68,1685412951.863,-10.254,-709.473,66.895,-3.418,1812.761,303
69,1685412951.867,-18.555,-18.555,120.117,-8.301,1812.765,303
70,1685412951.871,-20.996,570.312,15.625,-26.367,1812.768,303
71,1685412951.875,-17.578,221.191,29.785,-27.832,1812.772,302
72,1685412951.876,-9.277,297.852,78.125,-9.766,1812.772,302
73,1685412951.88,-7.324,572.754,39.062,0.0,1812.776,302
74,1685412951.884,-17.578,461.914,-3.906,-23.438,1812.78,302
75,1685412951.888,-25.879,231.445,20.02,-35.156,1812.784,302
76,1685412951.892,-19.043,80.566,65.918,-22.949,1812.788,302
77,1685412951.896,0.488,49.316,56.152,-9.277,1812.792,302
78,1685412951.899,-1.465,157.715,43.945,-18.555,1812.796,302
79,1685412951.903,-18.066,-474.121,-16.602,-33.203,1812.8,302
80,1685412951.907,-24.414,-990.723,70.801,-27.832,1812.804,302
81,1685412951.911,-8.301,11.719,155.273,-15.625,1812.808,302
82,1685412951.915,-0.977,476.562,17.09,-14.648,1812.811,302
83,1685412951.919,-18.066,188.965,8.301,-25.879,1812.815,302
84,1685412951.922,-32.715,397.461,55.664,-24.414,1812.82,302
85,1685412951.926,-15.625,650.391,43.457,-9.766,1812.823,302
86,1685412951.93,3.418,446.289,6.348,0.488,1812.827,303
87,1685412951.934,-8.301,286.621,19.531,-4.395,1812.831,303
88,1685412951.938,-18.555,403.809,34.668,-24.414,1812.835,303
89,1685412951.942,-8.301,280.273,20.996,-20.996,1812.839,303
90,1685412951.945,4.883,-112.793,-4.883,0.977,1812.843,303
91,1685412951.949,-7.812,-398.438,43.457,-11.23,1812.847,303
92,1685412951.953,-22.949,186.035,94.238,-38.086,1812.851,303
93,1685412951.957,-23.926,482.91,5.371,-38.574,1812.855,303
94,1685412951.961,-18.066,-39.551,26.855,-10.254,1812.859,303
95,1685412951.965,-23.438,-49.805,98.633,-5.859,1812.863,303
96,1685412951.966,-36.621,482.422,42.48,-32.227,1812.866,303
97,1685412951.97,-32.227,413.086,8.301,-35.645,1812.87,303
98,1685412951.974,-8.789,198.73,53.223,-13.672,1812.874,303
99,1685412951.978,-15.137,363.77,59.57,-19.531,1812.877,303
100,1685412951.982,-31.738,248.047,9.766,-36.133,1812.881,303
101,1685412951.986,-31.25,38.574,37.109,-35.156,1812.885,304
102,1685412951.989,-25.391,-529.785,18.066,-20.996,1812.889,304
103,1685412951.993,-16.113,-734.375,111.328,-1.953,1812.893,304
104,1685412951.997,-22.949,293.457,130.371,-10.742,1812.897,305
105,1685412952.001,-31.738,385.742,-1.953,-24.902,1812.901,305
106,1685412952.005,-30.273,136.23,29.297,-24.414,1812.905,305
107,1685412952.009,-20.02,442.871,50.293,-6.348,1812.909,305
108,1685412952.013,-11.719,418.945,30.273,-1.465,1812.931,305
109,1685412952.017,-30.273,-101.074,-2.441,-11.719,1812.935,305
110,1685412952.021,-26.855,-217.285,19.043,-8.789,1812.939,305
111,1685412952.025,-5.859,333.008,69.824,5.371,1812.943,305
112,1685412952.029,-11.719,492.676,23.926,2.441,1812.946,304
113,1685412952.033,-28.32,-120.117,-36.621,-20.996,1812.95,304
114,1685412952.036,-25.879,-799.805,62.012,-22.949,1812.954,304
115,1685412952.04,-16.602,-104.492,192.383,-21.484,1812.958,304
116,1685412952.044,-15.137,608.398,35.156,-22.461,1812.962,304
117,1685412952.048,-22.461,218.75,20.508,-37.598,1812.966,304
118,1685412952.052,-30.762,128.418,80.078,-54.688,1812.97,304
119,1685412952.056,-16.113,467.773,44.434,-37.598,1812.974,304
120,1685412952.071,-2.441,516.113,17.578,-15.137,1812.967,304
121,1685412952.075,-18.555,240.723,19.043,-28.32,1812.971,304
122,1685412952.079,-35.156,157.715,47.363,-42.969,1812.975,305
123,1685412952.083,-34.668,105.469,55.664,-34.18,1812.979,305
124,1685412952.087,-13.184,115.723,46.875,-10.742,1812.983,305
125,1685412952.091,-9.277,-393.066,12.695,-16.113,1812.987,306
126,1685412952.094,-34.668,-1000.0,104.004,-22.461,1812.99,306
127,1685412952.098,-31.738,-182.129,174.805,-20.996,1812.994,306
128,1685412952.102,-15.137,386.719,56.152,-11.719,1812.998,306
129,1685412952.106,-16.602,248.047,32.227,1.465,1813.002,306
130,1685412952.11,-12.695,402.832,53.711,-10.254,1813.006,305
131,1685412952.114,-20.996,473.633,40.039,-24.902,1813.01,305
132,1685412952.131,-14.16,242.676,17.09,-6.836,1813.029,305
133,1685412952.135,-0.488,200.684,20.996,5.859,1813.032,305
134,1685412952.139,-10.254,436.523,49.316,-18.555,1813.036,305
135,1685412952.143,-13.672,459.473,31.738,-24.902,1813.04,305
136,1685412952.147,-6.348,184.082,19.043,-11.719,1813.044,305
137,1685412952.151,10.742,-74.219,25.879,3.418,1813.048,305
138,1685412952.154,7.324,-42.969,41.992,-7.324,1813.052,305
139,1685412952.158,-8.789,176.758,52.734,-23.926,1813.056,305
140,1685412952.16,3.418,-168.457,66.406,-21.973,1813.058,306
141,1685412952.162,-11.23,-71.777,14.16,-16.602,1813.06,306
142,1685412952.164,13.672,-65.918,156.25,-9.277,1813.062,306
143,1685412952.166,-2.441,-672.852,90.332,-0.488,1813.064,306
144,1685412952.168,6.348,472.168,56.152,-9.766,1813.065,306
145,1685412952.17,13.672,-84.473,115.234,1.465,1813.068,306
146,1685412952.172,-14.16,360.352,1.953,-28.32,1813.069,306
147,1685412952.174,3.418,291.504,-7.812,-18.555,1813.072,306
148,1685412952.176,-34.18,-43.945,10.742,-31.738,1813.073,306
149,1685412952.18,-21.973,-201.66,38.574,-2.441,1813.077,306
150,1685412952.183,-7.812,64.453,68.848,2.441,1813.081,306
151,1685412952.187,-19.043,139.16,37.598,-23.438,1813.085,306
152,1685412952.191,-30.273,-205.566,67.383,-28.32,1813.089,305
153,1685412952.195,-27.832,24.902,117.676,-17.09,1813.093,305
154,1685412952.199,-15.625,524.902,58.105,-6.836,1813.097,305
155,1685412952.203,-9.766,468.262,-3.418,-10.742,1813.101,305
156,1685412952.207,-24.902,-576.172,-19.043,-28.809,1813.105,305
157,1685412952.211,-23.438,-683.105,114.746,-23.438,1813.109,305
158,1685412952.215,-2.93,441.895,112.305,-11.23,1813.113,305
159,1685412952.219,4.883,407.227,12.695,-14.648,1813.117,305
160,1685412952.223,0.488,138.184,-3.418,-20.996,1813.12,305
161,1685412952.227,-1.465,10.742,11.23,-26.367,1813.124,305
162,1685412952.23,-0.488,216.309,67.383,-17.578,1813.128,306
163,1685412952.234,-1.465,57.129,18.066,-0.977,1813.132,306
164,1685412952.238,-17.578,-469.727,49.805,-16.602,1813.136,306
165,1685412952.242,-35.156,144.531,103.516,-40.527,1813.14,306
166,1685412952.246,-30.273,473.633,7.324,-21.973,1813.144,306
167,1685412952.25,-20.508,-52.246,42.48,-5.859,1813.148,306
168,1685412952.25,-22.949,-87.891,112.793,-23.438,1813.147,306
169,1685412952.254,-33.203,397.461,50.781,-40.527,1813.151,306
170,1685412952.258,-20.996,362.305,13.672,-16.113,1813.155,306
171,1685412952.262,-10.254,193.848,39.062,10.254,1813.159,306
172,1685412952.266,-24.414,82.52,66.895,-14.16,1813.163,306
173,1685412952.27,-31.25,-85.449,26.855,-47.363,1813.167,306
174,1685412952.273,-25.391,4.883,47.363,-40.039,1813.171,305
175,1685412952.277,-23.438,-511.719,17.09,-15.625,1813.175,305
176,1685412952.281,-30.762,-718.262,80.566,-21.973,1813.179,305
177,1685412952.285,-40.527,280.273,109.375,-41.504,1813.183,305
178,1685412952.289,-30.273,299.805,14.16,-33.691,1813.186,304
179,1685412952.293,-11.719,112.793,34.18,-14.16,1813.19,304
180,1685412952.298,-13.184,437.988,53.223,-5.859,1813.198,304
181,1685412952.302,-23.926,350.586,29.297,-27.344,1813.202,305
182,1685412952.306,-37.109,-151.855,-29.297,-37.598,1813.206,305
183,1685412952.31,-41.992,-202.148,25.879,-27.344,1813.21,305
184,1685412952.314,-34.668,301.758,62.5,-23.926,1813.214,306
185,1685412952.318,-35.156,218.75,-1.465,-28.809,1813.217,306
186,1685412952.321,-44.434,-330.078,-2.441,-38.574,1813.221,306
187,1685412952.325,-36.621,-537.109,63.477,-28.809,1813.225,306
188,1685412952.329,-20.508,196.289,115.723,-16.113,1813.229,306
189,1685412952.333,-28.809,555.664,11.719,-32.227,1813.233,306
190,1685412952.337,-43.457,124.023,27.344,-46.387,1813.237,306
191,1685412952.34,-22.949,503.906,61.523,-15.625,1813.258,306
192,1685412952.341,-40.527,107.422,88.867,-35.156,1813.241,305
193,1685412952.344,-11.719,481.934,4.883,-7.324,1813.261,305
194,1685412952.348,-24.414,181.641,10.254,-28.32,1813.265,305
195,1685412952.352,-31.25,142.578,48.34,-35.645,1813.269,305
196,1685412952.356,-19.531,123.047,24.414,-11.719,1813.273,305
197,1685412952.36,-8.789,86.914,50.781,-7.812,1813.277,305
198,1685412952.363,-14.16,-473.633,5.371,-17.578,1813.281,305
199,1685412952.367,-20.508,-999.512,77.637,-13.184,1813.285,305
200,1685412952.371,-2.93,-89.844,187.988,-3.906,1813.289,305
201,1685412952.375,6.836,421.875,46.875,0.488,1813.293,305
202,1685412952.379,-2.441,177.734,7.812,-7.324,1813.297,305
203,1685412952.383,-10.742,299.805,69.824,-21.484,1813.301,305
204,1685412952.387,3.418,443.359,45.41,-5.371,1813.297,305
205,1685412952.391,17.578,241.211,-4.395,10.254,1813.301,305
206,1685412952.395,12.695,113.281,19.043,1.465,1813.305,306
207,1685412952.399,7.324,362.305,40.039,-7.812,1813.309,306
208,1685412952.403,3.906,436.523,19.043,-9.277,1813.313,306
209,1685412952.407,6.348,-83.984,-12.695,6.836,1813.317,306
210,1685412952.41,-0.488,-576.172,36.133,3.418,1813.321,306
211,1685412952.414,-10.742,-78.125,80.078,-27.344,1813.325,306
212,1685412952.418,-8.789,423.828,32.227,-32.715,1813.329,306
213,1685412952.422,-6.348,-81.543,-0.977,-7.324,1813.332,306
214,1685412952.426,-12.695,-367.676,45.898,15.625,1813.336,306
215,1685412952.43,-18.066,312.5,50.293,0.0,1813.34,306
216,1685412952.445,-14.16,383.301,0.0,-26.855,1813.342,305
217,1685412952.449,-15.137,131.836,30.273,-18.066,1813.346,305
218,1685412952.453,-13.672,260.254,53.223,-1.465,1813.35,306
219,1685412952.457,-17.09,415.039,21.484,-20.02,1813.354,306
220,1685412952.461,-25.391,142.578,13.672,-42.969,1813.358,306
221,1685412952.465,-15.137,-576.172,42.48,-24.414,1813.362,306
222,1685412952.468,5.371,-634.277,113.77,3.418,1813.366,306
223,1685412952.472,8.301,169.434,93.262,-1.953,1813.37,306
224,1685412952.476,-9.766,313.965,7.324,-25.879,1813.374,306
225,1685412952.48,-4.883,-576.172,42.969,-21.973,1813.377,305
226,1685412952.484,16.602,-458.008,153.32,11.719,1813.381,305
227,1685412952.488,39.551,506.836,78.613,29.785,1813.385,305
228,1685412952.507,20.02,260.254,-11.23,-4.883,1813.404,305
229,1685412952.511,-21.484,-32.227,20.02,-39.062,1813.408,305
230,1685412952.515,-18.066,262.207,78.125,-33.203,1813.412,305
231,1685412952.519,-1.953,493.652,49.805,-16.602,1813.416,305
232,1685412952.523,-8.789,216.309,0.488,-15.625,1813.419,303
233,1685412952.527,-29.785,-264.648,28.809,-25.879,1813.423,303
234,1685412952.53,-31.25,-122.559,100.586,-2.441,1813.427,303
235,1685412952.534,-21.973,428.711,85.449,20.02,1813.431,300
236,1685412952.536,-6.348,-210.938,72.266,38.086,1813.432,300
237,1685412952.538,-20.996,-20.508,1.465,11.719,1813.435,300
238,1685412952.54,-9.277,-149.414,132.324,32.227,1813.436,300
239,1685412952.542,-39.551,-617.676,62.5,-3.418,1813.439,300
240,1685412952.544,2.441,331.055,49.316,27.344,1813.44,300
241,1685412952.546,-35.156,73.73,109.863,5.371,1813.443,300
242,1685412952.548,20.996,342.773,16.113,50.781,1813.444,300
243,1685412952.55,-5.859,302.734,15.137,30.273,1813.447,300
244,1685412952.552,33.203,25.879,25.391,71.777,1813.448,300
245,1685412952.556,30.273,-210.449,21.973,60.059,1813.452,300
246,1685412952.559,36.621,-152.344,48.34,41.016,1813.456,300
247,1685412952.563,56.641,33.691,60.059,49.316,1813.46,302
248,1685412952.567,62.5,16.602,54.688,65.918,1813.464,302
249,1685412952.571,41.992,173.34,73.242,49.316,1813.468,302
250,1685412952.575,28.809,316.406,22.461,24.902,1813.471,307
251,1685412952.579,36.133,108.398,-20.02,32.715,1813.475,307
252,1685412952.597,47.363,-652.344,-2.441,53.711,1813.495,309
253,1685412952.601,42.969,-540.039,72.754,47.363,1813.499,309
254,1685412952.605,21.973,154.785,62.012,25.391,1813.503,319
255,1685412952.609,21.973,-222.168,9.277,33.203,1813.507,319
256,1685412952.613,31.738,-230.469,4.883,50.781,1813.51,319
257,1685412952.617,18.066,92.285,38.086,43.457,1813.514,326
258,1685412952.62,-6.348,17.578,34.18,19.043,1813.518,326
259,1685412952.624,-10.254,-378.906,11.23,11.719,1813.522,326
260,1685412952.626,-3.418,166.016,58.105,2.441,1813.538,326
261,1685412952.628,2.441,-554.199,70.801,24.902,1813.526,326
262,1685412952.63,8.789,453.125,33.203,8.789,1813.542,326
263,1685412952.632,9.766,203.125,99.609,23.438,1813.53,341
264,1685412952.634,1.953,365.723,3.906,-4.395,1813.546,341
265,1685412952.636,3.906,470.215,3.906,7.324,1813.534,341
266,1685412952.638,-9.766,89.844,1.465,-23.926,1813.55,341
267,1685412952.64,-7.812,104.98,20.996,-3.418,1813.538,341
268,1685412952.642,-0.488,-103.516,44.434,-12.695,1813.554,341
269,1685412952.646,10.742,-36.133,60.547,0.977,1813.558,354
270,1685412952.649,16.113,-41.504,25.391,-9.277,1813.562,354
271,1685412952.653,0.977,-285.156,59.082,-22.461,1813.566,354
272,1685412952.657,-1.465,-53.711,71.777,-22.949,1813.57,365
273,1685412952.661,18.555,372.559,35.645,1.465,1813.573,365
274,1685412952.665,17.09,398.926,9.277,-0.488,1813.577,365
275,1685412952.669,-2.441,-511.23,-42.969,-17.09,1813.581,365
276,1685412952.672,-7.812,-935.547,109.375,-14.16,1813.569,365
277,1685412952.676,-6.836,54.199,144.043,-8.789,1813.573,383
278,1685412952.68,-8.301,226.074,-12.695,-0.488,1813.577,383
279,1685412952.684,-16.602,55.176,6.348,-14.648,1813.581,383
280,1685412952.688,-29.785,297.363,27.344,-30.762,1813.585,399
281,1685412952.692,-29.297,212.891,20.996,-15.137,1813.589,399
282,1685412952.695,-25.391,-227.539,-3.418,-4.883,1813.593,399
283,1685412952.699,-27.344,-612.305,20.996,-16.602,1813.597,419
284,1685412952.703,-26.855,-86.426,83.008,-38.086,1813.6,419
285,1685412952.707,-22.949,464.355,22.461,-33.691,1813.604,419
286,1685412952.711,-21.484,-83.496,-1.953,-16.113,1813.608,419
287,1685412952.715,-21.973,-388.672,43.457,-17.578,1813.612,436
288,1685412952.716,-32.227,262.695,40.527,-33.203,1813.626,436
289,1685412952.72,-37.598,322.754,-2.93,-37.598,1813.63,436
290,1685412952.724,-16.113,149.902,33.691,-20.996,1813.634,436
291,1685412952.728,-4.883,284.18,34.668,-9.766,1813.638,452
292,1685412952.732,-18.066,116.699,16.113,-19.043,1813.642,452
293,1685412952.736,-20.508,-51.758,61.035,-29.785,1813.646,452
294,1685412952.739,-7.324,-539.551,12.207,-14.648,1813.65,467
295,1685412952.743,-3.906,-782.715,108.887,-3.418,1813.653,467
296,1685412952.747,-17.09,164.062,112.305,-24.902,1813.657,467
297,1685412952.751,-30.273,220.215,-9.766,-28.809,1813.661,467
298,1685412952.755,-19.531,-133.789,69.336,-1.465,1813.665,483
299,1685412952.759,3.906,234.863,97.656,14.648,1813.669,483
300,1685412952.762,12.695,507.324,35.645,11.23,1813.672,483
301,1685412952.766,-0.977,150.391,-15.137,-13.184,1813.676,483
302,1685412952.77,-2.93,-92.285,10.742,-4.883,1813.68,493
303,1685412952.774,11.23,325.195,77.637,19.531,1813.683,493
304,1685412952.778,12.207,549.316,30.273,18.066,1813.687,493
305,1685412952.782,-6.348,-86.914,-41.016,-8.301,1813.691,493
306,1685412952.785,-14.648,-597.168,1.953,-23.438,1813.695,506
307,1685412952.789,-3.906,23.438,84.473,-0.488,1813.699,506
308,1685412952.793,1.465,463.867,21.973,14.16,1813.703,506
309,1685412952.797,-11.23,-122.07,16.113,0.0,1813.707,516
310,1685412952.801,-13.672,-360.352,82.031,-7.812,1813.711,516
311,1685412952.805,7.812,256.348,61.035,8.789,1813.715,516
312,1685412952.821,16.113,270.996,-2.441,19.531,1813.717,523
313,1685412952.825,6.348,-295.41,66.406,9.277,1813.721,529
314,1685412952.829,-0.977,-234.375,127.441,-6.836,1813.725,529
315,1685412952.833,4.883,273.926,35.645,-10.742,1813.729,529
316,1685412952.837,19.043,175.293,6.348,5.371,1813.733,532
317,1685412952.841,16.602,-519.531,21.484,10.254,1813.737,532
318,1685412952.844,6.348,-737.305,87.891,-2.441,1813.741,532
319,1685412952.848,7.812,40.039,79.59,2.441,1813.745,532
320,1685412952.852,6.348,316.406,18.066,26.855,1813.748,533
321,1685412952.856,1.953,-270.508,57.129,22.461,1813.752,533
322,1685412952.86,-13.672,-198.242,100.586,-4.395,1813.756,533
323,1685412952.864,-20.02,340.332,45.41,-14.16,1813.76,533
324,1685412952.866,0.977,180.664,13.672,9.766,1813.764,531
325,1685412952.87,7.812,69.824,4.395,28.32,1813.768,531
326,1685412952.874,-5.371,226.562,17.578,4.883,1813.772,531
327,1685412952.878,-1.953,62.988,26.367,-15.625,1813.776,529
328,1685412952.882,8.789,-281.738,-4.395,-0.977,1813.78,529
329,1685412952.886,8.301,-486.816,-2.93,10.254,1813.784,529
330,1685412952.889,-5.371,-154.297,58.594,-6.348,1813.788,529
331,1685412952.893,-20.02,285.645,41.992,-25.391,1813.792,525
332,1685412952.897,-17.09,-187.988,4.395,-16.113,1813.796,525
333,1685412952.901,-8.789,-575.195,61.523,3.418,1813.8,525
334,1685412952.905,-19.043,182.129,80.566,-10.254,1813.803,525
335,1685412952.909,-34.668,321.289,-5.371,-32.715,1813.807,519
336,1685412952.911,-25.391,-46.875,20.02,-25.879,1813.807,519
337,1685412952.915,-4.395,86.426,53.711,-1.465,1813.811,519
338,1685412952.919,5.859,371.094,33.691,3.906,1813.815,510
339,1685412952.923,8.301,279.785,1.465,-13.672,1813.819,510
340,1685412952.927,-9.277,-209.473,-10.254,-33.203,1813.823,510
341,1685412952.931,-14.648,-352.539,42.969,-20.02,1813.827,502
342,1685412952.934,-11.23,-107.422,48.828,-2.441,1813.831,502
343,1685412952.938,-12.207,-26.855,37.109,-18.066,1813.835,502
344,1685412952.942,-19.043,-592.285,12.695,-33.203,1813.839,502
345,1685412952.946,-10.254,-895.02,100.586,-13.672,1813.842,502
346,1685412952.95,0.0,25.879,116.211,-4.395,1813.846,495
347,1685412952.954,-15.625,244.141,-4.883,-23.438,1813.85,495
348,1685412952.957,-19.043,-9.277,2.93,-35.156,1813.855,495
349,1685412952.961,-5.859,251.465,46.387,-31.25,1813.859,483
350,1685412952.965,5.859,439.941,31.25,-12.695,1813.863,483
351,1685412952.969,1.953,181.641,10.254,-6.348,1813.867,483
352,1685412952.973,-13.184,9.766,13.184,-28.809,1813.871,483
353,1685412952.977,-18.555,-30.273,25.879,-28.809,1813.875,472
354,1685412952.98,-2.441,-14.16,43.945,-4.395,1813.878,472
355,1685412952.984,3.418,-242.676,-3.418,0.0,1813.882,472
356,1685412952.988,-7.324,-735.84,21.484,-14.648,1813.886,462
357,1685412952.992,-11.719,-120.117,111.328,-25.391,1813.89,462
358,1685412952.996,-1.465,378.906,17.09,0.0,1813.894,462
359,1685412953.0,3.906,-149.902,15.625,11.23,1813.898,448
360,1685412953.001,-15.625,-226.562,106.934,-14.16,1813.897,448
361,1685412953.005,-28.809,222.656,57.129,-28.809,1813.901,448
362,1685412953.009,-14.16,196.289,6.348,-23.926,1813.905,448
363,1685412953.013,-3.418,78.613,12.207,-14.16,1813.909,448
364,1685412953.017,-20.508,-66.406,31.25,-18.555,1813.913,440
365,1685412953.021,-36.133,-243.164,28.809,-31.738,1813.917,440
366,1685412953.024,-31.738,-131.348,54.199,-33.691,1813.921,440
367,1685412953.028,5.371,-577.148,22.949,1.465,1813.925,440
368,1685412953.032,5.371,-778.809,91.309,-6.348,1813.929,429
369,1685412953.036,-34.18,120.605,110.352,-51.27,1813.933,429
370,1685412953.04,-25.391,158.691,-5.859,-33.691,1813.936,429
371,1685412953.044,0.488,-118.652,46.387,1.465,1813.94,418
372,1685412953.047,8.301,214.844,79.59,2.93,1813.944,418
373,1685412953.051,-5.371,423.828,39.551,-21.484,1813.948,418
374,1685412953.055,-21.484,18.555,-11.23,-29.785,1813.952,418
375,1685412953.059,-11.719,-181.641,4.395,-7.324,1813.956,406
376,1685412953.063,-9.277,249.512,35.645,6.348,1813.96,406
377,1685412953.067,-25.879,144.043,0.0,-14.648,1813.964,406
378,1685412953.07,-30.273,-441.406,-0.488,-20.996,1813.968,396
379,1685412953.074,-19.531,-659.668,67.871,1.465,1813.972,396
380,1685412953.078,-12.695,70.801,110.84,-0.977,1813.976,396
381,1685412953.082,-13.184,397.461,11.719,-18.066,1813.979,386
382,1685412953.086,-16.602,11.719,31.25,-26.367,1813.983,386
383,1685412953.09,-12.695,14.648,88.379,-14.16,1813.987,386
384,1685412953.092,2.441,323.73,44.922,8.789,1813.991,386
385,1685412953.096,5.859,196.289,-3.418,10.254,1813.995,386
386,1685412953.1,-5.371,-359.863,71.777,-9.277,1813.999,375
387,1685412953.104,-0.488,-252.93,124.512,-9.277,1814.003,375
388,1685412953.108,12.207,40.039,33.203,8.301,1814.007,375
389,1685412953.112,17.09,-93.262,38.086,10.254,1814.01,367
390,1685412953.115,0.0,-624.512,-0.488,-10.742,1814.014,367
391,1685412953.119,-20.508,-834.961,101.074,-27.344,1814.018,367
392,1685412953.123,-14.648,36.621,130.859,-11.719,1814.022,367
393,1685412953.127,-0.977,272.949,-3.906,7.812,1814.026,356
394,1685412953.131,-1.465,-6.348,7.324,-10.742,1814.03,356
395,1685412953.135,-7.812,99.121,47.363,-29.297,1814.034,356
396,1685412953.152,-1.953,314.941,48.828,-11.23,1814.05,334
397,1685412953.156,7.812,149.902,14.16,12.695,1814.053,334
398,1685412953.16,0.488,8.301,-3.418,4.395,1814.057,334
399,1685412953.164,-18.066,128.906,9.277,-20.02,1814.061,334
400,1685412953.168,-20.996,-0.977,41.504,-16.602,1814.065,334
401,1685412953.172,-2.93,-278.809,-15.625,7.324,1814.069,327
402,1685412953.175,5.859,-777.832,36.133,14.16,1814.073,327
403,1685412953.179,-8.789,-301.27,146.484,-22.461,1814.077,327
404,1685412953.183,-8.301,271.973,22.949,-25.879,1814.081,317
405,1685412953.187,4.395,42.969,59.082,-0.488,1814.085,317
406,1685412953.191,0.977,117.676,89.355,-2.441,1814.089,317
407,1685412953.195,-6.348,333.984,29.785,-15.137,1814.093,310
408,1685412953.195,-20.02,235.352,13.184,-22.949,1814.092,310
409,1685412953.199,-13.672,10.254,39.062,-8.301,1814.096,310
410,1685412953.203,0.977,152.344,75.195,2.441,1814.1,310
411,1685412953.207,-10.254,379.883,26.855,-16.113,1814.104,310
412,1685412953.211,-23.926,48.828,5.859,-35.156,1814.108,302
413,1685412953.215,-15.137,-409.668,53.711,-24.414,1814.112,302
414,1685412953.218,-3.418,-360.352,60.059,-2.441,1814.116,302
415,1685412953.222,-7.812,-150.391,29.785,-5.371,1814.12,291
416,1685412953.226,-24.414,-86.426,23.438,-24.414,1814.123,291
417,1685412953.23,-37.109,-590.82,19.043,-21.973,1814.127,291
418,1685412953.234,-19.043,-990.234,97.168,12.695,1814.131,287
419,1685412953.238,-12.695,-84.473,126.465,2.441,1814.135,287
420,1685412953.241,-24.902,207.52,6.348,-29.785,1814.139,287
421,1685412953.245,-20.508,-24.414,9.277,-22.949,1814.143,287
422,1685412953.249,-6.348,300.293,58.594,6.836,1814.147,287
423,1685412953.253,0.0,451.66,46.387,9.277,1814.151,276
424,1685412953.257,-14.16,151.855,3.906,-10.742,1814.155,276
425,1685412953.261,-18.555,-245.117,13.672,-15.137,1814.159,276
426,1685412953.264,-11.719,-68.359,70.801,-11.719,1814.163,269
427,1685412953.268,-4.883,456.543,61.523,-1.465,1814.167,269
428,1685412953.272,-8.301,-30.762,-13.184,-2.441,1814.171,269
429,1685412953.276,-14.648,-740.723,55.176,-13.672,1814.175,269
430,1685412953.28,-6.836,-51.27,125.488,-6.348,1814.178,260
431,1685412953.284,20.508,462.402,17.578,14.648,1814.182,260
432,1685412953.286,26.367,-51.758,33.203,20.508,1814.182,260
433,1685412953.29,5.859,-238.77,105.469,1.953,1814.186,260
434,1685412953.294,8.789,259.277,60.547,-6.348,1814.19,252
435,1685412953.298,18.555,334.473,3.418,17.578,1814.194,252
436,1685412953.302,13.184,-78.125,0.977,28.32,1814.198,252
437,1685412953.306,-1.465,-334.473,39.551,1.465,1814.202,245
438,1685412953.309,3.418,-253.418,70.801,-11.719,1814.206,245
439,1685412953.313,11.23,117.188,75.195,12.695,1814.21,245
440,1685412953.317,9.766,-422.852,-3.418,29.297,1814.214,245
441,1685412953.321,14.16,-728.027,55.664,16.113,1814.217,240
442,1685412953.325,10.742,201.172,73.73,0.977,1814.221,240
443,1685412953.329,14.648,115.723,12.207,13.672,1814.225,240
444,1685412953.345,19.531,-108.887,53.711,25.391,1814.242,237
445,1685412953.349,21.973,233.398,66.406,24.902,1814.246,237
446,1685412953.353,12.207,345.215,35.156,11.23,1814.25,237
447,1685412953.357,-9.277,13.672,10.742,-0.977,1814.254,237
448,1685412953.361,-1.465,-123.535,-9.766,14.16,1814.258,237
449,1685412953.365,3.906,-26.855,10.742,7.812,1814.262,237
450,1685412953.368,-3.906,35.645,43.945,-15.137,1814.266,237
451,1685412953.372,-0.977,-196.289,0.977,-17.578,1814.27,237
452,1685412953.376,5.371,-586.914,49.805,-1.953,1814.274,237
453,1685412953.38,8.789,88.379,105.469,-1.465,1814.277,237
454,1685412953.384,5.371,363.281,13.184,-10.742,1814.281,237
455,1685412953.388,0.0,-22.949,35.156,-8.789,1814.285,240
456,1685412953.39,3.906,34.18,75.684,1.465,1814.302,240
457,1685412953.394,13.184,348.145,42.969,19.531,1814.305,240
458,1685412953.398,5.859,163.086,6.836,8.789,1814.309,240
459,1685412953.402,-11.719,-404.297,35.645,-15.625,1814.313,240
460,1685412953.406,0.0,-477.539,74.707,-1.953,1814.317,240
461,1685412953.41,15.137,-177.734,38.574,17.09,1814.321,240
462,1685412953.413,6.348,-100.586,37.109,3.418,1814.325,240
463,1685412953.417,-6.836,-648.438,20.02,-9.277,1814.329,244
464,1685412953.421,4.883,-695.312,96.68,0.977,1814.333,244
465,1685412953.422,0.488,-313.965,146.973,-8.301,1814.319,244
466,1685412953.425,16.602,272.461,103.516,14.648,1814.337,244
467,1685412953.426,2.93,390.137,54.199,17.578,1814.323,248
468,1685412953.429,22.461,346.68,-21.484,19.531,1814.341,248
469,1685412953.43,5.859,204.59,1.465,25.391,1814.327,248
470,1685412953.433,19.531,-459.961,44.922,-0.977,1814.345,248
471,1685412953.434,3.418,25.391,10.742,13.184,1814.331,248
472,1685412953.438,-3.418,153.32,22.949,0.488,1814.335,248
473,1685412953.442,-3.418,68.848,29.785,19.531,1814.339,248
474,1685412953.445,12.695,-315.43,0.488,41.016,1814.343,250
475,1685412953.449,14.16,-667.48,63.477,23.926,1814.347,250
476,1685412953.453,4.883,-145.508,104.004,-1.465,1814.351,250
477,1685412953.457,13.672,330.566,15.137,10.254,1814.355,251
478,1685412953.461,22.949,-223.145,12.207,41.992,1814.359,251
479,1685412953.465,22.949,-548.828,46.387,40.527,1814.362,251
480,1685412953.465,11.719,131.348,66.406,13.672,1814.376,251
481,1685412953.469,10.254,312.5,4.395,15.137,1814.38,251
482,1685412953.473,31.738,-314.453,24.902,42.969,1814.384,251
483,1685412953.477,35.156,-318.359,88.867,38.574,1814.388,251
484,1685412953.481,22.949,45.41,24.414,11.23,1814.392,251
485,1685412953.485,25.879,-111.816,28.809,15.625,1814.396,249
486,1685412953.488,36.133,-541.016,29.785,46.387,1814.4,249
487,1685412953.492,37.109,-899.414,86.426,47.852,1814.403,249
488,1685412953.496,24.902,-100.586,95.215,21.973,1814.407,243
489,1685412953.5,11.23,200.195,5.371,10.742,1814.411,243
490,1685412953.504,14.16,-132.812,66.406,28.32,1814.415,243
491,1685412953.508,28.32,108.887,76.66,51.758,1814.419,243
492,1685412953.527,27.344,402.832,16.602,38.574,1814.425,231
493,1685412953.531,15.625,131.348,0.0,10.254,1814.429,231
494,1685412953.535,31.25,-32.227,18.066,13.184,1814.433,231
495,1685412953.539,41.504,323.73,66.406,29.297,1814.437,221
496,1685412953.543,33.203,440.918,27.832,26.367,1814.441,221
497,1685412953.547,26.855,-193.359,-38.574,16.602,1814.445,221
498,1685412953.55,23.438,-515.625,22.949,23.926,1814.449,221
499,1685412953.554,41.504,149.902,99.121,47.852,1814.452,212
500,1685412953.558,53.711,500.977,31.25,46.387,1814.456,212
501,1685412953.562,39.062,-145.996,13.184,26.855,1814.46,212
502,1685412953.566,28.32,-602.539,89.355,20.02,1814.464,206
503,1685412953.57,34.668,83.008,98.633,36.621,1814.468,206
504,1685412953.57,39.062,407.227,-6.836,45.898,1814.496,206
505,1685412953.574,29.785,-154.785,25.879,28.809,1814.499,206
506,1685412953.578,21.484,-292.969,131.348,16.602,1814.503,199
507,1685412953.582,27.832,214.844,33.203,23.438,1814.507,199
508,1685412953.586,41.016,93.75,-4.395,49.316,1814.511,199
509,1685412953.59,32.715,-323.73,42.48,43.945,1814.515,199
510,1685412953.593,19.531,-354.004,45.898,20.508,1814.519,199
511,1685412953.597,23.438,54.199,45.898,37.109,1814.523,193
512,1685412953.601,42.48,305.176,34.18,58.594,1814.527,193
513,1685412953.605,47.852,-487.793,-11.23,54.199,1814.531,193
514,1685412953.609,30.762,-816.406,80.566,42.969,1814.535,188
515,1685412953.613,33.691,69.336,96.191,41.504,1814.539,188
516,1685412953.618,49.805,73.73,-4.395,68.848,1814.519,188
517,1685412953.622,52.246,-106.934,27.832,61.523,1814.523,188
518,1685412953.626,31.738,181.152,40.039,30.273,1814.527,182
519,1685412953.63,32.227,291.992,33.203,32.227,1814.53,182
520,1685412953.634,56.641,-9.766,12.207,57.129,1814.534,182
521,1685412953.638,69.336,-344.238,-7.324,76.172,1814.538,176
522,1685412953.641,65.43,-188.477,51.758,60.059,1814.542,176
523,1685412953.645,46.875,139.16,52.734,42.48,1814.546,176
524,1685412953.649,53.711,-158.203,13.672,47.852,1814.55,172
525,1685412953.653,75.684,-396.484,33.203,62.012,1814.554,172
526,1685412953.657,67.383,178.711,59.082,62.988,1814.558,172
527,1685412953.661,56.152,318.359,20.02,47.852,1814.562,172
528,1685412953.661,62.988,-357.422,-3.418,60.059,1814.573,172
529,1685412953.665,71.289,-486.328,92.285,83.496,1814.577,170
530,1685412953.669,73.242,250.977,52.246,68.848,1814.581,170
531,1685412953.673,57.617,41.016,2.441,50.293,1814.585,170
532,1685412953.677,49.805,-371.094,37.109,52.734,1814.589,169
533,1685412953.681,66.406,-344.727,34.18,75.684,1814.593,169
534,1685412953.684,71.777,-123.047,52.734,83.008,1814.597,169
535,1685412953.688,54.199,73.73,67.871,53.711,1814.601,169
536,1685412953.692,48.828,-517.578,-13.184,54.199,1814.605,166
537,1685412953.696,58.105,-1000.0,69.336,70.312,1814.608,166
538,1685412953.7,63.965,-95.703,150.879,66.895,1814.612,166
539,1685412953.704,71.777,213.867,21.484,65.43,1814.616,166
540,1685412953.707,62.5,-85.938,7.812,54.688,1814.605,166
541,1685412953.711,67.383,151.855,51.27,62.5,1814.608,166
542,1685412953.715,87.402,397.949,33.203,86.426,1814.612,166
543,1685412953.719,86.914,176.27,-2.93,79.59,1814.616,167
544,1685412953.723,81.055,-113.77,-11.23,63.965,1814.62,167
545,1685412953.727,84.473,-184.082,11.719,77.637,1814.624,167
546,1685412953.73,95.215,-98.633,49.805,98.145,1814.628,169
547,1685412953.734,90.82,-305.664,-15.625,96.191,1814.632,169
548,1685412953.738,78.125,-663.574,28.809,82.031,1814.636,169
549,1685412953.742,84.473,-131.836,83.008,80.566,1814.64,169
550,1685412953.746,94.238,337.891,-8.789,94.238,1814.644,173
551,1685412953.75,89.844,-243.164,5.859,102.051,1814.648,173
552,1685412953.751,74.219,-557.617,49.316,84.961,1814.653,173
553,1685412953.755,66.406,137.695,47.852,61.035,1814.657,173
554,1685412953.759,77.637,208.984,8.789,79.102,1814.661,177
555,1685412953.763,95.703,-2.93,-3.418,101.074,1814.665,177
556,1685412953.767,83.008,-109.863,3.906,82.031,1814.668,177
557,1685412953.771,62.012,-236.816,23.438,66.406,1814.672,179
558,1685412953.774,68.848,-174.805,35.645,86.426,1814.676,179
559,1685412953.778,77.637,-563.477,8.789,109.375,1814.68,179
560,1685412953.782,73.73,-911.133,46.875,106.934,1814.684,179
561,1685412953.786,66.406,-185.547,65.43,85.449,1814.688,179
562,1685412953.79,73.73,104.492,6.836,89.355,1814.692,182
563,1685412953.794,89.844,-175.293,41.016,104.004,1814.696,182
564,1685412953.797,94.238,88.867,64.453,101.074,1814.695,182
565,1685412953.801,87.402,349.609,5.371,77.148,1814.699,186
566,1685412953.805,80.078,28.809,-16.113,62.012,1814.703,186
567,1685412953.809,78.125,-67.383,6.836,84.961,1814.707,186
568,1685412953.813,92.773,253.418,14.648,108.398,1814.711,186
569,1685412953.817,89.844,24.902,-0.977,96.68,1814.714,192
570,1685412953.82,65.918,-518.066,-28.809,77.148,1814.718,192
571,1685412953.824,67.871,-646.484,46.387,94.727,1814.722,192
572,1685412953.828,86.426,59.57,101.562,107.91,1814.726,193
573,1685412953.832,89.844,367.676,-1.465,95.703,1814.73,193
574,1685412953.836,74.219,-56.152,9.766,82.52,1814.734,193
575,1685412953.84,83.496,-329.102,50.781,94.238,1814.738,194
576,1685412953.841,104.004,45.898,62.5,111.328,1814.738,194
577,1685412953.845,102.539,334.961,-14.16,100.098,1814.742,194
578,1685412953.849,88.379,-253.418,21.973,91.309,1814.746,194
579,1685412953.853,85.449,-360.352,100.098,83.984,1814.75,194
580,1685412953.857,101.074,-73.73,12.695,96.191,1814.754,196
581,1685412953.861,112.305,-118.164,14.16,110.352,1814.758,196
582,1685412953.864,101.074,-588.379,-3.906,105.469,1814.762,196
583,1685412953.868,96.191,-867.676,94.727,103.516,1814.766,196
584,1685412953.872,108.398,-37.598,100.586,104.98,1814.77,199
585,1685412953.876,107.91,223.145,-8.789,111.328,1814.774,199
586,1685412953.88,95.215,-6.348,19.043,96.68,1814.778,199
587,1685412953.884,86.426,117.676,30.273,80.078,1814.781,204
588,1685412953.9,103.027,280.762,31.738,104.004,1814.797,209
589,1685412953.904,122.559,55.664,2.441,127.93,1814.801,209
590,1685412953.908,119.629,-169.922,-13.184,114.258,1814.805,209
591,1685412953.912,110.84,99.121,35.156,95.215,1814.809,214
592,1685412953.916,116.211,260.742,31.738,109.863,1814.813,214
593,1685412953.92,125.0,-214.844,-56.152,133.301,1814.817,214
594,1685412953.923,123.047,-827.637,18.066,130.371,1814.821,218
595,1685412953.927,105.469,-270.996,115.723,106.445,1814.825,218
596,1685412953.931,108.887,212.891,11.719,110.84,1814.829,218
597,1685412953.935,138.184,-21.973,48.828,130.371,1814.833,218
598,1685412953.939,136.719,-22.461,91.797,130.371,1814.837,221
599,1685412953.943,121.582,190.43,43.457,117.676,1814.84,221
600,1685412953.945,119.141,151.367,9.766,110.84,1814.843,221
601,1685412953.949,118.164,-84.961,27.832,119.141,1814.847,221
602,1685412953.953,128.906,43.457,68.359,127.93,1814.851,223
603,1685412953.957,121.582,171.875,20.02,124.512,1814.854,223
604,1685412953.961,106.934,-72.266,19.043,97.168,1814.858,223
605,1685412953.965,117.676,-638.184,18.066,114.258,1814.862,223
606,1685412953.968,125.977,-834.961,44.922,139.16,1814.866,227
607,1685412953.972,119.141,-228.027,63.965,114.258,1814.87,227
608,1685412953.976,107.91,-16.113,3.906,89.355,1814.874,227
609,1685412953.98,113.77,-581.055,60.547,107.422,1814.878,231
610,1685412953.984,133.789,-359.375,155.762,130.371,1814.882,231
611,1685412953.988,131.836,336.914,41.992,116.211,1814.886,231
612,1685412953.992,105.957,21.973,-15.137,93.262,1814.889,235
613,1685412953.996,82.031,-226.562,18.066,94.727,1814.893,235
614,1685412954.0,90.82,103.027,55.664,112.305,1814.897,235
615,1685412954.004,116.699,324.219,27.832,115.723,1814.901,235
616,1685412954.008,110.352,-4.883,-4.395,102.539,1814.904,236
617,1685412954.012,97.656,-445.312,20.996,92.773,1814.908,236
618,1685412954.015,98.633,-325.684,36.133,96.191,1814.912,236
619,1685412954.019,97.168,-75.684,36.621,96.191,1814.916,236
620,1685412954.023,98.633,-380.859,-14.648,96.68,1814.92,241
621,1685412954.027,89.355,-888.672,40.527,93.75,1814.924,241
622,1685412954.031,91.309,-280.273,122.559,90.332,1814.928,241
623,1685412954.035,109.863,239.746,11.719,94.727,1814.932,245
624,1685412954.036,112.305,-6.348,26.855,86.914,1814.947,245
625,1685412954.04,102.539,-66.406,58.594,78.125,1814.95,245
626,1685412954.044,96.68,150.391,44.434,82.031,1814.954,245
627,1685412954.048,103.027,187.012,22.461,102.051,1814.958,245
628,1685412954.052,102.051,-180.176,0.0,106.445,1814.962,251
629,1685412954.056,81.055,-413.574,17.09,80.078,1814.966,251
630,1685412954.059,86.426,-373.535,41.504,65.43,1814.97,251
631,1685412954.063,111.328,-183.105,37.109,88.379,1814.974,256
632,1685412954.067,103.027,-572.754,-8.301,106.445,1814.978,256
633,1685412954.071,87.891,-864.258,39.551,91.309,1814.982,256
634,1685412954.075,82.52,-76.66,76.172,72.266,1814.986,261
635,1685412954.079,83.984,101.562,1.465,85.449,1814.99,261
636,1685412954.082,88.379,-228.027,7.812,95.215,1814.979,261
637,1685412954.086,80.078,-24.414,51.27,83.984,1814.983,261
638,1685412954.09,75.684,233.887,23.926,70.801,1814.987,264
639,1685412954.094,83.984,-23.926,-3.418,71.777,1814.991,264
640,1685412954.098,85.938,-147.949,-21.973,87.402,1814.995,264
641,1685412954.102,82.52,-118.652,-1.465,80.566,1814.999,268
642,1685412954.105,73.242,-150.879,27.344,68.359,1815.003,268
643,1685412954.109,75.195,-333.008,13.184,79.59,1815.007,268
644,1685412954.113,88.867,-360.84,43.457,99.121,1815.011,268
645,1685412954.117,91.797,159.18,43.945,109.375,1815.014,270
646,1685412954.121,79.102,295.41,-12.207,88.867,1815.018,270
647,1685412954.125,64.453,-406.25,-16.113,72.754,1815.022,270
648,1685412954.141,71.289,-731.445,57.617,101.562,1815.038,273
649,1685412954.145,85.449,91.309,55.664,106.934,1815.042,274
650,1685412954.149,64.453,244.629,-25.391,77.637,1815.046,274
651,1685412954.153,44.434,-346.191,-12.207,59.082,1815.05,274
652,1685412954.157,66.895,-561.035,35.156,72.754,1815.054,274
653,1685412954.161,80.566,-267.578,18.066,90.82,1815.058,273
654,1685412954.164,66.406,-126.953,10.254,82.031,1815.062,273
655,1685412954.168,50.781,-599.609,-20.996,67.871,1815.066,273
656,1685412954.172,48.828,-838.379,56.641,64.453,1815.069,270
657,1685412954.172,36.133,114.746,13.184,41.992,1815.07,270
658,1685412954.176,47.363,314.453,5.371,53.223,1815.074,270
659,1685412954.176,58.105,48.828,81.055,71.777,1815.073,270
660,1685412954.18,59.57,253.418,-26.367,68.848,1815.077,270
661,1685412954.18,47.363,42.48,-41.992,46.875,1815.078,270
662,1685412954.184,29.785,-276.367,-34.18,28.809,1815.081,268
663,1685412954.184,44.922,-26.367,-19.043,47.852,1815.081,268
664,1685412954.188,22.949,-6.836,0.977,23.438,1815.085,268
665,1685412954.192,40.527,-31.738,-24.414,46.387,1815.089,268
666,1685412954.195,49.316,-406.25,-22.949,57.129,1815.093,268
667,1685412954.199,44.922,-339.355,5.859,40.039,1815.097,268
668,1685412954.203,33.203,99.121,9.277,20.02,1815.101,266
669,1685412954.207,30.762,284.668,-2.441,33.691,1815.105,266
670,1685412954.211,42.969,-213.867,-33.691,57.129,1815.109,266
671,1685412954.215,29.785,-768.066,22.949,34.18,1815.113,265
672,1685412954.216,13.672,-108.398,62.5,7.324,1815.112,265
673,1685412954.22,15.625,176.758,-27.344,9.277,1815.116,265
674,1685412954.224,23.438,-26.855,-12.207,28.809,1815.12,265
675,1685412954.228,15.625,45.898,-15.137,22.949,1815.124,264
676,1685412954.232,-2.441,-80.566,-43.457,-10.742,1815.128,264
677,1685412954.236,-6.348,-248.535,11.719,-16.113,1815.132,264
678,1685412954.239,8.789,-621.582,-26.367,14.16,1815.136,264
679,1685412954.243,12.695,-1000.0,38.574,18.555,1815.14,262
680,1685412954.247,-7.324,-321.777,82.031,-10.742,1815.143,262
681,1685412954.251,-13.184,49.805,-25.391,-20.996,1815.147,262
682,1685412954.255,-6.348,-159.18,-23.926,-7.324,1815.151,263
683,1685412954.259,-3.418,59.57,-20.996,0.977,1815.155,263
684,1685412954.262,-16.113,335.938,-3.906,-21.484,1815.171,263
685,1685412954.266,-31.738,77.148,-41.016,-34.668,1815.175,264
686,1685412954.27,-28.32,-150.879,-38.574,-16.602,1815.179,264
687,1685412954.274,-11.23,212.891,22.461,-2.93,1815.183,264
688,1685412954.278,-15.137,366.211,-26.367,-14.16,1815.187,264
689,1685412954.282,-31.25,-235.84,-108.398,-29.297,1815.191,267
690,1685412954.285,-34.18,-689.941,-25.391,-31.738,1815.195,267
691,1685412954.289,-16.113,-201.66,49.316,-15.137,1815.199,267
692,1685412954.293,-9.766,208.496,-5.371,-9.766,1815.202,267
693,1685412954.297,-36.621,-202.148,-24.902,-33.203,1815.206,271
694,1685412954.301,-45.898,-421.387,9.277,-43.457,1815.21,271
695,1685412954.305,-36.621,191.406,10.254,-34.668,1815.214,271
696,1685412954.321,-29.297,281.25,-31.738,-32.227,1815.217,275
697,1685412954.325,-40.039,-25.879,-26.367,-57.617,1815.221,280
698,1685412954.329,-58.105,-39.062,11.23,-78.125,1815.225,280
699,1685412954.333,-47.852,174.805,-31.738,-55.664,1815.229,280
700,1685412954.337,-36.133,26.855,-34.668,-39.062,1815.233,283
701,1685412954.341,-40.039,-618.652,-25.879,-49.805,1815.237,283
702,1685412954.344,-43.457,-806.641,10.254,-58.594,1815.241,283
703,1685412954.348,-41.504,-21.973,28.32,-56.152,1815.245,283
704,1685412954.352,-32.227,220.703,-17.09,-44.434,1815.248,287
705,1685412954.356,-38.086,-201.66,2.93,-55.664,1815.252,287
706,1685412954.36,-52.734,-329.59,28.809,-76.66,1815.256,287
707,1685412954.364,-53.223,87.402,22.949,-79.59,1815.26,293
708,1685412954.366,-41.016,145.508,-17.578,-57.129,1815.262,293
709,1685412954.37,-38.574,-156.738,-12.695,-41.504,1815.266,293
710,1685412954.374,-58.594,23.926,10.742,-65.43,1815.27,293
711,1685412954.378,-72.266,218.75,0.977,-78.613,1815.274,298
712,1685412954.382,-51.27,34.18,-25.879,-60.059,1815.278,298
713,1685412954.386,-40.527,-276.367,-25.879,-48.828,1815.282,298
714,1685412954.389,-64.941,-140.625,8.789,-67.383,1815.286,298
715,1685412954.393,-72.266,185.547,9.277,-89.355,1815.289,302
716,1685412954.397,-60.547,-237.793,-30.762,-75.684,1815.293,302
717,1685412954.401,-53.711,-638.672,0.0,-44.922,1815.297,302
718,1685412954.405,-62.988,12.207,46.387,-61.035,1815.301,307
719,1685412954.409,-71.289,218.262,-19.043,-85.449,1815.305,307
720,1685412954.411,-59.082,-183.105,-29.297,-69.336,1815.307,307
721,1685412954.415,-39.551,-201.172,11.719,-51.758,1815.311,307
722,1685412954.419,-40.527,181.641,15.625,-51.758,1815.315,311
723,1685412954.423,-57.617,232.422,-25.391,-74.219,1815.319,311
724,1685412954.427,-55.176,-498.535,-57.129,-70.312,1815.323,311
725,1685412954.431,-40.527,-835.938,20.508,-44.434,1815.327,311
726,1685412954.434,-43.457,-217.773,68.848,-46.875,1815.331,316
727,1685412954.438,-58.594,68.359,-3.418,-66.895,1815.335,316
728,1685412954.442,-65.43,-497.07,11.23,-76.66,1815.339,316
729,1685412954.446,-60.059,-432.129,101.562,-61.035,1815.342,322
730,1685412954.45,-53.223,374.023,24.414,-53.711,1815.346,322
731,1685412954.454,-67.383,245.605,-22.461,-73.242,1815.35,322
732,1685412954.457,-81.543,-30.762,-9.766,-87.891,1815.355,322
733,1685412954.461,-66.895,147.949,27.832,-73.242,1815.358,322
734,1685412954.465,-57.129,328.613,23.438,-53.711,1815.362,327
735,1685412954.469,-62.5,-73.73,-32.715,-65.918,1815.366,327
736,1685412954.473,-72.266,-495.117,-42.969,-88.379,1815.37,327
737,1685412954.477,-70.801,-291.504,26.855,-85.449,1815.374,331
738,1685412954.48,-64.941,-58.594,46.387,-71.289,1815.378,331
739,1685412954.484,-75.684,-307.617,-19.531,-81.543,1815.382,331
740,1685412954.488,-86.426,-639.16,34.668,-99.121,1815.386,333
741,1685412954.492,-86.914,-21.484,82.031,-97.656,1815.39,333
742,1685412954.496,-74.219,356.934,1.465,-74.219,1815.394,333
743,1685412954.5,-63.965,109.375,22.949,-62.5,1815.397,333
744,1685412954.5,-64.941,45.41,58.105,-73.242,1815.397,333
745,1685412954.504,-70.801,235.352,37.109,-84.961,1815.401,336
746,1685412954.508,-69.336,265.137,9.766,-73.73,1815.405,336
747,1685412954.512,-66.406,77.148,-16.113,-64.941,1815.409,336
748,1685412954.516,-84.473,-155.762,-9.277,-81.055,1815.413,338
749,1685412954.52,-92.773,-292.969,25.879,-94.727,1815.417,338
750,1685412954.523,-85.449,-167.969,50.293,-81.055,1815.421,338
751,1685412954.527,-78.613,-530.762,-15.625,-65.918,1815.425,338
752,1685412954.531,-80.566,-1000.0,58.594,-78.125,1815.429,340
753,1685412954.535,-93.262,-218.75,126.953,-100.098,1815.432,340
754,1685412954.539,-95.703,171.875,-0.488,-95.215,1815.436,340
755,1685412954.543,-76.66,55.176,24.414,-75.684,1815.44,340
756,1685412954.547,-73.73,313.477,35.645,-84.961,1815.445,341
757,1685412954.551,-90.332,414.551,19.531,-107.422,1815.448,341
758,1685412954.555,-102.539,114.746,-8.301,-106.934,1815.452,341
759,1685412954.559,-91.797,-7.812,3.418,-85.449,1815.456,340
760,1685412954.563,-83.008,289.062,5.371,-78.613,1815.46,340
761,1685412954.567,-85.938,117.676,-9.766,-87.891,1815.464,340
762,1685412954.57,-89.355,-356.445,-15.625,-94.727,1815.468,340
763,1685412954.574,-85.449,-605.957,27.832,-82.031,1815.472,340
764,1685412954.578,-71.289,-150.391,85.449,-67.871,1815.476,340
765,1685412954.582,-80.566,223.633,0.977,-83.984,1815.48,340
766,1685412954.586,-98.633,-206.543,14.16,-108.398,1815.484,339
767,1685412954.59,-97.656,-309.082,82.031,-104.004,1815.488,339
768,1685412954.591,-84.473,320.801,35.156,-82.031,1815.487,339
769,1685412954.595,-86.426,327.637,-11.23,-83.496,1815.491,339
770,1685412954.599,-101.562,59.57,24.414,-119.629,1815.495,339
771,1685412954.603,-104.492,44.922,37.598,-117.676,1815.499,339
772,1685412954.607,-89.355,31.738,-8.301,-78.125,1815.503,339
773,1685412954.611,-78.125,-34.18,1.953,-82.031,1815.507,340
774,1685412954.614,-86.914,-559.57,0.977,-111.328,1815.511,340
775,1685412954.618,-96.191,-831.543,95.703,-123.047,1815.515,340
776,1685412954.622,-88.867,86.914,105.957,-105.957,1815.519,340
777,1685412954.626,-74.707,342.773,13.672,-93.262,1815.523,339
778,1685412954.63,-80.078,23.926,18.555,-112.305,1815.526,339
779,1685412954.634,-92.773,-80.078,45.898,-126.465,1815.53,339
780,1685412954.638,-84.473,212.891,74.219,-105.469,1815.538,339
781,1685412954.642,-69.336,248.535,-0.977,-86.426,1815.542,339
782,1685412954.646,-77.148,-159.668,27.832,-97.656,1815.546,339
783,1685412954.65,-92.285,55.176,83.008,-112.793,1815.55,339
784,1685412954.654,-87.402,321.777,30.762,-97.168,1815.554,339
785,1685412954.658,-73.73,-78.613,-39.062,-67.871,1815.558,338
786,1685412954.661,-75.684,-563.477,42.969,-74.707,1815.562,338
787,1685412954.665,-93.262,-41.504,109.375,-105.469,1815.566,338
788,1685412954.669,-89.355,321.777,19.531,-103.516,1815.569,338
789,1685412954.673,-78.613,146.484,86.914,-85.449,1815.573,338
790,1685412954.677,-73.73,113.77,76.172,-91.309,1815.577,338
791,1685412954.681,-84.473,214.355,12.207,-112.793,1815.581,339
792,1685412954.696,-97.656,258.789,28.32,-104.98,1815.593,339
793,1685412954.7,-80.566,-49.316,26.367,-74.219,1815.597,339
794,1685412954.704,-67.871,-28.809,61.523,-62.5,1815.601,339
795,1685412954.708,-85.449,248.047,-0.977,-77.637,1815.605,340
796,1685412954.712,-92.285,41.504,-12.207,-87.402,1815.609,340
797,1685412954.716,-84.473,-523.438,-3.418,-83.496,1815.613,340
798,1685412954.719,-83.984,-1000.0,46.387,-72.754,1815.617,340
799,1685412954.723,-82.52,-276.367,119.141,-77.148,1815.62,339
800,1685412954.727,-83.496,257.812,26.367,-90.332,1815.624,339
801,1685412954.731,-83.984,56.152,54.688,-86.426,1815.628,339
802,1685412954.735,-71.289,301.758,66.406,-80.078,1815.632,339
803,1685412954.739,-49.805,525.391,24.414,-74.219,1815.636,338
804,1685412954.742,-53.711,265.625,0.977,-78.125,1815.64,338
805,1685412954.746,-78.125,43.457,19.043,-103.027,1815.644,338
806,1685412954.75,-80.566,333.496,57.617,-103.516,1815.648,337
807,1685412954.754,-68.848,515.625,44.434,-80.078,1815.652,337
808,1685412954.758,-66.895,146.484,-0.977,-75.195,1815.655,337
809,1685412954.762,-77.148,-314.453,-1.465,-78.125,1815.659,338
810,1685412954.765,-79.59,-138.184,73.73,-59.57,1815.663,338
811,1685412954.769,-70.312,395.02,81.543,-48.828,1815.667,338
812,1685412954.773,-67.871,39.551,-3.906,-62.988,1815.671,338
813,1685412954.777,-82.031,-729.492,83.984,-77.148,1815.675,338
814,1685412954.781,-79.59,-39.551,163.574,-75.684,1815.679,337
815,1685412954.785,-63.965,504.395,45.41,-66.406,1815.683,337
816,1685412954.786,-64.453,226.562,37.598,-73.242,1815.682,337
817,1685412954.79,-71.289,146.484,80.566,-79.59,1815.686,337
818,1685412954.794,-73.73,354.004,87.891,-67.383,1815.69,336
819,1685412954.798,-60.059,429.199,48.34,-55.664,1815.694,336
820,1685412954.802,-50.293,103.027,29.297,-51.758,1815.698,336
821,1685412954.806,-55.176,-206.055,54.688,-62.012,1815.702,335
822,1685412954.809,-57.617,-183.594,59.082,-71.289,1815.706,335
823,1685412954.813,-47.852,74.219,82.031,-66.406,1815.709,335
824,1685412954.817,-38.086,-380.859,20.508,-50.781,1815.713,335
825,1685412954.821,-41.992,-980.469,84.473,-58.105,1815.717,331
826,1685412954.825,-53.223,-119.629,168.457,-67.871,1815.721,331
827,1685412954.829,-57.129,303.223,35.645,-58.594,1815.725,331
828,1685412954.832,-44.922,180.176,54.688,-48.34,1815.729,330
829,1685412954.836,-46.387,439.941,91.309,-50.781,1815.733,330
830,1685412954.84,-59.082,493.652,63.477,-69.824,1815.737,330
831,1685412954.844,-56.152,229.492,48.34,-64.941,1815.741,330
832,1685412954.848,-37.598,107.422,34.18,-44.434,1815.745,328
833,1685412954.852,-32.715,80.078,39.551,-46.875,1815.749,328
834,1685412954.855,-46.387,185.059,80.078,-59.082,1815.753,328
835,1685412954.859,-50.293,37.598,35.645,-61.035,1815.756,328
836,1685412954.863,-46.387,-400.879,72.266,-48.34,1815.76,327
837,1685412954.867,-50.781,8.301,128.906,-50.781,1815.764,327
838,1685412954.871,-65.918,297.852,34.668,-70.801,1815.768,327
839,1685412954.875,-62.012,-123.047,55.664,-71.289,1815.772,325
840,1685412954.876,-43.457,-150.879,143.066,-56.152,1815.772,325
841,1685412954.88,-31.25,450.195,90.82,-48.828,1815.776,325
842,1685412954.884,-37.598,416.504,27.832,-54.688,1815.78,325
843,1685412954.888,-51.758,217.773,55.664,-72.754,1815.784,323
844,1685412954.892,-56.641,122.07,78.125,-69.336,1815.788,323
845,1685412954.896,-49.316,102.051,61.523,-62.012,1815.792,323
846,1685412954.899,-52.246,140.625,61.523,-75.684,1815.796,323
847,1685412954.903,-65.43,-501.953,25.391,-74.219,1815.8,322
848,1685412954.907,-61.523,-755.371,130.371,-65.43,1815.804,322
849,1685412954.911,-46.875,297.363,175.293,-60.059,1815.808,322
850,1685412954.915,-48.828,522.461,27.344,-58.594,1815.811,321
851,1685412954.919,-58.594,170.41,37.109,-66.895,1815.815,321
852,1685412954.924,-57.617,116.211,90.332,-64.453,1815.824,321
853,1685412954.928,-46.387,456.543,107.422,-48.34,1815.828,321
854,1685412954.932,-33.691,397.461,15.625,-35.645,1815.831,320
855,1685412954.936,-39.062,-41.504,38.574,-60.059,1815.835,320
856,1685412954.94,-51.27,198.73,96.191,-69.824,1815.839,320
857,1685412954.944,-44.922,276.367,58.594,-47.363,1815.843,321
858,1685412954.947,-43.945,-51.758,12.695,-43.457,1815.847,321
859,1685412954.951,-60.547,-407.227,76.172,-59.082,1815.851,321
860,1685412954.955,-66.406,112.305,164.062,-80.566,1815.855,320
861,1685412954.959,-52.734,558.105,45.41,-66.895,1815.859,320
862,1685412954.963,-43.457,349.609,69.336,-55.176,1815.863,320
863,1685412954.965,-69.336,542.969,73.242,-79.102,1815.876,320
864,1685412954.967,-56.152,343.262,111.816,-59.57,1815.867,320
865,1685412954.969,-62.5,504.395,35.156,-79.102,1815.88,320
866,1685412954.973,-45.41,203.613,48.828,-46.875,1815.884,319
867,1685412954.977,-41.504,196.289,69.336,-49.316,1815.888,319
868,1685412954.981,-43.457,232.91,32.227,-77.148,1815.892,319
869,1685412954.985,-40.039,153.32,57.617,-80.566,1815.896,319
870,1685412954.988,-33.203,-308.105,17.578,-54.199,1815.9,319
871,1685412954.992,-30.762,-1000.0,54.688,-48.828,1815.904,319
872,1685412954.996,-43.945,-310.059,158.203,-70.312,1815.908,319
873,1685412955.0,-50.293,387.695,66.406,-74.219,1815.911,320
874,1685412955.004,-40.039,263.672,63.477,-58.105,1815.915,320
875,1685412955.008,-33.691,498.047,91.309,-44.922,1815.919,320
876,1685412955.027,-45.898,636.719,41.016,-70.801,1815.924,320
877,1685412955.031,-57.617,353.027,20.508,-91.797,1815.928,320
878,1685412955.035,-48.828,182.129,47.363,-69.824,1815.932,320
879,1685412955.039,-38.086,523.438,61.035,-52.246,1815.936,320
880,1685412955.043,-43.457,563.965,29.785,-50.781,1815.94,319
881,1685412955.047,-59.082,14.648,-43.457,-71.289,1815.944,319
882,1685412955.05,-52.246,-476.074,23.926,-70.801,1815.948,319
883,1685412955.054,-34.668,51.758,124.512,-42.48,1815.952,319
884,1685412955.058,-37.598,655.762,47.363,-37.598,1815.956,319
885,1685412955.062,-58.594,59.082,0.977,-59.57,1815.959,319
886,1685412955.066,-70.312,-347.168,63.965,-73.73,1815.963,318
887,1685412955.07,-55.664,441.895,86.914,-62.012,1815.967,318
888,1685412955.07,-38.086,671.387,16.113,-50.781,1815.968,318
889,1685412955.074,-42.969,314.941,20.996,-65.43,1815.972,318
890,1685412955.078,-51.27,270.508,75.684,-64.941,1815.976,318
891,1685412955.082,-41.504,558.594,61.523,-49.805,1815.98,319
892,1685412955.086,-25.879,431.641,33.691,-40.527,1815.984,319
893,1685412955.09,-33.691,54.688,38.574,-53.223,1815.988,319
894,1685412955.093,-50.293,-0.977,56.641,-69.824,1815.991,320
895,1685412955.097,-48.34,184.57,56.152,-53.223,1815.995,320
896,1685412955.101,-39.062,352.051,41.504,-30.762,1815.999,320
897,1685412955.105,-42.48,-246.582,2.441,-31.738,1816.003,320
898,1685412955.109,-48.828,-965.332,49.316,-46.387,1816.007,320
899,1685412955.113,-41.504,-129.883,123.047,-55.664,1816.011,320
900,1685412955.116,-24.414,451.172,24.902,-38.086,1816.014,320
901,1685412955.12,-8.789,348.145,5.371,-19.531,1816.018,320
902,1685412955.124,-32.715,531.738,38.086,-59.57,1816.022,320
903,1685412955.128,-68.359,630.859,30.762,-88.379,1816.026,320
904,1685412955.132,-59.082,404.785,12.695,-72.266,1816.03,320
905,1685412955.136,-44.434,86.426,6.348,-65.43,1816.034,320
906,1685412955.139,-53.223,263.184,43.945,-76.66,1816.038,320
907,1685412955.143,-61.523,614.746,48.34,-83.984,1816.042,320
908,1685412955.147,-57.617,222.656,-3.906,-66.406,1816.045,320
909,1685412955.151,-48.828,-277.344,33.691,-46.875,1816.049,320
910,1685412955.155,-53.711,145.508,91.309,-66.406,1816.053,320
911,1685412955.159,-66.406,422.363,19.043,-93.75,1816.057,320
912,1685412955.161,-56.641,42.48,32.227,-81.543,1816.086,320
913,1685412955.165,-44.922,40.039,110.352,-67.871,1816.09,321
914,1685412955.169,-44.434,599.609,52.734,-79.102,1816.094,321
915,1685412955.173,-48.34,525.879,4.883,-89.355,1816.098,321
916,1685412955.177,-52.246,156.738,18.555,-76.172,1816.101,321
917,1685412955.181,-48.828,26.855,38.086,-51.758,1816.105,321
918,1685412955.184,-40.527,197.266,53.223,-51.758,1816.109,321
919,1685412955.188,-48.34,470.215,51.758,-76.66,1816.113,321
920,1685412955.192,-61.523,-253.906,-6.348,-74.707,1816.117,320
921,1685412955.196,-47.363,-551.758,77.637,-50.781,1816.121,320
922,1685412955.2,-34.668,563.477,92.285,-46.875,1816.125,320
923,1685412955.204,-39.062,617.188,-4.883,-62.5,1816.129,320
924,1685412955.208,-51.758,224.121,6.348,-70.801,1816.109,320
925,1685412955.212,-45.898,272.949,45.898,-51.758,1816.113,320
926,1685412955.216,-30.762,644.043,58.594,-36.133,1816.117,320
927,1685412955.22,-39.551,489.258,2.93,-54.688,1816.121,320
928,1685412955.224,-50.781,12.695,4.883,-72.266,1816.125,320
929,1685412955.228,-47.852,148.438,48.828,-64.453,1816.128,320
930,1685412955.231,-35.156,354.98,51.27,-41.016,1816.132,320
931,1685412955.235,-34.18,109.863,5.371,-48.828,1816.136,320
932,1685412955.239,-48.34,-211.914,26.855,-79.59,1816.14,320
933,1685412955.243,-46.875,314.941,82.52,-67.871,1816.144,320
934,1685412955.247,-39.551,709.961,18.066,-50.781,1816.148,320
935,1685412955.251,-40.527,354.004,38.086,-48.828,1816.152,320
936,1685412955.251,-44.922,231.445,88.379,-57.617,1816.147,320
937,1685412955.255,-45.898,611.328,46.387,-65.43,1816.151,320
938,1685412955.259,-32.715,637.207,4.883,-53.711,1816.155,320
939,1685412955.263,-32.227,278.809,26.367,-39.551,1816.159,320
940,1685412955.267,-49.805,94.238,62.5,-54.688,1816.163,320
941,1685412955.271,-62.5,141.602,39.551,-73.73,1816.167,320
942,1685412955.274,-51.27,264.16,47.363,-57.129,1816.171,320
943,1685412955.278,-35.645,-138.672,14.16,-42.969,1816.175,320
944,1685412955.282,-34.668,-1000.0,39.062,-38.086,1816.178,320
945,1685412955.286,-52.246,-293.457,118.652,-48.34,1816.182,319
946,1685412955.29,-56.152,540.039,47.363,-57.129,1816.186,319
947,1685412955.294,-41.016,497.559,40.039,-43.457,1816.19,319
948,1685412955.297,-42.969,698.242,61.523,-50.293,1816.206,319
949,1685412955.301,-48.34,811.035,38.086,-65.43,1816.21,319
950,1685412955.305,-40.527,534.18,10.254,-60.547,1816.214,319
951,1685412955.309,-30.762,421.387,17.578,-53.223,1816.218,319
952,1685412955.313,-35.156,705.566,18.555,-51.27,1816.222,319
953,1685412955.317,-55.176,497.07,21.973,-59.082,1816.226,319
954,1685412955.32,-66.406,24.414,-17.09,-76.172,1816.23,319
955,1685412955.324,-54.199,-411.621,59.082,-69.336,1816.234,319
956,1685412955.328,-37.109,241.211,154.785,-53.711,1816.238,319
957,1685412955.332,-37.598,816.406,7.324,-55.176,1816.241,319
958,1685412955.336,-49.805,315.43,61.523,-59.082,1816.245,319
959,1685412955.34,-48.34,298.34,152.832,-48.828,1816.249,319
960,1685412955.341,-41.016,764.648,67.871,-42.969,1816.251,319
961,1685412955.345,-40.039,756.836,6.836,-46.875,1816.255,319
962,1685412955.349,-47.852,423.828,28.32,-62.5,1816.259,319
963,1685412955.353,-55.664,433.105,62.5,-64.941,1816.263,319
964,1685412955.357,-44.922,460.938,46.387,-41.016,1816.266,318
965,1685412955.361,-32.715,410.156,44.434,-37.598,1816.27,318
966,1685412955.364,-42.969,-240.723,13.184,-53.711,1816.274,318
967,1685412955.368,-55.664,-610.84,94.238,-65.43,1816.278,317
968,1685412955.372,-48.34,273.926,123.535,-53.223,1816.282,317
969,1685412955.376,-41.992,526.367,24.414,-32.227,1816.286,317
970,1685412955.38,-45.41,-105.957,65.43,-50.781,1816.29,317
971,1685412955.384,-47.363,-25.879,139.648,-72.266,1816.294,317
972,1685412955.387,-38.574,723.145,58.594,-55.664,1816.296,317
973,1685412955.391,-21.484,603.516,7.324,-33.691,1816.3,317
974,1685412955.395,-38.086,489.258,20.508,-51.758,1816.304,317
975,1685412955.399,-57.617,666.016,42.969,-76.172,1816.308,317
976,1685412955.403,-38.574,803.711,46.387,-59.082,1816.312,317
977,1685412955.407,-28.32,334.961,-33.691,-26.855,1816.316,317
978,1685412955.41,-42.48,-144.531,38.086,-27.344,1816.32,317
979,1685412955.414,-48.34,420.41,121.582,-52.734,1816.324,317
980,1685412955.418,-41.992,732.91,18.066,-48.34,1816.328,317
981,1685412955.422,-33.203,423.828,57.617,-26.855,1816.332,317
982,1685412955.426,-32.227,388.672,100.098,-31.25,1816.335,316
983,1685412955.43,-39.551,436.523,55.664,-56.152,1816.339,316
984,1685412955.446,-39.062,492.676,46.387,-66.895,1816.342,315
985,1685412955.45,-32.227,236.328,56.641,-43.945,1816.346,315
986,1685412955.454,-29.297,176.27,123.047,-31.25,1816.35,315
987,1685412955.458,-40.039,614.258,41.992,-49.316,1816.354,315
988,1685412955.462,-54.688,454.59,9.766,-61.035,1816.358,315
989,1685412955.466,-51.27,-286.621,5.859,-35.156,1816.362,315
990,1685412955.469,-33.203,-459.961,92.285,-22.949,1816.366,315
991,1685412955.473,-29.785,534.668,96.68,-46.875,1816.37,315
992,1685412955.477,-42.969,610.352,-8.789,-60.059,1816.373,315
993,1685412955.481,-48.828,169.434,86.914,-53.711,1816.377,316
994,1685412955.485,-34.18,448.242,105.957,-30.762,1816.381,316
995,1685412955.489,-28.809,808.594,28.809,-34.668,1816.385,316
996,1685412955.493,-48.828,578.613,16.602,-55.664,1816.393,316
997,1685412955.497,-56.152,217.773,25.879,-58.105,1816.397,317
998,1685412955.501,-46.387,332.031,76.66,-53.223,1816.401,317
999,1685412955.505,-43.457,752.93,76.66,-46.875,1816.405,317
1000,1685412955.509,-52.246,500.977,-21.484,-58.594,1816.409,316
1001,1685412955.513,-56.152,-149.902,-22.949,-60.059,1816.413,316
1002,1685412955.516,-50.293,116.699,83.496,-43.945,1816.417,316
1003,1685412955.52,-43.945,773.438,62.5,-40.527,1816.421,316
1004,1685412955.524,-43.945,349.121,-23.438,-49.316,1816.425,316
1005,1685412955.528,-50.293,-281.738,62.5,-62.5,1816.428,316
1006,1685412955.532,-40.527,315.43,111.328,-54.688,1816.432,316
1007,1685412955.536,-32.715,605.957,-2.441,-33.203,1816.436,316
1008,1685412955.536,-40.527,439.453,31.25,-41.504,1816.432,316
1009,1685412955.54,-51.758,451.172,61.523,-55.664,1816.436,316
1010,1685412955.544,-45.41,682.129,53.223,-42.969,1816.44,316
1011,1685412955.548,-29.785,728.027,29.785,-26.367,1816.444,317
1012,1685412955.552,-20.996,361.816,16.602,-31.25,1816.448,317
1013,1685412955.556,-26.855,121.094,39.062,-52.246,1816.452,317
1014,1685412955.559,-35.156,143.066,46.387,-58.594,1816.456,317
1015,1685412955.563,-40.039,349.121,58.594,-50.293,1816.46,317
1016,1685412955.567,-40.039,-130.859,12.695,-43.457,1816.464,317
1017,1685412955.571,-45.898,-707.52,94.727,-56.641,1816.468,317
1018,1685412955.575,-49.316,265.625,148.926,-68.359,1816.471,317
1019,1685412955.579,-40.039,657.715,29.785,-53.711,1816.475,318
1020,1685412955.582,-27.344,506.836,35.645,-41.504,1816.479,318
1021,1685412955.586,-24.902,675.781,54.199,-45.898,1816.483,318
1022,1685412955.59,-31.738,730.469,39.062,-51.27,1816.487,318
1023,1685412955.594,-33.203,555.664,34.668,-39.551,1816.491,318
1024,1685412955.598,-24.902,479.004,30.273,-30.762,1816.495,318
1025,1685412955.602,-24.902,453.613,12.695,-40.039,1816.499,317
1026,1685412955.605,-45.41,333.984,43.457,-63.965,1816.503,317
1027,1685412955.609,-44.922,166.016,-5.371,-60.059,1816.507,317
1028,1685412955.613,-30.273,-470.703,48.828,-32.227,1816.511,317
1029,1685412955.617,-21.484,110.352,154.785,-36.621,1816.515,317
1030,1685412955.621,-20.508,804.688,28.809,-55.176,1816.519,317
1031,1685412955.625,-27.832,414.062,43.457,-53.223,1816.522,317
1032,1685412955.641,-30.273,486.816,109.375,-42.969,1816.537,318
1033,1685412955.645,-27.344,833.984,62.5,-44.434,1816.541,318
1034,1685412955.649,-32.227,762.695,20.508,-50.293,1816.545,318
1035,1685412955.653,-36.133,452.637,22.949,-48.828,1816.549,318
1036,1685412955.657,-19.043,276.855,47.363,-33.691,1816.553,318
1037,1685412955.661,-0.488,295.41,52.734,-13.672,1816.557,318
1038,1685412955.664,-9.277,416.992,52.246,-23.438,1816.561,318
1039,1685412955.668,-42.969,-183.594,22.949,-55.176,1816.565,318
1040,1685412955.672,-57.617,-570.801,113.77,-46.387,1816.569,317
1041,1685412955.672,-41.504,478.516,110.352,-47.852,1816.57,317
1042,1685412955.676,-29.297,875.488,55.664,-32.715,1816.574,317
1043,1685412955.676,-35.156,308.594,129.883,-31.25,1816.573,317
1044,1685412955.68,-38.574,472.168,17.578,-58.594,1816.577,317
1045,1685412955.68,-26.855,672.852,18.066,-23.926,1816.578,317
1046,1685412955.684,-34.668,488.77,19.043,-33.691,1816.582,317
1047,1685412955.684,-51.27,187.988,81.055,-65.918,1816.58,317
1048,1685412955.688,-35.156,646.484,35.156,-34.668,1816.586,315
1049,1685412955.692,-22.461,576.172,23.438,-12.695,1816.59,315
1050,1685412955.695,-15.625,180.664,3.906,-13.672,1816.594,315
1051,1685412955.699,-25.391,49.316,40.527,-27.344,1816.598,315
1052,1685412955.703,-35.156,547.852,80.078,-41.504,1816.602,315
1053,1685412955.707,-30.762,850.098,40.039,-42.48,1816.606,315
1054,1685412955.711,-21.484,378.906,20.508,-20.02,1816.61,315
1055,1685412955.715,-22.949,-145.996,54.688,-25.391,1816.613,316
1056,1685412955.716,-38.574,268.066,113.77,-41.992,1816.616,316
1057,1685412955.72,-36.621,645.996,49.316,-31.738,1816.62,316
1058,1685412955.724,-17.09,325.684,56.641,-18.066,1816.624,316
1059,1685412955.728,-13.672,294.434,123.535,-9.277,1816.628,316
1060,1685412955.732,-42.969,477.051,42.969,-36.621,1816.632,316
1061,1685412955.736,-58.594,408.691,47.363,-60.059,1816.635,316
1062,1685412955.739,-21.973,-92.285,14.16,-27.344,1816.639,316
1063,1685412955.743,-15.625,-510.742,97.168,-11.23,1816.643,316
1064,1685412955.747,-34.18,433.105,121.582,-39.062,1816.647,316
1065,1685412955.751,-39.551,637.207,0.0,-39.062,1816.651,316
1066,1685412955.755,-34.668,478.516,76.66,-24.902,1816.655,315
1067,1685412955.759,-24.902,764.16,78.125,-30.273,1816.659,315
1068,1685412955.762,-42.969,853.027,15.137,-45.898,1816.671,315
1069,1685412955.766,-55.664,613.77,-4.395,-54.199,1816.675,315
1070,1685412955.77,-48.34,292.969,9.277,-37.109,1816.679,314
1071,1685412955.774,-38.086,480.469,62.5,-22.461,1816.683,314
1072,1685412955.778,-43.945,776.855,44.434,-44.922,1816.687,314
1073,1685412955.782,-56.641,355.957,-51.758,-61.035,1816.691,314
1074,1685412955.785,-51.758,-604.492,-2.93,-47.852,1816.695,314
1075,1685412955.789,-40.527,-80.078,144.043,-41.992,1816.699,314
1076,1685412955.793,-33.203,877.93,29.297,-44.434,1816.702,314
1077,1685412955.797,-41.504,527.344,37.598,-60.547,1816.706,314
1078,1685412955.801,-44.922,437.5,110.352,-66.406,1816.71,314
1079,1685412955.805,-47.363,763.184,37.109,-49.805,1816.714,314
1080,1685412955.821,-50.781,799.316,10.254,-52.246,1816.718,314
1081,1685412955.825,-53.711,533.691,26.367,-64.941,1816.722,314
1082,1685412955.829,-54.688,469.727,58.594,-60.059,1816.725,314
1083,1685412955.833,-46.875,670.898,41.504,-48.34,1816.729,314
1084,1685412955.837,-41.504,569.336,20.508,-46.875,1816.733,314
1085,1685412955.841,-54.688,-213.379,3.906,-58.105,1816.737,312
1086,1685412955.844,-67.383,-618.652,41.992,-67.383,1816.741,312
1087,1685412955.848,-58.594,148.438,98.633,-57.617,1816.745,312
1088,1685412955.852,-44.434,658.203,32.715,-40.039,1816.749,311
1089,1685412955.856,-51.27,-7.812,23.926,-43.945,1816.753,311
1090,1685412955.86,-61.035,-117.188,104.004,-70.312,1816.757,311
1091,1685412955.864,-50.781,705.566,56.152,-76.66,1816.761,311
1092,1685412955.866,-42.969,657.227,19.043,-53.223,1816.764,311
1093,1685412955.87,-50.293,474.121,6.836,-47.363,1816.768,311
1094,1685412955.874,-61.035,570.312,29.785,-62.988,1816.772,311
1095,1685412955.878,-59.57,674.316,49.316,-63.477,1816.776,311
1096,1685412955.882,-38.086,545.41,0.488,-37.109,1816.78,312
1097,1685412955.886,-26.855,214.844,-9.766,-24.902,1816.784,312
1098,1685412955.889,-45.41,310.547,51.758,-44.922,1816.788,312
1099,1685412955.893,-60.059,589.844,37.598,-71.777,1816.791,312
1100,1685412955.897,-49.316,213.379,-32.227,-60.059,1816.795,312
1101,1685412955.901,-29.785,-517.09,69.824,-29.785,1816.799,312
1102,1685412955.905,-26.855,101.074,153.809,-44.434,1816.803,311
1103,1685412955.909,-47.852,704.102,15.137,-60.059,1816.807,311
1104,1685412955.91,-46.875,375.977,32.227,-47.363,1816.807,311
1105,1685412955.914,-32.715,493.164,89.355,-43.945,1816.811,311
1106,1685412955.918,-40.039,745.117,41.016,-57.129,1816.815,311
1107,1685412955.922,-53.223,657.227,18.066,-67.383,1816.819,309
1108,1685412955.926,-58.594,227.539,44.434,-58.105,1816.823,309
1109,1685412955.93,-52.246,79.102,58.105,-41.016,1816.827,309
1110,1685412955.933,-56.152,277.344,85.449,-44.922,1816.831,309
1111,1685412955.937,-63.477,541.992,92.773,-57.129,1816.835,309
1112,1685412955.941,-55.176,-187.012,20.996,-53.711,1816.839,309
1113,1685412955.945,-35.645,-530.762,132.812,-32.715,1816.842,309
1114,1685412955.949,-34.18,407.715,165.527,-35.645,1816.846,309
1115,1685412955.953,-49.805,335.938,40.527,-61.035,1816.85,309
1116,1685412955.972,-50.781,75.195,95.215,-66.895,1816.869,309
1117,1685412955.976,-40.039,426.27,156.738,-46.387,1816.873,309
1118,1685412955.98,-31.25,798.34,92.285,-31.738,1816.877,309
1119,1685412955.984,-41.992,540.527,53.711,-46.875,1816.881,309
1120,1685412955.988,-57.129,297.363,37.109,-69.824,1816.884,309
1121,1685412955.992,-54.688,203.613,38.574,-63.477,1816.888,308
1122,1685412955.995,-40.527,383.789,120.605,-45.41,1816.892,308
1123,1685412955.999,-35.156,301.758,47.852,-47.363,1816.896,308
1124,1685412956.002,-47.852,391.113,79.59,-55.664,1816.9,307
1125,1685412956.003,-49.316,-276.367,60.059,-62.012,1816.9,307
1126,1685412956.006,-51.27,330.078,60.547,-71.289,1816.904,307
1127,1685412956.007,-47.852,269.531,166.016,-58.594,1816.904,307
1128,1685412956.01,-42.969,505.859,75.195,-47.363,1816.908,307
1129,1685412956.011,-36.621,719.727,58.105,-33.691,1816.908,307
1130,1685412956.014,-32.227,282.715,65.918,-27.832,1816.912,307
1131,1685412956.015,-39.551,506.836,72.266,-31.25,1816.912,307
1132,1685412956.018,-35.645,-46.875,106.445,-44.434,1816.916,307
1133,1685412956.022,-48.828,127.441,50.293,-59.57,1816.92,307
1134,1685412956.025,-44.922,196.289,43.457,-54.199,1816.924,307
1135,1685412956.029,-40.527,248.535,90.332,-40.039,1816.928,307
1136,1685412956.033,-45.41,446.289,83.008,-43.945,1816.932,308
1137,1685412956.037,-48.828,605.469,36.621,-59.082,1816.936,308
1138,1685412956.041,-30.273,627.93,26.855,-37.109,1816.94,308
1139,1685412956.045,-3.418,-224.609,21.484,-8.301,1816.943,308
1140,1685412956.06,-29.785,-416.992,97.168,-47.363,1816.957,307
1141,1685412956.064,-59.57,609.863,93.262,-85.938,1816.961,307
1142,1685412956.068,-53.223,491.211,10.254,-69.824,1816.965,307
1143,1685412956.072,-41.504,166.992,28.809,-53.223,1816.969,306
1144,1685412956.076,-47.363,428.223,39.062,-53.223,1816.973,306
1145,1685412956.08,-62.012,440.918,22.949,-70.312,1816.977,306
1146,1685412956.083,-75.684,97.656,-18.066,-81.055,1816.981,306
1147,1685412956.087,-64.453,-547.852,19.531,-65.918,1816.985,306
1148,1685412956.091,-47.363,-34.668,165.527,-47.363,1816.989,306
1149,1685412956.091,-44.434,702.637,48.828,-49.805,1816.988,306
1150,1685412956.095,-54.688,663.086,11.23,-59.082,1816.991,306
1151,1685412956.095,-49.805,800.781,41.504,-58.594,1816.993,306
1152,1685412956.099,-60.059,422.852,29.297,-63.965,1816.997,306
1153,1685412956.099,-63.965,379.883,48.828,-72.754,1816.995,306
1154,1685412956.103,-56.641,397.461,108.887,-47.852,1817.0,306
1155,1685412956.103,-46.875,431.641,62.5,-68.359,1816.999,306
1156,1685412956.107,-27.344,468.75,34.18,-34.668,1817.003,306
1157,1685412956.111,-28.809,359.375,63.965,-32.715,1817.007,306
1158,1685412956.114,-40.527,-267.09,14.16,-47.852,1817.011,307
1159,1685412956.118,-40.039,-568.848,102.539,-44.434,1817.015,307
1160,1685412956.122,-36.133,459.961,134.766,-37.109,1817.019,307
1161,1685412956.126,-31.25,851.562,28.32,-37.598,1817.023,308
1162,1685412956.13,-39.062,-166.504,2.93,-48.828,1817.027,308
1163,1685412956.134,-55.664,-488.77,88.379,-46.875,1817.03,308
1164,1685412956.151,-35.645,608.887,99.121,-26.855,1817.049,308
1165,1685412956.155,-21.973,664.551,10.254,-16.113,1817.053,307
1166,1685412956.159,-34.18,415.527,9.766,-26.367,1817.057,307
1167,1685412956.163,-41.016,528.32,48.34,-51.27,1817.061,307
1168,1685412956.167,-25.879,675.293,59.57,-50.781,1817.065,307
1169,1685412956.171,-13.184,324.219,-28.809,-25.391,1817.069,307
1170,1685412956.174,-21.484,-289.062,45.898,-16.113,1817.073,307
1171,1685412956.178,-33.203,227.051,124.512,-43.457,1817.076,307
1172,1685412956.182,-34.18,601.074,22.461,-59.082,1817.08,307
1173,1685412956.186,-25.879,74.707,29.297,-27.344,1817.084,308
1174,1685412956.19,-19.043,91.797,71.289,-23.926,1817.088,308
1175,1685412956.194,-24.414,649.902,62.5,-57.129,1817.092,308
1176,1685412956.195,-32.227,653.32,16.113,-56.641,1817.092,308
1177,1685412956.199,-19.043,392.578,36.133,-33.203,1817.096,308
1178,1685412956.203,-13.184,507.812,75.195,-22.461,1817.1,308
1179,1685412956.207,-24.414,665.527,20.996,-34.668,1817.104,308
1180,1685412956.211,-25.879,438.965,-5.859,-44.434,1817.108,308
1181,1685412956.215,-19.531,-278.32,28.32,-28.32,1817.112,308
1182,1685412956.218,-20.02,-354.492,102.539,-21.973,1817.116,308
1183,1685412956.222,-32.715,460.449,76.66,-38.086,1817.12,308
1184,1685412956.226,-42.48,658.691,22.949,-43.945,1817.124,307
1185,1685412956.23,-38.574,-209.473,11.23,-24.414,1817.128,307
1186,1685412956.234,-24.414,-449.219,83.008,-10.254,1817.132,307
1187,1685412956.238,-23.926,369.629,73.242,-34.668,1817.135,307
1188,1685412956.24,-41.016,265.137,-8.301,-59.57,1817.137,307
1189,1685412956.244,-49.316,67.383,55.664,-58.105,1817.141,307
1190,1685412956.248,-33.691,467.773,78.125,-41.016,1817.145,307
1191,1685412956.252,-27.832,797.852,33.691,-33.203,1817.149,307
1192,1685412956.256,-44.434,482.91,9.766,-49.805,1817.153,307
1193,1685412956.26,-56.152,62.988,0.488,-57.617,1817.157,307
1194,1685412956.263,-45.898,241.211,76.66,-39.062,1817.161,307
1195,1685412956.267,-40.527,757.324,56.641,-30.273,1817.165,308
1196,1685412956.271,-51.758,289.062,-23.926,-48.828,1817.169,308
1197,1685412956.275,-61.035,-395.508,54.199,-63.965,1817.172,308
1198,1685412956.279,-48.828,300.293,108.398,-44.922,1817.176,309
1199,1685412956.283,-36.621,727.539,22.949,-28.809,1817.18,309
1200,1685412956.287,-45.898,431.152,37.598,-49.316,1817.186,309
1201,1685412956.291,-56.152,279.297,40.527,-65.918,1817.19,308
1202,1685412956.295,-43.945,309.57,47.363,-53.711,1817.194,308
1203,1685412956.299,-29.297,577.148,52.734,-43.945,1817.198,308
1204,1685412956.303,-39.551,5.371,-18.066,-46.875,1817.202,308
1205,1685412956.307,-52.734,-653.32,32.715,-60.547,1817.205,307
1206,1685412956.31,-42.48,-45.898,95.703,-64.453,1817.209,307
1207,1685412956.314,-27.832,532.227,44.922,-42.48,1817.213,307
1208,1685412956.318,-29.297,-39.062,26.855,-36.621,1817.217,306
1209,1685412956.322,-39.062,-178.223,105.469,-53.711,1817.221,306
1210,1685412956.326,-44.922,603.027,44.434,-59.082,1817.225,306
1211,1685412956.33,-39.062,495.117,7.812,-47.852,1817.229,306
1212,1685412956.332,-30.273,384.277,45.41,-38.574,1817.23,306
1213,1685412956.336,-36.621,572.754,44.434,-44.922,1817.234,305
1214,1685412956.34,-39.062,623.047,31.25,-57.129,1817.238,305
1215,1685412956.344,-35.156,377.441,21.484,-49.316,1817.242,305
1216,1685412956.348,-35.156,138.184,-0.488,-48.34,1817.245,305
1217,1685412956.352,-47.852,168.945,24.414,-61.523,1817.249,305
1218,1685412956.355,-47.852,178.711,55.176,-60.059,1817.253,305
1219,1685412956.359,-32.715,41.016,-19.043,-44.922,1817.257,306
1220,1685412956.363,-23.926,-595.215,26.855,-24.902,1817.261,306
1221,1685412956.367,-20.996,-70.801,149.902,-39.551,1817.265,306
1222,1685412956.371,-39.551,642.578,0.0,-66.406,1817.269,306
1223,1685412956.375,-46.875,252.441,10.254,-65.43,1817.273,306
1224,1685412956.376,-27.832,388.672,93.75,-40.527,1817.272,305
1225,1685412956.38,-20.02,686.523,40.039,-28.32,1817.276,305
1226,1685412956.384,-34.18,594.238,30.762,-44.434,1817.28,305
1227,1685412956.388,-35.645,309.082,35.645,-42.48,1817.284,304
1228,1685412956.392,-21.484,145.508,43.457,-29.785,1817.288,304
1229,1685412956.396,-21.484,156.25,29.785,-31.738,1817.292,304
1230,1685412956.399,-31.738,203.125,36.621,-40.039,1817.296,304
1231,1685412956.403,-43.457,-331.055,14.648,-46.875,1817.3,303
1232,1685412956.407,-40.527,-993.164,88.379,-39.062,1817.304,303
1233,1685412956.411,-27.344,-40.039,147.949,-23.438,1817.308,303
1234,1685412956.415,-23.926,596.191,12.695,-37.109,1817.312,303
1235,1685412956.419,-39.062,298.828,29.297,-64.941,1817.315,304
1236,1685412956.436,-37.598,504.883,68.359,-61.035,1817.334,304
1237,1685412956.44,-22.461,771.973,37.598,-38.574,1817.338,304
1238,1685412956.444,-11.23,561.035,7.324,-38.574,1817.342,304
1239,1685412956.448,-17.09,306.641,7.324,-53.223,1817.346,304
1240,1685412956.452,-33.203,418.457,32.227,-42.969,1817.35,304
1241,1685412956.456,-23.438,374.023,32.715,-15.137,1817.354,304
1242,1685412956.459,-15.137,94.238,-23.438,-10.254,1817.358,304
1243,1685412956.463,-37.598,-286.621,29.785,-35.645,1817.361,304
1244,1685412956.466,-28.809,564.941,48.828,-56.641,1817.376,304
1245,1685412956.467,-43.945,194.824,106.445,-45.898,1817.365,304
1246,1685412956.47,-28.809,579.59,15.137,-40.527,1817.38,303
1247,1685412956.471,-27.344,549.805,17.578,-24.902,1817.369,303
1248,1685412956.474,-16.113,400.391,37.109,-27.832,1817.384,303
1249,1685412956.475,-16.602,38.086,23.926,-27.832,1817.373,303
1250,1685412956.478,-19.043,491.211,37.598,-46.387,1817.387,303
1251,1685412956.479,-19.043,21.484,62.012,-47.363,1817.377,303
1252,1685412956.482,-27.832,350.586,3.418,-57.129,1817.391,303
1253,1685412956.486,-17.578,193.359,21.973,-45.898,1817.395,302
1254,1685412956.489,-8.301,-245.117,41.504,-21.973,1817.399,302
1255,1685412956.493,-10.254,-140.137,106.445,-21.973,1817.403,302
1256,1685412956.497,-25.391,612.793,64.453,-45.41,1817.407,302
1257,1685412956.501,-40.527,645.508,12.207,-46.875,1817.411,302
1258,1685412956.505,-33.691,-220.703,5.371,-30.273,1817.415,302
1259,1685412956.509,-15.625,-435.547,63.477,-22.461,1817.419,302
1260,1685412956.526,-12.207,347.168,68.848,-47.363,1817.424,302
1261,1685412956.53,-24.414,180.664,13.672,-46.875,1817.427,303
1262,1685412956.534,-18.066,55.176,58.594,-16.113,1817.431,303
1263,1685412956.538,-12.207,492.188,94.238,-15.625,1817.435,303
1264,1685412956.542,-21.973,750.977,45.41,-36.621,1817.439,303
1265,1685412956.546,-32.227,197.754,-25.879,-47.852,1817.443,303
1266,1685412956.549,-39.062,-206.055,22.461,-42.48,1817.447,303
1267,1685412956.553,-34.668,442.383,106.934,-25.391,1817.451,303
1268,1685412956.557,-35.645,825.684,15.137,-27.832,1817.455,303
1269,1685412956.561,-44.434,311.035,20.996,-47.852,1817.459,303
1270,1685412956.565,-39.062,132.812,77.637,-50.293,1817.463,303
1271,1685412956.569,-25.391,605.469,48.34,-27.344,1817.466,304
1272,1685412956.571,-16.602,682.617,20.508,-2.441,1817.475,304
1273,1685412956.575,-18.066,382.812,14.16,-22.461,1817.478,304
1274,1685412956.579,-21.484,199.707,30.273,-45.41,1817.482,304
1275,1685412956.583,-9.766,310.547,44.922,-32.227,1817.486,306
1276,1685412956.587,-4.883,402.832,32.715,-24.902,1817.49,306
1277,1685412956.591,-31.738,-298.828,-9.766,-43.457,1817.494,306
1278,1685412956.594,-48.828,-693.848,43.945,-59.082,1817.498,307
1279,1685412956.598,-33.691,195.312,95.215,-43.945,1817.502,307
1280,1685412956.602,-24.414,683.105,29.297,-23.926,1817.506,307
1281,1685412956.606,-30.762,-171.387,-4.395,-35.156,1817.51,307
1282,1685412956.61,-31.738,-430.176,75.195,-58.105,1817.514,308
1283,1685412956.614,-19.043,520.508,78.125,-48.34,1817.517,308
1284,1685412956.616,-11.23,501.465,7.812,-19.531,1817.514,308
1285,1685412956.62,-24.902,337.891,26.855,-27.344,1817.518,308
1286,1685412956.624,-38.086,480.469,43.457,-50.781,1817.522,309
1287,1685412956.628,-44.922,587.891,37.109,-54.199,1817.526,309
1288,1685412956.632,-36.133,392.09,12.695,-37.109,1817.529,309
1289,1685412956.636,-15.137,105.957,7.324,-20.996,1817.533,308
1290,1685412956.639,-26.855,92.773,22.461,-37.598,1817.537,308
1291,1685412956.643,-46.387,267.578,51.758,-51.758,1817.541,308
1292,1685412956.647,-26.855,312.012,18.555,-27.344,1817.545,308
1293,1685412956.651,-12.207,-631.348,25.391,2.441,1817.549,308
1294,1685412956.655,-21.973,-351.074,132.812,-26.855,1817.553,308
1295,1685412956.659,-36.621,564.453,47.363,-53.711,1817.557,308
