,timestamps,TP9,AF7,AF8,TP10,Secondary Timestamp,emg_signal
0,1686620932.68,97.656,-300.781,118.652,86.914,310.577,376.04118854866215
1,1686620932.68,3.906,282.715,75.684,-16.113,310.581,370.99289109569327
2,1686620932.69,-7.812,102.539,33.691,-24.414,310.585,370.79458522264554
3,1686620932.69,85.938,-55.664,137.207,69.824,310.589,377.5951505499578
4,1686620932.7,122.559,301.758,83.008,105.957,310.593,365.10736684777197
5,1686620932.7,28.809,111.816,12.695,36.133,310.597,377.5717074249716
6,1686620932.7,-48.34,-352.539,33.691,-32.227,310.601,376.16506493340023
7,1686620932.71,35.156,-807.129,75.684,42.48,310.604,368.4728753169772
8,1686620932.71,133.789,-216.309,158.691,129.883,310.608,376.029235257712
9,1686620932.72,74.707,510.742,64.453,68.359,310.612,371.73204255810856
10,1686620932.72,-21.484,29.785,2.441,-13.184,310.616,373.7398851073367
11,1686620932.72,30.762,-399.902,131.836,25.391,310.62,371.7387431869577
12,1686620932.72,140.625,204.102,141.602,119.141,310.621,366.21088910116936
13,1686620932.73,111.328,498.047,34.668,100.098,310.625,375.1841768067142
14,1686620932.73,0.0,-9.766,23.438,-1.465,310.628,379.3591118603912
15,1686620932.74,6.836,-84.961,107.91,-3.906,310.632,368.8675905490638
16,1686620932.74,114.746,156.25,59.082,90.82,310.636,380.1835799677772
17,1686620932.74,131.348,79.59,39.551,108.887,310.64,378.6440344637597
18,1686620932.75,24.414,-362.793,-4.395,17.09,310.644,373.68964965799796
19,1686620932.75,-24.414,-952.637,58.105,-17.09,310.648,380.74187031279325
20,1686620932.76,79.59,-139.648,247.559,66.895,310.652,377.58828385888523
21,1686620932.76,151.367,524.414,87.891,125.488,310.656,372.3217634352754
22,1686620932.76,66.406,-81.543,-31.738,53.711,310.66,370.54660402508705
23,1686620932.77,-6.836,-109.863,65.918,-20.508,310.664,373.60331658927754
24,1686620932.78,67.383,382.812,95.215,41.992,310.68,376.5411310201813
25,1686620932.79,149.414,448.73,50.293,129.883,310.684,373.1338579563892
26,1686620932.79,95.703,-43.457,26.367,100.586,310.688,369.7650636670383
27,1686620932.8,12.207,-36.621,51.758,6.836,310.692,367.8317476529016
28,1686620932.8,49.805,250.488,76.66,36.133,310.696,370.32115521934054
29,1686620932.8,152.832,41.992,42.48,142.578,310.7,382.91661078310113
30,1686620932.81,139.16,-621.094,29.297,126.953,310.704,374.72982791841605
31,1686620932.81,33.691,-363.281,115.723,24.414,310.708,378.58900151826026
32,1686620932.82,23.926,223.633,79.102,14.16,310.712,367.29144917160187
33,1686620932.82,-3.906,97.656,36.133,4.883,310.724,384.9712034771091
34,1686620932.82,120.117,214.844,47.363,112.305,310.716,379.445040787152
35,1686620932.82,79.102,-147.949,76.66,95.215,310.728,373.1312312257616
36,1686620932.82,153.809,249.023,77.148,150.391,310.719,373.3298615344615
37,1686620932.82,145.02,-86.914,121.582,160.156,310.732,375.9217002644898
38,1686620932.83,60.547,298.828,54.688,59.57,310.723,369.93279264679654
39,1686620932.83,79.102,277.344,71.289,92.773,310.735,368.84594615842775
40,1686620932.83,2.441,178.711,17.09,15.625,310.739,373.7402141729706
41,1686620932.84,61.523,-296.387,59.57,68.848,310.743,370.324929738697
42,1686620932.84,159.18,-323.242,120.605,161.133,310.747,374.6843251596777
43,1686620932.84,120.117,-85.938,79.102,128.906,310.751,373.77686645794495
44,1686620932.85,14.16,77.148,54.199,37.598,310.755,381.4134900668864
45,1686620932.85,34.668,-348.145,12.207,64.941,310.759,369.9535081912027
46,1686620932.85,148.438,-575.684,162.598,175.293,310.763,371.17129444780613
47,1686620932.86,161.621,317.871,139.648,165.039,310.767,377.1927442752739
48,1686620932.89,55.176,339.355,2.441,59.57,310.785,371.70919707697124
49,1686620932.89,31.738,-132.324,66.406,41.016,310.789,371.43664243110436
50,1686620932.9,140.625,186.523,83.008,141.602,310.793,375.64908047177687
51,1686620932.9,169.922,362.305,51.27,184.57,310.797,374.9422094529184
52,1686620932.9,76.172,3.418,14.648,98.633,310.801,379.7677800733385
53,1686620932.91,19.531,-766.602,49.316,52.734,310.805,375.45698184485167
54,1686620932.91,117.188,-442.871,206.543,137.695,310.809,387.7224326427138
55,1686620932.92,209.961,482.91,105.469,197.754,310.813,383.0468460127542
56,1686620932.92,165.527,258.789,23.926,157.227,310.815,375.5730529100443
57,1686620932.92,143.066,312.988,8.301,141.602,310.816,383.95157395365635
58,1686620932.92,43.945,2.93,49.316,55.176,310.819,378.1750692554281
59,1686620932.92,44.922,-90.332,91.797,63.477,310.82,377.3706711782623
60,1686620932.93,47.852,189.941,71.777,65.918,310.823,376.7467968465537
61,1686620932.93,102.539,208.496,105.957,103.516,310.824,374.0198643917555
62,1686620932.93,160.645,427.246,63.477,164.551,310.827,376.6662544027413
63,1686620932.93,207.52,534.18,58.105,190.43,310.828,378.9326151896776
64,1686620932.94,168.945,220.215,31.738,175.781,310.831,382.71859185042337
65,1686620932.94,62.988,-293.457,31.25,78.613,310.835,378.9949861075421
66,1686620932.94,33.691,-376.465,77.148,49.316,310.839,373.30961131768385
67,1686620932.95,145.02,-44.434,83.984,146.484,310.843,377.10190535760483
68,1686620932.95,201.66,-211.426,17.578,193.359,310.847,371.10023634600617
69,1686620932.95,96.68,-567.383,119.141,116.699,310.851,377.4863874481444
70,1686620932.96,32.715,-47.852,132.812,60.547,310.855,380.00922772728745
71,1686620932.96,112.793,403.32,51.27,134.277,310.858,385.39760837783774
72,1686620932.98,188.477,-196.777,-21.484,210.938,310.904,377.8531058203581
73,1686620932.98,137.695,-687.5,88.379,166.016,310.908,385.9407756499057
74,1686620932.99,61.035,68.359,101.074,86.426,310.912,385.09363725534695
75,1686620932.99,109.863,261.719,45.41,122.07,310.915,383.6380929308621
76,1686620933.0,210.938,127.93,122.07,215.332,310.919,387.88090718774606
77,1686620933.0,188.477,40.527,63.477,197.266,310.923,384.3259414558207
78,1686620933.0,84.961,29.297,67.871,100.098,310.927,386.24449840096986
79,1686620933.01,86.426,70.312,25.879,106.934,310.931,380.55344558546295
80,1686620933.01,180.176,-628.906,12.207,209.473,310.935,378.81456191775027
81,1686620933.01,172.852,90.82,97.656,164.062,310.909,391.8977324895561
82,1686620933.01,202.637,-183.594,130.859,219.727,310.939,382.14467820991047
83,1686620933.02,227.051,501.953,77.148,216.797,310.913,389.34488583919097
84,1686620933.02,113.77,480.469,49.805,121.582,310.943,381.65311929590945
85,1686620933.02,135.742,512.207,4.883,152.832,310.917,388.4411656339288
86,1686620933.02,75.195,144.531,6.348,83.496,310.947,387.62859090015036
87,1686620933.02,58.594,67.383,18.555,84.961,310.921,381.3960466331308
88,1686620933.03,139.648,46.875,75.195,156.25,310.924,379.3619576269046
89,1686620933.03,233.398,133.301,59.57,236.328,310.928,388.20674152909004
90,1686620933.04,177.246,22.949,13.184,182.617,310.932,383.3977582211385
91,1686620933.04,69.824,-366.211,18.555,97.656,310.936,386.89071525339074
92,1686620933.04,107.91,-309.082,125.0,134.277,310.94,389.1654376554443
93,1686620933.05,211.426,407.715,101.562,225.098,310.944,379.2948035905766
94,1686620933.05,184.57,551.27,11.719,202.637,310.948,393.69549486024437
95,1686620933.05,69.336,-363.281,-62.5,101.562,310.952,391.1533780380952
96,1686620933.06,62.5,-736.816,135.254,93.75,310.952,383.1160719225823
97,1686620933.06,187.5,317.383,183.594,191.895,310.956,379.4616238099907
98,1686620933.06,220.703,490.234,11.23,227.051,310.96,377.40771767182133
99,1686620933.07,121.582,-260.742,43.945,140.625,310.964,387.4883065911063
100,1686620933.07,76.172,-105.469,76.172,93.75,310.968,388.6359694823279
101,1686620933.08,167.969,102.051,45.898,181.641,310.972,385.140322907348
102,1686620933.08,239.258,97.168,44.922,246.582,310.976,374.00444240914123
103,1686620933.08,160.156,-587.891,-15.137,187.012,310.98,372.02394019636694
104,1686620933.09,69.336,-894.043,164.551,100.586,310.984,377.80112850864987
105,1686620933.09,134.766,147.949,198.73,135.742,310.987,377.0881256841615
106,1686620933.1,231.445,455.078,30.273,230.957,310.991,374.64883052441394
107,1686620933.1,184.082,258.789,57.617,187.988,310.995,377.95935235834213
108,1686620933.1,91.309,282.227,52.246,93.75,310.996,380.9482119998199
109,1686620933.1,124.512,198.73,32.715,128.418,311.0,376.57237073152345
110,1686620933.11,228.027,25.391,59.57,228.516,311.004,374.35771331783116
111,1686620933.11,226.074,70.312,93.75,217.285,311.008,375.0978608433062
112,1686620933.12,123.047,149.902,28.809,125.0,311.012,379.1804943289421
113,1686620933.12,101.562,-41.504,23.438,113.77,311.016,384.0726696663398
114,1686620933.12,187.988,-264.16,34.668,212.402,311.02,376.09808824143846
115,1686620933.13,197.266,-822.266,51.27,245.117,311.024,380.60012566473375
116,1686620933.13,110.352,-159.668,119.629,147.461,311.028,381.8831181426306
117,1686620933.14,60.547,376.465,51.758,90.82,311.032,375.72746724468504
118,1686620933.14,137.695,-83.984,-21.973,163.574,311.036,380.987318308134
119,1686620933.14,217.285,235.352,48.828,225.586,311.039,377.6387013967729
120,1686620933.16,159.668,624.023,58.594,169.922,311.055,375.6172736245771
121,1686620933.16,70.801,280.762,6.348,84.473,311.059,377.34015401187537
122,1686620933.17,115.234,11.719,56.152,127.93,311.063,379.627464496811
123,1686620933.17,219.238,377.93,62.5,228.027,311.067,374.4436818936307
124,1686620933.18,188.477,318.359,43.457,195.312,311.071,370.98219008447063
125,1686620933.18,82.031,-149.902,11.23,100.586,311.075,376.05336200605495
126,1686620933.18,99.609,-833.984,35.156,132.812,311.079,386.004575592234
127,1686620933.19,199.707,-462.891,181.641,229.004,311.083,385.728361197648
128,1686620933.19,223.633,611.328,34.668,223.633,311.1,378.4422946097889
129,1686620933.19,201.66,454.102,71.777,222.656,311.086,372.2297141622282
130,1686620933.19,127.441,192.383,-8.301,144.043,311.104,371.7974668974469
131,1686620933.19,110.84,243.652,-25.391,124.512,311.09,375.6020998318713
132,1686620933.2,55.176,-60.059,38.086,82.031,311.108,374.1011386609927
133,1686620933.2,80.078,3.418,60.059,91.797,311.094,387.7388924936563
134,1686620933.2,124.512,276.855,66.895,132.812,311.112,385.493556710642
135,1686620933.2,176.27,390.625,80.078,182.129,311.098,381.8517820479025
136,1686620933.2,195.801,508.789,37.598,185.547,311.115,380.60471085102654
137,1686620933.21,122.07,-90.332,20.996,128.906,311.119,375.9610318578216
138,1686620933.21,34.668,-724.121,75.684,53.711,311.123,386.42952714317533
139,1686620933.22,82.031,-396.484,78.125,85.449,311.127,367.97768209118414
140,1686620933.22,179.688,89.844,56.152,170.898,311.131,374.7093527020867
141,1686620933.22,149.902,-210.449,-14.648,160.645,311.135,377.6065889593674
142,1686620933.23,35.156,-861.328,33.691,77.148,311.139,372.37369968999775
143,1686620933.23,42.48,-122.07,120.117,69.336,311.143,377.87978254520203
144,1686620933.25,150.879,443.359,46.875,164.551,311.147,369.75550513726034
145,1686620933.26,162.109,166.016,10.742,180.664,311.151,373.7744402923097
146,1686620933.26,66.895,190.918,29.785,85.938,311.155,375.08776976911463
147,1686620933.26,33.691,267.578,46.387,49.805,311.159,365.08761620176347
148,1686620933.27,125.0,231.445,63.477,135.742,311.163,367.1634232465131
149,1686620933.27,173.34,-100.098,78.613,196.289,311.167,373.4382203938937
150,1686620933.28,85.449,-226.074,51.758,98.145,311.171,375.7937907906702
151,1686620933.28,20.02,107.422,47.852,12.207,311.175,370.91782135579564
152,1686620933.28,100.098,61.523,10.254,93.75,311.179,380.61527878795636
153,1686620933.29,193.848,-543.945,32.715,198.242,311.183,372.36763301024627
154,1686620933.29,136.719,-104.98,74.707,143.555,311.186,372.0368668297625
155,1686620933.29,10.742,301.758,20.996,18.555,311.19,365.12774616215586
156,1686620933.29,31.25,-22.461,20.508,29.785,311.19,370.4757549273057
157,1686620933.3,139.648,-137.207,78.613,125.488,311.194,379.44323538229435
158,1686620933.3,132.324,318.848,55.176,111.816,311.198,374.08317901578545
159,1686620933.31,19.043,332.031,8.789,12.695,311.202,373.8348993552257
160,1686620933.31,3.418,-92.285,42.48,18.555,311.206,376.2069320430485
161,1686620933.31,111.328,-184.57,90.332,127.441,311.21,382.5608695166698
162,1686620933.32,135.742,-102.051,48.828,151.367,311.214,375.02917506412604
163,1686620933.32,28.32,-115.723,26.855,57.617,311.218,380.8511513588413
164,1686620933.32,-22.949,-487.305,-8.789,23.926,311.222,377.12523864243417
165,1686620933.33,69.824,-944.824,41.504,119.141,311.225,374.3160962899631
166,1686620933.33,143.555,-36.621,123.535,174.316,311.229,380.6101783542468
167,1686620933.34,61.523,382.812,23.438,110.352,311.233,372.88869062493427
168,1686620933.34,-24.902,-313.965,-11.719,50.293,311.237,379.9630914399067
169,1686620933.34,42.969,35.645,73.73,110.352,311.241,363.6683561678811
170,1686620933.35,140.137,639.16,68.359,188.965,311.245,374.2912781785972
171,1686620933.35,83.008,425.781,15.137,145.508,311.249,376.2981295932811
172,1686620933.36,-36.133,-195.312,54.688,48.34,311.253,373.4997889783521
173,1686620933.36,-4.883,-328.613,71.289,65.918,311.256,384.28067561597754
174,1686620933.36,104.492,132.324,82.52,158.691,311.26,365.54359803996647
175,1686620933.37,88.379,284.668,16.113,151.367,311.264,369.65716953904115
176,1686620933.37,-31.738,-645.508,-13.672,48.828,311.268,373.40284701784907
177,1686620933.38,-45.41,-395.02,99.121,18.555,311.272,374.87873299205734
178,1686620933.38,70.801,422.363,60.059,115.234,311.276,384.9391440548877
179,1686620933.38,103.516,336.426,6.836,143.066,311.28,368.03374114898395
180,1686620933.39,8.301,118.652,31.738,38.574,311.283,372.5543736457805
181,1686620933.39,-44.434,155.273,38.086,-25.879,311.287,369.41175024616695
182,1686620933.4,41.016,174.805,13.672,47.852,311.291,363.5030492443445
183,1686620933.4,109.863,27.832,24.414,117.188,311.294,373.0540610817986
184,1686620933.4,41.016,-141.602,42.969,44.434,311.298,369.41942693787
185,1686620933.41,-48.34,-273.438,29.785,-39.551,311.302,371.6908327816221
186,1686620933.41,4.883,-123.047,43.457,24.902,311.306,364.7074536749586
187,1686620933.42,95.215,-201.66,1.465,125.488,311.31,361.68237206427625
188,1686620933.42,46.387,-862.305,5.859,85.449,311.314,361.76313847007646
189,1686620933.42,-55.664,-282.715,73.73,-34.668,311.318,364.9335970032834
190,1686620933.43,-40.527,271.484,37.109,-33.203,311.322,363.1645953004751
191,1686620933.43,69.336,314.453,22.949,68.848,311.327,368.68262467075357
192,1686620933.43,61.523,46.875,-0.488,71.289,311.326,373.31536645220865
193,1686620933.43,-33.691,426.758,11.23,-32.227,311.331,376.29765580954495
194,1686620933.44,-63.477,140.625,21.973,-50.781,311.335,376.07936506451694
195,1686620933.44,22.461,8.789,98.145,34.18,311.339,374.14693175307735
196,1686620933.45,62.012,258.301,40.527,76.172,311.343,369.20825705140317
197,1686620933.45,-22.949,103.027,8.789,-0.488,311.347,374.1741481268859
198,1686620933.45,-99.609,-359.863,8.789,-56.152,311.35,371.503003275835
199,1686620933.46,-35.156,-797.852,32.715,15.137,311.354,373.68629960329815
200,1686620933.46,50.293,-174.316,136.23,65.43,311.358,361.47312422319203
201,1686620933.46,-10.254,438.477,27.832,-0.977,311.362,366.83139211608045
202,1686620933.47,-111.816,-18.066,-21.484,-83.496,311.366,372.56512072012936
203,1686620933.47,-61.035,-393.555,137.207,-42.969,311.37,367.16908186234116
204,1686620933.47,44.922,268.555,101.074,56.641,311.37,365.24520106958386
205,1686620933.48,10.254,551.758,-11.23,30.273,311.374,369.2482805690864
206,1686620933.48,-89.844,20.508,7.812,-75.195,311.378,381.20467420437194
207,1686620933.49,-83.008,-24.902,49.316,-73.242,311.382,370.84665389384884
208,1686620933.49,19.043,250.977,27.832,23.438,311.386,382.5768231792559
209,1686620933.49,29.785,114.258,10.742,37.109,311.39,381.9297212740719
210,1686620933.5,-88.867,-318.848,-33.203,-71.289,311.394,364.95320477782786
211,1686620933.5,-135.742,-968.262,18.066,-119.141,311.398,372.893436453732
212,1686620933.5,-27.344,-349.609,161.621,-31.738,311.401,375.8666167095396
213,1686620933.51,27.832,485.352,50.781,12.695,311.405,373.54267193259204
214,1686620933.51,-67.383,62.988,-64.453,-72.754,311.409,372.4970345502618
215,1686620933.52,-141.113,-78.125,-8.789,-143.555,311.413,374.4762169594862
216,1686620933.53,-64.941,311.523,43.457,-69.336,311.443,370.88010146788514
217,1686620933.54,29.785,452.148,13.672,25.879,311.447,380.2682956413555
218,1686620933.54,-28.32,101.074,5.371,-21.973,311.45,379.38253650484916
219,1686620933.55,-148.438,29.297,23.438,-137.207,311.454,371.5704982429053
220,1686620933.55,-125.488,231.445,26.855,-112.793,311.458,374.53708213596343
221,1686620933.55,-4.395,79.59,15.625,1.953,311.462,379.38147268320716
222,1686620933.56,-20.508,-603.027,-3.418,-7.324,311.466,372.4928236998362
223,1686620933.56,-131.348,-378.418,34.668,-124.023,311.47,380.7443374913668
224,1686620933.56,-163.086,225.098,-1.465,-150.879,311.474,375.01238712128765
225,1686620933.56,-143.066,220.703,16.113,-140.137,311.474,380.868477021196
226,1686620933.57,-44.434,156.25,-8.301,-33.691,311.478,372.7181198293115
227,1686620933.57,-79.59,56.641,-12.695,-65.918,311.478,374.70159704276637
228,1686620933.57,-17.578,-73.242,11.23,-7.812,311.482,373.47027997929877
229,1686620933.57,-21.973,-40.527,-1.953,-9.766,311.482,371.128984663975
230,1686620933.58,-111.328,63.965,6.348,-105.469,311.486,378.079052616665
231,1686620933.58,-98.633,179.688,-3.906,-97.168,311.485,377.36166660682534
232,1686620933.58,-172.852,120.117,-13.672,-177.246,311.489,378.15000892832296
233,1686620933.58,-112.793,-322.266,-8.301,-104.98,311.493,373.9455137047828
234,1686620933.59,-24.414,-903.32,13.672,-16.602,311.497,372.7129000053752
235,1686620933.59,-57.129,-449.219,51.758,-72.266,311.501,376.5876750963959
236,1686620933.6,-154.297,179.199,0.0,-167.48,311.505,372.56019890365195
237,1686620933.6,-136.23,-353.516,-39.062,-138.184,311.509,383.7178298660037
238,1686620933.6,-27.832,-473.145,62.5,-40.039,311.513,375.6788328559383
239,1686620933.61,-28.32,351.562,25.879,-51.758,311.517,376.2294266434315
240,1686620933.62,-140.137,235.84,-45.41,-159.18,311.522,379.07220951518605
241,1686620933.63,-163.086,-358.887,-32.715,-170.41,311.526,379.6487707565792
242,1686620933.63,-48.34,58.105,11.719,-64.941,311.53,384.5986684837525
243,1686620933.64,-3.418,558.594,9.766,-26.855,311.534,383.8321873030167
244,1686620933.64,-101.562,238.281,-46.387,-112.793,311.538,388.5550313195171
245,1686620933.64,-167.48,-715.82,-47.852,-153.809,311.541,386.42882719919027
246,1686620933.65,-83.008,-574.219,55.176,-83.008,311.545,381.28634378709563
247,1686620933.65,-3.418,375.0,28.32,-26.367,311.549,386.0133915472295
248,1686620933.66,-78.613,191.406,-57.129,-92.285,311.553,395.10983991476445
249,1686620933.66,-169.922,-531.738,38.086,-170.898,311.557,395.3389926525031
250,1686620933.66,-108.398,-96.191,67.383,-110.84,311.561,382.8194144219189
251,1686620933.67,-4.395,461.426,10.742,-12.207,311.565,400.85497806017923
252,1686620933.67,-55.176,207.52,-36.133,-49.805,311.565,395.3598047711006
253,1686620933.67,-160.645,-62.012,-9.766,-152.344,311.569,393.0710018270438
254,1686620933.68,-132.812,85.449,11.719,-132.812,311.573,402.6963084514025
255,1686620933.68,-19.043,167.48,-21.484,-25.879,311.577,393.98843084167174
256,1686620933.68,-22.461,-161.621,-36.133,-27.344,311.581,398.58219192778444
257,1686620933.69,-137.695,-681.641,8.301,-131.348,311.584,393.6337186047337
258,1686620933.69,-156.25,-569.824,23.926,-152.832,311.588,396.11980598176785
259,1686620933.7,-48.828,-155.762,33.691,-58.594,311.592,404.03453720715424
260,1686620933.7,-2.441,-239.258,-41.504,-13.184,311.596,401.45109675870094
261,1686620933.7,-90.82,-829.59,-34.668,-86.426,311.6,411.3884060785228
262,1686620933.71,-155.273,-202.148,43.457,-160.156,311.604,408.3252252928716
263,1686620933.71,-78.125,313.477,0.0,-98.633,311.608,410.000505553229
264,1686620933.72,-1.465,48.828,-32.227,-16.113,311.612,417.46899912854633
265,1686620933.72,-64.453,202.148,-2.441,-81.055,311.616,407.49165904677676
266,1686620933.72,-151.855,275.879,0.0,-173.828,311.62,411.0609223484765
267,1686620933.73,-102.051,172.363,4.395,-117.676,311.624,414.5442429719673
268,1686620933.73,0.488,34.668,49.316,-11.719,311.628,416.7431263945735
269,1686620933.74,-34.18,-90.82,24.414,-49.316,311.632,418.95575125210587
270,1686620933.74,-140.625,-247.07,16.113,-148.926,311.636,428.8421147842164
271,1686620933.74,-121.094,-346.191,8.789,-132.324,311.64,418.7037284513337
272,1686620933.75,-13.672,-761.23,9.277,-22.461,311.644,418.818569425693
273,1686620933.75,-5.859,-471.191,87.891,-7.812,311.647,423.90312594517223
274,1686620933.76,-107.91,196.777,17.578,-107.422,311.651,431.4521782032616
275,1686620933.76,-41.992,-76.172,66.406,-40.527,311.655,431.1140722833434
276,1686620933.76,-142.578,-20.02,-17.578,-135.254,311.655,430.2828851671354
277,1686620933.76,19.043,390.137,38.086,8.789,311.659,422.44240413263543
278,1686620933.77,-70.312,387.207,-22.461,-68.359,311.663,436.56047667640985
279,1686620933.77,-152.832,-33.203,1.953,-132.812,311.667,431.7291340772078
280,1686620933.78,-72.754,-49.805,45.898,-67.383,311.671,436.625100294432
281,1686620933.78,18.066,41.992,21.484,16.113,311.675,429.88258593388656
282,1686620933.78,-35.156,-37.598,2.93,-45.898,311.679,431.84208757394066
283,1686620933.79,-130.859,-415.039,-38.574,-133.789,311.683,435.9435532606385
284,1686620933.79,-94.238,-977.051,63.477,-75.684,311.686,439.1029098337572
285,1686620933.79,16.602,-197.266,226.562,12.207,311.69,433.04156223067633
286,1686620933.8,0.0,486.816,51.27,-26.855,311.694,435.87943700714203
287,1686620933.8,-121.582,-84.961,-30.273,-132.812,311.698,438.23794646568183
288,1686620933.8,-114.746,-5.859,44.434,-120.117,311.702,432.8825607686552
289,1686620933.81,3.418,517.09,56.641,-13.184,311.706,447.27533658420737
290,1686620933.81,17.578,483.398,6.836,6.836,311.709,441.8114347374682
291,1686620933.82,-92.285,27.344,47.363,-89.355,311.713,443.76042468043164
292,1686620933.82,-131.348,45.898,51.27,-136.23,311.717,433.92128161934653
293,1686620933.82,-25.391,80.566,28.809,-43.457,311.721,441.5328896072637
294,1686620933.83,44.922,-42.48,26.367,27.832,311.725,439.64289624390466
295,1686620933.83,-35.645,-587.402,19.531,-36.621,311.729,442.4957332925044
296,1686620933.84,-119.141,-350.586,92.773,-118.164,311.733,442.2190948468135
297,1686620933.84,-55.176,350.586,43.945,-67.871,311.737,441.1668916722481
298,1686620933.84,37.109,295.898,14.16,14.16,311.741,446.58703153633115
299,1686620933.85,-8.301,-1.953,25.879,-27.344,311.745,441.145742948956
300,1686620933.85,-122.559,55.664,26.367,-122.559,311.745,448.8345728997537
301,1686620933.85,-101.074,268.555,33.691,-99.609,311.749,445.95128715420265
302,1686620933.86,6.836,124.512,24.414,12.695,311.753,436.86692558610747
303,1686620933.86,2.93,-62.5,51.758,3.418,311.757,442.19369902493395
304,1686620933.86,-105.957,41.992,22.949,-93.75,311.761,442.68402869930475
305,1686620933.87,-114.258,-98.145,31.738,-98.633,311.765,446.3881549260568
306,1686620933.87,-1.465,-305.176,28.32,3.418,311.769,441.65219937981817
307,1686620933.88,28.32,-852.051,44.434,43.457,311.773,437.04042472583905
308,1686620933.88,-62.012,-308.105,91.309,-51.27,311.777,444.4846920646084
309,1686620933.88,-110.352,267.578,39.062,-111.328,311.781,442.26144214298273
310,1686620933.89,-29.297,-12.207,5.859,-26.367,311.784,447.7573382481753
311,1686620933.89,37.598,160.645,39.062,37.109,311.788,427.5903797194122
312,1686620933.91,-35.645,449.219,39.062,-50.781,311.808,429.8411131827421
313,1686620933.92,-131.836,115.723,-6.348,-140.137,311.812,440.283544905144
314,1686620933.92,-80.078,-454.102,-28.32,-78.613,311.816,431.80087536638473
315,1686620933.92,26.367,55.664,50.781,16.602,311.82,426.7277880071243
316,1686620933.93,-13.672,548.34,35.156,-24.414,311.824,442.7831239235554
317,1686620933.93,-128.906,-43.945,-25.391,-119.141,311.828,439.2921971823373
318,1686620933.94,-104.004,-792.48,61.035,-91.309,311.832,428.89604248789976
319,1686620933.94,18.066,-124.023,188.965,3.906,311.836,429.2193091495327
320,1686620933.94,36.133,522.461,34.668,17.09,311.85,429.4726509912231
321,1686620933.94,22.461,598.145,51.758,4.883,311.84,430.16418649727893
322,1686620933.94,-63.477,174.316,-22.461,-70.312,311.854,420.3464087679605
323,1686620933.95,-84.473,230.469,-28.809,-90.332,311.844,426.80545908188975
324,1686620933.95,-136.23,-54.688,15.137,-142.09,311.857,434.60192102802836
325,1686620933.95,-118.652,-79.59,38.574,-120.117,311.847,427.8998121591577
326,1686620933.95,-48.34,192.383,39.551,-67.383,311.861,420.9382315346886
327,1686620933.96,37.598,194.336,17.578,14.648,311.865,422.6086256093172
328,1686620933.96,-16.602,243.164,65.43,-29.785,311.851,430.7301028309156
329,1686620933.96,-40.527,-181.641,9.277,-46.875,311.869,431.5110196270072
330,1686620933.96,-141.113,-528.809,32.227,-138.672,311.873,427.62400951634584
331,1686620933.97,-84.961,-337.402,60.059,-90.332,311.877,428.86001782918805
332,1686620933.97,45.41,269.043,62.012,23.926,311.881,423.58634828418724
333,1686620933.97,20.508,-15.625,-32.227,1.953,311.885,429.35570019555746
334,1686620933.98,-126.465,-979.492,0.0,-116.211,311.889,419.4614735749246
335,1686620933.98,-116.699,-423.828,172.852,-123.047,311.893,431.70840830746914
336,1686620934.0,13.184,381.348,83.984,-19.043,311.896,417.57667565481125
337,1686620934.0,20.996,160.645,-12.207,8.789,311.9,437.0360158268648
338,1686620934.01,-78.125,173.34,19.531,-85.449,311.904,423.2240104069324
339,1686620934.01,-114.746,328.613,29.297,-123.535,311.908,432.81701389261616
340,1686620934.02,-21.973,312.988,30.273,-32.227,311.912,424.36787083807104
341,1686620934.02,22.461,-16.602,62.988,13.184,311.916,419.8338568495738
342,1686620934.02,-71.777,-156.25,62.012,-67.383,311.92,428.2279652961518
343,1686620934.03,-133.301,-12.695,52.246,-133.789,311.923,416.76785934088804
344,1686620934.03,-58.594,119.629,20.508,-68.359,311.927,425.217695677929
345,1686620934.04,19.043,-516.113,3.906,10.254,311.931,416.9065629146545
346,1686620934.04,-27.832,-270.508,82.52,-46.387,311.935,426.54528080807836
347,1686620934.04,-116.699,258.301,37.598,-129.883,311.939,409.8111649957512
348,1686620934.04,-80.078,76.66,9.277,-97.656,311.94,422.2488761591457
349,1686620934.05,29.785,229.98,64.453,4.395,311.944,422.07202318535155
350,1686620934.05,20.996,486.816,41.504,-11.719,311.948,422.53118813444416
351,1686620934.06,-95.215,372.07,6.348,-118.164,311.952,421.2928728050159
352,1686620934.06,-101.562,-83.984,33.203,-113.281,311.956,410.8903186549699
353,1686620934.06,5.371,-212.402,72.754,-11.719,311.96,416.34563053869624
354,1686620934.07,27.344,-21.973,52.734,13.184,311.964,413.48349549857227
355,1686620934.07,-66.895,136.23,59.57,-71.777,311.967,410.75156466355605
356,1686620934.08,-118.652,-210.449,-4.395,-106.445,311.971,405.1632426232388
357,1686620934.08,-37.109,-880.371,30.273,-18.555,311.975,413.2633289704311
358,1686620934.08,34.668,30.273,111.328,21.973,311.979,415.63865642453254
359,1686620934.09,-41.016,520.508,11.719,-62.012,311.983,415.6148631992985
360,1686620934.09,-132.812,-254.883,-36.621,-118.652,311.987,408.8608579663749
361,1686620934.09,-62.5,-89.355,66.895,-41.992,311.991,410.9548955886461
362,1686620934.1,46.875,588.379,81.543,41.504,311.995,406.52182950224807
363,1686620934.1,8.301,447.266,13.184,-2.441,311.998,409.09719913543603
364,1686620934.11,-105.469,-103.027,60.059,-108.398,312.002,410.2065377825678
365,1686620934.11,-81.543,-240.723,50.781,-85.449,312.006,409.91125151847365
366,1686620934.11,30.273,31.738,48.828,14.648,312.01,402.3314380538397
367,1686620934.12,21.973,210.449,13.672,5.371,312.014,404.9148421970814
368,1686620934.12,-96.68,-551.758,0.0,-92.773,312.018,393.7312257726738
369,1686620934.12,-103.027,-271.484,97.656,-105.469,312.022,392.18304702743166
370,1686620934.13,22.461,559.57,67.871,-9.277,312.026,397.2927603657561
371,1686620934.13,50.781,406.25,12.207,26.367,312.03,390.5338313951169
372,1686620934.13,-48.828,47.363,27.832,-55.176,312.03,389.098477300315
373,1686620934.14,-100.586,165.527,48.34,-105.469,312.034,381.28216934482793
374,1686620934.14,-15.625,459.961,46.875,-29.785,312.038,383.8706885412303
375,1686620934.15,58.594,323.73,35.645,39.551,312.042,378.9188514415932
376,1686620934.15,-17.09,-127.93,47.363,-22.949,312.046,375.54832642987185
377,1686620934.15,-107.91,-251.465,54.199,-110.84,312.05,376.5512124907372
378,1686620934.16,-48.34,-36.133,64.941,-58.594,312.054,369.2803489453354
379,1686620934.16,45.898,-84.473,22.949,38.086,312.058,361.27007040848224
380,1686620934.16,-8.789,-822.754,25.879,2.93,312.061,356.8609280147229
381,1686620934.17,-109.375,-278.809,108.887,-104.98,312.065,357.5648606107641
382,1686620934.17,-79.102,373.535,66.406,-86.914,312.069,354.1496403451039
383,1686620934.18,26.367,182.617,15.137,20.02,312.073,347.9155714190008
384,1686620934.18,28.32,400.391,36.133,19.531,312.076,338.5776544526089
385,1686620934.18,-72.266,516.602,40.527,-79.102,312.08,352.24629064704476
386,1686620934.19,-93.75,138.184,17.09,-93.262,312.084,348.4432059623834
387,1686620934.19,0.0,-247.07,20.996,1.465,312.088,320.5010206390491
388,1686620934.2,39.062,191.895,43.457,28.809,312.092,315.09060222414587
389,1686620934.2,-49.316,229.492,38.574,-55.176,312.096,325.89889781627505
390,1686620934.2,-111.328,-215.332,19.043,-103.027,312.1,311.1542283600271
391,1686620934.21,-30.762,-624.023,53.223,-17.578,312.104,298.9381064927553
392,1686620934.21,54.199,-21.484,183.105,47.852,312.108,305.85949430162043
393,1686620934.22,-12.207,555.176,55.664,-22.949,312.112,308.66767912918056
394,1686620934.22,-108.398,162.109,-9.766,-96.68,312.116,306.8205748205337
395,1686620934.22,-60.547,50.781,76.172,-50.781,312.119,300.87990735762764
396,1686620934.22,43.457,421.387,70.312,23.438,312.12,302.5376872740755
397,1686620934.23,29.297,537.109,17.578,-2.441,312.124,301.9165613941015
398,1686620934.23,-74.219,123.535,7.324,-87.402,312.128,305.6777225869068
399,1686620934.24,-69.336,32.715,66.406,-77.148,312.132,296.0739627031425
400,1686620934.24,38.574,233.887,41.016,30.762,312.136,302.78289318649286
401,1686620934.24,45.898,172.363,26.855,47.852,312.14,307.6657157304412
402,1686620934.25,-69.824,-232.91,5.859,-61.523,312.144,303.09449694785326
403,1686620934.25,-113.77,-951.172,57.129,-104.492,312.148,301.57513598406223
404,1686620934.26,-4.883,-332.52,191.895,-17.578,312.152,297.84198039194996
405,1686620934.26,49.805,479.98,74.219,24.902,312.156,309.1341796838779
406,1686620934.26,-36.133,37.598,-28.809,-44.922,312.159,309.4061506463627
407,1686620934.27,-100.098,-32.715,34.18,-102.051,312.163,298.9055130917306
408,1686620934.27,-18.066,467.773,76.66,-33.203,312.18,309.9091500735582
409,1686620934.28,63.965,543.945,28.809,41.992,312.184,301.3961896492657
410,1686620934.28,-2.441,7.812,6.836,-11.23,312.188,306.6582860300701
411,1686620934.28,-104.492,31.738,50.781,-106.934,312.192,307.06976979426094
412,1686620934.29,-64.453,358.887,45.898,-75.684,312.196,315.8867448477049
413,1686620934.29,35.156,141.602,16.113,30.273,312.199,312.9870627435328
414,1686620934.3,2.93,-505.859,10.254,20.508,312.203,317.180891693102
415,1686620934.3,-107.422,-457.52,58.594,-85.938,312.207,307.64366846571386
416,1686620934.3,-115.234,75.684,78.613,-98.633,312.211,311.03813114923037
417,1686620934.31,-15.625,237.305,31.738,0.488,312.215,316.69476682990495
418,1686620934.31,4.395,-47.852,95.703,20.02,312.219,313.0637951968455
419,1686620934.31,-86.914,77.637,92.773,-81.543,312.223,325.39313217976047
420,1686620934.31,-128.418,265.625,23.926,-130.371,312.224,316.46974624571925
421,1686620934.32,-41.504,241.699,11.719,-49.805,312.228,324.7565396155965
422,1686620934.32,20.996,361.328,20.02,6.836,312.232,328.5439597973272
423,1686620934.33,-46.875,449.707,20.508,-61.523,312.236,312.31809979625825
424,1686620934.33,-129.395,205.078,-17.09,-136.23,312.24,328.5737576570163
425,1686620934.33,-79.59,-293.457,-10.254,-81.543,312.244,331.7101477132311
426,1686620934.34,9.766,-598.145,95.215,13.184,312.248,321.7638311408219
427,1686620934.34,-42.48,-63.965,80.078,-30.273,312.252,323.83685842633287
428,1686620934.34,-144.531,304.688,1.465,-139.16,312.256,322.7670965108968
429,1686620934.35,-109.375,-172.363,-17.09,-111.816,312.26,330.5672844987665
430,1686620934.35,5.859,-323.242,45.898,-7.812,312.263,327.2727269205653
431,1686620934.36,-2.441,347.168,38.086,-24.414,312.267,330.5371291888097
432,1686620934.37,-111.328,413.086,-25.879,-121.094,312.271,331.7609981872586
433,1686620934.38,-125.977,-277.344,-57.617,-124.023,312.275,334.289597393532
434,1686620934.38,-20.02,-35.645,23.926,-28.32,312.279,334.46917056024057
435,1686620934.39,20.02,612.793,36.133,-2.93,312.283,333.12268607308835
436,1686620934.39,-72.754,396.973,-29.785,-81.543,312.287,337.9952871365867
437,1686620934.39,-138.184,-321.289,31.25,-124.023,312.29,332.2471904324323
438,1686620934.4,-47.363,-182.617,79.102,-51.27,312.294,338.97929440347775
439,1686620934.4,36.133,484.375,26.855,16.113,312.298,334.72170835126605
440,1686620934.4,-38.574,272.949,-37.598,-46.387,312.302,335.6578884814222
441,1686620934.41,-130.371,-610.84,3.906,-125.488,312.306,340.45417542945415
442,1686620934.41,-58.105,-106.445,69.336,-63.477,312.31,337.48961568511885
443,1686620934.42,43.457,585.938,18.066,35.156,312.314,337.95688476397913
444,1686620934.42,-3.906,248.047,-29.297,-7.812,312.315,339.99449219462525
445,1686620934.42,-104.492,-131.348,41.016,-105.469,312.319,342.65208079335883
446,1686620934.43,-70.801,106.445,73.73,-86.914,312.323,337.7786542424185
447,1686620934.43,48.828,525.879,26.855,23.926,312.327,347.5362524295836
448,1686620934.44,41.504,181.152,-17.09,36.621,312.331,343.46561164722397
449,1686620934.44,-79.59,-643.555,69.824,-65.918,312.335,349.628591112143
450,1686620934.44,-101.074,-449.707,78.125,-97.168,312.339,351.4568609474129
451,1686620934.45,11.719,189.941,61.035,-2.441,312.343,350.6035869468188
452,1686620934.45,48.34,44.922,-17.09,36.133,312.347,337.4798517103007
453,1686620934.45,-58.105,-626.465,37.109,-57.129,312.351,337.93503461251424
454,1686620934.46,-121.094,5.859,99.609,-114.258,312.354,351.07509073372535
455,1686620934.46,-31.738,458.496,20.996,-28.809,312.358,344.11228347101746
456,1686620934.47,51.758,249.023,-2.441,40.527,312.362,348.1457776295718
457,1686620934.47,-14.16,372.07,7.324,-22.461,312.366,351.3497298331218
458,1686620934.47,-99.609,380.859,17.09,-103.027,312.37,343.64805667811555
459,1686620934.48,-54.688,112.793,-5.859,-54.199,312.374,348.8573153244462
460,1686620934.48,36.133,-234.375,-14.16,47.852,312.378,351.7241481279396
461,1686620934.49,8.789,-197.754,3.418,11.23,312.382,350.4688299557665
462,1686620934.49,-98.145,79.102,40.527,-97.168,312.386,353.7504828009292
463,1686620934.49,-94.238,119.629,-10.254,-86.914,312.39,355.01357860383365
464,1686620934.5,7.812,-523.926,0.488,17.578,312.394,351.2484756674166
465,1686620934.5,25.391,-74.707,74.219,20.508,312.397,348.70842674432214
466,1686620934.5,-67.871,448.73,10.254,-71.289,312.401,343.78305791052156
467,1686620934.51,-9.277,135.254,60.547,0.0,312.405,357.98415098723586
468,1686620934.51,-105.957,108.398,4.395,-90.332,312.405,362.92144235553786
469,1686620934.51,56.641,476.074,49.805,55.176,312.409,356.1608646718785
470,1686620934.52,-30.273,428.711,5.371,-22.461,312.413,351.32347829026014
471,1686620934.52,-106.934,51.27,14.648,-88.867,312.417,355.46705561144097
472,1686620934.52,-31.25,-53.223,50.781,-20.02,312.421,354.0537669375403
473,1686620934.53,54.688,-7.324,29.785,54.688,312.425,360.8188842250669
474,1686620934.53,-0.488,29.297,13.184,9.277,312.429,355.26394534815296
475,1686620934.54,-104.98,-302.246,-17.578,-83.984,312.433,361.01571745156286
476,1686620934.54,-58.594,-1000.0,22.949,-41.504,312.436,348.03389190980505
477,1686620934.54,65.918,-506.836,184.082,62.988,312.44,355.62448813636496
478,1686620934.55,32.715,376.953,80.078,25.391,312.444,356.4801411133528
479,1686620934.55,-89.844,62.988,-31.25,-82.52,312.448,353.69820279714867
480,1686620934.57,-82.031,75.195,49.316,-76.172,312.466,353.30836601769755
481,1686620934.57,34.668,535.156,63.477,34.668,312.47,352.2368056240221
482,1686620934.58,60.059,494.141,0.977,54.688,312.474,345.2349544347857
483,1686620934.58,-47.363,3.906,33.203,-52.734,312.478,355.90234836897775
484,1686620934.58,-96.191,15.137,59.082,-97.656,312.481,356.4693590043779
485,1686620934.59,-4.395,94.238,39.062,-1.953,312.485,351.771368829211
486,1686620934.59,56.641,15.137,28.32,55.664,312.489,350.1727575231623
487,1686620934.6,-24.414,-552.246,8.301,-25.879,312.493,350.8352593862141
488,1686620934.6,-98.633,-520.02,96.191,-94.727,312.497,346.57561375511415
489,1686620934.6,-29.785,122.07,99.609,-32.227,312.501,347.02624153623333
490,1686620934.61,62.5,237.793,28.32,61.523,312.505,352.43012352488046
491,1686620934.61,14.648,-148.438,135.742,16.113,312.509,341.4225409803573
492,1686620934.61,-85.938,49.805,109.375,-81.543,312.51,348.27727088762737
493,1686620934.62,-50.293,290.039,43.457,-45.898,312.514,346.74612644473564
494,1686620934.62,62.988,259.277,59.57,62.988,312.518,341.84360529537463
495,1686620934.63,54.688,294.922,58.105,52.246,312.522,348.7012162136532
496,1686620934.63,-63.477,180.176,41.992,-61.523,312.526,345.0282860921147
497,1686620934.63,-79.59,-112.305,37.598,-68.848,312.53,350.11749427055827
498,1686620934.64,34.668,-338.867,70.312,44.434,312.534,351.0630599890699
499,1686620934.64,72.266,-471.191,142.09,73.73,312.537,348.3997198840002
500,1686620934.64,-24.414,44.922,106.934,-34.668,312.541,344.1500240302355
501,1686620934.65,0.977,-15.625,132.324,-11.719,312.555,354.19435377273487
502,1686620934.65,-81.543,308.594,47.363,-88.867,312.545,364.0059926249281
503,1686620934.65,-84.961,215.332,30.762,-86.914,312.559,352.38740325098934
504,1686620934.65,-0.977,-291.504,-1.465,5.859,312.549,354.6360484501876
505,1686620934.66,-38.086,-254.883,44.922,-28.32,312.563,355.5437685455399
506,1686620934.66,63.965,-854.492,83.984,69.824,312.553,348.693983263075
507,1686620934.66,64.941,161.621,98.633,59.082,312.567,360.5307832957802
508,1686620934.66,30.273,453.125,50.781,7.812,312.571,354.7456645251051
509,1686620934.67,-84.961,-145.02,5.859,-97.656,312.574,360.1485191094483
510,1686620934.67,-65.918,-388.184,180.176,-63.965,312.578,349.03061145088367
511,1686620934.67,48.828,215.332,206.055,49.805,312.582,355.3783565066316
512,1686620934.68,47.363,488.281,61.035,43.945,312.586,344.927278270258
513,1686620934.68,-64.941,89.844,-2.93,-57.129,312.59,350.2210315064347
514,1686620934.69,-91.797,-754.883,66.406,-68.848,312.594,355.1984326433889
515,1686620934.69,20.996,-180.664,250.0,24.414,312.598,360.6483333642278
516,1686620934.69,68.359,563.477,114.258,56.641,312.6,350.91222544009946
517,1686620934.69,-24.414,32.227,4.395,-29.297,312.604,350.1087924169464
518,1686620934.7,-91.309,-314.941,106.934,-89.355,312.608,350.5451920823206
519,1686620934.7,-13.672,161.621,129.883,-16.113,312.612,360.1985816173748
520,1686620934.71,62.5,466.797,84.961,58.105,312.615,360.1041796117463
521,1686620934.71,-12.695,-82.031,31.738,-2.93,312.619,350.7614447841898
522,1686620934.71,-103.516,-904.785,69.824,-87.891,312.623,353.01141428253874
523,1686620934.72,-38.574,-467.285,216.309,-47.852,312.627,358.94957865518757
524,1686620934.72,66.895,414.551,145.508,44.434,312.631,366.14053606900535
525,1686620934.72,29.785,51.758,22.461,27.832,312.635,361.9822688311426
526,1686620934.73,-80.566,-415.527,125.488,-63.965,312.639,371.3130246821504
527,1686620934.73,-67.871,-41.504,174.316,-60.059,312.643,365.54831604505927
528,1686620934.75,39.551,332.031,113.281,31.25,312.647,363.2821862327037
529,1686620934.76,42.969,166.504,46.875,36.621,312.651,379.09315693773243
530,1686620934.76,-59.57,122.559,79.102,-70.312,312.655,374.91767979545375
531,1686620934.76,-95.215,211.914,81.055,-104.004,312.659,372.5969258914167
532,1686620934.77,-0.488,54.688,47.852,-6.348,312.663,374.34165508245997
533,1686620934.77,41.504,-529.297,36.621,51.27,312.667,375.3265891380896
534,1686620934.78,-52.246,-527.832,93.75,-34.668,312.671,369.1277012148108
535,1686620934.78,-122.07,75.195,114.746,-108.398,312.675,376.9984445486279
536,1686620934.78,-45.41,41.992,53.711,-31.25,312.679,368.06681817878626
537,1686620934.79,43.945,-474.121,82.031,56.152,312.683,367.59578277691224
538,1686620934.79,-9.766,-33.203,143.555,-6.836,312.687,385.2410956037443
539,1686620934.79,-98.145,248.047,78.125,-94.727,312.69,372.2755493602661
540,1686620934.79,-54.688,4.883,75.195,-53.711,312.69,375.7874348557967
541,1686620934.8,50.293,83.984,140.137,34.668,312.694,381.07316769353076
542,1686620934.8,34.668,315.918,123.047,22.949,312.698,370.6150535142204
543,1686620934.81,-80.078,218.262,59.57,-80.566,312.702,375.2050810642593
544,1686620934.81,-88.379,-123.047,67.383,-86.914,312.706,376.81572598269327
545,1686620934.81,16.113,-247.559,125.488,17.09,312.71,381.1161743763006
546,1686620934.82,41.016,-172.852,97.656,44.434,312.714,367.48739263427444
547,1686620934.82,-60.059,-194.336,86.426,-43.457,312.718,378.26740935708057
548,1686620934.82,-111.328,-490.723,61.523,-84.473,312.722,380.1067681661692
549,1686620934.83,-23.926,-1000.0,86.914,0.488,312.725,387.15918212321435
550,1686620934.83,58.594,-395.508,251.465,56.152,312.729,380.8113506321459
551,1686620934.84,-8.789,278.32,129.395,-19.043,312.733,386.6414862268509
552,1686620934.84,-94.238,-129.395,25.391,-98.145,312.737,370.0179679493613
553,1686620934.84,-29.297,58.105,135.742,-41.016,312.741,370.5785206134091
554,1686620934.85,65.918,541.016,114.746,41.016,312.745,368.4209203958611
555,1686620934.85,15.625,365.234,43.945,-9.277,312.749,366.2258523461447
556,1686620934.86,-97.656,-176.27,95.215,-96.191,312.753,371.17820863292826
557,1686620934.86,-67.383,-318.359,115.234,-62.012,312.757,374.0594442415735
558,1686620934.86,48.34,91.797,132.812,28.32,312.76,378.16832748279603
559,1686620934.87,35.645,256.836,52.734,19.531,312.764,373.21801318605503
560,1686620934.87,-91.797,-622.07,32.227,-73.242,312.768,369.3049163078916
561,1686620934.88,-100.586,-562.988,203.125,-84.473,312.772,375.3879265237496
562,1686620934.88,20.996,230.469,181.152,21.484,312.776,374.22163712339164
563,1686620934.88,50.781,280.762,55.664,50.781,312.78,370.32676480350864
564,1686620934.88,-50.781,-204.59,138.184,-52.734,312.78,374.6913920251231
565,1686620934.89,-93.75,34.668,145.996,-95.703,312.784,377.2916330754268
566,1686620934.89,-1.953,354.98,78.613,-6.836,312.788,370.7917212978683
567,1686620934.9,60.059,258.301,84.473,56.152,312.792,362.1021473281553
568,1686620934.9,-11.23,75.684,86.914,-3.906,312.796,365.63959839386024
569,1686620934.9,-100.098,-240.723,74.219,-77.148,312.8,369.16508101122366
570,1686620934.91,-37.109,-194.336,104.98,-19.531,312.804,375.5715090943806
571,1686620934.91,53.223,-215.82,62.988,61.523,312.807,370.1492578190408
572,1686620934.92,4.395,-848.145,75.195,15.137,312.811,377.46952967981645
573,1686620934.92,-91.309,-290.527,226.074,-89.844,312.815,369.0929336845798
574,1686620934.92,-65.43,292.48,125.977,-75.684,312.819,374.958157412505
575,1686620934.93,43.945,37.109,45.898,28.32,312.823,366.26427345340926
576,1686620934.93,39.062,32.715,73.73,28.32,312.828,364.1626746493007
577,1686620934.94,-69.336,247.559,82.52,-71.289,312.832,374.4911507530033
578,1686620934.94,-91.309,204.59,68.848,-89.355,312.835,369.76573974978766
579,1686620934.94,0.977,-223.145,33.691,21.484,312.839,368.3526206515732
580,1686620934.95,48.828,57.129,77.637,62.012,312.843,369.0049771989851
581,1686620934.95,-32.715,137.207,69.824,-35.645,312.847,369.5725516772598
582,1686620934.96,-107.91,-289.062,42.969,-95.215,312.851,368.73842775272533
583,1686620934.96,-31.738,-677.734,100.098,-16.113,312.855,376.6815393501213
584,1686620934.96,59.57,-105.957,247.559,52.246,312.859,365.54469572442
585,1686620934.97,-2.93,454.59,112.793,-5.859,312.863,365.7303639178194
586,1686620934.97,-98.633,92.285,23.438,-77.637,312.867,369.57932760999813
587,1686620934.97,68.848,397.461,109.375,56.641,312.87,365.9673204025522
588,1686620934.97,-42.48,-9.277,110.84,-27.344,312.871,366.19564164723187
589,1686620934.98,31.738,534.18,48.828,25.391,312.874,361.08566991829275
590,1686620934.98,-84.961,2.441,23.926,-72.266,312.878,372.91314624186253
591,1686620934.99,-69.824,-184.57,113.77,-69.336,312.882,363.6822397084166
592,1686620934.99,49.805,218.75,100.586,32.227,312.886,361.01740767102075
593,1686620934.99,61.035,153.32,44.922,40.039,312.89,367.5851077073664
594,1686620935.0,-61.523,-298.34,1.953,-68.359,312.894,364.7136875351199
595,1686620935.0,-108.887,-953.125,72.266,-97.656,312.898,374.71438779195904
596,1686620935.0,4.395,-345.703,307.617,-10.254,312.901,352.0111108298901
597,1686620935.01,71.777,472.168,155.762,37.109,312.905,359.91571472810625
598,1686620935.01,-16.602,124.023,-1.953,-38.574,312.909,365.0650196321471
599,1686620935.02,-95.215,25.879,52.246,-91.797,312.913,367.9320269810858
600,1686620935.02,-17.578,340.82,73.242,-13.184,312.929,357.4399849945508
601,1686620935.02,68.848,437.5,45.41,66.895,312.933,369.8867013747463
602,1686620935.03,0.0,46.387,19.531,4.395,312.937,362.4171421944772
603,1686620935.03,-90.332,-6.348,55.176,-89.355,312.941,364.7420901233759
604,1686620935.04,-39.551,212.891,66.406,-45.41,312.945,372.4436307398365
605,1686620935.04,62.5,110.84,33.691,50.781,312.949,366.50931593076183
606,1686620935.04,29.297,-594.727,7.324,30.273,312.953,367.34947601382333
607,1686620935.05,-81.055,-562.5,110.84,-85.449,312.956,363.4032850577466
608,1686620935.05,-76.172,204.59,107.422,-82.52,312.96,365.8449494273023
609,1686620935.06,31.25,171.875,22.949,32.715,312.964,364.2928268032949
610,1686620935.06,52.246,-204.102,107.91,49.316,312.968,374.1157160711845
611,1686620935.06,-48.34,97.656,97.656,-47.852,312.972,365.8478744387682
612,1686620935.06,-95.703,267.09,33.691,-80.566,312.974,368.05017002381425
613,1686620935.07,-0.977,165.039,43.945,13.184,312.978,371.7843768363952
614,1686620935.07,60.059,214.844,71.777,64.941,312.982,360.1511281438489
615,1686620935.08,-2.93,328.613,56.152,-0.488,312.986,364.0229119612866
616,1686620935.08,-75.684,200.684,42.969,-81.055,312.99,367.1505833970813
617,1686620935.08,-28.32,-294.922,50.293,-39.062,312.994,365.0284021013792
618,1686620935.09,71.777,-652.832,125.488,64.941,312.998,355.4191233284432
619,1686620935.09,30.762,-222.656,122.559,10.254,313.002,357.77467873593844
620,1686620935.1,-87.402,-10.254,39.551,-104.98,313.006,366.8392559187819
621,1686620935.1,-62.012,-419.922,13.184,-71.289,313.009,365.16203416286055
622,1686620935.1,55.664,-602.051,170.41,46.875,313.013,365.03670154585916
623,1686620935.11,48.828,253.418,184.082,36.621,313.017,363.55630554545405
624,1686620935.12,-62.988,322.754,24.414,-66.406,313.022,366.83391320201116
625,1686620935.13,-80.078,-133.789,57.617,-70.801,313.025,360.8073487976388
626,1686620935.13,22.949,245.117,105.469,20.508,313.029,354.6017283956972
627,1686620935.14,55.176,645.02,60.059,46.387,313.033,358.5349921491877
628,1686620935.14,-41.992,348.145,-4.395,-39.062,313.037,366.583081534441
629,1686620935.14,-96.191,-396.484,55.176,-81.055,313.041,359.56989852753685
630,1686620935.15,4.883,-219.238,123.047,8.301,313.045,367.67222387173047
631,1686620935.15,80.566,502.93,93.75,67.871,313.049,365.48770559218855
632,1686620935.16,5.371,273.926,5.371,-3.418,313.053,362.1785055748061
633,1686620935.16,-90.332,-616.211,20.996,-75.684,313.057,356.59350163240924
634,1686620935.16,-36.621,-365.723,108.398,-34.668,313.061,355.4442522156453
635,1686620935.17,71.289,238.281,97.168,57.617,313.065,359.9046734730309
636,1686620935.17,31.25,201.172,30.762,27.344,313.065,358.57328809056537
637,1686620935.17,-79.102,-145.02,70.312,-74.707,313.069,357.0094866209708
638,1686620935.18,-51.758,46.875,100.098,-64.453,313.073,351.38606552410533
639,1686620935.18,58.105,459.473,70.312,32.227,313.077,363.0791172427513
640,1686620935.18,53.223,166.016,33.203,45.41,313.081,353.43740610258175
641,1686620935.19,-61.523,-611.328,80.566,-46.387,313.085,353.9742531706584
642,1686620935.19,-87.402,-524.902,101.074,-74.707,313.089,354.55826965304675
643,1686620935.2,19.531,42.48,100.098,13.184,313.093,351.31614110580665
644,1686620935.2,58.105,-22.461,30.762,53.711,313.096,358.8503124847364
645,1686620935.2,-45.898,-821.777,25.879,-28.809,313.1,360.83665947462043
646,1686620935.21,-102.539,-239.746,106.934,-93.262,313.104,362.4869945492682
647,1686620935.21,-18.555,371.582,75.684,-20.02,313.108,359.4582994676109
648,1686620935.22,43.945,96.68,23.926,59.57,313.113,363.77978387686585
649,1686620935.22,-29.785,-8.301,3.906,-4.883,313.117,359.64313451055386
650,1686620935.22,-118.164,199.219,53.223,-85.938,313.121,358.236161024308
651,1686620935.23,-63.477,294.434,60.059,-30.762,313.125,359.19782531522355
652,1686620935.23,37.598,-120.605,32.227,61.523,313.129,358.9395136119501
653,1686620935.24,16.113,-199.707,38.574,30.273,313.132,359.93702219406936
654,1686620935.24,-83.008,-35.645,64.941,-67.871,313.136,361.7486186537727
655,1686620935.24,-72.754,21.484,36.133,-59.57,313.14,362.3416602566343
656,1686620935.25,37.109,-481.934,43.457,42.48,313.144,369.4579343290564
657,1686620935.25,46.875,-110.84,149.414,46.387,313.148,367.3287257895478
658,1686620935.26,-61.035,398.926,56.641,-51.758,313.152,353.9780101718727
659,1686620935.26,-92.773,80.566,17.09,-73.242,313.156,367.6380383226351
660,1686620935.26,21.484,124.023,95.703,21.973,313.155,359.8049799151469
661,1686620935.26,81.055,448.242,68.848,70.801,313.159,373.93914238555476
662,1686620935.27,-18.066,361.328,15.137,-18.555,313.163,371.64627274382906
663,1686620935.27,-98.145,-101.562,41.992,-84.473,313.167,362.78006216533237
664,1686620935.28,-20.996,-174.316,106.934,-12.207,313.171,364.62367427473635
665,1686620935.28,58.594,13.184,81.055,55.176,313.175,361.36433172593865
666,1686620935.28,-5.859,13.672,46.875,-2.93,313.178,370.08882508868265
667,1686620935.29,-101.562,-371.582,-3.906,-86.914,313.182,361.08194778947063
668,1686620935.29,-67.871,-969.727,82.52,-44.922,313.186,375.8757980406759
669,1686620935.29,48.34,-224.121,273.438,47.852,313.19,359.44844378959846
670,1686620935.3,44.434,477.051,102.051,26.855,313.194,359.9924157495968
671,1686620935.3,-72.266,-2.441,-26.367,-74.707,313.198,360.65226639109926
672,1686620935.31,-82.031,4.883,60.547,-70.312,313.203,361.2464020918549
673,1686620935.31,35.645,453.125,79.102,46.387,313.207,366.4401811588122
674,1686620935.31,66.895,486.328,26.367,70.312,313.21,360.37637990269735
675,1686620935.32,-48.828,8.789,16.113,-41.992,313.214,356.6738126057887
676,1686620935.32,-98.633,-36.133,64.941,-92.285,313.218,356.16024332957113
677,1686620935.33,1.953,8.789,65.918,-4.395,313.222,362.0923249830506
678,1686620935.33,54.199,-62.988,43.945,45.41,313.226,361.12791546238395
679,1686620935.33,-46.387,-712.891,19.531,-37.109,313.23,370.4094823759849
680,1686620935.34,-125.0,-693.848,152.344,-108.887,313.234,353.6978003327926
681,1686620935.34,-44.434,212.891,125.977,-41.016,313.238,365.62311639302027
682,1686620935.34,46.387,295.41,20.996,36.621,313.242,351.8584279694194
683,1686620935.35,-4.883,124.023,53.711,-11.719,313.246,351.583931939576
684,1686620935.35,-98.145,151.367,49.316,-98.145,313.245,360.7058930315753
685,1686620935.35,-64.453,201.172,59.57,-70.312,313.249,359.471599352189
686,1686620935.36,41.016,171.387,29.785,24.902,313.253,360.6983036831659
687,1686620935.36,30.273,145.508,32.227,11.23,313.257,360.3083372121924
688,1686620935.36,-73.242,67.871,20.996,-89.355,313.261,360.50113966557154
689,1686620935.37,-83.008,-145.508,56.641,-95.703,313.265,360.6012126809541
690,1686620935.37,22.461,-264.16,49.805,14.16,313.269,357.22806913275275
691,1686620935.38,56.152,-847.168,25.391,49.805,313.273,348.82562724501025
692,1686620935.38,-38.574,-567.871,134.277,-54.688,313.276,361.72031091097506
693,1686620935.38,-100.098,-96.68,46.875,-107.422,313.28,362.5977590545388
694,1686620935.39,-13.672,-241.211,32.227,-17.578,313.284,359.674531381726
695,1686620935.39,64.453,87.402,176.758,45.41,313.288,360.32866782879125
696,1686620935.41,-1.953,439.453,88.379,-24.902,313.307,363.7794003556309
697,1686620935.41,-83.984,186.523,23.926,-100.586,313.311,364.4190611828415
698,1686620935.42,-36.133,-58.594,56.152,-44.922,313.315,357.24302315366026
699,1686620935.42,58.594,304.688,67.383,41.016,313.319,365.7820459882552
700,1686620935.43,13.672,522.949,37.109,-6.348,313.322,370.4292477507173
701,1686620935.43,-95.215,-62.012,-6.348,-92.285,313.326,358.68435267315675
702,1686620935.43,-71.777,-799.805,50.781,-57.617,313.33,354.7893679186917
703,1686620935.44,43.945,-181.641,210.449,40.039,313.334,359.5077506854202
704,1686620935.44,71.289,337.891,57.617,60.547,313.348,352.4084274924389
705,1686620935.44,51.758,535.156,93.262,43.457,313.338,359.48295908598095
706,1686620935.44,-31.25,131.348,-19.043,-27.344,313.352,353.24036784524696
707,1686620935.44,-55.664,216.797,-3.906,-53.223,313.342,351.3676969164419
708,1686620935.45,-97.656,-417.48,86.914,-91.797,313.356,363.92271843982877
709,1686620935.45,-79.102,-114.258,46.875,-75.684,313.346,362.5659552437873
710,1686620935.45,-2.93,69.824,102.051,-8.789,313.36,357.2986587261527
711,1686620935.45,25.879,-49.316,77.637,20.996,313.35,361.80331965884227
712,1686620935.46,81.543,390.625,20.02,70.801,313.364,362.27689833238406
713,1686620935.46,10.742,-96.191,24.902,5.371,313.367,357.57515740504226
714,1686620935.46,-84.473,-540.527,52.246,-80.566,313.371,366.62819731747345
715,1686620935.47,-31.738,-235.352,113.77,-27.832,313.375,352.8603589807728
716,1686620935.47,68.359,328.125,83.008,58.105,313.379,357.55198549021617
717,1686620935.48,25.391,-49.805,-29.297,21.973,313.383,365.06715574398237
718,1686620935.48,-93.75,-913.574,6.348,-66.895,313.387,362.16700499278164
719,1686620935.48,-69.336,-240.723,132.812,-58.105,313.391,357.91980219043097
720,1686620935.5,44.434,454.102,78.613,43.457,313.398,341.30930336881954
721,1686620935.5,44.434,47.363,11.719,50.781,313.402,359.7521187697767
722,1686620935.51,-62.5,-143.555,36.133,-55.664,313.406,357.1944531586868
723,1686620935.51,-88.867,132.324,75.195,-81.055,313.41,359.2585735619183
724,1686620935.52,23.926,322.266,55.664,26.367,313.414,359.42596557233315
725,1686620935.52,61.523,-426.758,-8.301,69.336,313.418,352.94488003455996
726,1686620935.52,-32.715,-647.461,118.164,-30.273,313.422,354.1896623892384
727,1686620935.53,-98.145,96.191,96.68,-101.562,313.426,368.8513173785766
728,1686620935.53,-28.32,164.551,10.254,-23.926,313.43,368.34326390970494
729,1686620935.54,59.57,51.758,105.957,55.664,313.434,360.7643194061702
730,1686620935.54,-4.395,261.23,71.289,-4.883,313.437,359.1370299072648
731,1686620935.54,-104.004,192.871,18.066,-92.285,313.441,358.43727870735813
732,1686620935.54,-52.734,28.32,27.832,-49.316,313.441,358.9986425014857
733,1686620935.55,57.617,130.371,60.547,54.199,313.445,358.9086844326656
734,1686620935.55,40.527,318.848,55.176,36.133,313.448,356.69820314216355
735,1686620935.56,-73.242,199.219,13.672,-72.754,313.452,354.3806452527787
736,1686620935.56,-77.637,-180.664,32.227,-76.66,313.456,351.19368817980427
737,1686620935.56,35.156,-310.547,87.891,26.367,313.46,359.35458072311764
738,1686620935.57,54.199,-133.301,41.992,41.992,313.464,354.7012784392374
739,1686620935.57,-54.688,-186.523,16.602,-65.43,313.468,347.4958602095205
740,1686620935.58,-101.562,-484.375,-0.488,-97.168,313.472,365.49758349438474
741,1686620935.58,-4.883,-940.918,72.266,-2.93,313.476,358.1799461090441
742,1686620935.58,62.012,-248.535,203.125,34.668,313.48,355.94581819680775
743,1686620935.59,-17.09,244.141,56.641,-47.852,313.484,354.4290153924612
744,1686620935.59,-103.027,-182.617,-19.043,-110.352,313.487,347.5434202234999
745,1686620935.59,-46.387,49.805,45.41,-47.363,313.491,350.1069195382606
746,1686620935.6,49.316,518.066,47.852,39.551,313.495,355.3607719639089
747,1686620935.6,9.277,397.461,12.695,-2.93,313.498,361.9119708831269
748,1686620935.61,-103.516,-118.164,43.945,-99.121,313.502,352.8882942707292
749,1686620935.61,-83.496,-248.047,52.246,-73.73,313.506,358.41172753108503
750,1686620935.61,31.738,32.715,66.406,23.926,313.51,363.7572431475671
751,1686620935.62,25.391,72.754,6.836,20.02,313.514,360.2004961114933
752,1686620935.62,-86.426,-756.348,-3.906,-66.895,313.518,359.6906392916032
753,1686620935.62,-103.516,-627.441,146.484,-78.125,313.522,350.96866442470275
754,1686620935.63,10.254,347.656,82.52,8.789,313.526,356.9125877788513
755,1686620935.63,53.223,347.168,-19.043,38.086,313.53,359.41852757043404
756,1686620935.63,-47.852,93.75,24.414,-44.434,313.53,361.38419470958024
757,1686620935.64,-105.957,187.012,43.945,-89.355,313.534,340.63032625776447
758,1686620935.64,-6.348,358.887,36.133,-11.719,313.538,348.3863546428569
759,1686620935.65,76.172,295.898,4.883,55.176,313.542,347.5946803338652
760,1686620935.65,-0.488,24.902,13.672,-14.16,313.546,345.95429995606526
761,1686620935.65,-94.727,-266.602,30.762,-99.609,313.55,345.29358476446373
762,1686620935.66,-33.691,-157.715,55.176,-49.805,313.553,351.4092581098753
763,1686620935.66,67.871,-190.918,81.055,49.316,313.557,355.27732248758895
764,1686620935.66,14.648,-836.914,55.664,20.508,313.561,347.52012668275864
765,1686620935.67,-85.938,-489.258,70.312,-88.379,313.565,349.29843001699663
766,1686620935.67,-58.105,94.727,62.012,-73.242,313.569,349.4296327046005
767,1686620935.68,48.828,-16.602,16.113,31.738,313.573,343.9276422056648
768,1686620935.68,47.852,110.352,66.406,28.32,313.577,350.87025031994955
769,1686620935.68,-74.219,369.629,51.758,-77.637,313.581,348.97276517798025
770,1686620935.69,-109.863,155.762,13.672,-95.215,313.585,348.91696019590074
771,1686620935.69,2.93,47.363,47.363,5.859,313.589,359.8107593632759
772,1686620935.7,55.176,319.336,42.48,45.898,313.593,358.350153620346
773,1686620935.7,-45.898,81.055,19.043,-48.828,313.597,364.01370169260736
774,1686620935.7,-111.816,-359.375,23.926,-107.91,313.601,355.265561463676
775,1686620935.71,-27.832,-714.355,47.363,-21.973,313.605,352.7808759509653
776,1686620935.71,55.664,-105.957,140.625,48.34,313.609,353.4906256475719
777,1686620935.72,-7.324,498.047,45.898,-16.602,313.613,349.3626830146212
778,1686620935.72,-111.328,111.816,-9.766,-96.68,313.616,362.26143547819385
779,1686620935.72,-61.523,-77.148,65.43,-51.758,313.62,351.5106422426617
780,1686620935.72,56.152,86.914,84.961,45.41,313.622,354.6637789459433
781,1686620935.73,31.738,301.758,26.855,16.113,313.626,355.1632744531137
782,1686620935.73,-82.031,-16.602,-8.301,-83.984,313.63,365.61680819287045
783,1686620935.74,-69.336,-347.656,92.773,-74.219,313.634,358.76389007016735
784,1686620935.74,42.48,55.176,66.406,24.902,313.638,362.9036198431791
785,1686620935.74,47.363,129.395,29.297,38.574,313.642,363.9027160896884
786,1686620935.75,-63.965,-305.664,-18.066,-57.129,313.646,359.72277659146243
787,1686620935.75,-105.469,-917.969,38.574,-78.613,313.65,353.8007003344726
788,1686620935.76,6.836,-186.035,232.91,15.625,313.654,356.1115356569157
789,1686620935.76,64.453,475.586,76.66,56.152,313.657,358.05932216156754
790,1686620935.76,-22.949,63.477,-38.086,-30.273,313.661,354.45690847477437
791,1686620935.77,-90.332,29.297,37.109,-100.098,313.665,363.1810904683127
792,1686620935.77,-16.113,343.262,72.754,-32.227,313.679,361.43498928372424
793,1686620935.78,65.918,422.852,26.367,41.992,313.683,357.85296449580704
794,1686620935.78,-3.418,-95.215,-25.391,-6.348,313.687,352.0000694398406
795,1686620935.78,-103.027,-272.949,53.711,-102.051,313.691,347.95761715651815
796,1686620935.79,-60.547,119.629,73.73,-75.684,313.695,357.4066865090021
797,1686620935.79,41.992,86.914,5.859,33.203,313.699,362.86296289217734
798,1686620935.8,3.418,-658.691,-37.109,20.508,313.703,356.34056338402763
799,1686620935.8,-99.121,-686.523,103.027,-78.125,313.707,355.02539680617184
800,1686620935.8,-79.102,143.066,89.355,-78.613,313.711,351.5488616993583
801,1686620935.81,33.691,298.828,11.23,17.578,313.714,353.97498628172366
802,1686620935.81,50.293,183.594,55.176,38.574,313.718,349.15780081248454
803,1686620935.81,-108.887,137.207,25.879,-107.91,313.723,351.67437598514067
804,1686620935.81,-59.082,204.102,22.461,-62.012,313.722,357.0196909300437
805,1686620935.82,-8.301,70.801,27.344,-17.578,313.727,353.3426609491936
806,1686620935.82,52.246,123.535,47.363,31.25,313.731,350.5433382207393
807,1686620935.82,-32.227,236.328,35.156,-45.41,313.735,359.3891523324364
808,1686620935.83,-104.004,6.348,-20.996,-101.074,313.739,365.0486972224749
809,1686620935.83,-36.133,-415.039,12.207,-29.297,313.743,358.1579039551467
810,1686620935.84,46.875,-689.941,87.891,40.527,313.747,356.25583008099517
811,1686620935.84,1.953,-362.793,61.523,-12.207,313.751,356.69993012324903
812,1686620935.84,-93.75,-23.438,50.781,-98.145,313.755,360.7200674605935
813,1686620935.85,-68.359,-385.254,37.598,-65.918,313.759,365.0141891505678
814,1686620935.85,31.738,-699.707,124.512,33.203,313.762,364.15469665635703
815,1686620935.86,33.203,152.344,120.605,18.555,313.766,350.43663323528415
816,1686620935.88,-72.266,305.176,-19.043,-76.66,313.771,354.2083139951067
817,1686620935.88,-82.52,-178.711,11.23,-81.055,313.775,355.8243049942795
818,1686620935.88,23.438,99.609,55.176,7.324,313.779,356.65978313496635
819,1686620935.89,45.41,481.934,33.203,24.902,313.783,358.81135490236295
820,1686620935.89,-47.363,228.516,-18.066,-67.383,313.787,362.37115697341164
821,1686620935.9,-100.098,-466.797,35.645,-100.098,313.79,360.7317296012736
822,1686620935.9,-14.648,-243.652,106.445,-20.996,313.794,354.89071317833316
823,1686620935.9,60.059,312.5,44.922,34.668,313.798,355.8945956252884
824,1686620935.91,-16.113,-73.242,-26.855,-35.156,313.802,354.1592679040871
825,1686620935.91,-106.445,-840.332,27.344,-105.469,313.806,356.43082360689397
826,1686620935.91,-39.062,-373.047,189.941,-50.293,313.81,361.6393656564885
827,1686620935.92,60.547,396.484,77.148,34.18,313.814,358.5105329569419
828,1686620935.92,9.766,164.551,-22.461,-3.418,313.815,357.52596757207596
829,1686620935.92,-99.121,-115.723,36.621,-102.051,313.819,357.8558440987618
830,1686620935.93,-83.496,59.082,55.176,-75.195,313.823,353.08627041913076
831,1686620935.93,28.809,347.168,41.504,34.18,313.827,359.6860330627597
832,1686620935.94,31.25,95.215,24.902,28.32,313.831,363.6720963688223
833,1686620935.94,-74.219,-434.57,47.852,-76.66,313.835,351.2727800203794
834,1686620935.94,-87.891,-496.094,58.594,-98.145,313.839,357.82831315814025
835,1686620935.95,20.02,-55.176,84.961,-7.812,313.843,359.22563330102673
836,1686620935.95,55.176,-65.918,2.441,30.762,313.846,356.9263444475669
837,1686620935.95,-52.734,-839.355,-10.254,-53.223,313.85,356.9036886547182
838,1686620935.96,-118.652,-473.145,62.5,-118.164,313.854,355.1655449420682
839,1686620935.96,-26.855,107.91,51.27,-38.086,313.858,354.7254789910913
840,1686620935.97,48.34,-87.891,-7.812,34.18,313.862,350.9312459338535
841,1686620935.97,-20.508,-69.336,35.156,-33.691,313.866,355.3149354792708
842,1686620935.97,-104.98,174.316,33.691,-107.91,313.87,346.25668534869646
843,1686620935.98,-52.734,103.516,20.508,-53.223,313.874,358.1177687986496
844,1686620935.98,51.758,-39.551,48.34,50.293,313.878,353.12284515610276
845,1686620935.99,21.484,-201.172,31.25,23.926,313.882,364.9355673278312
846,1686620935.99,-85.938,-136.23,46.387,-81.055,313.886,360.15632765202446
847,1686620935.99,-73.73,-26.367,10.742,-70.801,313.89,351.19736723679756
848,1686620936.0,25.391,-609.375,18.066,34.18,313.893,353.40397924549785
849,1686620936.0,38.574,-182.129,101.074,43.945,313.897,356.2377453834902
850,1686620936.0,-60.547,280.762,19.531,-55.664,313.901,351.50912968628455
851,1686620936.01,-96.191,-189.453,23.438,-82.031,313.905,361.09111622273844
852,1686620936.01,12.207,-105.469,70.312,13.184,313.907,354.4645454397129
853,1686620936.01,66.406,68.848,56.152,53.223,313.911,353.36557993436367
854,1686620936.02,-25.391,145.02,17.09,-33.691,313.915,351.6479789928102
855,1686620936.02,-98.633,-96.68,-10.254,-92.773,313.919,359.0609651063112
856,1686620936.03,-31.738,-438.965,68.848,-21.484,313.923,348.8766577779266
857,1686620936.03,43.457,-214.844,39.062,33.203,313.927,364.0895355246509
858,1686620936.03,-10.742,-70.312,0.488,-17.578,313.931,360.3720939640149
859,1686620936.04,-110.84,-412.598,-11.719,-83.496,313.935,355.1700043225651
860,1686620936.04,-67.871,-922.852,67.871,-36.133,313.939,364.11770277656154
861,1686620936.04,52.734,-113.77,201.172,51.27,313.943,360.95299796925786
862,1686620936.05,33.691,446.777,69.336,31.738,313.946,360.36040723312055
863,1686620936.05,-73.242,-59.57,-16.113,-65.43,313.95,361.3298687153826
864,1686620936.06,-71.777,8.301,41.504,-77.637,313.952,353.72242943430723
865,1686620936.06,31.738,441.895,63.965,17.09,313.956,357.2462930804473
866,1686620936.06,46.387,464.844,4.395,38.086,313.96,359.619111490599
867,1686620936.07,-58.594,-121.582,-14.16,-57.617,313.964,355.8410666786926
868,1686620936.07,-92.773,-228.027,54.199,-91.797,313.968,357.65590264108465
869,1686620936.08,13.672,-1.465,81.543,1.465,313.972,349.32619964369155
870,1686620936.08,66.406,47.852,33.203,49.805,313.976,353.8087680468562
871,1686620936.08,-28.809,-614.258,-7.812,-20.996,313.979,353.01671187836354
872,1686620936.09,-99.121,-688.477,151.855,-89.355,313.983,347.4698848305195
873,1686620936.09,-27.832,240.723,119.141,-37.109,313.987,353.3047477027954
874,1686620936.1,67.383,401.367,14.16,55.664,313.991,356.37702179772015
875,1686620936.1,17.09,178.711,55.664,9.277,313.995,358.2159252687793
876,1686620936.1,-107.91,142.09,46.387,-105.957,313.995,350.65281099864353
877,1686620936.1,-84.473,197.754,42.48,-81.055,313.999,355.2842112144165
878,1686620936.11,26.855,189.941,20.508,30.273,314.003,353.6237170968119
879,1686620936.11,17.09,163.086,48.34,22.461,314.007,357.18305265092636
880,1686620936.12,-84.961,61.523,38.574,-79.102,314.011,348.05936054825355
881,1686620936.12,-95.215,-256.348,32.227,-86.426,314.015,337.7184962756454
882,1686620936.12,8.789,-360.84,57.617,15.137,314.019,337.1068204850844
883,1686620936.13,24.414,-898.926,54.199,45.898,314.023,348.77162200061207
884,1686620936.13,-70.801,-653.32,166.992,-48.828,314.027,343.3319308754671
885,1686620936.13,-117.676,108.398,108.887,-101.074,314.03,338.3325220998967
886,1686620936.14,-31.738,-61.523,30.273,-12.695,314.034,342.6944497162898
887,1686620936.14,44.922,143.555,82.031,52.734,314.038,348.592712552063
888,1686620936.16,-24.902,450.195,51.758,-17.09,314.055,358.65720754895057
889,1686620936.16,-104.98,200.684,18.555,-97.656,314.059,349.6934064835673
890,1686620936.17,-46.875,-100.586,40.527,-43.945,314.063,356.1997883017185
891,1686620936.17,56.641,192.383,75.195,50.293,314.067,354.39241926578853
892,1686620936.18,15.137,414.062,54.199,2.441,314.071,354.5914831469684
893,1686620936.18,-104.004,-139.648,-3.418,-97.656,314.075,349.7706721105807
894,1686620936.18,-95.703,-794.434,50.781,-65.43,314.079,353.11323274883927
895,1686620936.19,20.508,-221.191,229.492,35.156,314.083,354.5008823781394
896,1686620936.19,63.965,477.051,27.344,52.246,314.1,358.4282297600998
897,1686620936.19,32.227,438.965,95.215,30.762,314.087,358.636407368763
898,1686620936.19,-28.809,76.66,14.16,-30.273,314.104,354.35798700682506
899,1686620936.19,-76.66,-111.328,-35.156,-73.73,314.09,355.74389846736284
900,1686620936.2,-96.191,-141.602,56.152,-93.262,314.107,358.44269481868065
901,1686620936.2,-96.191,-587.402,125.488,-89.844,314.094,351.8397481211182
902,1686620936.2,-17.09,152.344,64.453,-26.855,314.111,356.4874766539422
903,1686620936.2,20.02,63.965,158.203,13.672,314.098,352.2524835656594
904,1686620936.2,60.547,366.699,43.945,36.621,314.115,357.7109821751928
905,1686620936.21,-23.438,-141.113,12.695,-35.645,314.119,361.1023718760768
906,1686620936.21,-131.348,-714.844,77.637,-122.07,314.123,350.21803569848856
907,1686620936.22,-67.871,-399.414,106.445,-62.012,314.127,357.5100842488789
908,1686620936.22,54.199,222.656,85.449,40.039,314.131,349.9943503437959
909,1686620936.22,16.602,-80.566,12.207,5.371,314.135,349.1720881571551
910,1686620936.23,-92.773,-642.578,83.984,-96.68,314.139,355.60076041521165
911,1686620936.23,-74.707,-206.543,100.098,-83.496,314.143,363.0966493366169
912,1686620936.25,33.691,202.148,59.082,22.461,314.146,353.6142420547506
913,1686620936.25,36.621,-114.746,-1.465,19.043,314.15,356.9169683808095
914,1686620936.26,-68.848,-164.062,50.293,-77.637,314.154,355.5700960182891
915,1686620936.26,-86.914,159.18,68.359,-93.262,314.158,356.39585548375686
916,1686620936.27,12.207,204.59,62.012,-9.277,314.162,351.77640682796385
917,1686620936.27,57.617,-136.719,74.707,33.203,314.166,361.3161929386442
918,1686620936.27,-27.344,-183.594,70.801,-41.992,314.17,360.1573742167203
919,1686620936.28,-99.609,190.43,62.012,-102.539,314.173,351.8780583862246
920,1686620936.28,-24.414,93.262,8.789,-33.203,314.177,357.70721460441814
921,1686620936.28,58.594,-478.027,38.086,44.434,314.181,363.13334254917726
922,1686620936.29,6.348,-95.703,86.426,-16.113,314.185,349.91480179100057
923,1686620936.29,-88.867,215.82,40.527,-99.121,314.189,354.46293906135037
924,1686620936.3,-45.41,-12.695,37.598,-53.711,314.192,351.1371883135545
925,1686620936.3,65.918,-7.324,63.477,42.969,314.196,351.00543181499665
926,1686620936.3,37.598,-35.645,33.691,25.391,314.2,354.0797608414835
927,1686620936.31,-71.289,86.914,25.879,-69.336,314.204,351.1150248093879
928,1686620936.31,-82.031,-124.512,35.156,-77.637,314.208,360.35200826126203
929,1686620936.32,20.508,-554.688,127.93,18.555,314.211,357.2109713880698
930,1686620936.32,34.668,-283.203,76.172,18.555,314.215,356.4671869182423
931,1686620936.32,-62.012,-99.609,13.184,-88.867,314.219,358.4617542268313
932,1686620936.33,-104.492,-407.227,4.883,-106.934,314.223,363.8005599360549
933,1686620936.33,-15.137,-864.258,57.617,-1.465,314.227,357.52022554981545
934,1686620936.33,62.988,-5.859,139.648,41.016,314.231,358.91140153487555
935,1686620936.34,-27.344,396.484,21.484,-41.504,314.235,363.5036626641299
936,1686620936.34,-115.723,-171.387,-19.531,-103.027,314.237,365.3169368190331
937,1686620936.34,-35.645,56.152,65.918,-41.016,314.241,361.77104407783474
938,1686620936.35,49.316,516.602,63.477,31.738,314.245,365.9831475828754
939,1686620936.35,-16.113,393.066,9.277,-19.531,314.249,358.39409284327934
940,1686620936.36,-117.676,-226.074,9.766,-106.934,314.253,354.41792381279794
941,1686620936.36,-83.496,-410.156,47.852,-81.543,314.256,360.8177888636814
942,1686620936.36,23.438,-34.668,83.496,14.16,314.26,365.6692851115873
943,1686620936.37,17.09,236.328,18.555,9.766,314.264,371.21972042152
944,1686620936.37,-100.586,-639.16,-24.414,-78.125,314.268,358.9195536677204
945,1686620936.38,-105.957,-684.082,163.086,-92.285,314.272,363.5427522086485
946,1686620936.38,22.461,349.609,102.051,-3.418,314.276,362.2490984858907
947,1686620936.38,50.293,415.527,-4.395,27.832,314.28,361.7457901376478
948,1686620936.38,-54.199,104.98,52.734,-68.359,314.28,354.3708779091774
949,1686620936.39,-106.934,120.605,34.668,-119.141,314.284,365.34794768410296
950,1686620936.39,-18.066,306.152,44.434,-22.461,314.288,357.29518352585285
951,1686620936.4,52.734,315.43,10.742,50.293,314.292,356.15082997017635
952,1686620936.4,-34.668,81.055,3.418,-24.414,314.296,373.9930579599506
953,1686620936.4,-129.395,-257.812,26.855,-105.469,314.3,368.615475916335
954,1686620936.41,-63.965,-225.098,49.805,-46.875,314.304,364.25707417630707
955,1686620936.41,37.109,-169.434,21.973,36.621,314.308,377.46574391834315
956,1686620936.42,-14.16,-920.898,18.555,2.441,314.312,363.8484380102873
957,1686620936.42,-116.699,-698.73,187.988,-101.562,314.316,359.9500930508195
958,1686620936.42,-86.914,180.664,138.184,-88.379,314.319,366.7448108470134
959,1686620936.43,16.602,61.523,16.602,8.301,314.323,366.8181092235245
960,1686620936.43,18.066,210.449,43.457,2.441,314.354,365.6104991528998
961,1686620936.43,-73.73,403.809,28.32,-80.078,314.358,363.3045750329321
962,1686620936.44,-96.68,172.363,25.391,-96.191,314.362,355.58462736391675
963,1686620936.44,-8.789,62.5,48.34,-10.254,314.366,357.39545623705214
964,1686620936.45,33.203,286.133,46.875,28.32,314.37,365.19403295955976
965,1686620936.45,-63.477,99.609,20.996,-62.5,314.374,366.4706769285791
966,1686620936.45,-125.977,-276.855,12.207,-112.793,314.377,359.1399106451229
967,1686620936.46,-37.109,-638.184,58.105,-20.996,314.381,357.23528435391336
968,1686620936.46,47.852,-127.93,195.312,36.133,314.385,364.9550330163881
969,1686620936.46,-15.625,328.613,64.941,-38.574,314.389,362.99678773333153
970,1686620936.47,-102.051,-250.977,-17.09,-98.145,314.393,355.1707371053627
971,1686620936.47,-48.34,-449.219,164.062,-39.062,314.397,357.9810614611353
972,1686620936.47,62.012,256.836,169.434,41.504,314.37,350.8622246509482
973,1686620936.48,35.156,533.203,18.555,15.137,314.374,355.66421084979555
974,1686620936.48,-72.754,67.383,4.395,-74.707,314.378,359.4687373391688
975,1686620936.49,-73.73,-10.254,74.707,-84.473,314.382,364.995210341128
976,1686620936.49,31.25,259.277,56.152,17.09,314.386,365.2146197196552
977,1686620936.49,42.969,138.184,30.273,39.062,314.39,362.0116509548953
978,1686620936.5,-69.824,-346.68,-0.488,-56.641,314.394,361.90433596385054
979,1686620936.5,-114.258,-885.742,49.805,-89.844,314.398,369.909744330891
980,1686620936.5,2.93,-105.957,142.09,-1.465,314.402,361.49308474903137
981,1686620936.51,63.477,516.602,45.41,45.898,314.405,358.6791966869543
982,1686620936.51,-34.18,-25.391,-4.883,-37.109,314.409,362.7044632107574
983,1686620936.52,-107.91,-216.309,42.969,-101.074,314.413,363.0753366442008
984,1686620936.52,-25.391,-19.531,87.402,-24.902,314.428,371.4460447201181
985,1686620936.53,64.941,274.414,50.293,38.574,314.432,357.1379105825795
986,1686620936.53,-15.137,-262.695,-58.105,-30.762,314.436,352.170771007856
987,1686620936.53,-125.977,-556.152,71.777,-108.887,314.44,362.6122026053647
988,1686620936.54,-72.754,134.277,92.773,-67.383,314.444,365.2403985170347
989,1686620936.54,31.25,123.535,8.301,25.879,314.448,361.18977360789586
990,1686620936.55,-0.488,-568.848,-15.625,10.254,314.452,356.77208308640576
991,1686620936.55,-99.609,-386.719,80.566,-97.168,314.456,360.88152966210384
992,1686620936.55,-88.867,239.746,59.57,-98.145,314.46,357.9910739473628
993,1686620936.56,23.926,201.66,6.348,12.207,314.464,364.11866346391747
994,1686620936.56,45.898,123.535,67.871,27.344,314.467,369.8224706130428
995,1686620936.56,-86.426,229.004,20.996,-103.516,314.474,356.6121415733008
996,1686620936.56,-48.828,230.469,49.316,-71.777,314.471,370.50072657930264
997,1686620936.57,4.395,205.078,24.414,-8.789,314.478,358.99992254585146
998,1686620936.57,62.988,151.855,26.367,50.781,314.482,362.13296121326994
999,1686620936.58,-23.926,-21.973,10.742,-33.203,314.486,361.406725354537
1000,1686620936.58,-99.121,-9.277,25.879,-102.539,314.49,368.600623293019
1001,1686620936.58,-41.992,-202.148,11.23,-37.598,314.494,368.33327196067154
1002,1686620936.59,38.086,-931.152,28.32,44.922,314.498,369.02296641345265
1003,1686620936.59,-0.977,-578.613,134.277,-15.137,314.501,366.2819109803691
1004,1686620936.6,-99.121,142.578,60.059,-114.258,314.505,361.9382331239398
1005,1686620936.6,-74.219,-87.891,0.488,-78.125,314.509,357.3412121756391
1006,1686620936.6,42.48,107.422,83.984,21.484,314.513,350.6167253362405
1007,1686620936.61,33.203,477.051,41.992,1.465,314.517,348.04990831843446
1008,1686620936.62,-78.125,224.121,1.953,-102.051,314.521,360.73669573799606
1009,1686620936.63,-96.68,-144.531,18.555,-106.445,314.525,365.70869327688047
1010,1686620936.63,19.043,166.992,51.27,-0.488,314.529,353.791328139322
1011,1686620936.64,52.734,547.363,33.203,25.879,314.533,365.6946434230975
1012,1686620936.64,-43.945,254.395,1.953,-65.43,314.537,360.30454301342525
1013,1686620936.64,-92.285,-395.02,24.414,-100.098,314.541,361.84526094894284
1014,1686620936.65,-12.207,-415.039,49.805,-19.043,314.545,353.0726619932308
1015,1686620936.65,63.965,-6.836,62.988,41.016,314.549,365.50774368839876
1016,1686620936.66,-9.277,98.145,10.742,-34.668,314.552,364.4357491009475
1017,1686620936.66,-109.375,-708.984,19.043,-105.957,314.556,366.381373293465
1018,1686620936.66,-53.223,-412.109,229.004,-46.387,314.56,365.68746103490827
1019,1686620936.67,51.758,507.324,116.211,37.109,314.564,368.2648311197149
1020,1686620936.67,9.277,302.246,-25.391,3.906,314.565,363.03828534039326
1021,1686620936.67,-97.656,-27.832,34.668,-91.797,314.569,361.14973105152484
1022,1686620936.68,-72.266,89.355,59.082,-75.195,314.573,354.02891297540674
1023,1686620936.68,35.156,389.648,49.316,18.555,314.577,360.3123776325164
1024,1686620936.68,34.668,229.492,-2.441,22.949,314.581,366.11566404321917
1025,1686620936.69,-68.848,-303.711,4.883,-64.941,314.585,367.6108320988403
1026,1686620936.69,-101.074,-387.207,38.574,-89.355,314.589,367.53083266367116
1027,1686620936.7,-8.301,11.719,81.055,-3.906,314.592,356.7416385945295
1028,1686620936.7,32.715,-36.133,40.039,37.598,314.596,352.793400328135
1029,1686620936.7,-62.5,-898.438,29.297,-37.109,314.6,357.50179479044994
1030,1686620936.71,-117.676,-455.078,162.598,-99.609,314.604,357.14963250270955
1031,1686620936.71,-25.879,334.961,87.402,-23.926,314.608,359.76253910587957
1032,1686620936.72,50.781,151.855,2.93,43.457,314.613,365.69943092801003
1033,1686620936.72,-19.531,221.68,29.297,-34.18,314.616,354.77330224537076
1034,1686620936.72,-108.887,358.398,30.762,-108.887,314.62,363.55291789882574
1035,1686620936.73,-54.688,294.922,34.668,-48.34,314.624,363.69655566776163
1036,1686620936.73,50.293,167.969,35.156,46.875,314.628,361.36101407188886
1037,1686620936.74,0.0,-52.734,17.09,4.395,314.632,369.7539304060021
1038,1686620936.74,-113.281,-81.055,35.645,-97.656,314.636,365.49463053156757
1039,1686620936.74,-97.168,82.52,37.109,-82.52,314.64,365.80995432299375
1040,1686620936.75,11.23,-445.312,39.062,22.949,314.644,359.24605523097665
1041,1686620936.75,27.344,-157.715,133.301,28.809,314.648,361.1974875015981
1042,1686620936.76,-83.984,230.957,22.949,-72.754,314.652,365.0267902846394
1043,1686620936.76,-123.535,-262.207,1.465,-90.82,314.655,356.7138467468127
1044,1686620936.76,-20.02,-322.266,185.059,6.348,314.655,374.8653017852546
1045,1686620936.76,39.551,307.617,136.23,47.852,314.659,357.55605857896916
1046,1686620936.77,-42.48,405.762,-5.371,-40.039,314.663,359.4744567123215
1047,1686620936.77,-109.863,27.832,2.441,-106.445,314.667,362.7318070188691
1048,1686620936.78,-30.762,22.949,47.363,-40.039,314.671,358.67548466481014
1049,1686620936.78,49.316,59.57,39.062,31.25,314.675,363.35432323872556
1050,1686620936.78,-13.184,17.09,30.273,-29.297,314.679,365.0914374785339
1051,1686620936.79,-118.652,-342.773,-7.324,-114.746,314.683,366.0487356731215
1052,1686620936.79,-82.031,-924.805,55.176,-65.918,314.686,359.8420246357965
1053,1686620936.79,40.039,-109.375,206.543,30.762,314.69,357.2984991846392
1054,1686620936.8,20.508,562.988,66.406,5.371,314.694,374.38109997619637
1055,1686620936.8,-84.961,83.496,-32.715,-85.938,314.698,359.3607517337056
1056,1686620936.81,-87.891,25.391,20.508,-85.449,314.703,374.8351204059217
1057,1686620936.81,8.789,200.195,83.008,-1.953,314.707,361.1990018455349
1058,1686620936.82,33.691,328.613,45.41,25.391,314.711,365.1621359897565
1059,1686620936.82,-70.801,-164.551,-62.988,-54.688,314.715,370.2548080370524
1060,1686620936.82,-116.699,-193.848,32.227,-102.539,314.719,361.28492793382566
1061,1686620936.83,-18.066,80.566,77.148,-26.855,314.723,364.37172420274646
1062,1686620936.83,32.715,17.09,19.531,21.973,314.727,363.858926538733
1063,1686620936.83,-57.617,-515.625,-10.254,-41.992,314.731,362.4543550363885
1064,1686620936.84,-127.441,-352.539,90.82,-104.98,314.735,366.39613204652625
1065,1686620936.84,-45.898,367.188,77.148,-38.086,314.738,366.28646195719864
1066,1686620936.85,46.387,339.355,13.672,46.387,314.742,363.44552875382345
1067,1686620936.85,-99.121,229.004,33.203,-86.914,314.745,367.324791003542
1068,1686620936.85,-6.836,166.992,41.016,-0.488,314.746,368.8862828129548
1069,1686620936.85,-62.012,284.18,22.949,-55.664,314.749,366.002321584361
1070,1686620936.86,42.969,280.273,17.09,37.109,314.753,370.9347998641422
1071,1686620936.86,31.25,126.953,25.391,31.738,314.757,365.1809220215661
1072,1686620936.86,-80.566,-166.504,31.25,-61.035,314.761,368.7803739223784
1073,1686620936.87,-98.145,-180.664,58.105,-78.613,314.764,357.3278102300397
1074,1686620936.87,13.184,-146.484,36.621,17.09,314.768,369.5831070293632
1075,1686620936.88,35.156,-876.953,15.137,47.363,314.772,365.57979367639996
1076,1686620936.88,-71.777,-628.418,180.664,-52.734,314.776,363.81013932502464
1077,1686620936.88,-103.516,183.594,114.746,-100.586,314.78,374.071518739961
1078,1686620936.89,-14.648,125.977,-0.488,-19.043,314.784,367.1422520439617
1079,1686620936.89,45.41,316.895,50.293,39.062,314.788,377.5537015420317
1080,1686620936.9,-23.926,499.512,27.344,-23.926,314.803,364.1835089389171
1081,1686620936.9,-106.445,225.098,16.602,-94.238,314.807,368.03329923797855
1082,1686620936.91,-51.758,-41.016,33.203,-31.738,314.811,372.8054094444483
1083,1686620936.91,56.641,338.867,59.082,61.035,314.815,364.4648797128313
1084,1686620936.91,29.297,524.902,34.668,14.648,314.819,366.26776130708504
1085,1686620936.92,-82.52,-39.062,-13.184,-86.914,314.823,358.96976717224055
1086,1686620936.92,-66.406,-776.855,0.0,-60.059,314.826,363.07437325985177
1087,1686620936.92,44.922,-454.102,166.016,41.504,314.83,358.4230459949298
1088,1686620936.93,46.387,455.078,115.234,32.715,314.834,354.62479938576
1089,1686620936.93,-65.43,281.738,-17.09,-73.73,314.838,360.82202650837434
1090,1686620936.94,-96.191,-162.598,70.801,-98.633,314.842,369.2625527591194
1091,1686620936.94,60.059,584.961,14.16,46.387,314.849,363.63378815472964
1092,1686620936.94,10.254,261.23,93.262,1.953,314.846,365.21867759816956
1093,1686620936.94,-38.574,248.047,-14.16,-41.016,314.853,364.41104324516454
1094,1686620936.95,-107.91,-57.129,38.574,-99.121,314.857,372.8701297897525
1095,1686620936.95,-20.02,192.383,55.664,-16.113,314.861,363.1987141936724
1096,1686620936.96,59.082,417.48,17.578,56.152,314.865,370.0429719357377
1097,1686620936.96,-17.578,-71.289,-16.602,-10.254,314.869,366.1185392137866
1098,1686620936.96,-115.234,-885.254,29.297,-92.285,314.873,374.867836502899
1099,1686620936.97,-51.758,-369.141,120.117,-47.363,314.876,370.67733645969463
1100,1686620936.97,54.688,481.445,37.109,45.41,314.88,365.8587363145826
1101,1686620936.97,11.719,-38.086,-31.738,9.277,314.884,369.0556891762648
1102,1686620936.98,-90.82,-551.758,147.461,-90.82,314.888,370.64159689159095
1103,1686620936.98,-71.777,140.137,119.141,-89.355,314.892,366.0808221342206
1104,1686620937.0,37.598,453.613,10.742,8.301,314.896,367.92634038554485
1105,1686620937.0,40.527,107.91,2.441,19.043,314.9,364.39502490712687
1106,1686620937.01,-62.988,129.395,-9.277,-66.406,314.904,372.38624022535754
1107,1686620937.01,-89.844,298.34,39.062,-91.309,314.908,363.7471463213422
1108,1686620937.02,9.277,321.777,24.902,-1.953,314.912,370.8045081935343
1109,1686620937.02,59.57,-122.07,15.625,47.363,314.915,364.69376378564715
1110,1686620937.02,-34.668,-205.566,60.547,-44.922,314.919,366.9948022105607
1111,1686620937.03,-109.375,207.031,41.504,-117.676,314.923,365.84340628772816
1112,1686620937.03,-31.738,172.363,13.184,-41.992,314.927,368.59981771015833
1113,1686620937.04,45.898,-399.902,33.691,49.805,314.931,370.8268704421328
1114,1686620937.04,-8.789,-64.941,58.105,-1.953,314.935,366.7049463399817
1115,1686620937.04,-100.586,126.465,-8.301,-93.262,314.939,359.3760089595335
1116,1686620937.04,-65.43,-257.324,19.531,-58.594,314.94,365.3734911439435
1117,1686620937.05,41.504,-217.285,150.879,33.691,314.944,367.6671564280892
1118,1686620937.05,17.578,286.133,83.984,12.695,314.948,367.24219066246354
1119,1686620937.06,-97.168,342.285,-15.137,-81.543,314.951,367.8994208012637
1120,1686620937.06,-99.121,-62.5,22.461,-82.52,314.955,364.5451773475514
1121,1686620937.06,12.695,-212.402,73.242,14.16,314.959,366.8059376044585
1122,1686620937.07,38.086,-74.219,58.594,33.203,314.963,365.05092387789347
1123,1686620937.07,-66.895,-63.477,11.719,-64.941,314.967,363.6683848126607
1124,1686620937.07,-115.234,-377.93,7.812,-95.215,314.971,360.633623547422
1125,1686620937.08,-30.273,-867.676,81.543,0.0,314.975,362.2912439536398
1126,1686620937.08,45.898,17.578,113.77,49.316,314.979,363.9996562765792
1127,1686620937.09,-25.879,491.211,15.137,-37.109,314.983,358.9684735838674
1128,1686620937.09,-115.723,-90.82,4.883,-108.887,314.989,356.63731473581
1129,1686620937.1,-44.434,15.625,49.316,-40.039,314.993,356.9257495450385
1130,1686620937.1,47.363,247.07,73.73,43.945,314.996,361.03182825576164
1131,1686620937.1,-2.93,306.152,18.555,-9.766,315.0,353.9217382493455
1132,1686620937.11,-106.934,-279.297,-53.711,-110.352,315.004,359.81204106572807
1133,1686620937.11,-70.312,-468.262,38.086,-65.918,315.008,358.4590801942324
1134,1686620937.12,38.574,127.93,96.191,40.039,315.012,365.32045947938013
1135,1686620937.12,17.578,343.262,3.906,23.438,315.016,361.7310858377386
1136,1686620937.12,-95.215,-498.535,-2.441,-71.777,315.02,357.54666492297605
1137,1686620937.13,-97.168,-306.152,166.992,-81.543,315.024,359.033345118458
1138,1686620937.13,15.137,496.094,89.844,11.719,315.028,353.5044766557445
1139,1686620937.13,-59.57,138.672,45.898,-61.523,315.03,361.1834375638312
1140,1686620937.14,43.945,364.746,11.23,36.133,315.032,365.7725311596718
1141,1686620937.14,-105.469,221.68,51.27,-113.281,315.034,366.3896720184228
1142,1686620937.14,-8.789,384.277,41.504,-23.438,315.038,364.447378356096
1143,1686620937.14,44.922,316.895,0.0,34.668,315.041,366.290410899078
1144,1686620937.15,-32.715,32.227,4.395,-41.992,315.045,358.4813433472433
1145,1686620937.15,-107.91,-259.766,36.621,-106.445,315.049,356.4466630542446
1146,1686620937.16,-54.199,-200.195,73.242,-49.805,315.053,358.63412760589995
1147,1686620937.16,39.062,-142.09,31.738,30.273,315.057,363.4276353838955
1148,1686620937.16,-9.766,-895.996,0.977,-2.441,315.061,365.3870791059036
1149,1686620937.17,-109.375,-670.41,133.789,-98.633,315.065,368.05947827843767
1150,1686620937.17,-83.496,179.199,91.797,-80.078,315.069,367.48779452249386
1151,1686620937.18,18.555,198.73,15.625,17.578,315.073,365.4859311900717
1152,1686620937.18,15.625,333.496,44.922,10.742,315.077,365.32517200507505
1153,1686620937.18,-87.891,419.434,23.926,-87.891,315.081,365.3114218040425
1154,1686620937.19,-103.516,181.641,21.973,-99.609,315.085,365.3959082863091
1155,1686620937.19,-1.953,57.617,48.34,5.859,315.089,361.9350670740116
1156,1686620937.2,35.645,327.637,43.945,44.922,315.093,364.60044148522695
1157,1686620937.2,-57.129,118.652,10.742,-52.734,315.097,364.1474160182129
1158,1686620937.2,-113.281,-236.328,27.344,-103.027,315.101,362.97910016196
1159,1686620937.21,-33.203,-757.812,19.531,-22.461,315.105,369.2993469315967
1160,1686620937.21,34.668,-552.734,131.836,26.367,315.108,367.3902853976025
1161,1686620937.22,-21.973,346.68,75.684,-42.969,315.112,365.4773973366617
1162,1686620937.22,-99.609,184.082,-0.977,-102.051,315.116,375.00070052428214
1163,1686620937.22,16.602,405.762,71.777,15.625,315.12,353.76328650722826
1164,1686620937.22,-64.941,-31.738,75.195,-57.129,315.12,361.81264526260804
1165,1686620937.23,-1.953,562.988,26.855,-16.602,315.124,369.76563690874764
1166,1686620937.23,-101.562,134.766,-2.93,-113.77,315.128,363.8214881594625
1167,1686620937.24,-94.727,-30.273,58.105,-105.957,315.132,363.63699603928916
1168,1686620937.24,13.672,147.949,47.852,-7.324,315.135,373.1791589778804
1169,1686620937.24,14.16,104.492,40.039,-3.906,315.139,359.0130015176713
1170,1686620937.25,-88.867,-250.488,-1.465,-101.562,315.143,364.5395156265842
1171,1686620937.25,-124.512,-930.176,49.805,-123.535,315.147,358.81605485627966
1172,1686620937.26,-13.184,-356.934,217.285,-32.715,315.151,370.0239432067864
1173,1686620937.26,47.852,495.117,75.195,19.531,315.155,363.41295871467275
1174,1686620937.26,-46.387,-48.828,-30.273,-51.27,315.159,359.7728802102618
1175,1686620937.27,-116.211,-279.785,94.238,-111.816,315.163,359.3477710803047
1176,1686620937.27,-27.832,341.797,102.051,-39.062,315.18,358.4660070804693
1177,1686620937.28,64.453,515.137,36.621,40.039,315.184,360.45627561911994
1178,1686620937.28,-12.207,98.145,-10.254,-15.137,315.188,354.2520317897559
1179,1686620937.28,-123.047,93.262,19.531,-106.934,315.192,363.43096985061686
1180,1686620937.29,-74.707,306.152,54.688,-64.941,315.195,368.4814541951148
1181,1686620937.29,31.738,148.926,18.555,35.156,315.199,356.5712326774709
1182,1686620937.3,0.0,-485.352,-25.879,13.184,315.203,362.76585436584725
1183,1686620937.3,-92.285,-425.293,75.684,-83.008,315.207,363.1197370104953
1184,1686620937.3,-78.125,174.316,69.336,-76.66,315.211,372.96566689464646
1185,1686620937.31,31.738,229.98,28.809,29.785,315.215,355.30691706088015
1186,1686620937.31,52.246,179.688,70.801,54.199,315.219,365.6254340740466
1187,1686620937.31,-49.805,209.473,27.832,-44.922,315.223,362.04117143451583
1188,1686620937.32,-92.773,61.523,-1.953,-85.938,315.224,369.16144104151914
1189,1686620937.32,-2.93,-111.328,32.715,4.395,315.228,361.96809628075215
1190,1686620937.32,58.594,-140.137,116.211,54.199,315.231,352.35989698396224
1191,1686620937.33,-3.906,195.312,68.359,-20.996,315.235,364.0719390084885
1192,1686620937.33,-80.078,171.387,-6.348,-88.867,315.239,362.3391258170986
1193,1686620937.34,-26.367,-242.676,27.832,-30.273,315.243,360.2687370925374
1194,1686620937.34,60.059,-663.574,72.266,46.387,315.247,353.3608217763866
1195,1686620937.34,11.23,-147.461,102.051,-6.348,315.251,359.10395455989516
1196,1686620937.35,-89.355,355.469,28.32,-97.168,315.255,360.52877139055295
1197,1686620937.35,-62.988,-104.492,12.695,-74.219,315.259,359.1496684698355
1198,1686620937.35,46.875,-164.551,134.277,20.02,315.263,360.55740700425406
1199,1686620937.36,41.016,459.961,63.965,8.301,315.267,359.87543834408984
1200,1686620937.37,-69.824,313.965,-20.02,-88.867,315.27,358.6830640364592
1201,1686620937.38,-83.984,-121.094,24.414,-92.773,315.274,351.027123299014
1202,1686620937.38,27.832,119.629,47.852,12.695,315.278,367.8415163262062
1203,1686620937.39,55.176,239.746,37.598,40.039,315.282,362.021576113022
1204,1686620937.39,-64.941,197.266,-10.254,-67.871,315.286,361.38297204444194
1205,1686620937.39,-135.742,-571.777,-30.273,-107.422,315.29,358.10593360139654
1206,1686620937.4,-38.086,-605.957,185.547,-16.602,315.294,355.6518189493571
1207,1686620937.4,42.48,410.645,118.164,35.645,315.298,362.0073186158165
1208,1686620937.4,-36.133,355.957,-9.277,-42.48,315.302,364.3269077424298
1209,1686620937.41,-121.094,-153.32,113.281,-108.887,315.305,359.4508620197713
1210,1686620937.41,-48.828,160.645,109.863,-43.945,315.309,354.5543602054933
1211,1686620937.42,51.27,568.359,35.156,40.039,315.313,351.2066080435331
1212,1686620937.42,3.418,287.598,13.672,-6.836,315.314,348.0138027409649
1213,1686620937.42,-95.215,-61.523,49.805,-102.051,315.318,358.342689456214
1214,1686620937.43,-66.895,120.117,69.824,-82.031,315.322,355.7080829168814
1215,1686620937.43,41.016,411.621,60.059,17.578,315.326,358.7199677772086
1216,1686620937.43,41.992,171.875,14.648,20.508,315.33,355.3533370171355
1217,1686620937.44,-72.754,-374.023,27.344,-80.566,315.334,356.70151192618624
1218,1686620937.44,-102.539,-412.109,59.57,-100.586,315.337,357.9012173632301
1219,1686620937.44,15.625,-106.445,70.801,0.977,315.341,359.46961996624555
1220,1686620937.45,62.5,-130.859,25.391,46.387,315.345,355.7645672595542
1221,1686620937.45,-51.27,-881.836,24.902,-33.691,315.349,353.57330908837827
1222,1686620937.46,-108.398,-494.629,164.062,-93.75,315.353,349.06646765842754
1223,1686620937.46,-21.973,304.199,105.957,-20.02,315.357,355.8160367033247
1224,1686620937.46,40.527,213.379,1.465,39.551,315.361,348.81925093229984
1225,1686620937.47,-24.902,264.648,17.09,-31.25,315.365,348.5812627323846
1226,1686620937.47,-117.188,298.828,33.203,-103.516,315.369,356.72144506212794
1227,1686620937.48,-60.059,223.145,48.34,-50.293,315.373,355.65419245962715
1228,1686620937.48,41.992,133.789,37.109,44.434,315.377,357.90764210914995
1229,1686620937.48,12.207,-19.043,23.438,14.16,315.381,354.64788803375166
1230,1686620937.49,-86.914,-93.262,57.129,-88.379,315.385,346.56650778930884
1231,1686620937.49,-71.289,64.941,49.805,-67.383,315.389,352.72820684985385
1232,1686620937.5,33.691,-538.086,26.367,47.852,315.393,351.0836373791089
1233,1686620937.5,35.156,-495.117,138.184,45.41,315.397,346.73543455346334
1234,1686620937.5,-73.242,356.445,66.895,-76.66,315.4,351.91031579953466
1235,1686620937.51,-112.793,214.844,6.836,-112.793,315.404,356.9154445994199
1236,1686620937.51,-5.859,102.539,87.891,-15.137,315.405,356.6989707134492
1237,1686620937.51,50.293,486.816,61.035,29.297,315.409,353.16820375029033
1238,1686620937.52,-41.992,454.59,10.254,-51.27,315.412,349.85871357797424
1239,1686620937.52,-115.234,71.289,9.277,-109.863,315.416,347.9009266703516
1240,1686620937.52,-31.738,19.531,62.5,-31.25,315.42,362.0738944743409
1241,1686620937.53,59.082,64.453,74.219,49.316,315.424,352.9431220667135
1242,1686620937.53,-3.906,23.438,44.434,-9.277,315.428,345.3586266834972
1243,1686620937.54,-110.352,-345.703,0.488,-103.516,315.432,347.7398555402193
1244,1686620937.54,-66.406,-916.992,64.453,-56.152,315.436,350.50081751677277
1245,1686620937.54,56.641,-113.281,222.168,50.293,315.44,347.9523932090808
1246,1686620937.55,32.227,450.684,58.105,25.879,315.444,347.67531494054373
1247,1686620937.55,-93.262,-228.027,-24.414,-83.496,315.448,352.10445223674486
1248,1686620937.56,-83.984,-175.293,115.234,-86.426,315.452,339.1850106071679
1249,1686620937.56,33.691,517.09,95.703,13.672,315.456,339.9815630409384
1250,1686620937.56,53.223,529.785,8.789,30.762,315.46,342.7889576077433
1251,1686620937.57,-52.246,27.832,-5.371,-58.594,315.464,346.49929808609534
1252,1686620937.57,-98.633,61.035,35.645,-86.914,315.468,344.459436689406
1253,1686620937.58,-3.418,125.488,53.711,1.465,315.472,353.0359732483175
1254,1686620937.58,53.223,61.523,21.973,48.828,315.475,343.09313233653194
1255,1686620937.58,-34.668,-476.562,-7.812,-30.273,315.479,343.4902117838363
1256,1686620937.59,-106.934,-374.512,98.633,-108.887,315.483,345.64853019857935
1257,1686620937.59,-24.414,374.023,88.867,-48.34,315.487,344.0490239931819
1258,1686620937.6,67.383,408.203,13.672,42.969,315.491,357.3549504009081
1259,1686620937.6,10.254,197.754,49.316,-4.883,315.495,353.26768197440526
1260,1686620937.6,-96.68,179.688,34.668,-100.098,315.497,348.94351744254067
1261,1686620937.6,-70.801,99.121,36.133,-69.824,315.501,350.64410662713345
1262,1686620937.61,36.621,-15.625,52.734,25.879,315.505,348.427049615747
1263,1686620937.61,26.367,-54.688,89.844,20.02,315.508,345.84337066251044
1264,1686620937.62,-76.66,69.336,35.156,-74.707,315.512,356.1359751730762
1265,1686620937.62,-92.285,-55.664,19.531,-88.867,315.516,350.9789317172856
1266,1686620937.62,14.648,-192.871,35.156,13.184,315.52,346.3354810341491
1267,1686620937.63,34.18,-791.016,23.926,43.457,315.524,356.85509552724375
1268,1686620937.63,-63.965,-297.852,106.445,-52.246,315.528,349.5178909491287
1269,1686620937.64,-106.934,339.355,50.781,-94.727,315.532,354.50127338537646
1270,1686620937.64,-25.879,87.402,24.902,-20.02,315.536,359.85395022295614
1271,1686620937.64,39.062,357.91,52.734,35.156,315.54,349.8990368709818
1272,1686620937.65,-28.809,578.125,22.949,-26.367,315.555,355.9315525275523
1273,1686620937.65,-108.398,314.941,17.09,-95.703,315.559,349.5290383642082
1274,1686620937.65,-51.27,36.133,29.785,-42.48,315.563,350.7090701004145
1275,1686620937.66,54.199,267.578,50.781,41.016,315.567,349.7963351151136
1276,1686620937.66,9.277,228.027,29.785,-1.953,315.57,348.59407508476414
1277,1686620937.67,-103.027,-98.633,2.93,-93.262,315.574,351.7909304171968
1278,1686620937.67,-88.867,-710.449,-19.531,-65.918,315.578,362.1065307946492
1279,1686620937.67,25.879,-572.266,176.758,23.438,315.582,359.13959976983745
1280,1686620937.68,39.062,418.945,138.672,10.742,315.586,356.83834462682375
1281,1686620937.68,-83.008,360.84,-15.625,-87.891,315.59,355.46103031931017
1282,1686620937.68,-120.117,-36.133,86.914,-111.328,315.594,363.91004103095923
1283,1686620937.69,-3.418,264.16,106.934,-14.648,315.598,353.4103757663892
1284,1686620937.69,36.621,608.398,32.227,28.32,315.599,349.772246258809
1285,1686620937.69,-62.988,300.781,0.977,-57.617,315.603,352.5851967782177
1286,1686620937.7,-115.234,8.301,51.758,-108.398,315.607,356.6728582170089
1287,1686620937.7,-30.273,300.293,68.359,-33.691,315.611,350.8590862903869
1288,1686620937.7,38.086,542.969,27.832,31.25,315.615,354.7150147041751
1289,1686620937.71,-42.48,-7.812,-8.301,-29.785,315.619,355.7115764932685
1290,1686620937.71,-140.625,-765.137,66.406,-110.352,315.623,353.72956665234034
1291,1686620937.72,-69.336,-432.129,113.281,-61.035,315.627,347.5155194584146
1292,1686620937.72,46.875,285.156,98.145,27.832,315.631,341.3128361719693
1293,1686620937.72,6.348,77.637,3.418,-5.859,315.634,344.26922602515924
1294,1686620937.73,-104.98,-732.422,55.176,-94.727,315.638,346.4688911353586
1295,1686620937.73,-79.102,-37.598,125.488,-80.078,315.642,345.1030352358811
