,timestamps,TP9,AF7,AF8,TP10,Secondary Timestamp,emg_signal
0,1685917670.46,13.184,-32.715,-195.801,-19.531,19420.556,307.806745209976
1,1685917670.46,-18.066,217.773,-49.805,-38.574,19420.56,313.3831871301292
2,1685917670.46,-70.801,320.312,-17.578,-43.945,19420.564,314.80278383818796
3,1685917670.47,-57.129,49.805,-220.703,-32.227,19420.568,312.44291883754056
4,1685917670.47,3.906,-90.82,-183.105,-18.066,19420.572,313.90534708364567
5,1685917670.48,0.0,-69.336,-135.742,-28.32,19420.576,312.93552115419453
6,1685917670.48,-47.852,15.137,-189.941,-29.785,19420.58,309.7192088316093
7,1685917670.48,-49.316,-19.531,-264.648,-13.672,19420.584,312.19678310047516
8,1685917670.49,-4.883,-535.645,-391.113,-6.836,19420.587,314.19289385676524
9,1685917670.49,7.812,-44.922,-11.23,-22.461,19420.591,313.5820322367753
10,1685917670.5,-50.781,438.477,78.125,-48.828,19420.595,315.1294237864601
11,1685917670.5,-80.078,-16.602,-191.895,-43.457,19420.599,310.8768725751839
12,1685917670.5,-25.391,-32.715,-157.715,-25.391,19420.601,313.91619996085353
13,1685917670.51,21.484,364.258,50.293,-27.344,19420.605,310.93332350035985
14,1685917670.51,-11.719,192.871,-121.094,-42.48,19420.609,309.8490669222604
15,1685917670.51,-57.129,-503.906,-415.039,-52.246,19420.613,312.03359215225436
16,1685917670.52,-25.879,-450.684,-260.742,-40.527,19420.617,312.7641084155495
17,1685917670.52,29.297,19.531,-129.395,-23.438,19420.621,313.5244090754279
18,1685917670.52,7.812,-4.883,-204.59,-34.668,19420.624,314.70690303255907
19,1685917670.53,-54.199,-519.531,-447.754,-44.922,19420.628,310.0462191343481
20,1685917670.53,-44.434,-939.453,-526.855,-28.32,19420.632,312.0547123890172
21,1685917670.54,25.391,-9.766,10.254,-15.137,19420.636,311.2301509307864
22,1685917670.54,30.762,454.102,47.363,-17.09,19420.64,309.77612927818467
23,1685917670.54,-26.855,48.34,-207.031,-29.297,19420.644,311.9724546335273
24,1685917670.55,-47.852,107.422,-129.395,-40.527,19420.646,313.20637756824704
25,1685917670.55,3.418,423.828,62.988,-24.902,19420.65,307.92570234726844
26,1685917670.56,35.645,307.129,-38.574,-13.672,19420.654,310.6042536403864
27,1685917670.56,-24.414,56.152,-150.879,-36.621,19420.658,307.4274923497808
28,1685917670.56,-82.52,104.004,-117.188,-38.574,19420.661,312.51037461941036
29,1685917670.57,-41.504,-2.441,-235.84,-18.066,19420.665,313.13504717135004
30,1685917670.57,12.695,-114.746,-285.645,-16.113,19420.669,312.66433969287925
31,1685917670.57,-9.766,-720.215,-481.445,-22.461,19420.673,313.9931542306108
32,1685917670.58,-52.734,-553.223,-308.105,-31.25,19420.677,315.2153260961535
33,1685917670.58,-28.32,271.973,34.668,-17.578,19420.681,309.51286284801307
34,1685917670.59,32.715,159.18,-62.988,5.859,19420.685,311.0167112497755
35,1685917670.59,25.391,119.141,-113.281,-0.488,19420.689,311.3091498355523
36,1685917670.59,-37.598,331.055,25.879,-16.113,19420.691,311.82867992626984
37,1685917670.6,-46.387,294.922,-13.184,-16.602,19420.695,309.0044158860152
38,1685917670.6,24.414,23.926,-144.531,0.977,19420.699,311.52747111720186
39,1685917670.6,39.062,130.371,-16.602,-4.395,19420.703,312.1274758278726
40,1685917670.61,-20.02,259.277,-26.855,-29.785,19420.707,310.32383742701825
41,1685917670.61,-34.18,-60.059,-260.742,-27.832,19420.71,313.830090288869
42,1685917670.61,0.0,-600.586,-416.504,-5.371,19420.714,313.37856946444845
43,1685917670.62,19.043,-729.004,-403.32,-2.441,19420.718,310.0700803436315
44,1685917670.62,-11.23,-237.793,-245.117,-9.766,19420.722,310.6703123028005
45,1685917670.63,-55.176,-63.965,-248.535,-16.602,19420.726,313.2767444918557
46,1685917670.63,-30.762,-556.641,-427.246,-11.23,19420.73,317.63004081659295
47,1685917670.63,15.625,-637.695,-311.035,-4.883,19420.734,312.34071346592407
48,1685917670.64,-2.93,295.41,63.965,-17.09,19420.765,311.2771090127575
49,1685917670.64,-54.199,251.953,-80.566,-23.438,19420.769,312.93987829700626
50,1685917670.64,-46.875,-16.113,-164.551,-24.414,19420.773,315.3017172071091
51,1685917670.65,9.277,338.867,61.523,-16.602,19420.777,312.3245953616442
52,1685917670.65,9.277,459.961,52.734,-18.066,19420.781,317.2145296901247
53,1685917670.66,-52.246,-50.293,-305.176,-34.668,19420.785,312.6259940008743
54,1685917670.66,-62.988,-671.875,-441.895,-33.691,19420.789,311.52138308472183
55,1685917670.66,-5.859,-197.754,-67.383,-20.02,19420.793,313.8324055268383
56,1685917670.67,5.859,484.863,96.191,-24.902,19420.797,313.57657027215265
57,1685917670.67,-42.969,84.961,-192.871,-28.809,19420.801,317.5543882705027
58,1685917670.68,-72.266,-348.633,-372.07,-36.621,19420.804,307.03480956790594
59,1685917670.68,-22.461,41.016,-99.609,-39.062,19420.808,310.4610303821515
60,1685917670.68,27.344,515.137,100.586,-28.809,19420.795,313.7239454712401
61,1685917670.68,-12.207,-31.25,-210.938,-36.133,19420.799,316.79036459713035
62,1685917670.69,-67.383,-445.312,-411.133,-42.48,19420.803,313.76170972166284
63,1685917670.69,-41.016,163.086,-55.176,-36.133,19420.807,310.34147498139725
64,1685917670.7,13.184,401.367,11.23,-26.855,19420.811,310.1243652597892
65,1685917670.7,-12.207,-262.695,-294.922,-31.25,19420.815,311.1759175098535
66,1685917670.7,-72.266,-493.652,-332.031,-44.434,19420.819,316.2608043702589
67,1685917670.71,-56.152,-115.723,-216.309,-29.297,19420.823,316.9049859084463
68,1685917670.71,12.207,-102.051,-234.375,-10.742,19420.826,309.84562130080656
69,1685917670.72,14.16,-148.438,-237.305,-22.461,19420.83,308.4727957005488
70,1685917670.72,-46.387,-50.781,-126.953,-38.574,19420.834,312.47725795433627
71,1685917670.72,-64.941,153.32,-102.539,-38.574,19420.838,315.4202495168805
72,1685917670.74,-8.789,196.777,-143.066,-28.809,19420.841,311.67246962410763
73,1685917670.74,13.672,-508.301,-404.297,-25.391,19420.845,316.88440657067986
74,1685917670.75,-44.434,-792.48,-461.426,-37.109,19420.849,317.2291776664061
75,1685917670.75,-86.914,91.309,-65.918,-50.781,19420.853,308.1395295554584
76,1685917670.76,-44.434,167.969,-92.285,-41.504,19420.857,317.65309056277596
77,1685917670.76,1.953,-216.797,-312.012,-31.25,19420.861,306.0582373371029
78,1685917670.76,-29.297,-47.852,-200.684,-49.316,19420.865,312.1000574565409
79,1685917670.77,-78.613,321.289,5.859,-62.5,19420.869,311.2526026770292
80,1685917670.77,-58.105,55.664,-203.613,-42.969,19420.873,312.42436531805737
81,1685917670.78,-7.812,-398.438,-389.16,-39.062,19420.877,310.58503181318946
82,1685917670.78,-15.625,84.961,-88.379,-49.805,19420.88,310.07382291676913
83,1685917670.78,-62.5,358.887,0.977,-51.27,19420.884,309.5465064381168
84,1685917670.79,-60.547,-39.551,-188.477,-43.457,19420.886,310.11668070641593
85,1685917670.79,-0.977,13.184,-119.141,-35.156,19420.89,313.1710664818827
86,1685917670.79,3.906,354.98,50.781,-42.48,19420.894,307.1223684539124
87,1685917670.8,-57.129,118.652,-160.156,-51.27,19420.898,319.8077179231955
88,1685917670.8,-73.242,-450.684,-391.602,-43.457,19420.901,313.20414097515203
89,1685917670.81,-19.531,-579.102,-374.512,-27.832,19420.905,320.2494922718858
90,1685917670.81,14.16,-26.367,-140.137,-29.297,19420.909,312.7998747877699
91,1685917670.81,-39.062,92.285,-105.469,-47.852,19420.913,315.22608118929617
92,1685917670.82,-77.637,-616.211,-492.188,-46.387,19420.917,312.69770081789073
93,1685917670.82,-33.691,-892.09,-495.117,-20.996,19420.921,310.9423743528222
94,1685917670.82,15.137,65.918,16.602,-16.602,19420.925,313.988088977247
95,1685917670.83,-15.137,395.996,-10.742,-36.133,19420.929,312.5585136555007
96,1685917670.83,-66.895,-18.555,-231.445,-46.875,19420.931,314.72057162190106
97,1685917670.84,-40.039,129.883,-65.43,-41.016,19420.935,304.4577901027636
98,1685917670.84,15.625,449.219,92.285,-35.156,19420.939,308.8195449676941
99,1685917670.84,-6.836,290.039,-50.293,-46.875,19420.943,312.7684211564812
100,1685917670.85,-72.754,-86.426,-293.457,-64.941,19420.947,305.5230312264139
101,1685917670.85,-73.73,-235.352,-322.266,-58.105,19420.95,308.07648290418194
102,1685917670.86,-14.16,-105.957,-182.129,-29.785,19420.954,312.5358629430244
103,1685917670.86,0.0,-32.715,-239.746,-30.762,19420.958,312.32868810789444
104,1685917670.86,-64.453,-721.68,-540.527,-47.363,19420.962,307.859548363735
105,1685917670.87,-86.426,-549.316,-388.184,-44.434,19420.966,314.28802782256656
106,1685917670.87,-12.207,303.711,-56.641,-20.508,19420.97,314.19231435229494
107,1685917670.88,31.738,188.965,-84.961,-9.277,19420.974,313.55250756642357
108,1685917670.88,-27.832,73.242,-128.906,-30.273,19420.976,320.3449563595824
109,1685917670.88,-71.289,251.465,-39.551,-44.434,19420.98,311.7934541316694
110,1685917670.88,-23.438,270.996,-59.082,-34.18,19420.984,317.8031251121742
111,1685917670.89,27.344,82.031,-139.16,-16.113,19420.987,313.21931226954354
112,1685917670.89,7.324,109.375,-74.219,-20.508,19420.991,319.7409976509173
113,1685917670.9,-54.199,-59.57,-225.586,-26.367,19420.995,315.8522188127035
114,1685917670.9,-43.457,-186.523,-301.758,-18.555,19420.999,318.9520903702447
115,1685917670.9,0.0,-455.566,-381.348,-24.902,19421.003,312.41175980728354
116,1685917670.91,-21.484,-979.492,-523.438,-39.551,19421.007,312.74519191320866
117,1685917670.91,-71.777,-244.141,-143.555,-51.758,19421.011,312.61136265063254
118,1685917670.92,-70.312,247.559,-46.387,-42.48,19421.015,317.0673851914765
119,1685917670.92,-17.09,-104.492,-210.449,-22.949,19421.019,312.0257613911838
120,1685917670.92,-5.371,48.34,-62.988,-29.785,19421.021,314.70475590186743
121,1685917670.93,-66.406,365.234,13.672,-43.945,19421.025,316.37941849992933
122,1685917670.93,-98.145,122.07,-185.059,-49.805,19421.029,313.6771683995391
123,1685917670.93,-39.551,25.391,-127.441,-36.133,19421.033,317.0513332754733
124,1685917670.94,0.977,303.223,17.578,-30.762,19421.037,315.6375892826186
125,1685917670.94,-42.969,75.684,-189.453,-47.852,19421.041,312.4705718381135
126,1685917670.94,-91.797,-323.73,-379.883,-58.594,19421.044,315.0242747031464
127,1685917670.95,-57.129,-661.133,-395.508,-38.086,19421.048,315.79045686515167
128,1685917670.95,6.348,-155.762,-51.27,-19.531,19421.052,314.52989798624657
129,1685917670.96,-13.672,448.242,61.035,-37.109,19421.056,313.587184291432
130,1685917670.96,-66.895,0.488,-227.539,-44.434,19421.06,316.54020491469987
131,1685917670.96,-52.734,-309.57,-338.379,-22.461,19421.064,316.75506752089905
132,1685917670.97,11.23,163.574,-21.973,-11.23,19421.068,311.7535161593566
133,1685917670.97,10.254,511.23,110.352,-19.043,19421.072,318.91201442243494
134,1685917670.98,-54.199,-130.859,-247.07,-34.668,19421.076,319.87122262642913
135,1685917670.98,-66.406,-465.332,-379.883,-40.527,19421.08,319.54457190001676
136,1685917670.98,-13.672,152.832,-49.805,-22.949,19421.084,315.1866031387865
137,1685917670.99,0.977,145.02,-108.398,-24.414,19421.087,317.6041397012453
138,1685917670.99,-45.41,-514.16,-411.621,-36.133,19421.091,317.5014925813663
139,1685917670.99,-74.219,-862.793,-521.973,-31.25,19421.095,315.97986051661013
140,1685917671.0,-22.949,-178.223,-165.039,-27.344,19421.099,316.0226117507539
141,1685917671.0,18.555,391.113,20.02,-30.273,19421.103,313.9121872190076
142,1685917671.01,-21.973,-224.609,-252.93,-40.527,19421.107,318.7238948585257
143,1685917671.01,-71.289,-401.855,-275.391,-41.992,19421.111,310.35162274979245
144,1685917671.03,-42.48,237.305,-73.242,-28.809,19421.13,316.47964945656213
145,1685917671.03,3.418,195.312,-65.918,-33.203,19421.134,316.0236270558306
146,1685917671.04,-15.137,-42.48,-132.812,-42.969,19421.138,318.8563744151329
147,1685917671.04,-69.824,99.121,-75.684,-49.316,19421.141,318.11746796503667
148,1685917671.04,-62.988,229.492,-45.41,-39.062,19421.145,321.5047730964849
149,1685917671.05,1.465,-15.625,-198.242,-20.996,19421.149,313.62740211107314
150,1685917671.05,9.277,-664.551,-407.715,-22.461,19421.153,313.5507988154722
151,1685917671.05,-45.898,-389.16,-250.0,-41.016,19421.157,318.9102722023866
152,1685917671.06,-72.754,244.629,-77.637,-37.598,19421.171,319.8163208780082
153,1685917671.06,-62.5,282.715,-51.758,-43.457,19421.161,313.5404547707716
154,1685917671.06,-34.668,0.0,-175.293,-25.879,19421.174,312.30232032581335
155,1685917671.06,-3.418,80.078,-155.762,-26.855,19421.165,313.17934793325855
156,1685917671.06,16.113,65.43,-34.668,-23.438,19421.178,315.2768194484774
157,1685917671.07,18.555,31.738,-194.336,-21.484,19421.169,315.2969836153345
158,1685917671.07,-12.207,305.176,16.113,-33.203,19421.182,316.74863843445144
159,1685917671.07,-33.691,276.855,-17.578,-33.203,19421.173,315.5255398559506
160,1685917671.07,-77.637,-16.113,-227.051,-44.922,19421.186,318.1770006230238
161,1685917671.08,-63.477,-407.227,-350.586,-42.48,19421.19,316.25352200377733
162,1685917671.08,0.0,-151.367,-128.418,-37.109,19421.194,317.721876022157
163,1685917671.08,-7.812,13.184,-104.492,-40.527,19421.198,313.0726237615846
164,1685917671.09,-63.477,-157.227,-266.113,-47.852,19421.202,315.9819248665079
165,1685917671.09,-55.176,-548.828,-431.641,-29.297,19421.206,313.2643680043753
166,1685917671.1,20.996,-1000.0,-545.41,13.672,19421.21,320.9332376961596
167,1685917671.1,17.578,-266.602,-129.883,-6.836,19421.214,311.7496116231201
168,1685917671.12,-68.848,268.066,-60.547,-51.27,19421.217,314.11832408584274
169,1685917671.12,-92.285,-67.383,-253.906,-47.852,19421.221,319.93164235026904
170,1685917671.12,-27.344,178.711,-46.387,-20.996,19421.225,317.1363901382328
171,1685917671.13,20.02,504.395,75.684,-4.395,19421.229,322.77467444585534
172,1685917671.13,-25.391,246.582,-113.77,-19.531,19421.233,317.40277195784876
173,1685917671.14,-67.871,-292.48,-337.402,-17.09,19421.236,315.0884548323946
174,1685917671.14,-22.949,-265.625,-243.652,9.766,19421.24,320.51723940398927
175,1685917671.14,28.809,166.992,-11.719,25.879,19421.244,312.35863657253367
176,1685917671.15,3.418,144.531,-109.863,16.602,19421.248,315.76242466380387
177,1685917671.15,-48.34,-619.141,-419.434,10.742,19421.252,310.8713546515801
178,1685917671.16,-16.113,-287.598,-122.559,25.391,19421.256,311.4123914584212
179,1685917671.16,37.598,412.109,78.125,29.785,19421.26,307.6649927209552
180,1685917671.16,26.855,137.695,-98.633,27.832,19421.261,315.4430913071644
181,1685917671.17,-13.184,-11.719,-155.273,28.32,19421.265,317.1281517019423
182,1685917671.17,-22.949,241.699,10.742,30.273,19421.269,317.3986251677411
183,1685917671.17,35.156,374.023,69.824,48.828,19421.273,318.38288739166865
184,1685917671.18,59.57,145.508,-71.289,60.547,19421.277,317.78357926081605
185,1685917671.18,-1.465,-197.754,-270.02,47.363,19421.281,314.3629140332764
186,1685917671.18,-31.25,-118.652,-218.262,46.387,19421.284,319.376244759274
187,1685917671.19,20.02,77.148,-104.492,60.059,19421.288,305.63069118726315
188,1685917671.19,51.758,-388.672,-325.195,61.035,19421.292,315.4948619290407
189,1685917671.2,11.719,-1000.0,-552.246,45.41,19421.296,312.85798633347804
190,1685917671.2,-27.344,-345.703,-172.363,29.785,19421.3,318.6369401114355
191,1685917671.2,9.766,273.926,30.273,41.992,19421.304,319.5601316974193
192,1685917671.21,57.617,131.348,-16.602,58.105,19421.306,320.02663965949733
193,1685917671.21,26.855,254.883,27.832,40.527,19421.31,315.8200159191301
194,1685917671.21,-22.461,361.816,43.457,28.809,19421.314,322.0775558313797
195,1685917671.22,-10.742,202.148,-14.16,27.344,19421.318,316.9999458293538
196,1685917671.22,42.969,103.516,-56.152,33.691,19421.322,317.1550647260058
197,1685917671.23,36.621,29.297,-73.242,24.902,19421.325,321.9142084346105
198,1685917671.23,-23.438,24.902,-121.094,0.488,19421.329,318.29062726153205
199,1685917671.23,-36.133,-7.812,-194.336,1.465,19421.333,317.371599725207
200,1685917671.24,18.066,-493.652,-314.941,21.484,19421.337,321.7375078739033
201,1685917671.24,42.48,-41.016,-14.648,14.16,19421.341,316.3208136940882
202,1685917671.24,-8.789,462.891,104.98,-1.465,19421.345,314.97817382347387
203,1685917671.25,-47.363,0.0,-149.902,-0.977,19421.349,316.07960204603415
204,1685917671.25,-1.465,-170.41,-208.496,5.371,19421.351,314.726949380079
205,1685917671.26,46.875,318.359,48.34,3.906,19421.355,310.1601998236125
206,1685917671.26,6.348,507.324,94.727,-16.113,19421.359,314.87247420216505
207,1685917671.26,-40.039,-172.852,-202.148,-16.602,19421.363,320.29669117115776
208,1685917671.27,-17.09,-419.922,-236.816,-4.883,19421.366,312.4996619689798
209,1685917671.27,30.762,-17.09,-36.133,0.488,19421.37,320.1680207382354
210,1685917671.27,19.531,27.832,-144.043,-1.465,19421.374,316.2687955111464
211,1685917671.28,-39.062,-458.008,-414.062,-12.207,19421.378,319.6090242302295
212,1685917671.28,-41.016,-965.82,-486.328,-5.859,19421.382,319.11899982853726
213,1685917671.29,24.414,-99.121,5.371,6.836,19421.386,317.9707013886645
214,1685917671.29,26.367,411.133,59.57,-9.277,19421.39,321.82969513043366
215,1685917671.29,-41.992,78.613,-182.617,-30.273,19421.394,322.13906622341494
216,1685917671.3,-61.035,112.793,-88.867,-29.297,19421.397,318.2166731740868
217,1685917671.3,-2.93,381.836,75.195,-18.555,19421.401,324.90902329568553
218,1685917671.3,22.461,245.117,-14.16,-11.719,19421.405,321.2470675951015
219,1685917671.31,-32.715,-180.664,-198.242,-19.043,19421.409,319.3783303155893
220,1685917671.31,-69.824,-32.715,-111.816,-24.414,19421.413,320.51166834778394
221,1685917671.32,-29.297,64.941,-111.816,-17.578,19421.416,322.2524412203714
222,1685917671.32,8.789,-130.371,-273.438,-14.16,19421.42,322.58691504242256
223,1685917671.32,-23.926,-565.918,-344.238,-14.16,19421.424,323.9497515930587
224,1685917671.33,-64.941,-288.574,-107.422,-20.996,19421.428,325.92664923183594
225,1685917671.33,-37.598,314.941,59.57,-12.695,19421.432,319.8946861313797
226,1685917671.34,20.996,168.457,-25.391,4.883,19421.436,318.4223326536282
227,1685917671.34,19.043,72.754,-91.797,5.371,19421.44,322.1806147871685
228,1685917671.34,-52.734,234.863,3.906,-30.273,19421.441,323.4468660713739
229,1685917671.35,-71.289,229.492,4.395,-52.246,19421.445,324.19559270986144
230,1685917671.35,-14.16,1.953,-97.168,-41.504,19421.449,326.4610389432988
231,1685917671.35,-1.953,87.402,-9.766,-44.922,19421.453,325.8278893849881
232,1685917671.36,-63.477,185.059,-3.418,-58.105,19421.457,327.28583532660303
233,1685917671.36,-90.332,-103.027,-215.332,-56.152,19421.461,329.8442635835432
234,1685917671.36,-33.691,-583.496,-411.621,-40.039,19421.464,325.28198324034946
235,1685917671.37,3.418,-901.855,-452.148,-27.344,19421.468,329.2228084414738
236,1685917671.37,-36.133,-401.367,-208.984,-38.574,19421.472,331.5130110564684
237,1685917671.38,-79.59,24.902,-204.102,-48.828,19421.476,331.59963501103294
238,1685917671.38,-52.246,-380.371,-315.918,-28.809,19421.48,330.2708967062806
239,1685917671.38,6.348,-248.535,-49.316,-19.043,19421.484,334.4863795273406
240,1685917671.4,-9.766,463.867,138.672,-28.809,19421.501,329.27986505389003
241,1685917671.4,-68.359,218.75,-91.797,-32.227,19421.505,326.38467694682987
242,1685917671.41,-52.734,-91.797,-184.57,-21.484,19421.509,329.16751104827625
243,1685917671.41,15.137,244.141,56.152,-10.742,19421.513,325.6215555196981
244,1685917671.42,11.23,400.391,56.641,-24.414,19421.517,324.193162239224
245,1685917671.42,-56.641,-71.777,-266.113,-37.598,19421.521,327.0053126001621
246,1685917671.42,-68.848,-646.973,-394.043,-27.832,19421.524,325.4307986273434
247,1685917671.43,-3.906,-360.84,-115.723,-14.16,19421.528,325.23425428431835
248,1685917671.43,32.715,422.852,66.406,0.488,19421.561,333.0651325976414
249,1685917671.43,25.391,251.465,98.633,-4.395,19421.532,331.1946443479054
250,1685917671.44,-14.648,86.914,-81.055,-11.23,19421.564,329.3109117636812
251,1685917671.44,-22.461,17.09,-153.32,-15.625,19421.536,330.56870127854864
252,1685917671.44,-62.012,-50.781,-83.008,-20.508,19421.568,326.3539192541722
253,1685917671.44,-50.293,-373.535,-337.402,-16.602,19421.54,327.6543034240402
254,1685917671.44,-27.344,280.762,70.312,-7.324,19421.572,331.597010101935
255,1685917671.44,-3.418,139.648,8.789,-0.977,19421.544,327.11264636633115
256,1685917671.45,26.367,343.262,47.852,3.418,19421.576,330.13939824901274
257,1685917671.45,1.953,-107.422,-188.965,-9.277,19421.58,333.5518232572442
258,1685917671.45,-51.758,-222.656,-217.773,-13.184,19421.584,336.5134124217528
259,1685917671.46,-36.133,-106.934,-163.574,0.488,19421.588,330.8889011765506
260,1685917671.46,25.391,-17.09,-108.887,12.695,19421.592,329.05964743613845
261,1685917671.47,21.973,-391.113,-297.852,1.465,19421.596,328.73252875594767
262,1685917671.47,-38.574,-980.957,-498.535,-8.789,19421.6,327.05676940781206
263,1685917671.47,-40.039,-230.957,-50.293,-4.883,19421.604,324.92145991214056
264,1685917671.49,20.02,268.555,22.461,1.465,19421.591,324.75129135112684
265,1685917671.5,37.109,88.867,-68.848,-7.324,19421.595,326.0107553365958
266,1685917671.5,-13.184,143.066,-11.719,-19.043,19421.599,324.2363868634477
267,1685917671.5,-52.246,286.621,62.5,-17.578,19421.603,321.1096939633775
268,1685917671.51,-8.789,203.613,8.789,-9.766,19421.607,327.4793494608236
269,1685917671.51,30.273,-183.594,-226.562,-7.324,19421.61,320.06475880110764
270,1685917671.51,-12.695,-101.562,-136.23,-19.043,19421.614,329.25178032435775
271,1685917671.52,-58.105,214.844,32.227,-25.391,19421.618,327.04536894663266
272,1685917671.52,-25.879,-48.828,-133.789,-11.23,19421.622,329.5985218170399
273,1685917671.53,32.227,-140.625,-145.996,-2.93,19421.626,324.33370874537343
274,1685917671.53,15.625,256.836,50.781,-16.602,19421.63,328.8888212941982
275,1685917671.53,-44.434,355.469,77.637,-36.133,19421.634,321.6008541463819
276,1685917671.54,-38.574,-178.711,-222.656,-30.762,19421.636,320.1457758134076
277,1685917671.54,20.996,-598.145,-386.719,-8.301,19421.64,328.3515634388465
278,1685917671.54,24.902,111.328,22.949,-16.602,19421.644,325.93865283940767
279,1685917671.55,-41.016,376.953,88.867,-42.48,19421.648,323.46371242351154
280,1685917671.55,-66.895,-156.25,-148.438,-40.527,19421.652,323.4542108451332
281,1685917671.56,-13.184,-395.508,-209.473,-21.484,19421.656,326.0814848396852
282,1685917671.56,8.789,53.711,18.066,-29.785,19421.659,325.6058272717767
283,1685917671.56,-41.992,153.809,-32.715,-47.852,19421.663,326.9755454895846
284,1685917671.57,-85.938,-549.805,-412.598,-45.41,19421.667,328.39169614476896
285,1685917671.57,-50.293,-937.988,-443.848,-32.715,19421.671,320.4377800621877
286,1685917671.58,2.93,-39.551,43.457,-30.762,19421.675,325.44983583165373
287,1685917671.58,-22.461,392.09,63.965,-46.875,19421.679,326.2682156683499
288,1685917671.58,-71.289,-39.551,-168.457,-49.316,19421.681,328.16614798708133
289,1685917671.59,-46.387,59.57,-39.551,-33.691,19421.685,326.51690580342296
290,1685917671.59,5.371,454.59,121.582,-30.762,19421.689,327.17742356689246
291,1685917671.59,-9.277,245.605,-3.906,-33.691,19421.693,328.1740116126625
292,1685917671.6,-67.383,-287.598,-227.051,-34.668,19421.697,320.8242344198921
293,1685917671.6,-60.059,-366.699,-280.273,-18.555,19421.701,324.83453912470014
294,1685917671.6,-0.488,46.387,-21.973,-3.906,19421.704,327.2622130199584
295,1685917671.61,9.766,135.254,-13.184,-18.555,19421.708,322.30549055097293
296,1685917671.61,-50.293,-557.129,-312.988,-35.645,19421.712,321.5777812996681
297,1685917671.62,-76.172,-223.145,-53.223,-41.016,19421.716,326.7900807298381
298,1685917671.62,-15.625,426.758,126.465,-33.691,19421.72,323.44120307432667
299,1685917671.62,13.184,208.008,-18.066,-31.738,19421.724,328.3891720314607
300,1685917671.63,-34.668,14.16,-78.125,-33.203,19421.726,323.94844495680377
301,1685917671.63,-75.195,176.758,20.02,-32.227,19421.73,323.4346507421782
302,1685917671.64,-39.062,262.207,54.688,-24.414,19421.734,320.8582002172539
303,1685917671.64,16.602,116.211,-8.301,-15.137,19421.738,327.55609509403195
304,1685917671.64,-8.789,66.406,-53.711,-27.832,19421.742,316.4126636959162
305,1685917671.65,-69.824,-130.371,-181.641,-44.922,19421.746,320.33316234249696
306,1685917671.65,-52.734,-193.359,-182.617,-31.738,19421.75,327.2994502701376
307,1685917671.65,5.371,-419.922,-280.762,-6.836,19421.754,323.9682623888677
308,1685917671.66,3.906,-1000.0,-526.367,-8.789,19421.757,328.62894812131407
309,1685917671.66,-48.828,-481.445,-194.824,-31.25,19421.761,321.02309961455626
310,1685917671.67,-58.105,186.523,25.391,-32.227,19421.765,324.07998282607997
311,1685917671.67,-1.953,129.395,-10.742,-14.648,19421.769,329.5442463007949
312,1685917671.67,14.16,331.543,88.379,-18.555,19421.771,321.41357667018275
313,1685917671.68,-33.691,426.758,72.754,-38.086,19421.775,325.4356024316156
314,1685917671.68,-65.918,136.23,-73.242,-46.875,19421.779,326.15190936898085
315,1685917671.68,-20.996,-31.25,-54.688,-30.273,19421.783,324.4811308187188
316,1685917671.69,11.719,241.699,96.191,-25.391,19421.786,324.115676293205
317,1685917671.69,-32.715,92.285,-79.102,-48.828,19421.79,329.2854835418686
318,1685917671.7,-72.266,-276.855,-310.547,-51.27,19421.794,323.4733180785885
319,1685917671.7,-36.621,-625.488,-330.078,-27.344,19421.798,325.85154340070716
320,1685917671.7,13.184,-312.988,-70.801,-22.949,19421.802,328.69076288614053
321,1685917671.71,-7.812,265.625,82.52,-36.133,19421.806,328.657142341401
322,1685917671.71,-63.477,-56.641,-177.734,-40.527,19421.81,324.75325029389427
323,1685917671.72,-52.734,-351.074,-258.301,-24.414,19421.814,327.33920156564056
324,1685917671.72,23.438,263.184,109.375,-8.301,19421.816,325.25283743757626
325,1685917671.72,34.18,471.68,105.469,-10.254,19421.82,317.04487299964165
326,1685917671.72,-27.344,56.152,-68.848,-18.555,19421.824,319.85989012440757
327,1685917671.73,-45.898,-30.762,-39.062,-22.461,19421.828,322.54506822224795
328,1685917671.73,13.184,318.359,123.535,-14.16,19421.832,324.42218808399383
329,1685917671.74,26.855,185.547,2.441,-17.09,19421.836,322.74695655469634
330,1685917671.74,-39.551,-530.273,-372.559,-25.879,19421.84,325.22675662497244
331,1685917671.74,-68.848,-844.238,-458.984,-27.832,19421.843,323.18999417248466
332,1685917671.75,-16.113,-154.297,-47.363,-20.996,19421.847,324.26548790702435
333,1685917671.75,20.508,378.906,121.582,-20.02,19421.851,325.2830120159281
334,1685917671.76,-20.996,-240.723,-168.945,-24.902,19421.855,328.04102722763474
335,1685917671.76,-67.383,-636.23,-265.137,-31.25,19421.859,323.79532894950586
336,1685917671.78,-38.574,62.012,21.484,-35.156,19421.877,332.2278581534752
337,1685917671.78,21.973,323.242,66.406,-21.484,19421.881,328.3517252379357
338,1685917671.78,0.488,-56.152,-90.332,-26.367,19421.885,325.70974744032935
339,1685917671.79,-67.871,-55.176,-41.992,-41.504,19421.889,326.0384589016207
340,1685917671.79,-54.688,192.383,39.551,-35.156,19421.893,332.65802395351614
341,1685917671.8,15.137,5.371,-70.312,-17.09,19421.897,326.0919987370054
342,1685917671.8,10.742,-525.879,-216.309,-15.625,19421.901,325.9785175377408
343,1685917671.8,-51.27,-255.371,-58.594,-35.156,19421.905,320.23227260632115
344,1685917671.81,-54.688,238.77,58.105,-34.668,19421.909,326.53058491382353
345,1685917671.81,-4.883,74.707,-36.133,-11.23,19421.913,324.2384866270327
346,1685917671.82,10.742,104.004,-28.32,-9.277,19421.916,324.5075993290289
347,1685917671.82,-38.086,303.223,79.59,-31.25,19421.92,324.93972160512266
348,1685917671.82,-63.965,281.25,39.551,-28.32,19421.921,329.89526464002995
349,1685917671.82,-14.648,-37.109,-62.012,-8.301,19421.925,326.58865068876605
350,1685917671.83,15.137,-75.195,-36.621,-24.414,19421.929,326.49776455987393
351,1685917671.83,-28.809,302.246,114.746,-50.293,19421.933,327.68869210740246
352,1685917671.84,-91.309,283.691,50.293,-71.289,19421.937,321.752338269874
353,1685917671.84,-69.336,-326.66,-216.309,-49.805,19421.941,329.02594603459966
354,1685917671.84,8.301,-345.703,-120.605,-21.973,19421.945,325.2848542095515
355,1685917671.85,-8.789,4.395,-2.93,-44.434,19421.949,326.11824500306096
356,1685917671.85,-77.148,-152.344,-169.434,-59.57,19421.953,320.71965780196757
357,1685917671.86,-78.613,-559.57,-395.02,-45.41,19421.956,320.925149186595
358,1685917671.86,-29.297,-962.891,-438.965,-25.391,19421.96,324.6891141415014
359,1685917671.86,-7.324,-109.375,45.898,-29.785,19421.964,312.85594144025544
360,1685917671.87,-45.41,324.707,71.289,-36.621,19421.967,313.8309950103812
361,1685917671.87,-68.848,30.762,-44.922,-31.25,19421.97,315.91527000145027
362,1685917671.88,-21.484,259.277,84.961,-22.461,19421.974,319.18762722487963
363,1685917671.88,8.301,501.953,121.582,-26.367,19421.978,307.2808065999661
364,1685917671.88,-46.387,186.523,-30.273,-42.48,19421.982,313.4096592857879
365,1685917671.89,-86.426,-442.383,-265.625,-52.246,19421.986,314.31197892283416
366,1685917671.89,-38.574,-295.898,-148.926,-40.039,19421.99,317.4365334322742
367,1685917671.89,18.066,388.184,144.531,-31.738,19421.994,307.2302658029511
368,1685917671.9,-11.23,195.312,-12.207,-42.969,19421.998,306.44256179704564
369,1685917671.9,-69.336,-611.328,-312.988,-38.574,19422.002,305.78932385100904
370,1685917671.91,-48.828,-188.477,-16.602,-31.25,19422.006,310.06994041237203
371,1685917671.91,17.09,468.262,175.781,-30.273,19422.009,310.4879414715111
372,1685917671.91,5.859,196.777,-9.277,-39.062,19422.015,309.8440587389951
373,1685917671.92,-58.594,-26.367,-72.266,-53.223,19422.019,306.73656457377
374,1685917671.92,-60.547,187.012,69.336,-45.898,19422.023,306.7283218116067
375,1685917671.92,-0.977,347.656,113.281,-23.926,19422.027,301.145689736167
376,1685917671.93,3.418,121.582,-38.574,-23.926,19422.031,305.22701459145594
377,1685917671.93,-48.828,-257.812,-217.285,-40.527,19422.034,305.49278396901263
378,1685917671.94,-62.5,-276.367,-219.238,-40.527,19422.038,298.4049144695388
379,1685917671.94,-15.625,-63.477,-86.426,-24.414,19422.042,299.92284589173056
380,1685917671.94,15.137,-407.715,-192.871,-15.137,19422.046,299.51490430899196
381,1685917671.95,-27.832,-1000.0,-490.234,-25.391,19422.05,307.2267125919637
382,1685917671.95,-63.965,-444.824,-160.645,-28.809,19422.054,295.1632607103383
383,1685917671.96,-31.25,231.934,83.008,-15.625,19422.058,295.53179301886223
384,1685917671.96,13.184,191.406,35.645,-11.719,19422.055,296.71279873939494
385,1685917671.96,-3.906,322.754,77.637,-21.973,19422.059,296.7553122304223
386,1685917671.96,-63.965,386.719,69.336,-28.32,19422.063,290.29371163903926
387,1685917671.97,-62.5,136.23,-16.602,-23.438,19422.067,287.5615928188366
388,1685917671.97,2.441,-6.348,-37.109,-16.113,19422.071,293.28456702712094
389,1685917671.98,3.906,-3.418,-10.742,-21.973,19422.075,287.00815839830506
390,1685917671.98,-59.082,40.527,3.906,-34.668,19422.079,284.13860105420065
391,1685917671.98,-72.754,7.812,-67.871,-37.109,19422.083,287.54201126516534
392,1685917671.99,-17.09,-492.188,-244.141,-28.32,19422.087,288.5969101943106
393,1685917671.99,10.742,-275.391,-44.922,-33.691,19422.091,281.95598174142157
394,1685917672.0,-41.504,209.961,100.098,-44.922,19422.095,285.05207936568877
395,1685917672.0,-81.055,-75.195,-128.906,-46.875,19422.098,280.10428359941204
396,1685917672.0,-32.227,-416.504,-260.254,-30.273,19422.101,279.9086976545573
397,1685917672.01,12.695,162.109,78.613,-28.809,19422.105,286.73453504244503
398,1685917672.01,-28.809,404.297,90.82,-48.828,19422.109,279.9216051968986
399,1685917672.01,-74.219,14.648,-67.383,-49.316,19422.113,279.6266619043011
400,1685917672.02,-40.527,-29.297,-21.973,-34.18,19422.117,279.3051105289991
401,1685917672.02,11.719,70.312,27.832,-22.461,19422.121,279.3946959018388
402,1685917672.02,-10.742,-52.734,-57.129,-33.691,19422.124,276.36215659024225
403,1685917672.03,-69.336,-584.961,-378.906,-38.086,19422.128,281.70205266686764
404,1685917672.03,-65.918,-765.625,-387.695,-27.344,19422.132,278.6604031801149
405,1685917672.04,-3.418,114.258,91.797,-22.461,19422.136,274.87320355324647
406,1685917672.04,10.254,461.426,114.746,-27.344,19422.14,278.34843792125963
407,1685917672.04,-54.199,-311.035,-203.125,-41.504,19422.144,271.6223023850834
408,1685917672.05,-79.59,-580.566,-249.512,-41.992,19422.147,277.0065291139743
409,1685917672.05,-11.23,266.602,92.285,-26.367,19422.151,274.60439529877965
410,1685917672.06,5.859,394.531,87.402,-27.832,19422.155,269.7009394356838
411,1685917672.06,-51.27,-90.332,-118.652,-47.852,19422.159,274.1944726992898
412,1685917672.06,-89.844,-53.711,-58.105,-55.176,19422.163,275.3739073165878
413,1685917672.07,-44.922,66.895,25.391,-38.086,19422.167,268.9175274420441
414,1685917672.07,8.301,16.113,-11.23,-33.203,19422.171,266.90737401645475
415,1685917672.07,-28.809,-397.949,-164.062,-42.969,19422.175,274.5945353767727
416,1685917672.08,-72.266,-209.961,-34.668,-46.387,19422.179,278.81484395705667
417,1685917672.08,-40.039,358.398,103.027,-35.156,19422.182,273.4424659700098
418,1685917672.09,23.438,200.195,8.789,-18.066,19422.186,270.59713126148165
419,1685917672.09,13.184,151.367,43.457,-26.855,19422.19,264.8628767445194
420,1685917672.09,-47.363,289.551,100.586,-33.203,19422.191,268.10255474262397
421,1685917672.1,-48.828,300.293,53.223,-29.297,19422.195,266.4305407972773
422,1685917672.1,7.812,-54.688,-58.105,-22.461,19422.199,269.56756675577435
423,1685917672.1,13.672,-111.328,-9.277,-28.32,19422.203,270.5171579808168
424,1685917672.11,-51.758,201.66,41.504,-47.852,19422.207,268.57313886651446
425,1685917672.11,-68.848,-8.789,-151.855,-43.457,19422.21,270.6469481930982
426,1685917672.12,-3.418,-536.133,-333.008,-19.531,19422.214,272.42834703638607
427,1685917672.12,18.555,-900.879,-398.438,-18.066,19422.218,268.1135071862855
428,1685917672.12,-26.855,-201.66,-47.852,-35.645,19422.222,269.3124664262866
429,1685917672.13,-62.988,238.281,76.66,-35.156,19422.226,277.1659360201091
430,1685917672.13,-23.438,-180.664,-104.492,-19.043,19422.23,272.10132195306494
431,1685917672.14,22.461,-38.574,2.441,-15.137,19422.234,270.54662236366084
432,1685917672.14,-7.324,407.715,149.902,-34.668,19422.25,274.2025391603049
433,1685917672.14,-68.848,187.012,-18.066,-51.27,19422.254,273.56455556817326
434,1685917672.14,-53.223,-58.105,-58.105,-40.039,19422.258,270.4626613367884
435,1685917672.15,22.461,258.301,124.512,-14.16,19422.262,269.92835714698606
436,1685917672.15,10.742,401.367,77.637,-25.391,19422.266,277.9987883882419
437,1685917672.16,-61.035,-36.133,-164.062,-48.34,19422.27,274.18222090672793
438,1685917672.16,-78.125,-687.012,-364.258,-35.645,19422.274,275.7779351977104
439,1685917672.16,-15.137,-344.238,-73.242,-13.184,19422.277,277.1105323013255
440,1685917672.17,15.625,463.867,190.43,-21.973,19422.281,276.0069691239057
441,1685917672.17,-46.387,29.297,-117.188,-41.504,19422.285,270.36838753079263
442,1685917672.18,-79.59,-436.035,-237.305,-47.852,19422.289,277.55791013318435
443,1685917672.18,-22.949,146.484,91.309,-46.387,19422.293,279.93647603050516
444,1685917672.2,17.578,493.652,141.113,-35.156,19422.315,279.6019799358025
445,1685917672.2,-26.855,106.445,-61.035,-43.457,19422.318,280.3315751156648
446,1685917672.2,-78.125,-140.137,-140.625,-51.27,19422.322,278.57990846036284
447,1685917672.21,-42.969,195.312,73.242,-35.156,19422.326,280.55288681690763
448,1685917672.21,14.16,397.461,116.699,-21.973,19422.33,288.64207818335234
449,1685917672.22,-22.461,-208.496,-145.996,-31.738,19422.334,279.21087754308667
450,1685917672.22,-80.078,-623.535,-297.363,-47.363,19422.338,281.34350200584623
451,1685917672.22,-60.547,-296.387,-193.359,-45.41,19422.342,279.073785698406
452,1685917672.23,-7.812,-34.668,-33.203,-36.133,19422.346,285.6943063957781
453,1685917672.23,-11.23,-440.43,-255.859,-41.016,19422.35,282.04057352441725
454,1685917672.24,-65.43,-919.922,-420.898,-54.688,19422.354,291.0802788496879
455,1685917672.24,-74.219,-155.273,-15.137,-49.316,19422.357,287.018117565284
456,1685917672.24,-19.531,234.863,15.137,-36.133,19422.341,290.3972864000515
457,1685917672.25,0.488,115.723,10.742,-42.969,19422.345,289.18606480889105
458,1685917672.25,-48.828,223.633,75.195,-54.688,19422.349,288.54789739240255
459,1685917672.25,-78.613,281.738,62.988,-45.41,19422.353,283.43437935982877
460,1685917672.26,-29.785,159.18,13.184,-19.043,19422.357,289.1711736720192
461,1685917672.26,6.836,-89.844,-93.75,-16.602,19422.36,284.989237070277
462,1685917672.26,-35.156,-90.82,-48.34,-26.367,19422.364,286.9409137592647
463,1685917672.27,-91.309,193.359,68.359,-31.738,19422.368,285.7063157625617
464,1685917672.27,-65.43,68.848,-57.617,-26.855,19422.372,289.33299462000696
465,1685917672.28,-14.16,-474.609,-236.328,-16.602,19422.376,285.55107243609734
466,1685917672.28,-32.715,-300.293,-64.941,-30.273,19422.38,289.80575384183925
467,1685917672.28,-75.195,155.762,49.805,-36.621,19422.384,286.66092548314595
468,1685917672.29,-64.453,-154.785,-185.547,-22.949,19422.401,289.34849077028815
469,1685917672.29,-3.418,-436.035,-226.074,-23.926,19422.405,293.8851363689715
470,1685917672.3,3.418,211.426,89.355,-38.086,19422.409,292.36000413405816
471,1685917672.3,-48.34,337.402,82.52,-48.34,19422.413,292.9254405744953
472,1685917672.3,-64.453,-72.266,-92.285,-41.992,19422.417,295.08548950385006
473,1685917672.31,-10.742,-276.855,-222.656,-28.809,19422.42,298.03830886567715
474,1685917672.31,19.531,-3.906,-43.945,-29.297,19422.424,299.9741973946981
475,1685917672.31,-29.297,18.555,-45.41,-43.945,19422.428,299.222874652276
476,1685917672.32,-69.336,-600.586,-407.715,-49.316,19422.432,299.64456261286233
477,1685917672.32,-26.855,-915.527,-421.387,-28.809,19422.436,298.04022895868917
478,1685917672.33,15.625,-6.348,96.191,-25.391,19422.44,298.36291803680024
479,1685917672.33,-26.367,388.672,80.566,-49.316,19422.444,298.92934263536756
480,1685917672.33,-75.684,-91.797,-218.75,-62.5,19422.432,298.26167790830795
481,1685917672.34,-52.246,-150.391,-200.195,-46.875,19422.436,294.9098533224354
482,1685917672.34,3.418,290.039,41.504,-30.762,19422.44,297.87515083846523
483,1685917672.34,-4.883,317.871,34.18,-37.598,19422.443,299.3654466388851
484,1685917672.35,-62.012,-226.562,-219.727,-45.41,19422.447,299.90643877331837
485,1685917672.35,-60.059,-348.145,-266.602,-30.762,19422.451,299.45960862618983
486,1685917672.36,-1.953,5.859,-90.82,-15.137,19422.455,298.2745266914593
487,1685917672.36,2.441,57.617,-78.613,-20.508,19422.459,304.66808965887816
488,1685917672.36,-60.059,-202.637,-175.781,-38.086,19422.463,305.3229582858258
489,1685917672.37,-80.078,39.551,-0.977,-41.504,19422.467,301.35682704526334
490,1685917672.37,-21.973,402.832,143.066,-20.02,19422.471,301.23775460767615
491,1685917672.38,8.789,108.398,-65.43,-13.672,19422.475,302.36414938876715
492,1685917672.38,-35.645,-551.27,-330.078,-28.809,19422.477,299.3734678069041
493,1685917672.38,-72.266,-111.328,-20.996,-37.598,19422.481,298.2161357770812
494,1685917672.38,-24.902,331.055,88.379,-33.203,19422.484,302.531261428317
495,1685917672.39,22.461,-35.156,-74.707,-25.879,19422.488,304.0213305433089
496,1685917672.39,-21.973,-112.793,-85.449,-37.109,19422.492,301.47814454664166
497,1685917672.4,-78.125,-104.492,-173.34,-43.945,19422.496,306.2150355293635
498,1685917672.4,-54.688,-137.207,-187.5,-34.668,19422.5,304.69029894364684
499,1685917672.4,-5.371,-412.109,-268.066,-17.09,19422.504,305.1247358916382
500,1685917672.41,-17.578,-1000.0,-455.078,-20.02,19422.508,310.94046199535336
501,1685917672.41,-67.871,-315.43,-82.52,-39.551,19422.512,299.01778588337436
502,1685917672.42,-66.895,247.559,44.922,-30.273,19422.516,301.2639191317415
503,1685917672.42,-8.301,143.555,2.93,-19.043,19422.52,301.0786979467961
504,1685917672.42,0.977,157.715,44.434,-27.832,19422.521,303.2065361806221
505,1685917672.43,-52.734,227.051,28.32,-48.34,19422.525,302.1863058929277
506,1685917672.43,-77.148,145.508,-30.273,-50.293,19422.529,308.4445034752412
507,1685917672.43,-27.344,20.02,-21.973,-27.344,19422.533,303.8725908104183
508,1685917672.44,9.277,254.883,71.777,-15.625,19422.537,306.4889940197858
509,1685917672.44,-31.738,99.609,-81.055,-31.738,19422.54,308.98733131671935
510,1685917672.44,-78.125,-225.586,-249.023,-40.039,19422.544,299.47297566544745
511,1685917672.45,-53.711,-814.941,-470.703,-23.438,19422.548,304.03563862691936
512,1685917672.45,3.906,-507.324,-242.676,-16.602,19422.552,303.2690186451591
513,1685917672.46,-10.742,445.801,164.062,-38.574,19422.556,307.19909621448454
514,1685917672.46,-71.289,90.82,-115.723,-46.387,19422.56,302.7329997224469
515,1685917672.46,-55.176,-76.66,-175.781,-29.785,19422.564,309.39835396945296
516,1685917672.47,9.277,366.211,121.094,-13.184,19422.566,306.7837704164316
517,1685917672.47,8.301,450.684,98.633,-13.184,19422.57,305.1725116279728
518,1685917672.48,-51.758,42.48,-96.191,-30.762,19422.574,305.5405050554356
519,1685917672.48,-58.105,-105.957,-121.582,-35.156,19422.578,306.6653358627048
520,1685917672.48,3.418,220.215,45.41,-25.879,19422.582,307.3085503157746
521,1685917672.49,12.695,145.508,-28.32,-33.691,19422.585,300.42191700411297
522,1685917672.49,-48.34,-504.395,-368.652,-41.992,19422.589,312.64433988231144
523,1685917672.49,-78.613,-828.125,-461.426,-31.25,19422.593,311.23302493820756
524,1685917672.5,-23.926,-333.496,-181.641,-19.531,19422.597,316.3872912167397
525,1685917672.5,16.602,67.383,7.812,-19.043,19422.601,311.7821933864183
526,1685917672.51,-18.555,-431.641,-260.254,-30.762,19422.605,313.7562901698982
527,1685917672.51,-66.895,-714.844,-352.051,-37.598,19422.609,312.9494400990216
528,1685917672.51,-34.668,116.699,24.902,-21.484,19422.625,305.66862748121247
529,1685917672.52,22.949,289.551,-5.859,-8.789,19422.629,307.66037950825535
530,1685917672.52,-2.93,111.816,-20.02,-26.855,19422.633,307.642840555002
531,1685917672.52,-62.5,165.039,10.742,-42.48,19422.637,302.47338508793365
532,1685917672.53,-50.781,234.863,2.441,-35.645,19422.641,312.30239984236454
533,1685917672.53,0.488,-8.301,-119.629,-22.461,19422.645,311.04516090540517
534,1685917672.54,-3.418,-562.988,-275.391,-15.625,19422.649,306.7732971864196
535,1685917672.54,-49.316,-257.812,-55.176,-24.414,19422.652,309.45381053734116
536,1685917672.54,-59.57,315.43,61.523,-25.391,19422.656,313.46865584024505
537,1685917672.55,-3.418,125.977,-40.039,-6.836,19422.66,312.7155037799124
538,1685917672.55,19.043,83.984,-24.414,-12.695,19422.664,309.7784950329519
539,1685917672.56,-34.668,58.594,-109.375,-33.203,19422.668,306.373398899071
540,1685917672.56,-61.035,72.266,-111.816,-31.738,19422.67,309.43799453543636
541,1685917672.56,-13.672,-134.277,-158.691,-12.695,19422.674,307.2544123854643
542,1685917672.56,32.227,-295.41,-222.656,-5.859,19422.678,316.7606967223612
543,1685917672.57,0.0,192.383,49.805,-19.043,19422.682,306.45174460867344
544,1685917672.57,-49.316,205.566,11.719,-25.391,19422.686,317.9762045196431
545,1685917672.58,-34.668,-438.965,-295.41,-21.484,19422.69,310.4813293635032
546,1685917672.58,20.508,-407.715,-179.688,-15.625,19422.694,307.82163614869785
547,1685917672.58,11.23,64.453,-17.09,-23.438,19422.697,310.0310662003962
548,1685917672.59,-52.246,-115.723,-217.773,-37.109,19422.701,308.35275035799765
549,1685917672.59,-53.223,-600.586,-403.32,-21.973,19422.705,312.34375063789275
550,1685917672.6,14.648,-638.672,-283.691,2.441,19422.709,306.0694853019406
551,1685917672.6,33.203,293.457,116.699,-7.812,19422.713,310.48258399036706
552,1685917672.62,-29.297,312.5,-12.207,-26.855,19422.718,303.38721076091383
553,1685917672.62,-56.641,-174.316,-249.512,-21.973,19422.722,309.2344152408513
554,1685917672.62,-3.418,-95.703,-131.836,-6.348,19422.726,308.50012068089836
555,1685917672.63,29.785,375.0,117.676,-6.348,19422.73,314.06642317447785
556,1685917672.63,-25.879,299.805,0.0,-24.902,19422.733,312.1556912366497
557,1685917672.64,-78.613,-546.387,-321.289,-38.574,19422.737,310.3257911774028
558,1685917672.64,-32.715,-530.273,-240.723,-26.855,19422.741,314.76030278636125
559,1685917672.64,18.555,337.402,104.98,-13.672,19422.745,314.9494110421072
560,1685917672.65,-11.719,209.961,-56.152,-28.32,19422.749,307.63431516421355
561,1685917672.65,-55.176,-301.758,-243.652,-32.227,19422.753,311.3528372210263
562,1685917672.66,-40.039,76.172,-7.324,-17.578,19422.757,311.5022925943909
563,1685917672.66,14.16,421.875,97.656,-11.719,19422.761,307.53210835474994
564,1685917672.68,8.789,203.125,-26.855,-20.508,19422.776,311.4931828922808
565,1685917672.68,-48.828,5.859,-137.695,-38.086,19422.78,314.1536736242313
566,1685917672.68,-51.27,171.387,-8.301,-41.504,19422.784,312.9504735446798
567,1685917672.69,10.742,281.25,31.25,-24.902,19422.788,316.44623822038653
568,1685917672.69,13.672,-62.988,-76.66,-29.785,19422.792,316.0422187278107
569,1685917672.7,-49.805,-423.828,-253.418,-43.945,19422.796,310.89098952926076
570,1685917672.7,-73.242,-282.715,-248.047,-34.668,19422.8,310.7047052897274
571,1685917672.7,-23.438,-33.203,-116.699,-23.438,19422.803,311.6458175389634
572,1685917672.71,22.461,115.234,-18.066,-20.508,19422.806,311.0965041644136
573,1685917672.71,12.207,-432.617,-340.82,-21.973,19422.807,315.078060468261
574,1685917672.71,-7.324,209.473,67.871,-28.809,19422.81,312.55199218987383
575,1685917672.71,-29.785,-1000.0,-491.211,-27.344,19422.811,314.2529921084723
576,1685917672.71,-72.754,235.352,19.043,-34.668,19422.814,309.2884292175976
577,1685917672.72,-62.012,-277.832,-80.078,-30.762,19422.815,314.05660784472303
578,1685917672.72,-65.43,90.332,-66.406,-35.156,19422.818,315.1129642770905
579,1685917672.72,-23.926,234.375,7.324,-21.484,19422.819,309.01470070235416
580,1685917672.72,3.906,9.277,-82.52,-21.973,19422.822,315.3849603299287
581,1685917672.73,-5.859,-33.203,-105.957,-25.879,19422.825,318.5404489124763
582,1685917672.73,-69.336,-75.684,-184.57,-47.852,19422.829,311.5450553748025
583,1685917672.73,-70.801,-235.352,-283.691,-46.875,19422.833,310.21359949135143
584,1685917672.74,-14.648,-238.77,-184.082,-20.02,19422.837,315.99304212684046
585,1685917672.74,5.371,244.141,58.594,-22.461,19422.841,311.98221454834834
586,1685917672.74,-46.387,387.695,70.801,-40.039,19422.845,311.20201173623104
587,1685917672.75,-73.73,-77.148,-228.027,-41.992,19422.849,310.4094099850442
588,1685917672.75,-24.414,-834.961,-476.074,-20.996,19422.851,312.0825726202743
589,1685917672.76,24.414,-252.93,-37.109,-11.719,19422.855,316.5210430774104
590,1685917672.76,-9.277,409.668,94.238,-30.273,19422.859,310.91362898289657
591,1685917672.76,-68.359,-50.781,-146.484,-34.18,19422.863,310.88347994543886
592,1685917672.77,-44.922,-85.449,-117.676,-19.043,19422.867,315.99510339179665
593,1685917672.77,8.301,95.215,-12.695,-6.836,19422.87,317.4362050595402
594,1685917672.78,-17.578,0.0,-89.844,-21.973,19422.874,311.4147156461339
595,1685917672.78,-78.613,-500.488,-396.973,-30.273,19422.878,312.2423423386052
596,1685917672.78,-69.824,-944.336,-495.605,-23.926,19422.882,315.9846368712703
597,1685917672.79,-5.859,-238.77,-45.898,-14.648,19422.886,312.255084209067
598,1685917672.79,7.324,139.648,-25.879,-9.277,19422.89,313.1774906259761
599,1685917672.8,-41.504,-244.629,-236.328,-21.484,19422.894,310.77215810427214
600,1685917672.8,-57.617,-97.656,-69.336,-26.367,19422.918,312.4360609995047
601,1685917672.8,-8.789,407.715,100.586,-16.113,19422.922,319.70248999317784
602,1685917672.81,8.789,317.871,-26.855,-17.09,19422.926,320.299172891563
603,1685917672.81,-37.109,77.148,-93.262,-33.691,19422.93,316.0011477669373
604,1685917672.81,-80.566,79.59,-50.293,-46.387,19422.934,314.97168648148363
605,1685917672.82,-44.434,5.859,-149.414,-40.527,19422.938,312.2877830198519
606,1685917672.82,7.812,-98.145,-241.699,-34.18,19422.941,320.6440981143386
607,1685917672.82,-25.879,-533.691,-306.641,-45.898,19422.945,315.77752984284587
608,1685917672.83,-61.523,-309.082,-97.168,-47.852,19422.949,314.39929732789733
609,1685917672.83,-32.715,302.734,61.523,-32.227,19422.953,318.1618476197812
610,1685917672.84,14.16,151.367,-29.785,-22.949,19422.957,315.3182369811253
611,1685917672.84,1.953,28.32,-168.457,-33.691,19422.961,314.43923195386697
612,1685917672.84,-51.27,-80.566,-226.562,-45.41,19422.944,308.8083834188688
613,1685917672.85,-49.316,-52.246,-96.191,-34.668,19422.948,312.14283772766083
614,1685917672.85,4.883,-111.328,-136.23,-16.113,19422.952,317.04313762805606
615,1685917672.85,11.23,-132.812,-144.531,-21.973,19422.956,316.4621376262478
616,1685917672.86,-43.945,179.199,10.254,-35.645,19422.96,312.6912549921175
617,1685917672.86,-64.453,-41.016,-193.848,-31.25,19422.963,314.05309271142215
618,1685917672.86,-11.719,-476.074,-365.234,-20.508,19422.967,317.2832510448463
619,1685917672.87,15.137,-1000.0,-519.531,-18.555,19422.971,316.846702422457
620,1685917672.87,-29.297,-399.902,-196.777,-38.574,19422.975,318.88150957107456
621,1685917672.88,-68.848,201.172,16.113,-48.34,19422.979,313.83826857081084
622,1685917672.88,-28.809,-9.766,-113.77,-27.344,19422.983,314.2775308246153
623,1685917672.88,20.996,246.582,30.273,-16.113,19422.987,316.15068487858946
624,1685917672.89,-10.742,499.023,111.816,-34.668,19423.0,316.1077566651177
625,1685917672.89,-61.035,246.582,-43.945,-43.945,19423.004,315.5616139006814
626,1685917672.89,-43.457,-126.953,-166.504,-30.273,19423.008,314.48684992026523
627,1685917672.9,11.719,17.578,-3.906,-19.043,19423.012,313.81708820735054
628,1685917672.9,5.859,304.688,56.152,-19.043,19423.016,317.2531556091893
629,1685917672.91,-59.082,29.297,-172.363,-37.598,19423.02,309.86399799760034
630,1685917672.91,-69.336,-791.992,-503.906,-20.508,19423.024,317.4350523784766
631,1685917672.91,-7.812,-573.73,-298.34,4.883,19423.028,317.0448649299468
632,1685917672.92,13.672,444.336,145.508,-13.184,19423.032,308.73022051488834
633,1685917672.92,-30.273,184.082,-110.84,-23.438,19423.035,315.683836391317
634,1685917672.92,-57.129,-69.824,-192.871,-26.855,19423.039,313.8886697313892
635,1685917672.93,-7.324,265.625,38.574,-19.531,19423.043,313.2494800563477
636,1685917672.93,27.832,414.551,95.215,-18.555,19423.045,318.9117754024351
637,1685917672.94,-13.672,107.91,-85.938,-26.855,19423.049,317.1755279988884
638,1685917672.94,-56.152,-95.703,-187.5,-37.109,19423.053,313.3798082534666
639,1685917672.94,-19.531,257.812,51.758,-34.668,19423.057,317.5891221067344
640,1685917672.95,24.414,355.469,65.918,-22.461,19423.061,313.02105629780186
641,1685917672.95,-12.207,-153.809,-203.125,-33.203,19423.065,319.41915130738306
642,1685917672.96,-58.105,-437.5,-271.484,-42.969,19423.069,309.4242048168189
643,1685917672.96,-49.805,-250.0,-216.309,-24.414,19423.073,318.164240693121
644,1685917672.96,0.488,-0.488,-139.16,-11.23,19423.077,311.86719242508167
645,1685917672.97,-2.441,-374.023,-336.914,-26.855,19423.081,313.45262724504073
646,1685917672.97,-62.012,-998.047,-516.602,-39.062,19423.084,313.3531637951519
647,1685917672.98,-62.012,-224.121,-83.008,-39.062,19423.088,313.01904848002164
648,1685917672.99,3.418,300.293,31.738,-26.855,19423.091,317.0197836079532
649,1685917673.0,10.742,117.676,-55.664,-30.273,19423.095,311.93225356902576
650,1685917673.0,-46.387,188.965,0.488,-47.852,19423.099,310.4176013705107
651,1685917673.0,-73.73,284.18,27.344,-49.316,19423.103,309.8860562568284
652,1685917673.01,-26.855,218.75,-3.906,-29.785,19423.107,314.0374825066285
653,1685917673.01,12.207,-155.762,-199.219,-20.996,19423.111,308.18942793957325
654,1685917673.01,-29.297,-94.238,-145.508,-32.715,19423.115,309.5033087705478
655,1685917673.02,-71.289,110.352,-27.344,-40.527,19423.118,312.70217233170234
656,1685917673.02,-37.598,-125.488,-251.465,-23.926,19423.122,314.0807482463481
657,1685917673.03,8.789,-641.602,-358.398,-16.602,19423.126,310.63542588913714
658,1685917673.03,-4.395,-243.652,-35.156,-32.227,19423.13,321.1835959416023
659,1685917673.03,-49.316,340.332,38.086,-33.203,19423.134,314.5402116597193
660,1685917673.04,-47.363,-57.617,-222.168,-26.855,19423.136,316.25733600627177
661,1685917673.04,4.395,-19.531,-115.234,-20.508,19423.14,316.1302246426459
662,1685917673.04,2.93,364.258,77.148,-27.832,19423.144,312.03396489990894
663,1685917673.05,-57.129,298.828,-20.508,-47.852,19423.147,313.42931302887007
664,1685917673.05,-61.035,-82.031,-197.266,-42.48,19423.151,314.1785899791034
665,1685917673.06,4.395,-300.293,-269.531,-23.926,19423.155,316.0593412525016
666,1685917673.06,14.648,-123.535,-205.078,-35.156,19423.159,311.4907609682838
667,1685917673.06,-45.41,-65.918,-200.195,-49.805,19423.163,311.1725370388494
668,1685917673.07,-82.52,-582.52,-439.453,-46.875,19423.167,309.9263063749976
669,1685917673.07,-43.457,-926.758,-458.496,-27.344,19423.171,313.0664112815728
670,1685917673.08,3.906,-241.211,-66.406,-16.602,19423.175,316.07406685400576
671,1685917673.08,-25.391,41.016,-168.945,-26.367,19423.179,310.0850656177618
672,1685917673.08,-71.289,-288.086,-309.57,-31.25,19423.181,307.4292149428745
673,1685917673.09,-34.18,-85.449,-65.918,-16.113,19423.185,312.0206413623466
674,1685917673.09,42.48,400.879,80.078,11.719,19423.189,319.9915627897484
675,1685917673.09,15.625,270.02,-53.223,-7.812,19423.193,310.38815260978777
676,1685917673.1,-66.895,-7.324,-144.531,-48.34,19423.197,316.6939367319955
677,1685917673.1,-71.289,-156.25,-199.707,-52.246,19423.201,315.55035907887634
678,1685917673.1,-9.766,-40.039,-134.766,-31.25,19423.205,319.09703498080233
679,1685917673.11,0.488,97.656,-78.125,-26.367,19423.208,311.9876918880272
680,1685917673.11,-67.383,-547.852,-306.152,-41.504,19423.212,315.6704391839774
681,1685917673.12,-86.426,-320.801,-117.676,-47.363,19423.216,310.2360801169894
682,1685917673.12,-14.16,384.766,86.914,-31.25,19423.22,311.4672565604524
683,1685917673.12,15.625,210.449,-25.879,-24.414,19423.224,311.5114385473221
684,1685917673.13,-35.156,1.953,-138.184,-31.25,19423.23,315.33548605267146
685,1685917673.13,-75.684,-34.18,-164.062,-32.227,19423.233,314.65173271315183
686,1685917673.14,-39.551,231.934,29.785,-31.738,19423.237,313.1156866716969
687,1685917673.14,-2.93,38.574,-65.918,-26.855,19423.241,313.33768358022496
688,1685917673.14,-46.387,-279.297,-271.484,-37.109,19423.245,316.132063549068
689,1685917673.15,-94.238,-141.113,-195.801,-55.176,19423.249,312.5928218992128
690,1685917673.15,-65.918,-95.703,-182.129,-44.434,19423.253,313.7210315540493
691,1685917673.16,-6.348,-436.035,-358.398,-25.879,19423.257,308.4501546387687
692,1685917673.16,-19.043,-941.895,-441.895,-32.715,19423.261,310.93327315162446
693,1685917673.16,-63.477,-165.527,-39.551,-46.387,19423.265,312.5265533399082
694,1685917673.17,-60.059,235.84,-44.434,-38.574,19423.269,309.39276099491536
695,1685917673.17,-7.812,99.609,-130.859,-29.785,19423.273,312.83877221913355
696,1685917673.17,1.465,305.664,39.062,-38.086,19423.271,301.64753641637316
697,1685917673.18,-55.664,378.906,59.082,-46.387,19423.275,309.6361944381095
698,1685917673.18,-84.961,147.949,-91.309,-45.41,19423.279,311.5721212868056
699,1685917673.18,-33.203,-158.203,-181.152,-32.715,19423.283,308.81920994738414
700,1685917673.19,4.883,-2.93,-14.16,-25.391,19423.287,307.9830007887039
701,1685917673.19,-41.504,31.25,-63.477,-42.969,19423.291,316.9555158589958
702,1685917673.2,-84.473,-190.918,-270.508,-46.387,19423.294,308.6391989896597
703,1685917673.2,-44.922,-771.973,-479.004,-27.344,19423.298,308.03996171106104
704,1685917673.2,20.508,-538.086,-272.949,-18.555,19423.302,306.9649548957222
705,1685917673.21,3.418,396.973,110.84,-41.992,19423.306,309.54128016722456
706,1685917673.21,-59.082,82.52,-161.133,-51.758,19423.31,311.6729647816684
707,1685917673.22,-41.016,-68.359,-198.73,-24.902,19423.314,307.58651816079805
708,1685917673.22,21.484,341.309,74.707,-15.137,19423.316,314.88249105302555
709,1685917673.22,10.742,425.293,59.082,-34.668,19423.32,310.3336847160114
710,1685917673.22,-56.641,21.973,-141.113,-51.27,19423.324,308.8517716236775
711,1685917673.23,-61.035,-68.848,-87.891,-41.504,19423.328,312.2766408794804
712,1685917673.23,-1.465,247.559,21.973,-25.391,19423.332,306.3996828978615
713,1685917673.24,11.719,96.191,-138.672,-28.32,19423.336,304.3151869028395
714,1685917673.24,-45.41,-494.629,-389.648,-38.574,19423.34,307.8903053452778
715,1685917673.24,-79.102,-957.031,-527.344,-42.48,19423.344,313.8095141183019
716,1685917673.25,-24.902,-288.574,-128.418,-37.598,19423.348,306.5947415022397
717,1685917673.25,19.043,416.992,102.051,-34.18,19423.352,312.3142493159609
718,1685917673.26,-21.973,-256.836,-221.68,-50.781,19423.355,316.5944787694555
719,1685917673.26,-74.219,-427.246,-221.191,-57.617,19423.359,311.5153954888587
720,1685917673.26,-42.48,217.773,51.758,-41.016,19423.375,310.22635745323106
721,1685917673.27,11.23,224.121,-14.16,-28.809,19423.379,309.65212644484313
722,1685917673.27,-9.277,134.277,-35.645,-33.691,19423.383,312.16185465605025
723,1685917673.27,-62.5,129.395,-20.996,-48.34,19423.387,308.1083963275142
724,1685917673.28,-52.246,240.723,3.418,-43.945,19423.391,315.04968866383086
725,1685917673.28,-2.441,66.406,-129.395,-36.133,19423.395,316.3332210542142
726,1685917673.28,-5.859,-528.32,-303.711,-43.945,19423.398,314.09105397405733
727,1685917673.29,-66.406,-277.344,-64.453,-49.805,19423.402,314.32461742239576
728,1685917673.29,-71.777,166.504,-31.25,-47.363,19423.406,311.7178272811154
729,1685917673.3,-2.93,-186.523,-301.27,-36.133,19423.41,310.7984160486227
730,1685917673.3,14.648,-257.324,-239.746,-28.32,19423.414,308.6303990233554
731,1685917673.3,-40.039,175.781,15.625,-39.062,19423.418,309.895376791803
732,1685917673.31,-74.219,256.836,-11.719,-45.41,19423.424,311.2569695248051
733,1685917673.31,-31.25,-19.531,-115.234,-31.738,19423.428,306.4688359915148
734,1685917673.31,9.766,57.617,-49.316,-20.02,19423.432,318.2445300893488
735,1685917673.32,-13.184,333.496,56.152,-28.809,19423.436,308.1897307146667
736,1685917673.32,-59.57,302.734,8.789,-40.039,19423.44,313.4668322881949
737,1685917673.33,-45.41,-454.102,-353.516,-23.438,19423.444,314.59331139421005
738,1685917673.33,3.906,-594.238,-290.039,-16.602,19423.448,311.1232284217808
739,1685917673.33,-21.973,32.227,-42.48,-34.668,19423.452,317.2779634094666
740,1685917673.34,-75.684,-67.871,-241.699,-42.48,19423.455,314.17459427843323
741,1685917673.34,-70.312,-594.238,-424.805,-34.18,19423.459,315.44147103775447
742,1685917673.34,-8.789,-583.984,-276.367,-22.949,19423.463,317.05682420356766
743,1685917673.35,0.977,122.559,24.414,-37.598,19423.467,312.237120790001
744,1685917673.37,-49.805,-28.32,-208.008,-55.664,19423.466,307.7104763937213
745,1685917673.37,-53.711,-349.609,-288.086,-41.504,19423.47,307.39199696782873
746,1685917673.37,2.93,-45.41,-47.363,-20.996,19423.474,306.7309809735139
747,1685917673.38,20.996,399.902,90.82,-30.273,19423.478,306.4068368233044
748,1685917673.38,-34.668,208.496,-57.129,-42.969,19423.482,310.9668035648676
749,1685917673.39,-65.43,-304.688,-305.664,-41.016,19423.486,305.8664037565906
750,1685917673.39,-15.625,-217.285,-171.875,-28.809,19423.489,310.9226829146235
751,1685917673.39,33.691,351.562,138.184,-23.926,19423.493,310.395888250998
752,1685917673.4,-6.348,117.676,-128.906,-33.203,19423.497,311.0061124160395
753,1685917673.4,-64.453,-517.578,-398.438,-41.016,19423.501,308.1841578074691
754,1685917673.4,-43.457,-87.402,-52.246,-32.715,19423.505,309.23616392688285
755,1685917673.41,25.879,439.453,126.465,-18.066,19423.509,313.8716851599977
756,1685917673.41,8.789,171.387,-53.223,-19.043,19423.515,313.40572331603653
757,1685917673.42,-63.477,-97.168,-261.719,-32.227,19423.519,315.1605238076389
758,1685917673.42,-62.5,-122.559,-239.746,-34.668,19423.523,316.2827165742105
759,1685917673.42,0.488,215.82,49.805,-20.996,19423.527,309.2064245301357
760,1685917673.43,11.23,-15.625,-101.074,-19.531,19423.531,313.29550680779755
761,1685917673.43,-42.48,-571.289,-402.344,-24.902,19423.534,311.20359172006556
762,1685917673.44,-57.617,-199.219,-205.566,-16.602,19423.538,313.7663112831827
763,1685917673.44,-8.301,121.582,-19.531,-0.977,19423.542,312.9816653288318
764,1685917673.44,19.043,-386.719,-270.508,-1.465,19423.546,308.20064981298935
765,1685917673.45,-30.762,-936.523,-440.918,-10.742,19423.55,311.9560121138785
766,1685917673.45,-64.941,-217.773,-61.523,-25.879,19423.554,310.11793552670264
767,1685917673.46,-26.855,229.004,12.207,-24.414,19423.558,312.6955377984941
768,1685917673.46,24.414,135.254,25.879,-10.742,19423.556,311.5932762035057
769,1685917673.46,-3.906,274.902,43.945,-21.973,19423.56,306.0995968060497
770,1685917673.46,-63.965,334.473,13.672,-33.691,19423.564,309.4083276493001
771,1685917673.47,-53.223,132.812,-59.082,-10.742,19423.568,311.967089333955
772,1685917673.47,0.977,-103.027,-130.371,10.254,19423.572,308.25122066839623
773,1685917673.48,-1.953,-109.863,-135.254,-4.395,19423.575,311.3083797663527
774,1685917673.48,-57.617,-158.203,-223.145,-26.855,19423.579,307.05053867072235
775,1685917673.48,-63.477,-199.707,-276.367,-33.203,19423.583,308.523019456225
776,1685917673.49,-3.418,-755.859,-453.125,-14.648,19423.587,312.04017178306424
777,1685917673.49,13.672,-505.859,-248.535,-20.02,19423.591,315.91711174486613
778,1685917673.5,-38.086,372.559,70.312,-38.574,19423.595,312.5845717343215
779,1685917673.5,-69.336,44.922,-143.066,-33.203,19423.599,310.66156980597606
780,1685917673.5,-14.16,-8.301,-147.949,-13.184,19423.601,312.1694466586741
781,1685917673.51,28.32,365.723,62.5,-10.742,19423.605,308.7898886627508
782,1685917673.51,-25.391,343.75,24.902,-36.621,19423.609,311.8251854906577
783,1685917673.51,-71.777,5.859,-88.379,-43.945,19423.613,308.0319072914245
784,1685917673.52,-34.668,-69.824,-96.191,-22.461,19423.617,305.4763466200842
785,1685917673.52,19.043,28.809,-120.605,-10.742,19423.621,319.25196203761953
786,1685917673.52,-3.906,-37.109,-186.035,-25.879,19423.624,308.80613193282284
787,1685917673.53,-60.059,-484.375,-416.992,-27.832,19423.628,314.91295550421745
788,1685917673.53,-62.012,-1000.0,-584.961,-9.277,19423.632,315.17996881985204
789,1685917673.54,-0.977,-240.234,-105.957,-3.906,19423.636,314.20300881534916
790,1685917673.54,7.324,441.895,109.375,-16.113,19423.64,315.23800956647466
791,1685917673.54,-51.27,47.363,-132.324,-38.086,19423.644,307.53887027430267
792,1685917673.55,-64.941,41.016,-100.586,-37.109,19423.661,300.6018440364562
793,1685917673.55,-5.859,423.828,104.004,-25.391,19423.664,311.12646810681775
794,1685917673.55,20.996,359.863,20.996,-20.508,19423.668,304.4633298590202
795,1685917673.56,-40.039,77.148,-89.844,-34.668,19423.672,314.5716629488439
796,1685917673.56,-76.172,59.57,-50.293,-43.945,19423.676,313.17561599311097
797,1685917673.57,-27.344,-54.688,-152.344,-29.785,19423.68,313.4260624902212
798,1685917673.57,15.625,-81.543,-238.281,-28.32,19423.684,306.2163479955507
799,1685917673.57,-17.578,-476.074,-303.223,-38.086,19423.688,307.3503043619098
800,1685917673.58,-68.359,-303.711,-85.938,-27.344,19423.692,313.81587813229277
801,1685917673.58,-44.434,204.102,37.109,-20.996,19423.696,312.9579676956442
802,1685917673.58,0.0,-135.742,-165.039,-28.32,19423.7,312.3748982738368
803,1685917673.59,-13.184,-248.047,-186.523,-33.691,19423.704,310.2466378530178
804,1685917673.59,-59.57,165.527,27.832,-41.016,19423.691,311.49175879172515
805,1685917673.6,-57.617,288.574,5.371,-30.762,19423.695,311.0791202763075
806,1685917673.6,5.371,65.43,-59.082,-20.996,19423.699,313.0824233788502
807,1685917673.6,12.695,134.766,-11.719,-33.203,19423.703,308.87896567773043
808,1685917673.61,-46.875,270.02,-7.324,-49.316,19423.706,313.6066158807888
809,1685917673.61,-62.012,-7.324,-180.664,-43.945,19423.71,312.08503768459315
810,1685917673.62,-7.324,-569.336,-411.133,-16.602,19423.714,309.0849885183894
811,1685917673.62,14.16,-766.602,-377.441,-11.719,19423.718,312.58084790601885
812,1685917673.62,-25.391,-144.043,-102.051,-32.715,19423.722,305.75857624249903
813,1685917673.63,-50.781,248.535,15.137,-32.227,19423.726,308.13286902975875
814,1685917673.63,-26.367,-419.434,-298.34,-11.719,19423.73,309.5817237210021
815,1685917673.64,11.719,-735.84,-369.141,-9.766,19423.734,309.50792052267536
816,1685917673.64,-10.742,-18.066,-74.707,-30.273,19423.75,311.48521170759693
817,1685917673.64,-67.871,81.543,-131.836,-38.086,19423.754,307.58360378049633
818,1685917673.65,-53.223,-219.727,-206.055,-29.785,19423.758,311.95786434062336
819,1685917673.65,5.371,43.945,-8.789,-22.461,19423.762,311.9326985759598
820,1685917673.65,-13.184,400.879,77.148,-33.691,19423.766,311.5879065954447
821,1685917673.66,-76.172,-31.25,-226.074,-42.969,19423.77,315.9688314113998
822,1685917673.66,-67.871,-634.277,-365.723,-39.062,19423.773,316.0395142606962
823,1685917673.66,-5.859,-205.566,-13.672,-28.32,19423.777,309.3302201357068
824,1685917673.67,7.812,509.766,158.691,-31.738,19423.781,309.715927282852
825,1685917673.67,-43.457,113.77,-144.531,-44.922,19423.785,313.16228617590184
826,1685917673.68,-67.383,-155.273,-214.355,-34.668,19423.789,313.98416178510547
827,1685917673.68,-18.555,312.988,90.82,-17.09,19423.793,310.9416795475516
828,1685917673.68,15.137,352.539,49.316,-16.602,19423.796,309.5977120277956
829,1685917673.69,-21.484,-58.594,-128.906,-31.25,19423.8,312.3354634137288
830,1685917673.69,-67.871,-170.898,-228.027,-37.109,19423.804,308.0744649871406
831,1685917673.69,-36.133,-49.316,-178.711,-26.855,19423.807,308.0172279780709
832,1685917673.7,14.648,345.215,80.566,-17.09,19423.811,312.9333119479441
833,1685917673.7,-15.137,-163.574,-199.219,-22.949,19423.815,312.01717753972946
834,1685917673.7,-72.754,-923.828,-482.91,-40.039,19423.819,311.7801075790155
835,1685917673.71,-51.758,-446.777,-222.656,-36.133,19423.823,315.0947155655803
836,1685917673.71,11.23,79.59,-52.246,-22.461,19423.827,304.52229456758926
837,1685917673.72,-6.836,-329.102,-241.211,-30.273,19423.831,308.39354604797353
838,1685917673.72,-66.895,-548.828,-275.879,-44.434,19423.835,308.4467286713432
839,1685917673.72,-59.082,208.008,55.176,-39.062,19423.839,313.7059936673809
840,1685917673.74,6.836,315.43,16.113,-15.625,19423.841,307.4541569517583
841,1685917673.75,15.625,195.801,17.578,-19.531,19423.845,308.62761266257564
842,1685917673.75,-43.945,246.582,31.738,-41.992,19423.849,311.3700055442013
843,1685917673.75,-70.312,322.266,41.016,-38.574,19423.853,310.84896153610174
844,1685917673.76,-24.414,195.801,-16.113,-15.625,19423.857,308.44680511310315
845,1685917673.76,11.23,-120.117,-100.098,-9.277,19423.861,312.84810165736195
846,1685917673.76,-21.484,-197.266,-116.211,-20.02,19423.865,315.05690742991607
847,1685917673.77,-64.453,9.277,-45.41,-29.785,19423.869,306.69127079519023
848,1685917673.77,-32.715,108.398,-54.199,-21.484,19423.873,310.90005283314645
849,1685917673.78,13.184,-560.059,-293.945,-13.184,19423.877,310.7500447339344
850,1685917673.78,-8.789,-284.18,-42.48,-32.715,19423.88,301.18301646960873
851,1685917673.78,-57.617,333.984,97.168,-46.387,19423.884,307.8283579755947
852,1685917673.8,-50.293,4.395,-132.324,-34.18,19423.901,309.91062407099366
853,1685917673.81,5.859,36.133,-98.145,-25.391,19423.905,308.2220567517988
854,1685917673.81,-0.488,359.863,87.402,-40.039,19423.909,311.418866491875
855,1685917673.81,-56.152,294.434,39.551,-52.734,19423.913,308.27778176628425
856,1685917673.82,-68.359,-59.082,-123.535,-51.758,19423.917,309.7211918047562
857,1685917673.82,-14.648,-283.203,-235.352,-38.574,19423.921,311.6689478628666
858,1685917673.82,14.16,6.836,-49.805,-30.273,19423.925,310.80244150558934
859,1685917673.83,-36.621,8.789,-67.871,-43.457,19423.929,305.57859847742674
860,1685917673.83,-72.754,-542.969,-371.094,-43.945,19423.932,310.4353969725094
861,1685917673.84,-32.227,-1000.0,-570.312,-24.902,19423.936,312.41676067876824
862,1685917673.84,5.859,-512.695,-213.379,-27.832,19423.94,309.251154868911
863,1685917673.84,-29.785,302.734,97.656,-43.945,19423.944,305.05202908894927
864,1685917673.85,-74.219,48.828,-114.746,-38.574,19423.946,308.235819044718
865,1685917673.85,-42.48,127.441,-28.809,-20.996,19423.95,311.1978799599625
866,1685917673.85,2.441,489.746,146.973,-21.973,19423.954,306.1741142518849
867,1685917673.86,-24.902,391.113,47.363,-41.016,19423.958,312.7589989453734
868,1685917673.86,-73.73,11.23,-87.402,-50.781,19423.962,307.8061752330621
869,1685917673.87,-67.871,-223.145,-198.242,-40.039,19423.966,306.9482648145493
870,1685917673.87,-9.766,48.828,-36.133,-20.996,19423.97,310.0093701180391
871,1685917673.87,-1.465,194.336,18.066,-22.949,19423.974,306.73419917620646
872,1685917673.88,-62.988,-132.812,-158.203,-44.922,19423.978,307.84289436113426
873,1685917673.88,-46.875,-773.438,-454.102,-30.762,19423.976,303.2781691477999
874,1685917673.88,-78.125,72.754,-23.926,-48.34,19423.982,309.8293797880652
875,1685917673.88,-78.613,-392.09,-153.809,-38.574,19423.98,312.6849550709431
876,1685917673.88,-22.949,247.559,43.457,-23.438,19423.986,308.1685023339216
877,1685917673.88,-27.832,305.664,81.055,-25.391,19423.984,303.35949693158494
878,1685917673.89,3.418,107.91,-18.555,-16.113,19423.988,308.3957925333773
879,1685917673.89,6.836,-68.359,-144.043,-17.09,19423.989,310.12818422543063
880,1685917673.89,-29.785,85.938,-30.273,-29.785,19423.992,312.657656110069
881,1685917673.9,-77.637,-10.254,-148.438,-30.273,19423.996,307.4962426292625
882,1685917673.9,-62.012,-174.805,-240.723,-22.461,19424.0,308.33009775160536
883,1685917673.9,-3.906,-328.125,-219.238,-16.113,19424.003,308.8487837656238
884,1685917673.91,-9.766,-127.441,-24.902,-21.484,19424.007,313.96198492326096
885,1685917673.91,-67.383,246.582,60.547,-41.016,19424.011,312.37715609272345
886,1685917673.92,-64.941,291.992,59.57,-41.992,19424.015,314.03978380279534
887,1685917673.92,-2.441,-338.867,-215.332,-18.066,19424.019,307.22112733907534
888,1685917673.92,7.812,-853.516,-395.996,-13.672,19424.023,308.1591949502506
889,1685917673.93,-50.293,-239.746,-120.605,-41.016,19424.027,309.6579870852387
890,1685917673.93,-73.73,15.625,-91.797,-41.992,19424.031,301.255147290997
891,1685917673.93,-15.625,-116.211,-116.211,-30.273,19424.035,302.83272542261614
892,1685917673.94,18.066,133.301,-1.953,-35.156,19424.039,311.7660960756362
893,1685917673.94,-30.762,88.867,-99.609,-42.48,19424.043,308.1760162947013
894,1685917673.94,-71.289,-179.688,-263.672,-38.574,19424.047,310.49680965360176
895,1685917673.95,-37.598,-629.395,-356.934,-20.02,19424.051,305.43088834780866
896,1685917673.95,10.742,-319.824,-96.68,-25.391,19424.055,305.7910032477217
897,1685917673.96,-19.531,482.91,152.344,-51.758,19424.059,313.43107232631104
898,1685917673.96,-77.637,79.59,-152.344,-59.57,19424.063,308.2434781551393
899,1685917673.96,-56.152,-72.754,-187.5,-40.039,19424.066,310.9622649452824
900,1685917673.97,3.906,396.973,117.676,-23.926,19424.066,307.6043408939049
901,1685917673.97,2.441,511.23,124.023,-31.25,19424.07,313.24567030285857
902,1685917673.97,-63.477,77.148,-92.285,-44.922,19424.074,316.4225231794358
903,1685917673.98,-84.473,-199.707,-161.133,-53.711,19424.078,314.0002358735074
904,1685917673.98,-18.555,44.434,-9.766,-47.852,19424.082,316.3358431010666
905,1685917673.99,3.418,148.438,53.223,-47.852,19424.086,309.50856696954145
906,1685917673.99,-55.664,-369.141,-241.211,-62.012,19424.09,312.372441424424
907,1685917673.99,-85.938,-1000.0,-596.191,-57.129,19424.094,306.74392556857
908,1685917674.0,-30.273,-370.117,-168.457,-41.016,19424.097,313.87844728009856
909,1685917674.0,15.137,410.156,129.395,-36.621,19424.101,308.25125223954365
910,1685917674.0,-28.32,62.988,-86.914,-45.898,19424.105,305.85013229330775
911,1685917674.01,-66.406,29.297,-42.48,-49.805,19424.109,308.2117500763799
912,1685917674.01,-30.762,320.801,76.66,-41.504,19424.125,310.7349116333281
913,1685917674.02,19.043,309.57,29.297,-27.832,19424.129,311.6670882569033
914,1685917674.02,-0.488,140.625,-17.09,-35.156,19424.133,311.3083045810794
915,1685917674.02,-61.523,135.742,-24.902,-50.781,19424.136,313.94884338510354
916,1685917674.03,-52.246,236.328,54.688,-40.039,19424.14,308.24439091052625
917,1685917674.03,6.836,84.961,9.766,-24.902,19424.144,311.3703692834602
918,1685917674.03,1.953,-554.199,-258.789,-25.391,19424.148,310.95213366675557
919,1685917674.04,-57.617,-434.082,-137.207,-42.48,19424.152,310.25148021546505
920,1685917674.04,-66.406,262.207,118.652,-42.48,19424.156,307.7192754765624
921,1685917674.05,-2.93,142.578,-12.695,-22.461,19424.16,313.06776962407184
922,1685917674.05,26.855,-201.66,-142.578,-19.043,19424.164,308.93659101847805
923,1685917674.05,-21.484,136.23,54.199,-35.156,19424.168,308.7313228403403
924,1685917674.06,-60.059,320.801,51.27,-43.457,19424.17,313.21717952953026
925,1685917674.06,-22.949,32.715,-94.238,-23.438,19424.174,310.6737693555524
926,1685917674.06,13.672,77.637,-10.742,-14.648,19424.178,315.3938070934161
927,1685917674.07,-18.555,284.18,82.52,-20.508,19424.182,309.5733170782507
928,1685917674.07,-63.965,221.68,4.883,-28.809,19424.185,312.80443114569437
929,1685917674.08,-43.945,-451.66,-313.477,-19.043,19424.189,316.41437500573517
930,1685917674.08,9.277,-596.68,-260.742,-8.789,19424.193,304.5022707165549
931,1685917674.08,-5.859,-63.477,-34.18,-25.879,19424.197,313.7919068825233
932,1685917674.09,-60.059,-24.902,-182.617,-39.551,19424.201,308.66267033573115
933,1685917674.09,-56.152,-519.043,-390.137,-26.855,19424.205,305.770554780355
934,1685917674.1,1.953,-766.602,-375.977,-13.672,19424.209,312.98903053872806
935,1685917674.1,10.254,201.66,77.637,-22.461,19424.213,307.0517552614197
936,1685917674.12,-53.223,213.867,-24.414,-35.156,19424.216,306.09210737064143
937,1685917674.12,-68.359,-170.898,-209.961,-30.273,19424.22,307.768538998164
938,1685917674.12,-10.254,161.621,0.488,-12.695,19424.223,311.4709375330045
939,1685917674.13,9.766,458.984,110.352,-12.207,19424.227,315.16095846985854
940,1685917674.13,-35.645,292.969,-13.184,-31.738,19424.231,310.58464527167513
941,1685917674.14,-73.242,-337.891,-263.672,-32.715,19424.235,313.52539950132217
942,1685917674.14,-24.902,-298.34,-140.137,-9.766,19424.239,311.4106356864402
943,1685917674.14,25.879,359.375,139.648,-11.719,19424.243,312.0799740970389
944,1685917674.15,-14.648,175.293,-67.871,-29.785,19424.247,312.7768374884774
945,1685917674.15,-72.754,-496.582,-326.66,-38.574,19424.251,313.5603990205079
946,1685917674.16,-53.711,-151.367,-70.801,-35.645,19424.255,310.03130083952595
947,1685917674.16,8.789,222.656,61.523,-20.996,19424.259,312.3209088811695
948,1685917674.16,-9.277,-234.863,-259.766,-22.949,19424.261,308.75884862442746
949,1685917674.16,-71.289,-437.5,-336.426,-43.945,19424.265,311.39034420947274
950,1685917674.17,-65.918,53.223,3.906,-41.992,19424.269,307.9913889028168
951,1685917674.17,-6.836,284.668,51.758,-19.531,19424.273,307.3679711519131
952,1685917674.18,6.348,12.207,-93.75,-14.648,19424.276,307.4030711345793
953,1685917674.18,-53.711,-335.938,-267.578,-33.691,19424.28,306.73152100072815
954,1685917674.18,-75.684,-182.129,-163.086,-44.922,19424.284,312.8698056450545
955,1685917674.19,-21.484,66.895,-35.156,-30.273,19424.288,313.08441658494496
956,1685917674.19,-3.906,-462.402,-346.68,-23.926,19424.292,306.97203191136305
957,1685917674.2,-53.711,-975.098,-477.051,-39.551,19424.296,312.8158907332435
958,1685917674.2,-83.496,-246.582,-70.312,-55.176,19424.3,311.3396018025343
959,1685917674.2,-40.527,225.098,13.184,-49.805,19424.304,312.5212129738124
960,1685917674.21,9.766,96.191,-49.805,-41.016,19424.31,314.35435131241763
961,1685917674.21,-22.949,152.832,-25.879,-57.617,19424.314,314.9997022334726
962,1685917674.22,-80.078,23.438,-120.117,-59.082,19424.317,311.9710523873119
963,1685917674.22,-69.824,-17.09,-79.59,-41.992,19424.321,316.1724398756925
964,1685917674.22,-15.137,-107.91,-115.723,-32.715,19424.325,315.7879911861501
965,1685917674.23,-18.066,-232.422,-229.492,-35.156,19424.329,310.2957430957358
966,1685917674.23,-82.031,-80.566,-174.805,-53.711,19424.333,311.8814026747842
967,1685917674.23,-88.867,21.484,-120.605,-48.34,19424.337,308.4462482148696
968,1685917674.24,-29.785,-454.59,-240.234,-21.973,19424.341,310.99935453009067
969,1685917674.24,-8.789,-109.375,0.0,-23.438,19424.345,313.60322222419717
970,1685917674.25,-59.082,431.152,83.984,-48.34,19424.349,313.0849771456428
971,1685917674.25,-93.262,-32.715,-214.844,-55.664,19424.353,311.35419916581975
972,1685917674.25,-44.434,-44.922,-145.02,-36.621,19424.351,307.51873291289445
973,1685917674.26,-0.977,404.297,135.742,-30.762,19424.355,311.51521876772273
974,1685917674.26,-40.527,385.254,72.266,-49.805,19424.359,303.3311598875004
975,1685917674.26,-92.285,-23.438,-107.91,-58.105,19424.363,310.37076531353455
976,1685917674.27,-59.57,-206.543,-188.477,-38.086,19424.367,310.6213376448319
977,1685917674.27,-3.906,-25.391,-55.176,-30.762,19424.371,305.2027402727866
978,1685917674.28,-29.297,15.137,-29.785,-47.363,19424.375,316.04887078873253
979,1685917674.28,-87.891,-484.375,-372.559,-56.641,19424.378,310.18404110548033
980,1685917674.28,-85.449,-1000.0,-488.281,-49.316,19424.382,312.99581766272416
981,1685917674.29,-16.602,-169.434,27.344,-45.898,19424.386,316.3383403664099
982,1685917674.29,-4.395,523.438,130.859,-51.758,19424.39,311.86118253852527
983,1685917674.3,-79.102,-250.488,-253.906,-67.383,19424.394,309.57692054441856
984,1685917674.3,-86.914,-365.234,-144.531,-58.105,19424.396,318.21481678058626
985,1685917674.3,-6.348,378.418,129.883,-30.273,19424.4,314.1855950714793
986,1685917674.3,10.254,307.129,-12.207,-35.645,19424.404,311.5573941026611
987,1685917674.31,-55.664,72.266,-49.805,-60.547,19424.408,315.8512515520248
988,1685917674.31,-78.613,104.004,5.371,-55.176,19424.412,318.26995970655344
989,1685917674.32,-35.156,-10.742,-135.742,-41.504,19424.415,317.74464362419684
990,1685917674.32,-1.953,-49.316,-170.898,-41.016,19424.419,312.19597194950404
991,1685917674.32,-34.18,-657.227,-416.016,-44.434,19424.423,312.70892471690934
992,1685917674.33,-80.078,-640.137,-320.801,-63.477,19424.427,313.4974686744582
993,1685917674.33,-47.852,343.75,151.855,-55.664,19424.431,315.0965865080625
994,1685917674.34,9.277,288.574,10.742,-36.621,19424.435,310.434051962354
995,1685917674.34,-14.16,65.43,-98.633,-47.852,19424.439,309.85710473555025
996,1685917674.36,-69.336,221.191,26.855,-56.152,19424.456,317.9281651487814
997,1685917674.36,-56.641,296.387,37.109,-45.41,19424.46,319.4259841197708
998,1685917674.36,-4.395,98.145,-47.363,-28.32,19424.464,312.0114536579641
999,1685917674.37,-5.859,90.82,-30.762,-27.344,19424.468,312.3022785838421
1000,1685917674.37,-61.035,160.156,-31.25,-47.363,19424.472,315.4637328201524
1001,1685917674.38,-76.172,-83.496,-196.289,-54.688,19424.475,314.90575279126625
1002,1685917674.38,-14.16,-506.348,-340.82,-31.738,19424.479,315.70665063178024
1003,1685917674.38,7.812,-730.957,-387.695,-32.227,19424.483,317.5835811247557
1004,1685917674.39,-35.156,266.602,107.91,-48.828,19424.501,315.71217853430045
1005,1685917674.39,-50.293,-145.02,-107.422,-59.082,19424.487,311.43598358528544
1006,1685917674.39,-82.031,224.121,-21.484,-60.547,19424.505,310.24661916513196
1007,1685917674.39,-80.566,210.938,7.324,-65.918,19424.491,313.9342825979322
1008,1685917674.4,-53.223,-79.59,-154.785,-48.34,19424.509,314.1723711906649
1009,1685917674.4,-45.898,-474.121,-355.469,-43.945,19424.495,316.715591519519
1010,1685917674.4,1.953,222.656,45.41,-44.922,19424.513,313.4993999150894
1011,1685917674.4,-3.418,-651.855,-319.336,-27.344,19424.499,312.92127483662887
1012,1685917674.4,-8.789,404.297,61.035,-53.711,19424.517,312.6363598767772
1013,1685917674.41,-67.383,-116.211,-257.324,-58.594,19424.52,308.0501039197157
1014,1685917674.41,-69.336,-429.688,-282.227,-47.363,19424.524,311.10551851670743
1015,1685917674.41,-12.695,36.133,-25.879,-38.086,19424.528,311.1323917990477
1016,1685917674.42,-12.207,427.734,106.445,-47.852,19424.532,310.2471967805334
1017,1685917674.42,-74.707,112.793,-136.719,-62.988,19424.536,313.4697721571742
1018,1685917674.43,-89.355,-619.629,-393.555,-57.617,19424.54,312.09419138642454
1019,1685917674.43,-31.25,-215.82,-60.547,-44.922,19424.544,314.9225215623478
1020,1685917674.46,-1.953,251.465,41.016,-46.875,19424.561,316.1201566638155
1021,1685917674.47,-47.363,-290.039,-312.5,-55.176,19424.565,315.8832415965023
1022,1685917674.47,-78.613,-437.988,-327.148,-61.035,19424.569,313.3678204025244
1023,1685917674.47,-33.203,154.785,29.297,-56.641,19424.573,312.51755187797977
1024,1685917674.48,14.648,346.191,50.293,-42.48,19424.576,317.29320593878674
1025,1685917674.48,-19.043,-82.031,-125.977,-40.039,19424.58,309.44678236478364
1026,1685917674.48,-80.566,-355.469,-236.816,-51.758,19424.584,312.87355177707036
1027,1685917674.49,-69.336,-239.258,-249.512,-52.734,19424.588,309.01319432703025
1028,1685917674.49,-10.742,324.707,65.43,-25.879,19424.592,310.2661407586621
1029,1685917674.49,-13.184,141.602,-67.871,-37.109,19424.592,315.34082476258914
1030,1685917674.5,-4.395,176.27,10.742,-38.086,19424.596,312.41180139988086
1031,1685917674.5,-22.461,-263.672,-223.633,-37.598,19424.596,313.22316502968323
1032,1685917674.5,-63.477,148.438,-23.438,-50.781,19424.6,315.56858953486
1033,1685917674.5,-89.355,-852.539,-451.172,-58.594,19424.6,311.618020544916
1034,1685917674.5,-82.52,-4.395,-147.461,-48.828,19424.604,315.83025620844114
1035,1685917674.5,-83.008,-33.691,-25.879,-51.758,19424.604,312.5803486968455
1036,1685917674.51,-28.32,100.586,-36.133,-41.016,19424.608,311.48680150642963
1037,1685917674.51,3.906,-460.938,-240.723,-41.016,19424.611,313.63320431648646
1038,1685917674.51,-43.457,-518.066,-214.355,-58.594,19424.615,311.4682807317666
1039,1685917674.52,-81.055,252.93,81.543,-71.777,19424.619,319.0928820643182
1040,1685917674.52,-51.27,48.34,-95.215,-60.059,19424.623,322.74941643261
1041,1685917674.53,-12.695,-141.113,-124.512,-53.223,19424.627,313.60590003597076
1042,1685917674.53,-35.645,187.5,29.297,-64.453,19424.631,318.8699312848765
1043,1685917674.53,-81.543,311.523,27.832,-64.941,19424.635,312.69944001800496
1044,1685917674.54,-65.918,-145.508,-221.191,-43.945,19424.636,321.1374251832747
1045,1685917674.54,-6.836,-600.098,-350.586,-32.715,19424.64,311.1294529747105
1046,1685917674.54,-9.277,8.789,9.277,-51.27,19424.644,315.1272172193169
1047,1685917674.55,-64.453,348.633,25.391,-59.57,19424.648,317.6899940679128
1048,1685917674.55,-76.172,-104.492,-187.988,-60.059,19424.652,314.84685767159135
1049,1685917674.56,-24.902,-297.363,-208.496,-46.875,19424.656,312.3802741936336
1050,1685917674.56,-4.395,-100.586,-153.32,-33.691,19424.66,318.0617867654921
1051,1685917674.56,-52.734,-87.402,-205.566,-44.434,19424.663,308.1778813170393
1052,1685917674.57,-84.473,-491.211,-343.262,-43.457,19424.667,309.8177551942894
1053,1685917674.57,-44.434,-1000.0,-569.824,-28.809,19424.671,307.59586750267545
1054,1685917674.58,-2.441,-425.781,-191.895,-36.621,19424.675,317.71482222993313
1055,1685917674.58,-38.574,333.984,65.43,-50.781,19424.679,307.4037809678303
1056,1685917674.58,-90.82,52.246,-176.758,-44.434,19424.681,312.3415632506063
1057,1685917674.59,-64.941,158.691,-27.832,-25.391,19424.685,317.1766249625276
1058,1685917674.59,-9.766,449.707,101.562,-21.484,19424.689,314.95160664409144
1059,1685917674.59,-26.367,331.543,13.184,-43.457,19424.692,314.42089488805516
1060,1685917674.6,-84.473,11.719,-84.473,-57.617,19424.696,318.12002869747715
1061,1685917674.6,-79.59,-173.828,-193.848,-49.316,19424.7,313.07565850056494
1062,1685917674.6,-16.602,66.406,-62.5,-37.598,19424.704,317.70861987239823
1063,1685917674.61,-3.418,274.902,33.203,-32.715,19424.708,321.36935202399746
1064,1685917674.61,-64.941,-635.254,-436.035,-44.922,19424.712,316.1156377974892
1065,1685917674.62,-75.684,-628.418,-296.875,-46.387,19424.716,311.5815301096215
1066,1685917674.62,-10.254,355.957,158.203,-26.855,19424.72,317.64832967100756
1067,1685917674.62,3.906,214.844,-26.367,-30.762,19424.724,321.3254096538175
1068,1685917674.63,-56.641,-33.203,-183.105,-47.363,19424.726,313.5257065917861
1069,1685917674.63,-87.402,158.691,-45.41,-57.129,19424.73,313.621023369106
1070,1685917674.64,-39.551,307.617,57.617,-47.852,19424.734,317.354086565321
1071,1685917674.64,0.488,187.5,8.789,-39.062,19424.738,315.37256147156774
1072,1685917674.64,-29.785,85.938,-43.457,-48.828,19424.742,312.32723344371203
1073,1685917674.65,-79.59,-38.574,-144.043,-51.758,19424.746,314.1087056146302
1074,1685917674.65,-60.547,-57.129,-169.922,-35.645,19424.75,315.2741693949168
1075,1685917674.65,-4.883,-372.559,-323.242,-21.484,19424.754,314.2884094244181
1076,1685917674.66,-29.785,-907.715,-415.039,-36.133,19424.757,315.7029644857833
1077,1685917674.66,-86.426,-214.355,-38.574,-57.617,19424.761,318.86612831960593
1078,1685917674.67,-77.637,164.062,-10.742,-55.176,19424.765,311.9121352642681
1079,1685917674.67,-12.207,-218.75,-130.859,-46.875,19424.769,314.119500435048
1080,1685917674.67,-1.465,23.926,38.086,-50.781,19424.771,311.43509181321303
1081,1685917674.68,-57.617,399.414,86.914,-58.594,19424.775,317.9206298829973
1082,1685917674.68,-78.125,155.762,-85.938,-57.617,19424.779,313.5791284826566
1083,1685917674.68,-31.738,21.484,-13.184,-45.898,19424.783,316.2820694346307
1084,1685917674.69,4.883,272.461,77.637,-36.621,19424.787,318.19979475350215
1085,1685917674.69,-29.785,96.191,-124.512,-46.875,19424.791,316.0190853811111
1086,1685917674.69,-75.195,-201.66,-255.371,-46.875,19424.794,316.6254577510168
1087,1685917674.7,-40.527,-589.844,-292.969,-28.32,19424.798,316.6915886107068
1088,1685917674.7,6.836,-199.219,-41.992,-35.645,19424.802,315.6999811911857
1089,1685917674.71,-21.484,503.418,154.297,-59.082,19424.806,317.2465776150548
1090,1685917674.71,-73.242,107.91,-93.262,-65.43,19424.81,313.47768030625565
1091,1685917674.71,-58.105,-66.406,-149.414,-55.176,19424.814,312.70225776289095
1092,1685917674.72,-2.93,348.633,84.961,-50.781,19424.822,312.486180385483
1093,1685917674.73,-7.324,286.133,11.23,-56.152,19424.826,309.76692079185943
1094,1685917674.73,-66.406,-335.449,-330.566,-63.965,19424.83,313.20722208402407
1095,1685917674.73,-74.707,-399.414,-283.203,-50.293,19424.834,315.6363644801112
1096,1685917674.74,-15.625,243.652,80.078,-26.367,19424.838,315.5425638364182
1097,1685917674.74,-10.254,187.012,-26.367,-37.598,19424.842,314.2936036148924
1098,1685917674.74,-73.242,-509.277,-364.258,-59.57,19424.845,311.1255680325603
1099,1685917674.75,-97.656,-822.266,-467.773,-46.875,19424.849,315.44159083219375
1100,1685917674.75,-34.18,-119.141,-74.707,-28.32,19424.853,319.9803041163975
1101,1685917674.76,11.23,454.102,112.793,-32.227,19424.857,314.32157364252106
1102,1685917674.76,-37.598,271.973,76.66,-42.969,19424.88,318.18894449435857
1103,1685917674.76,-40.527,-233.887,-216.797,-45.898,19424.861,312.3595202749027
1104,1685917674.76,10.742,333.984,31.25,-28.32,19424.884,313.6980531853247
1105,1685917674.76,-84.473,-499.512,-233.887,-55.664,19424.865,316.9622534184784
1106,1685917674.77,-21.973,102.051,-53.711,-39.062,19424.887,319.0608606144607
1107,1685917674.77,-77.148,32.227,-56.641,-46.875,19424.891,316.165862011514
1108,1685917674.78,-62.5,-65.43,-187.5,-35.645,19424.895,319.4773301466696
1109,1685917674.78,-1.465,-58.105,-170.898,-21.973,19424.899,316.11568747434137
1110,1685917674.78,-1.953,-632.324,-368.164,-25.391,19424.903,318.73009477031803
1111,1685917674.79,-63.477,-709.473,-329.102,-42.48,19424.907,314.31934734057256
1112,1685917674.79,-68.848,146.973,58.594,-41.504,19424.911,310.6458743521255
1113,1685917674.8,-2.93,163.574,-35.156,-22.461,19424.915,318.6791854841636
1114,1685917674.8,15.625,94.727,-65.918,-20.02,19424.919,312.9185999749561
1115,1685917674.8,-41.016,311.035,60.059,-40.527,19424.923,315.5468902257839
1116,1685917674.81,-65.43,262.207,19.043,-45.41,19424.921,316.5177171799285
1117,1685917674.81,-15.137,-16.113,-138.672,-30.273,19424.924,315.7643115823601
1118,1685917674.81,12.207,45.898,-58.105,-34.18,19424.928,310.8932042100832
1119,1685917674.82,-22.949,303.223,63.477,-48.828,19424.932,313.0268400502827
1120,1685917674.82,-67.383,276.367,26.367,-57.129,19424.936,307.1909079237611
1121,1685917674.83,-51.27,-411.133,-282.715,-45.898,19424.94,318.85377257580353
1122,1685917674.83,5.859,-732.422,-367.676,-29.297,19424.944,318.3776695983268
1123,1685917674.83,-5.371,-174.316,-117.676,-39.551,19424.948,309.6299347200894
1124,1685917674.84,-62.5,-77.148,-209.473,-52.734,19424.952,316.28900235344804
1125,1685917674.84,-61.523,-562.5,-397.461,-40.527,19424.956,320.10345860156735
1126,1685917674.84,-8.789,-800.781,-381.836,-28.809,19424.96,314.3201337928661
1127,1685917674.85,-7.812,104.004,21.973,-42.48,19424.963,321.64410369366306
1128,1685917674.87,-72.754,340.82,9.277,-48.34,19424.966,317.90301860966844
1129,1685917674.87,-94.238,9.277,-171.387,-47.852,19424.97,319.68802456726564
1130,1685917674.87,-29.785,224.609,24.414,-38.086,19424.974,313.3235588978921
1131,1685917674.88,1.465,478.516,132.812,-33.203,19424.978,311.6935729405388
1132,1685917674.88,-48.828,289.551,-19.043,-41.992,19424.982,313.71415743115847
1133,1685917674.89,-76.66,-287.598,-273.438,-44.922,19424.986,316.67289067543896
1134,1685917674.89,-30.762,-244.629,-137.207,-28.809,19424.99,315.2908227553707
1135,1685917674.89,8.789,363.281,131.348,-24.414,19424.994,315.7673435598879
1136,1685917674.9,-32.227,202.148,-90.82,-43.457,19424.997,316.535623644376
1137,1685917674.9,-91.797,-669.434,-402.832,-50.781,19425.001,318.96921951655816
1138,1685917674.9,-63.965,-377.441,-124.023,-49.316,19425.005,315.6298701789596
1139,1685917674.91,1.953,395.996,150.391,-41.992,19425.009,318.2346444913578
1140,1685917674.91,-16.113,172.363,-35.156,-50.293,19425.011,312.28244780045225
1141,1685917674.92,-81.055,-66.895,-215.332,-64.453,19425.015,319.00389444543555
1142,1685917674.92,-65.918,177.246,-14.16,-47.852,19425.019,323.1393172740166
1143,1685917674.92,-0.488,385.254,121.582,-32.227,19425.023,315.771636189221
1144,1685917674.93,-3.906,147.461,-49.316,-41.504,19425.026,316.34389113502004
1145,1685917674.93,-58.105,-294.434,-275.879,-54.688,19425.03,324.53373698059005
1146,1685917674.94,-71.289,-206.055,-178.223,-44.922,19425.034,315.3833557581138
1147,1685917674.94,-20.996,39.062,-46.875,-38.574,19425.038,316.18733281022435
1148,1685917674.94,-3.906,-418.945,-324.219,-43.945,19425.042,315.22436205461304
1149,1685917674.95,-61.035,-943.848,-454.102,-53.223,19425.046,315.10234367778776
1150,1685917674.95,-89.844,-234.863,-60.059,-57.617,19425.05,315.74432641514346
1151,1685917674.96,-50.781,175.781,0.488,-44.434,19425.054,320.84385747157864
1152,1685917674.96,-5.859,-221.191,-159.18,-27.344,19425.056,314.0507899782985
1153,1685917674.96,-22.461,-41.016,-21.973,-32.715,19425.06,310.3232582245435
1154,1685917674.96,-71.289,326.66,57.129,-51.758,19425.064,312.30902633531144
1155,1685917674.97,-57.129,159.18,-55.176,-52.734,19425.068,309.82289802623444
1156,1685917674.97,4.395,78.125,-8.301,-32.227,19425.072,314.1416806264534
1157,1685917674.98,-2.93,32.715,-42.48,-36.133,19425.075,310.8843193400754
1158,1685917674.98,-65.918,1.465,-151.855,-51.27,19425.079,309.27555412295163
1159,1685917674.98,-65.918,95.703,-105.957,-38.574,19425.083,314.149440268204
1160,1685917674.99,-14.648,-478.027,-243.652,-20.996,19425.087,313.258482760817
1161,1685917674.99,5.859,-206.543,-47.852,-25.391,19425.091,312.75417568706996
1162,1685917675.0,-41.016,408.691,117.188,-41.992,19425.095,317.3200629854879
1163,1685917675.0,-72.754,10.742,-179.199,-34.668,19425.099,314.129801270965
1164,1685917675.0,-26.367,-77.148,-177.246,-20.508,19425.104,317.1447185327282
1165,1685917675.01,2.93,298.828,117.188,-28.32,19425.108,318.41491975575445
1166,1685917675.01,-34.18,175.781,-35.645,-44.434,19425.112,313.6649233245782
1167,1685917675.01,-79.102,-416.016,-361.816,-50.293,19425.116,314.4778541375622
1168,1685917675.02,-50.781,-441.895,-255.859,-37.109,19425.12,320.4572789459952
1169,1685917675.02,-1.953,-77.637,-83.984,-27.832,19425.124,310.51635703201543
1170,1685917675.02,-32.715,-66.406,-178.711,-48.828,19425.128,312.0504536484277
1171,1685917675.03,-84.961,-504.395,-406.25,-55.176,19425.132,317.3590557166551
1172,1685917675.03,-74.219,-958.008,-493.164,-35.156,19425.136,318.86732476226655
1173,1685917675.04,-0.977,-51.758,21.484,-21.484,19425.14,309.4905428389239
1174,1685917675.04,3.906,489.258,80.566,-30.273,19425.143,313.7379337973307
1175,1685917675.04,-61.523,98.633,-130.371,-50.781,19425.147,314.86999078331144
1176,1685917675.05,-60.547,121.582,-51.758,-44.922,19425.146,313.1639585853915
1177,1685917675.05,4.395,412.598,93.262,-20.996,19425.15,315.1349616915074
1178,1685917675.06,15.625,355.957,14.648,-20.02,19425.154,313.4619328115544
1179,1685917675.06,-45.898,46.875,-139.648,-35.645,19425.158,308.85613080174676
1180,1685917675.06,-73.73,-60.059,-207.031,-32.715,19425.162,316.84174619131494
1181,1685917675.07,-22.461,-111.816,-230.469,-24.414,19425.166,314.3821945001389
1182,1685917675.07,20.508,-94.727,-170.898,-30.762,19425.169,315.97371692964373
1183,1685917675.07,-27.832,-676.758,-433.105,-40.527,19425.173,317.5468806452397
1184,1685917675.08,-77.637,-714.844,-413.086,-47.852,19425.177,311.15869803576186
1185,1685917675.08,-38.086,204.102,29.785,-39.062,19425.181,310.4549493091733
1186,1685917675.09,18.066,248.047,7.324,-36.621,19425.185,315.7259229615923
1187,1685917675.09,-3.418,119.141,-76.66,-44.434,19425.189,314.31733394750097
1188,1685917675.09,-70.312,315.918,52.734,-47.363,19425.191,310.3265598495341
1189,1685917675.1,-62.012,334.961,36.133,-44.922,19425.195,320.41361215481845
1190,1685917675.1,8.301,109.375,-62.5,-33.691,19425.199,313.9871370353871
1191,1685917675.1,6.348,143.066,13.672,-34.668,19425.203,310.18901160448723
1192,1685917675.11,-56.152,244.141,14.16,-42.48,19425.206,309.2783242135718
1193,1685917675.11,-71.777,-46.387,-190.43,-41.016,19425.21,315.05509874212646
1194,1685917675.12,-23.438,-572.754,-379.395,-25.391,19425.214,306.9848646354833
1195,1685917675.12,-5.371,-739.746,-404.785,-28.32,19425.218,310.5488494109306
1196,1685917675.12,-54.199,-273.438,-224.609,-43.945,19425.222,312.3622857573279
1197,1685917675.13,-84.473,-74.219,-199.219,-46.387,19425.226,312.50675268654095
1198,1685917675.13,-41.992,-518.066,-378.906,-36.133,19425.23,314.31009191827496
1199,1685917675.14,-0.488,-661.133,-298.828,-25.391,19425.234,308.68317301586757
1200,1685917675.14,-26.855,224.609,87.402,-38.086,19425.249,311.70445832522853
1201,1685917675.14,-68.359,238.281,-30.273,-49.805,19425.253,312.70808887901376
1202,1685917675.14,-53.711,-44.922,-149.414,-36.621,19425.257,321.35071173616655
1203,1685917675.15,1.465,242.676,22.949,-23.926,19425.261,320.4561981278753
1204,1685917675.15,-9.277,397.949,77.637,-40.039,19425.265,311.4365965108631
1205,1685917675.16,-78.125,23.438,-168.945,-57.617,19425.269,315.03861641402693
1206,1685917675.16,-77.148,-595.215,-348.145,-49.805,19425.273,317.3333146371042
1207,1685917675.16,-3.906,-204.59,-45.41,-25.879,19425.277,312.6034425746161
1208,1685917675.17,11.719,484.375,133.789,-18.066,19425.28,316.84535409397427
1209,1685917675.17,-51.758,105.469,-146.484,-38.574,19425.284,319.6954671042269
1210,1685917675.18,-76.66,-273.926,-315.918,-41.992,19425.288,312.8515376429476
1211,1685917675.18,-22.949,95.215,-25.879,-28.809,19425.292,317.04827046481523
1212,1685917675.18,9.766,502.441,148.438,-24.414,19425.295,313.36657792801805
1213,1685917675.19,-37.598,13.184,-206.543,-37.109,19425.299,313.6158468618968
1214,1685917675.19,-72.754,-464.844,-393.066,-42.48,19425.303,312.743185073937
1215,1685917675.19,-26.855,110.84,-3.906,-29.785,19425.307,318.91128940658376
1216,1685917675.2,10.742,443.359,94.727,-28.809,19425.311,312.6534973229234
1217,1685917675.2,-32.715,-285.156,-267.09,-41.504,19425.315,319.15379022843
1218,1685917675.2,-77.148,-689.453,-397.461,-46.875,19425.319,316.8983607207699
1219,1685917675.21,-45.898,-177.734,-169.434,-34.18,19425.323,317.5629982970052
1220,1685917675.21,12.207,55.176,-149.902,-25.879,19425.327,314.3088684798271
1221,1685917675.22,6.348,-401.855,-354.004,-32.715,19425.331,310.47153170490907
1222,1685917675.22,-48.34,-691.406,-385.742,-37.598,19425.334,317.4082213452227
1223,1685917675.22,-47.363,100.586,-24.414,-27.344,19425.338,313.73267199175854
1224,1685917675.24,2.441,191.895,-12.207,-8.789,19425.341,318.10759143467044
1225,1685917675.25,13.184,-195.801,-171.875,-14.648,19425.345,311.55160589345724
1226,1685917675.25,-38.574,-68.359,-89.844,-32.715,19425.349,312.9947067759726
1227,1685917675.25,-59.082,260.742,21.973,-24.902,19425.353,309.4159327849861
1228,1685917675.26,-7.812,185.059,-11.719,-10.742,19425.357,310.74279544365754
1229,1685917675.26,13.672,-170.41,-170.41,-7.812,19425.361,313.4819567928885
1230,1685917675.26,-31.25,-149.902,-213.379,-25.391,19425.365,315.09365532337534
1231,1685917675.27,-70.801,207.52,-15.625,-43.945,19425.368,315.29298162177645
1232,1685917675.27,-27.344,113.77,-76.172,-29.785,19425.372,315.7311100871145
1233,1685917675.28,20.508,-364.258,-278.809,-18.555,19425.376,314.8948575386938
1234,1685917675.28,-15.625,-36.621,-38.086,-29.785,19425.38,311.7757714931534
1235,1685917675.28,-63.477,333.984,81.055,-41.016,19425.384,312.37516671929944
1236,1685917675.29,-46.387,-26.367,-157.715,-28.809,19425.386,313.80261082841145
1237,1685917675.29,9.277,17.578,-128.418,-12.695,19425.39,313.26414995345004
1238,1685917675.3,6.348,280.273,34.668,-22.949,19425.394,315.7777301137255
1239,1685917675.3,-47.363,2.441,-184.57,-35.645,19425.398,307.72629974255324
1240,1685917675.3,-57.129,-476.562,-379.395,-28.809,19425.402,307.9959932092883
1241,1685917675.31,-9.277,-544.922,-336.426,-12.695,19425.406,315.60376469704477
1242,1685917675.31,5.371,22.949,-56.641,-17.09,19425.41,305.8387083106119
1243,1685917675.31,-44.922,95.703,-62.988,-36.133,19425.414,316.4180757195563
1244,1685917675.32,-71.777,-569.336,-437.012,-33.691,19425.417,321.3987967160502
1245,1685917675.32,-22.949,-950.684,-457.52,-14.648,19425.421,314.47424315757166
1246,1685917675.33,14.648,-29.297,37.109,-14.648,19425.425,318.33839667073585
1247,1685917675.33,-34.18,411.133,29.785,-28.32,19425.429,316.6019416461077
1248,1685917675.33,-80.078,1.953,-208.008,-30.273,19425.431,315.98308948246654
1249,1685917675.34,-38.574,163.574,-4.395,-17.578,19425.435,310.0457077964769
1250,1685917675.34,16.113,501.953,154.785,-12.207,19425.439,311.3957409496207
1251,1685917675.34,-11.719,385.742,6.348,-20.508,19425.443,311.6842569998796
1252,1685917675.35,-68.848,-51.758,-227.539,-30.273,19425.447,312.18852988851904
1253,1685917675.35,-59.082,-218.262,-277.832,-27.344,19425.451,312.21040977577167
1254,1685917675.36,5.371,-78.125,-185.059,-15.137,19425.455,309.71543466496166
1255,1685917675.36,9.277,37.598,-167.48,-23.438,19425.458,314.4872669039468
1256,1685917675.36,-57.617,-635.254,-483.398,-31.25,19425.462,317.68383221289236
1257,1685917675.37,-63.477,-653.809,-382.324,-21.973,19425.466,310.87673871101487
1258,1685917675.37,11.719,325.684,83.008,-6.348,19425.47,312.518246541377
1259,1685917675.38,22.949,272.461,-20.02,-16.113,19425.474,312.9605210054683
1260,1685917675.38,-36.621,-54.688,-239.746,-41.504,19425.476,312.4448297017003
1261,1685917675.38,-60.547,141.602,-68.848,-45.898,19425.48,314.5578964079291
1262,1685917675.38,-9.766,308.594,39.551,-24.902,19425.484,313.6270019999371
1263,1685917675.39,27.344,109.375,-64.941,-14.16,19425.488,310.1902085435077
1264,1685917675.39,-19.043,41.992,-76.172,-28.809,19425.492,316.89783201999165
1265,1685917675.4,-68.359,-95.215,-226.074,-27.832,19425.496,318.5054011313362
1266,1685917675.4,-33.203,-182.617,-266.602,-10.254,19425.499,313.3983799187699
1267,1685917675.4,19.531,-408.203,-331.055,-2.93,19425.503,315.5966502056598
1268,1685917675.41,-10.742,-1000.0,-621.094,-18.555,19425.507,313.50141768051884
1269,1685917675.41,-64.941,-586.426,-330.566,-34.668,19425.511,319.0110689101961
1270,1685917675.42,-42.48,197.266,11.719,-23.926,19425.515,311.7843745945286
1271,1685917675.42,17.578,156.25,-67.383,-18.066,19425.519,310.46280150528486
1272,1685917675.42,18.066,258.301,-22.461,-28.809,19425.521,314.78760781886643
1273,1685917675.42,-35.645,403.809,50.781,-30.762,19425.525,307.3828337167938
1274,1685917675.43,-49.805,221.68,-70.801,-36.621,19425.529,324.02389098090345
1275,1685917675.43,1.953,86.426,-91.797,-25.879,19425.533,312.5553980291257
1276,1685917675.44,19.043,269.043,24.902,-16.113,19425.537,314.3332267781552
1277,1685917675.44,-30.762,21.484,-152.344,-27.344,19425.54,308.4610486894277
1278,1685917675.44,-60.547,-224.609,-311.035,-30.273,19425.544,310.07398850788104
1279,1685917675.45,-21.973,-531.738,-304.688,-13.672,19425.548,312.6497936355562
1280,1685917675.45,22.461,-178.711,-39.551,-12.207,19425.552,308.96352125790986
1281,1685917675.46,-9.766,471.191,118.164,-33.691,19425.556,307.0182943814173
1282,1685917675.46,-66.406,-24.414,-211.914,-46.387,19425.56,313.04818278952007
1283,1685917675.46,-52.246,-315.918,-298.828,-41.016,19425.564,316.119419950975
1284,1685917675.47,8.301,245.605,52.734,-30.273,19425.566,310.95989287022053
1285,1685917675.47,-3.418,493.164,76.66,-40.039,19425.57,312.57985791871715
1286,1685917675.47,-71.289,-45.898,-224.121,-54.688,19425.574,315.8382760371999
1287,1685917675.48,-63.477,-259.277,-263.672,-46.387,19425.578,315.7863872143177
1288,1685917675.48,8.301,196.289,43.457,-26.855,19425.582,318.2294832347497
1289,1685917675.49,16.602,135.254,-70.801,-27.832,19425.586,316.3557598801985
1290,1685917675.49,-50.293,-493.164,-416.992,-40.527,19425.589,309.48836001317784
1291,1685917675.49,-71.289,-837.402,-508.301,-38.574,19425.593,314.67424141085877
1292,1685917675.5,-3.418,-135.254,-125.0,-27.832,19425.597,315.0249156171863
1293,1685917675.5,23.926,455.078,92.773,-22.949,19425.601,313.4655520992688
1294,1685917675.5,-38.086,-240.234,-241.211,-32.715,19425.605,310.36234645263113
1295,1685917675.51,-88.867,-526.367,-324.219,-42.48,19425.609,313.24398525715156
