,timestamps,TP9,AF7,AF8,TP10,Secondary Timestamp,emg_signal
0,1685412928.446,-1.953,691.406,52.246,-3.418,1789.343,309
1,1685412928.45,0.0,402.832,10.742,-20.02,1789.347,309
2,1685412928.454,-13.184,-7.324,26.367,-31.738,1789.351,309
3,1685412928.458,-17.09,262.695,92.285,-29.297,1789.355,308
4,1685412928.462,3.418,694.336,48.828,-3.418,1789.359,308
5,1685412928.466,-6.348,118.164,-7.324,-8.301,1789.362,308
6,1685412928.469,-17.578,-440.918,53.223,-41.504,1789.366,308
7,1685412928.473,-5.859,-22.461,117.188,-46.387,1789.37,308
8,1685412928.477,1.953,498.047,89.355,-27.832,1789.374,308
9,1685412928.481,-6.348,177.734,-8.301,-29.297,1789.378,308
10,1685412928.485,-22.461,-850.586,35.156,-48.828,1789.382,308
11,1685412928.489,-23.438,-240.723,206.543,-44.434,1789.386,309
12,1685412928.49,-9.277,591.797,96.68,-23.438,1789.387,309
13,1685412928.494,-2.441,493.652,20.508,-13.672,1789.391,309
14,1685412928.498,-16.602,538.574,69.824,-26.855,1789.395,309
15,1685412928.502,-28.809,601.074,44.434,-44.434,1789.399,309
16,1685412928.506,-26.367,469.727,28.809,-38.086,1789.403,309
17,1685412928.51,-12.207,183.594,50.781,-21.484,1789.407,309
18,1685412928.513,-16.113,65.43,52.734,-33.203,1789.411,309
19,1685412928.517,-30.273,292.48,70.312,-60.547,1789.414,309
20,1685412928.521,-24.902,447.754,16.113,-53.711,1789.418,308
21,1685412928.525,-18.555,-324.219,34.18,-21.484,1789.422,308
22,1685412928.529,-21.484,-193.848,179.688,-32.227,1789.426,307
23,1685412928.533,-18.555,517.578,59.57,-55.664,1789.43,307
24,1685412928.535,-9.277,296.875,12.207,-46.875,1789.432,307
25,1685412928.539,4.883,274.414,37.109,-35.156,1789.436,307
26,1685412928.543,-6.836,594.238,59.082,-52.734,1789.44,307
27,1685412928.547,-32.715,632.812,26.855,-65.918,1789.444,307
28,1685412928.551,-34.18,284.668,60.547,-61.035,1789.448,307
29,1685412928.555,-23.438,71.289,88.379,-51.27,1789.452,307
30,1685412928.558,-5.859,132.324,28.809,-43.945,1789.456,307
31,1685412928.562,-1.953,167.48,45.898,-52.246,1789.46,307
32,1685412928.566,-28.32,-175.293,6.348,-60.547,1789.464,307
33,1685412928.57,-39.062,-1000.0,3.906,-47.852,1789.468,308
34,1685412928.574,-27.832,-399.902,142.578,-39.062,1789.472,308
35,1685412928.578,-25.391,548.34,63.477,-53.223,1789.475,308
36,1685412928.58,-30.273,317.871,19.043,-60.547,1789.477,308
37,1685412928.584,-18.555,393.066,87.402,-48.34,1789.481,308
38,1685412928.588,-1.465,677.246,53.223,-20.508,1789.485,308
39,1685412928.592,-10.742,625.0,37.109,-17.578,1789.489,308
40,1685412928.596,-30.273,243.652,15.625,-42.48,1789.493,308
41,1685412928.6,-31.738,-8.301,18.555,-43.457,1789.497,308
42,1685412928.603,-21.484,234.863,90.332,-33.691,1789.501,308
43,1685412928.607,-4.395,491.211,35.645,-28.809,1789.505,308
44,1685412928.611,0.488,-209.961,57.129,-37.598,1789.509,307
45,1685412928.615,-9.766,-177.246,186.523,-53.711,1789.512,307
46,1685412928.619,-3.906,350.098,85.449,-35.645,1789.516,307
47,1685412928.623,11.719,140.137,0.488,-14.16,1789.52,307
48,1685412928.626,7.324,11.719,33.203,-22.949,1789.522,307
49,1685412928.63,-5.371,342.773,96.191,-28.32,1789.526,307
50,1685412928.634,-19.043,515.137,37.598,-23.438,1789.53,307
51,1685412928.638,-7.812,320.801,84.473,-10.742,1789.534,308
52,1685412928.642,1.465,316.895,98.633,-15.625,1789.538,308
53,1685412928.646,-14.16,248.535,22.949,-30.762,1789.542,308
54,1685412928.649,-18.555,93.75,52.246,-21.973,1789.546,308
55,1685412928.653,2.93,-189.453,-1.465,-0.488,1789.549,308
56,1685412928.657,3.418,-753.418,86.426,-2.441,1789.553,308
57,1685412928.661,-15.137,-80.078,226.562,-27.832,1789.557,308
58,1685412928.665,-10.254,512.207,64.453,-31.738,1789.561,308
59,1685412928.669,-3.906,345.703,45.898,-15.137,1789.565,308
60,1685412928.671,-13.184,311.523,82.52,-11.719,1789.573,308
61,1685412928.675,-25.879,380.859,68.359,-17.09,1789.576,308
62,1685412928.679,-32.715,424.316,27.832,-32.227,1789.58,308
63,1685412928.683,-24.414,105.469,84.473,-26.855,1789.584,308
64,1685412928.687,-18.066,215.332,106.934,-16.113,1789.588,308
65,1685412928.691,-20.508,307.129,19.531,-25.391,1789.592,308
66,1685412928.694,-26.367,89.355,11.719,-38.086,1789.596,308
67,1685412928.698,-29.297,-416.992,89.355,-28.809,1789.6,307
68,1685412928.702,-10.254,-117.676,235.352,-14.648,1789.604,307
69,1685412928.706,-4.883,601.562,87.402,-20.02,1789.608,307
70,1685412928.71,-23.926,243.652,-8.789,-33.203,1789.612,307
71,1685412928.714,-30.762,94.238,65.918,-31.25,1789.616,307
72,1685412928.715,-20.996,480.957,91.309,-9.766,1789.612,307
73,1685412928.719,-15.625,692.871,34.18,0.977,1789.616,307
74,1685412928.723,-24.414,324.707,23.926,-14.648,1789.62,308
75,1685412928.727,-31.738,-106.445,68.848,-24.414,1789.624,308
76,1685412928.731,-14.16,239.746,94.238,-4.883,1789.628,308
77,1685412928.735,1.465,381.836,40.527,6.836,1789.631,308
78,1685412928.738,-12.207,-150.391,18.066,-9.766,1789.635,309
79,1685412928.742,-23.438,-1000.0,25.391,-8.789,1789.639,309
80,1685412928.746,-11.719,-548.828,215.82,5.371,1789.643,309
81,1685412928.75,0.0,478.027,176.27,6.348,1789.647,309
82,1685412928.754,-3.418,350.098,24.414,-5.371,1789.651,309
83,1685412928.758,-17.578,273.926,63.965,-22.461,1789.655,309
84,1685412928.76,-22.949,471.191,69.824,-12.207,1789.671,309
85,1685412928.764,-11.719,476.562,47.852,5.371,1789.675,308
86,1685412928.768,-12.207,286.621,24.902,0.0,1789.679,308
87,1685412928.772,-13.672,304.688,68.848,-18.066,1789.683,308
88,1685412928.776,-11.23,297.363,25.879,-17.578,1789.687,308
89,1685412928.78,-5.859,183.105,18.066,-2.441,1789.69,308
90,1685412928.783,-4.395,-494.141,39.551,15.137,1789.694,308
91,1685412928.787,-16.113,-554.199,104.492,6.348,1789.698,308
92,1685412928.791,-20.508,393.555,101.562,-15.625,1789.702,309
93,1685412928.795,-2.93,332.52,26.855,4.395,1789.706,309
94,1685412928.799,10.254,114.258,43.457,18.066,1789.71,309
95,1685412928.803,-7.324,413.086,61.523,-9.277,1789.714,309
96,1685412928.806,-22.949,525.879,37.598,-26.367,1789.717,309
97,1685412928.81,-20.508,271.973,38.574,-6.348,1789.72,309
98,1685412928.814,-9.277,178.223,37.109,1.465,1789.724,309
99,1685412928.818,-11.719,409.18,52.246,-25.391,1789.728,309
100,1685412928.822,-22.949,476.074,37.598,-42.48,1789.732,309
101,1685412928.826,-13.184,-83.496,13.184,-27.344,1789.736,309
102,1685412928.829,1.465,-392.578,47.852,-8.789,1789.74,309
103,1685412928.833,-0.488,25.391,81.543,-5.859,1789.744,309
104,1685412928.837,-7.324,185.547,80.078,-13.672,1789.748,309
105,1685412928.841,-9.277,-313.477,15.625,-18.066,1789.752,309
106,1685412928.845,0.0,-884.277,104.492,0.977,1789.756,309
107,1685412928.849,0.488,3.418,218.75,1.465,1789.76,308
108,1685412928.866,-15.625,500.977,51.27,-14.16,1789.762,308
109,1685412928.87,-24.414,168.457,33.691,-22.949,1789.766,308
110,1685412928.874,-11.719,307.617,107.91,-14.648,1789.77,309
111,1685412928.878,4.883,600.098,76.172,-4.395,1789.774,309
112,1685412928.882,-2.441,517.578,14.648,-21.484,1789.778,309
113,1685412928.886,-9.277,-51.758,35.156,-19.531,1789.782,309
114,1685412928.889,-0.488,-30.762,106.934,-3.418,1789.786,309
115,1685412928.893,2.441,527.832,82.52,-2.93,1789.79,309
116,1685412928.897,-6.836,405.762,-6.348,-2.93,1789.794,309
117,1685412928.901,-23.438,-175.781,35.156,-16.113,1789.797,309
118,1685412928.905,-21.484,-80.078,86.914,-19.043,1789.801,309
119,1685412928.909,-1.953,286.621,72.754,0.977,1789.805,309
120,1685412928.915,5.371,190.43,16.113,0.977,1789.81,309
121,1685412928.919,-13.672,-117.188,11.719,-20.996,1789.814,309
122,1685412928.923,-19.531,212.891,81.543,-23.926,1789.818,309
123,1685412928.927,-7.812,471.68,29.297,-5.859,1789.822,309
124,1685412928.931,-0.488,295.898,57.617,-1.953,1789.826,308
125,1685412928.935,-13.184,6.348,47.363,-22.949,1789.83,308
126,1685412928.938,-17.578,-99.121,34.668,-33.203,1789.834,308
127,1685412928.942,-4.883,17.09,69.336,-22.461,1789.838,308
128,1685412928.946,-6.348,-237.793,-18.555,-17.09,1789.842,308
129,1685412928.95,-17.09,-780.273,75.684,-20.996,1789.845,308
130,1685412928.954,-23.926,-141.602,199.219,-33.691,1789.849,309
131,1685412928.956,-6.348,286.621,33.203,-6.348,1789.856,309
132,1685412928.958,-15.137,321.777,27.344,-26.855,1789.853,309
133,1685412928.96,-10.254,258.789,49.316,-13.672,1789.86,309
134,1685412928.964,-23.438,245.117,47.852,-36.621,1789.864,309
135,1685412928.968,-26.855,390.137,36.621,-38.086,1789.868,309
136,1685412928.972,-17.578,88.379,54.688,-23.438,1789.872,309
137,1685412928.976,-11.719,-97.168,67.383,-18.555,1789.876,309
138,1685412928.979,-15.625,180.664,62.5,-35.645,1789.88,309
139,1685412928.983,-13.672,327.637,21.484,-37.598,1789.884,310
140,1685412928.987,-0.488,-249.023,86.426,-9.766,1789.887,310
141,1685412928.991,0.977,-34.18,211.426,-2.93,1789.891,310
142,1685412928.995,-9.277,589.355,79.59,-20.508,1789.895,309
143,1685412928.999,-19.043,215.82,7.324,-32.227,1789.899,309
144,1685412929.0,-17.09,95.703,55.664,-20.508,1789.897,309
145,1685412929.004,-10.254,511.719,87.891,-11.23,1789.901,309
146,1685412929.008,-14.16,622.07,35.645,-26.367,1789.905,309
147,1685412929.012,-24.902,163.086,42.48,-36.133,1789.909,309
148,1685412929.016,-16.602,-110.84,85.938,-27.344,1789.913,309
149,1685412929.02,-0.977,101.562,64.941,-12.207,1789.917,309
150,1685412929.023,-7.812,142.09,38.086,-16.602,1789.921,309
151,1685412929.027,-20.508,-213.867,14.16,-29.785,1789.925,309
152,1685412929.031,-27.344,-1000.0,15.137,-15.137,1789.929,309
153,1685412929.035,-16.113,-490.234,213.867,4.883,1789.932,309
154,1685412929.039,-16.602,506.348,157.715,-2.93,1789.936,309
155,1685412929.043,-31.25,284.18,16.602,-26.367,1789.94,309
156,1685412929.046,-35.156,220.215,83.008,-26.367,1789.943,309
157,1685412929.05,-23.438,487.305,73.242,-1.465,1789.947,309
158,1685412929.054,-4.395,504.883,34.668,7.812,1789.951,310
159,1685412929.058,-22.949,291.504,56.152,-15.137,1789.955,310
160,1685412929.062,-39.551,308.105,64.941,-33.203,1789.959,310
161,1685412929.066,-23.926,156.738,34.18,-16.602,1789.963,309
162,1685412929.069,-16.602,142.578,66.406,-10.254,1789.966,309
163,1685412929.073,-29.297,-466.309,35.645,-10.254,1789.97,309
164,1685412929.077,-32.227,-634.766,160.645,-18.555,1789.974,309
165,1685412929.081,-34.668,416.016,168.457,-34.668,1789.978,308
166,1685412929.085,-23.926,383.789,20.508,-19.043,1789.982,308
167,1685412929.089,-12.695,192.871,30.762,-9.766,1789.986,308
168,1685412929.091,-27.344,425.781,58.105,-30.273,1789.987,308
169,1685412929.095,-31.25,503.906,60.547,-30.762,1789.991,308
170,1685412929.099,-17.578,178.223,14.648,-5.859,1789.995,308
171,1685412929.103,-11.23,-15.137,22.949,-4.883,1789.999,308
172,1685412929.107,-22.949,336.426,54.199,-32.227,1790.003,308
173,1685412929.111,-27.832,249.512,43.457,-41.504,1790.007,308
174,1685412929.114,-17.09,-265.625,27.832,-19.531,1790.01,308
175,1685412929.118,-9.277,-854.492,93.75,0.488,1790.014,308
176,1685412929.122,-13.184,-178.711,217.773,-13.672,1790.018,308
177,1685412929.126,-33.203,355.957,52.734,-36.133,1790.022,308
178,1685412929.13,-23.438,-134.766,74.219,-20.02,1790.026,308
179,1685412929.134,5.859,104.492,272.461,1.953,1790.03,308
180,1685412929.135,0.488,666.016,142.578,-8.301,1790.046,308
181,1685412929.139,-17.09,504.883,-0.488,-20.508,1790.05,308
182,1685412929.143,-16.113,89.355,62.988,-13.672,1790.054,308
183,1685412929.147,1.465,282.715,127.93,-0.977,1790.058,308
184,1685412929.151,8.789,567.383,38.086,-4.883,1790.062,308
185,1685412929.155,-1.465,254.395,-32.715,-24.902,1790.066,308
186,1685412929.158,-14.648,-469.238,84.961,-28.809,1790.07,308
187,1685412929.162,-9.277,-198.242,275.879,-5.371,1790.073,307
188,1685412929.166,7.812,654.297,167.969,1.465,1790.077,307
189,1685412929.17,-8.301,386.719,5.859,-23.438,1790.081,307
190,1685412929.174,-23.926,141.602,23.926,-37.598,1790.085,307
191,1685412929.178,-13.672,260.742,48.828,-21.973,1790.089,307
192,1685412929.181,-3.418,366.699,85.938,-4.395,1790.091,307
193,1685412929.185,-9.766,177.246,19.043,-15.137,1790.095,307
194,1685412929.189,-18.555,-163.574,11.23,-33.691,1790.099,307
195,1685412929.193,-11.719,257.324,104.492,-28.809,1790.103,307
196,1685412929.197,-3.906,545.898,43.945,-13.184,1790.107,307
197,1685412929.201,-4.395,57.617,18.066,-11.719,1790.111,307
198,1685412929.204,-13.672,-397.461,43.457,-24.902,1790.115,308
199,1685412929.208,-15.625,-77.148,110.84,-21.973,1790.119,308
200,1685412929.212,1.953,394.043,92.285,0.977,1790.122,308
201,1685412929.216,11.719,-53.223,-18.555,8.789,1790.126,307
202,1685412929.22,-11.719,-586.914,145.508,-16.113,1790.13,307
203,1685412929.224,-29.785,166.992,228.027,-33.203,1790.134,307
204,1685412929.248,-14.16,465.332,58.594,-4.883,1790.143,306
205,1685412929.252,-2.93,297.852,61.523,0.977,1790.147,306
206,1685412929.256,-8.789,140.137,83.984,-27.344,1790.151,306
207,1685412929.26,-23.926,216.309,90.332,-36.133,1790.155,306
208,1685412929.264,-18.066,488.77,67.871,-19.531,1790.159,306
209,1685412929.268,-1.465,-336.426,10.254,1.465,1790.163,306
210,1685412929.271,-8.789,-559.082,105.957,-7.324,1790.167,306
211,1685412929.275,-12.695,380.859,112.305,-22.949,1790.171,306
212,1685412929.279,-15.137,325.684,12.695,-14.16,1790.175,306
213,1685412929.283,-24.414,125.488,52.734,-10.742,1790.179,306
214,1685412929.286,-25.391,141.602,41.992,-41.504,1790.183,307
215,1685412929.287,-18.066,385.742,91.797,-19.531,1790.182,307
216,1685412929.29,-10.742,92.285,78.613,-11.719,1790.187,307
217,1685412929.291,-19.531,462.402,53.711,-39.551,1790.186,307
218,1685412929.294,-4.395,421.875,71.777,-11.23,1790.191,307
219,1685412929.298,-21.484,446.289,26.367,-34.18,1790.194,307
220,1685412929.302,-28.32,71.777,51.27,-35.156,1790.198,307
221,1685412929.306,-19.531,-187.988,73.242,-15.625,1790.202,307
222,1685412929.309,-9.277,-7.812,52.246,-6.836,1790.206,307
223,1685412929.313,-9.277,69.336,61.035,-20.508,1790.21,307
224,1685412929.317,-17.09,-314.941,32.715,-26.855,1790.214,307
225,1685412929.321,-19.531,-1000.0,8.789,-13.672,1790.218,307
226,1685412929.325,-13.184,-492.676,192.383,-10.254,1790.222,307
227,1685412929.329,-12.207,430.664,134.277,-28.32,1790.226,307
228,1685412929.331,-32.227,224.609,29.297,-45.898,1790.227,307
229,1685412929.335,-30.762,239.258,94.238,-39.062,1790.231,307
230,1685412929.339,-13.184,536.133,72.754,-16.602,1790.235,307
231,1685412929.343,-10.254,505.859,37.598,-13.184,1790.239,307
232,1685412929.347,-28.32,173.828,29.297,-35.156,1790.243,307
233,1685412929.351,-25.879,-73.73,51.758,-30.762,1790.247,307
234,1685412929.354,-0.977,98.145,91.309,-5.371,1790.251,307
235,1685412929.358,1.465,348.145,58.105,-3.906,1790.255,308
236,1685412929.362,-15.137,-539.551,-12.207,-15.137,1790.259,308
237,1685412929.366,-19.531,-675.781,128.906,-23.926,1790.263,308
238,1685412929.37,-6.836,312.5,120.117,-13.184,1790.266,308
239,1685412929.374,-6.348,181.641,-1.465,0.0,1790.27,308
240,1685412929.375,-11.719,78.125,42.969,-17.09,1790.272,308
241,1685412929.379,-17.09,393.555,72.754,-36.133,1790.276,308
242,1685412929.383,-14.16,479.98,48.34,-21.484,1790.28,308
243,1685412929.387,-7.812,299.805,72.266,-0.977,1790.284,308
244,1685412929.391,-7.812,192.383,69.824,-2.93,1790.288,308
245,1685412929.395,-21.973,118.652,27.832,-23.926,1790.292,308
246,1685412929.398,-35.156,-1.953,75.195,-26.367,1790.296,307
247,1685412929.402,-19.043,-270.508,29.785,-3.418,1790.299,307
248,1685412929.406,-7.812,-881.348,75.684,-4.395,1790.303,307
249,1685412929.41,-17.09,-360.352,218.262,-26.367,1790.307,307
250,1685412929.414,-19.531,240.234,100.098,-32.227,1790.311,307
251,1685412929.418,-11.719,-337.891,30.273,-20.508,1790.315,307
252,1685412929.421,-6.836,-356.934,118.652,-11.23,1790.321,307
253,1685412929.425,-20.508,442.383,106.445,-29.297,1790.325,307
254,1685412929.429,-32.227,366.211,19.043,-41.992,1790.328,307
255,1685412929.433,-26.367,202.148,84.473,-23.438,1790.332,307
256,1685412929.437,-11.719,391.113,71.777,-5.859,1790.336,308
257,1685412929.441,-9.277,244.141,19.043,-17.09,1790.34,308
258,1685412929.444,-17.578,59.57,33.691,-26.855,1790.344,308
259,1685412929.448,-14.16,-408.691,105.469,-12.207,1790.348,308
260,1685412929.452,0.0,-124.023,234.863,0.977,1790.352,308
261,1685412929.456,4.883,642.578,92.285,-5.859,1790.356,308
262,1685412929.46,-15.625,284.668,-11.23,-27.344,1790.36,308
263,1685412929.464,-31.25,43.457,41.016,-32.227,1790.364,308
264,1685412929.467,-17.09,222.656,57.129,-15.137,1790.365,308
265,1685412929.471,-9.766,372.559,68.359,-16.602,1790.369,308
266,1685412929.475,-28.809,135.254,11.23,-31.25,1790.373,308
267,1685412929.479,-40.527,-113.77,23.438,-25.879,1790.377,307
268,1685412929.483,-12.695,334.961,72.754,-2.441,1790.381,307
269,1685412929.487,-1.465,334.473,20.508,4.395,1790.385,307
270,1685412929.49,-21.484,-175.293,19.043,-13.672,1790.389,307
271,1685412929.494,-28.809,-1000.0,18.066,-24.414,1790.393,307
272,1685412929.498,-23.926,-575.195,210.449,-14.16,1790.396,307
273,1685412929.502,-14.648,436.523,169.434,4.883,1790.4,307
274,1685412929.506,-10.742,332.031,32.227,-3.906,1790.404,308
275,1685412929.51,-21.973,283.691,72.754,-24.902,1790.408,308
276,1685412929.51,-19.531,499.512,68.359,-21.484,1790.421,308
277,1685412929.514,-2.93,509.766,35.156,-7.812,1790.425,308
278,1685412929.518,-1.953,287.109,24.902,-15.625,1790.429,309
279,1685412929.522,-16.602,126.465,87.891,-37.598,1790.433,309
280,1685412929.526,-20.02,157.715,60.059,-37.109,1790.437,309
281,1685412929.53,-11.23,244.141,32.715,-6.836,1790.441,309
282,1685412929.533,0.488,-477.051,20.02,9.766,1790.445,309
283,1685412929.537,-8.301,-671.875,103.516,-8.789,1790.449,309
284,1685412929.541,-25.879,297.363,122.559,-28.32,1790.453,309
285,1685412929.545,-8.789,325.684,26.855,-12.207,1790.456,309
286,1685412929.549,0.488,175.781,55.176,0.977,1790.46,309
287,1685412929.553,-13.184,408.203,71.777,-15.137,1790.464,309
288,1685412929.555,-20.02,444.824,56.641,-22.461,1790.467,309
289,1685412929.559,-13.184,178.223,48.828,-15.625,1790.47,309
290,1685412929.563,4.395,159.668,64.941,-1.953,1790.474,309
291,1685412929.567,-0.488,464.355,86.426,-10.254,1790.478,309
292,1685412929.571,-12.207,463.379,38.574,-23.926,1790.482,309
293,1685412929.575,-13.184,-160.645,0.0,-17.09,1790.486,309
294,1685412929.578,-11.23,-445.312,74.219,-6.348,1790.49,309
295,1685412929.582,-7.324,-21.484,92.773,-2.93,1790.494,309
296,1685412929.586,-10.254,62.988,63.477,-18.555,1790.498,309
297,1685412929.59,-18.066,-356.445,-2.441,-20.508,1790.502,309
298,1685412929.594,-5.859,-867.676,87.402,5.371,1790.506,309
299,1685412929.598,-3.418,-21.973,229.98,-3.906,1790.509,309
300,1685412929.616,-24.902,515.137,46.875,-29.297,1790.512,310
301,1685412929.62,-26.367,199.219,44.922,-34.668,1790.516,310
302,1685412929.624,-5.859,274.414,101.562,-18.555,1790.52,310
303,1685412929.628,-2.93,511.719,72.266,-11.719,1790.524,310
304,1685412929.632,-14.16,468.262,38.574,-30.762,1790.528,310
305,1685412929.636,-23.926,-62.012,35.645,-41.504,1790.532,310
306,1685412929.639,-17.578,-61.035,110.84,-26.367,1790.536,310
307,1685412929.643,-4.883,440.918,94.238,-0.488,1790.54,309
308,1685412929.647,-3.418,328.613,4.883,-9.766,1790.544,309
309,1685412929.651,-11.719,-566.406,29.785,-40.039,1790.547,309
310,1685412929.655,-13.672,-411.621,259.766,-36.133,1790.551,309
311,1685412929.659,8.301,532.715,185.059,-2.441,1790.555,309
312,1685412929.661,34.18,322.754,20.508,14.648,1790.558,309
313,1685412929.665,18.555,95.215,47.363,-7.812,1790.562,309
314,1685412929.669,-34.668,331.543,73.242,-43.945,1790.566,309
315,1685412929.673,-29.297,466.797,69.336,-36.621,1790.57,310
316,1685412929.677,-0.488,269.531,60.059,-7.812,1790.574,310
317,1685412929.681,-8.301,-121.582,65.918,-4.395,1790.578,310
318,1685412929.684,-11.719,-175.781,44.922,-5.859,1790.581,310
319,1685412929.688,-10.254,12.207,78.125,-5.371,1790.585,310
320,1685412929.692,-7.812,-210.938,35.645,4.883,1790.589,310
321,1685412929.696,-5.371,-804.688,96.68,15.625,1790.593,310
322,1685412929.7,-6.348,-257.324,224.609,12.207,1790.597,309
323,1685412929.704,4.883,170.898,62.988,21.484,1790.601,309
324,1685412929.706,16.113,-132.812,99.609,42.48,1790.602,309
325,1685412929.71,20.996,94.727,207.52,48.34,1790.606,309
326,1685412929.714,9.766,457.52,77.637,34.18,1790.61,308
327,1685412929.718,19.043,302.246,21.973,49.805,1790.614,308
328,1685412929.722,42.969,157.227,69.824,77.637,1790.618,308
329,1685412929.726,35.156,13.672,61.523,70.312,1790.622,308
330,1685412929.729,27.832,71.777,82.52,47.852,1790.626,308
331,1685412929.733,35.156,288.086,46.875,48.828,1790.629,308
332,1685412929.737,51.758,-436.035,53.711,79.102,1790.633,308
333,1685412929.741,50.781,-325.195,257.812,85.449,1790.637,308
334,1685412929.745,36.621,539.551,153.809,64.941,1790.641,308
335,1685412929.749,26.367,213.379,-3.906,42.969,1790.645,308
336,1685412929.751,30.273,51.27,36.621,55.176,1790.651,308
337,1685412929.755,40.039,214.844,61.523,72.754,1790.655,308
338,1685412929.759,39.551,300.293,63.477,60.547,1790.659,308
339,1685412929.763,33.691,46.875,14.16,46.875,1790.663,308
340,1685412929.767,28.809,-218.262,28.32,42.969,1790.667,308
341,1685412929.771,32.715,56.152,72.754,52.246,1790.67,308
342,1685412929.774,32.715,82.031,56.641,47.363,1790.674,308
343,1685412929.778,22.461,-388.672,7.324,32.715,1790.678,308
344,1685412929.782,23.926,-806.152,126.465,35.156,1790.682,307
345,1685412929.786,31.738,82.52,264.16,37.598,1790.686,307
346,1685412929.79,24.902,500.977,63.965,41.016,1790.69,307
347,1685412929.794,6.836,-1.465,43.457,30.273,1790.694,306
348,1685412929.795,-1.465,62.988,135.742,1.465,1790.692,306
349,1685412929.799,18.066,497.559,76.66,22.461,1790.696,306
350,1685412929.803,34.18,564.453,23.438,50.293,1790.7,306
351,1685412929.807,27.832,-137.207,64.941,27.832,1790.704,306
352,1685412929.811,15.137,-470.703,142.09,2.441,1790.708,306
353,1685412929.815,25.391,-90.82,65.43,30.762,1790.712,306
354,1685412929.818,36.621,120.605,34.18,50.293,1790.716,306
355,1685412929.822,19.043,-479.004,31.738,22.461,1790.719,305
356,1685412929.826,1.465,-669.434,116.211,2.441,1790.723,305
357,1685412929.83,-0.977,361.816,123.535,0.0,1790.727,305
358,1685412929.834,13.672,428.223,13.672,16.113,1790.731,306
359,1685412929.838,22.949,257.812,11.23,10.742,1790.735,306
360,1685412929.841,5.859,418.457,37.109,-15.137,1790.737,306
361,1685412929.845,-12.695,461.426,47.363,-23.926,1790.741,306
362,1685412929.849,-0.977,258.789,29.297,5.859,1790.745,306
363,1685412929.853,11.23,240.723,39.062,18.555,1790.749,305
364,1685412929.857,-6.348,445.801,32.715,-11.719,1790.753,305
365,1685412929.861,-11.719,186.035,17.09,-28.32,1790.757,305
366,1685412929.864,5.371,-314.453,19.531,-5.371,1790.76,302
367,1685412929.868,9.766,-795.41,66.406,27.832,1790.764,302
368,1685412929.872,-0.488,-321.289,154.297,0.488,1790.768,302
369,1685412929.876,-3.906,388.672,57.617,-21.484,1790.772,302
370,1685412929.88,2.441,-135.742,8.301,-1.953,1790.776,301
371,1685412929.884,0.488,-253.906,121.582,-19.043,1790.78,301
372,1685412929.886,-23.926,532.227,100.098,-48.828,1790.796,301
373,1685412929.89,-36.133,434.082,-5.371,-51.758,1790.8,301
374,1685412929.894,-29.785,151.367,49.316,-33.203,1790.804,297
375,1685412929.898,-20.508,314.941,102.051,-21.484,1790.807,297
376,1685412929.902,-13.672,440.918,20.996,-17.09,1790.811,297
377,1685412929.906,-19.043,192.871,-17.09,-20.996,1790.815,297
378,1685412929.909,-20.996,-494.141,74.219,-33.203,1790.819,297
379,1685412929.913,-10.742,-272.949,214.844,-27.344,1790.823,297
380,1685412929.917,-12.695,514.648,98.145,-29.297,1790.827,297
381,1685412929.921,-31.738,162.598,-15.137,-46.387,1790.831,298
382,1685412929.925,-34.18,-220.215,81.055,-41.504,1790.835,298
383,1685412929.929,-23.438,183.105,116.699,-19.531,1790.839,298
384,1685412929.93,-20.02,557.129,44.434,-8.789,1790.842,298
385,1685412929.934,-25.391,279.297,11.719,-26.367,1790.845,300
386,1685412929.938,-32.715,51.27,29.297,-43.945,1790.849,300
387,1685412929.942,-35.156,321.289,67.383,-35.645,1790.853,300
388,1685412929.946,-20.996,518.555,41.992,-15.625,1790.857,301
389,1685412929.95,-18.555,-19.531,-20.02,-16.602,1790.861,301
390,1685412929.953,-31.25,-520.996,29.297,-46.387,1790.865,301
391,1685412929.957,-20.996,-201.172,96.68,-43.945,1790.869,301
392,1685412929.961,-9.277,293.457,90.82,-18.555,1790.873,302
393,1685412929.965,-10.742,-80.078,-17.09,-21.973,1790.877,302
394,1685412929.969,-17.578,-643.555,109.863,-43.945,1790.881,302
395,1685412929.973,-14.16,38.574,156.738,-40.527,1790.885,302
396,1685412929.991,-0.488,179.688,8.789,-12.695,1790.887,320
397,1685412929.995,5.371,-115.234,82.52,-17.578,1790.891,320
398,1685412929.999,-6.836,56.152,118.164,-33.691,1790.895,320
399,1685412930.003,-24.414,377.441,51.27,-40.039,1790.899,331
400,1685412930.007,-26.367,297.852,25.391,-25.391,1790.903,331
401,1685412930.011,-16.602,-13.184,41.992,-12.207,1790.907,331
402,1685412930.014,-14.16,-83.496,74.219,-17.09,1790.91,349
403,1685412930.018,-17.578,255.371,83.984,-25.879,1790.914,349
404,1685412930.022,-8.789,251.465,23.438,-15.625,1790.918,349
405,1685412930.026,8.301,-223.633,91.797,-1.465,1790.922,349
406,1685412930.03,9.277,49.316,151.855,-9.277,1790.926,349
407,1685412930.034,-6.348,447.266,50.781,-22.461,1790.93,370
408,1685412930.035,-2.441,125.488,28.809,-28.32,1790.946,370
409,1685412930.039,5.859,86.914,32.715,-25.879,1790.95,370
410,1685412930.043,3.418,232.422,48.828,-12.695,1790.954,394
411,1685412930.047,-0.977,246.094,62.988,-23.438,1790.958,394
412,1685412930.051,-1.465,0.488,25.391,-42.969,1790.962,394
413,1685412930.055,4.395,-380.371,37.598,-19.531,1790.966,420
414,1685412930.058,11.23,-98.145,80.566,0.977,1790.97,420
415,1685412930.062,11.719,69.336,57.129,-9.766,1790.974,420
416,1685412930.066,1.953,-308.594,-0.977,-21.484,1790.977,420
417,1685412930.07,-0.488,-883.301,98.145,-4.883,1790.981,420
418,1685412930.074,13.184,-89.355,310.547,7.812,1790.985,444
419,1685412930.078,4.395,461.914,113.281,-11.719,1790.989,444
420,1685412930.081,-19.043,113.281,23.926,-23.926,1790.977,444
421,1685412930.085,-20.996,203.613,91.309,-15.137,1790.981,468
422,1685412930.089,-4.883,478.027,47.363,2.441,1790.985,468
423,1685412930.093,3.906,427.734,19.043,-2.441,1790.989,468
424,1685412930.097,0.977,107.422,37.598,-17.09,1790.993,490
425,1685412930.101,-10.742,-55.664,63.477,-9.277,1790.997,490
426,1685412930.104,0.488,-41.504,60.547,13.672,1791.001,490
427,1685412930.108,7.324,7.324,34.668,4.883,1791.005,490
428,1685412930.112,-11.23,-379.395,62.988,-13.184,1791.009,490
429,1685412930.116,-19.043,-244.141,135.742,-11.719,1791.013,507
430,1685412930.12,-1.953,406.25,104.492,-5.859,1791.017,507
431,1685412930.124,15.625,309.082,2.441,4.883,1791.02,507
432,1685412930.126,12.695,-366.699,55.176,-2.93,1791.022,522
433,1685412930.13,-5.859,-149.414,149.414,-29.297,1791.026,522
434,1685412930.134,-15.625,411.133,53.223,-20.996,1791.03,522
435,1685412930.138,-2.93,242.188,54.199,-9.766,1791.034,534
436,1685412930.142,3.418,151.855,32.715,-27.344,1791.038,534
437,1685412930.146,-14.16,91.797,23.438,-44.922,1791.042,534
438,1685412930.149,-20.996,-74.219,48.828,-39.551,1791.046,534
439,1685412930.153,-1.953,-288.574,26.855,-7.812,1791.049,534
440,1685412930.157,-0.977,-985.84,25.879,5.371,1791.053,542
441,1685412930.161,-16.113,-616.211,134.277,-23.926,1791.057,542
442,1685412930.165,-14.16,307.617,96.68,-42.969,1791.061,542
443,1685412930.169,-12.695,227.539,29.785,-29.785,1791.065,546
444,1685412930.17,-17.578,282.227,80.566,-21.973,1791.067,546
445,1685412930.174,-10.254,542.48,49.805,-31.738,1791.071,546
446,1685412930.178,-9.277,367.676,7.812,-30.762,1791.075,546
447,1685412930.182,-9.766,196.289,43.457,-24.414,1791.079,547
448,1685412930.186,-2.93,298.34,40.039,-15.625,1791.083,547
449,1685412930.19,-11.23,141.602,9.766,-20.02,1791.087,547
450,1685412930.193,-18.555,8.789,8.789,-43.457,1791.091,547
451,1685412930.197,-10.742,-433.105,83.496,-32.227,1791.095,544
452,1685412930.201,-1.465,-205.566,215.82,-14.16,1791.099,544
453,1685412930.205,-0.488,519.531,88.867,-11.23,1791.103,544
454,1685412930.209,1.465,89.355,-27.344,-20.02,1791.106,540
455,1685412930.213,-4.395,-281.25,114.746,-26.367,1791.11,540
456,1685412930.215,-8.789,229.492,173.828,-22.949,1791.127,540
457,1685412930.219,0.488,582.52,34.18,-20.508,1791.13,540
458,1685412930.223,-6.348,202.637,9.766,-29.785,1791.134,535
459,1685412930.227,-10.254,21.484,44.922,-25.879,1791.138,535
460,1685412930.231,2.441,365.723,45.41,-9.766,1791.142,535
461,1685412930.235,7.324,299.805,24.414,-12.695,1791.146,535
462,1685412930.238,-5.371,-257.812,-13.672,-26.855,1791.15,531
463,1685412930.242,-6.348,-921.875,37.598,-15.625,1791.154,531
464,1685412930.246,-0.977,-277.832,271.484,-3.418,1791.158,531
465,1685412930.25,-7.324,498.047,122.07,-4.883,1791.162,520
466,1685412930.254,-4.395,250.977,14.16,-3.418,1791.166,520
467,1685412930.258,-14.16,206.543,64.941,-19.043,1791.17,520
468,1685412930.261,-19.531,286.133,37.109,-29.785,1791.161,520
469,1685412930.265,-6.348,176.27,28.809,-7.812,1791.165,513
470,1685412930.269,-8.789,-107.91,57.617,-1.953,1791.169,513
471,1685412930.273,-22.949,50.293,122.07,-20.996,1791.172,513
472,1685412930.277,-14.648,318.359,22.461,-25.391,1791.176,502
473,1685412930.281,9.766,-20.02,-7.324,-12.207,1791.18,502
474,1685412930.284,17.09,-112.793,103.027,-6.348,1791.184,502
475,1685412930.288,-5.859,135.742,91.309,-27.344,1791.188,502
476,1685412930.292,-18.066,371.582,48.34,-35.645,1791.192,492
477,1685412930.296,-1.465,237.305,8.301,-12.695,1791.196,492
478,1685412930.3,5.371,-233.887,61.523,0.977,1791.2,492
479,1685412930.304,-5.859,46.875,133.301,-20.02,1791.204,492
480,1685412930.306,-10.742,411.133,31.25,-34.668,1791.217,482
481,1685412930.31,5.859,106.445,11.719,-13.184,1791.221,482
482,1685412930.314,15.625,33.203,24.902,3.418,1791.224,482
483,1685412930.318,3.906,82.031,42.969,-0.488,1791.228,467
484,1685412930.322,-12.207,128.906,44.434,-14.16,1791.232,467
485,1685412930.326,-9.766,-169.434,-25.879,-10.742,1791.236,467
486,1685412930.329,5.859,-832.52,32.715,0.488,1791.24,467
487,1685412930.333,1.953,-419.922,142.09,-20.996,1791.244,452
488,1685412930.337,-13.672,276.855,63.477,-42.48,1791.248,452
489,1685412930.341,-17.578,-230.469,-3.418,-30.273,1791.252,452
490,1685412930.345,-12.695,-449.219,96.68,-13.184,1791.256,452
491,1685412930.349,-5.371,385.254,107.422,-14.16,1791.26,436
492,1685412930.366,-4.883,383.789,3.418,-14.648,1791.263,420
493,1685412930.37,-10.254,71.289,43.945,-26.855,1791.267,420
494,1685412930.374,-2.93,218.75,79.59,-21.484,1791.271,420
495,1685412930.378,2.441,475.098,43.457,-6.348,1791.275,405
496,1685412930.382,-12.207,333.984,6.836,-17.578,1791.279,405
497,1685412930.386,-30.273,-164.551,39.062,-29.785,1791.283,405
498,1685412930.389,-20.508,-299.316,66.895,-21.973,1791.287,393
499,1685412930.393,-5.859,55.664,81.543,-5.371,1791.291,393
500,1685412930.397,-9.277,320.801,25.391,-18.555,1791.295,393
501,1685412930.401,-18.555,-500.977,-20.996,-21.973,1791.298,377
502,1685412930.405,-10.742,-522.461,241.699,-4.883,1791.302,377
503,1685412930.409,4.883,449.707,174.316,7.812,1791.306,377
504,1685412930.411,6.348,270.508,-17.09,5.371,1791.307,377
505,1685412930.415,0.977,27.344,11.23,-9.766,1791.311,377
506,1685412930.419,-4.395,225.586,39.062,-14.16,1791.315,364
507,1685412930.423,5.371,319.824,41.504,-0.488,1791.319,364
508,1685412930.427,5.371,151.855,40.039,3.418,1791.323,364
509,1685412930.431,-18.066,-176.27,53.711,-19.531,1791.327,352
510,1685412930.434,-27.832,-178.223,62.988,-39.062,1791.331,352
511,1685412930.438,-17.578,-90.332,51.758,-27.344,1791.334,352
512,1685412930.442,-3.418,-354.98,4.395,-9.277,1791.338,342
513,1685412930.446,0.0,-1000.0,1.465,-13.672,1791.342,342
514,1685412930.45,-7.324,-618.164,122.559,-29.785,1791.346,342
515,1685412930.454,1.465,264.648,101.074,-23.438,1791.35,342
516,1685412930.455,20.508,217.773,43.457,1.953,1791.352,342
517,1685412930.459,16.602,263.184,68.359,1.465,1791.356,334
518,1685412930.463,0.0,440.918,43.457,-12.695,1791.36,334
519,1685412930.467,-2.93,313.477,26.367,-6.348,1791.364,334
520,1685412930.471,13.184,119.141,27.344,5.859,1791.368,330
521,1685412930.475,26.855,-55.664,44.434,5.859,1791.372,330
522,1685412930.478,10.254,7.324,88.867,-14.648,1791.375,330
523,1685412930.482,-4.395,197.754,35.156,-24.902,1791.379,323
524,1685412930.486,8.789,-379.883,86.426,1.953,1791.383,323
525,1685412930.49,19.531,-191.895,231.934,13.184,1791.387,323
526,1685412930.494,13.672,441.895,85.938,-10.254,1791.391,323
527,1685412930.498,-4.395,-57.617,-39.551,-27.344,1791.395,317
528,1685412930.501,-1.465,-302.246,126.465,-4.883,1791.397,317
529,1685412930.505,15.625,261.719,214.844,6.348,1791.401,317
530,1685412930.509,20.508,486.328,28.32,-10.742,1791.405,312
531,1685412930.513,5.859,49.316,32.715,-29.785,1791.409,312
532,1685412930.517,1.465,-61.523,69.336,-27.832,1791.413,312
533,1685412930.521,25.391,80.566,26.367,3.418,1791.417,312
534,1685412930.524,14.16,23.438,36.133,1.465,1791.421,312
535,1685412930.528,-25.391,-395.996,-7.324,-36.621,1791.425,306
536,1685412930.532,-32.715,-970.215,73.242,-41.016,1791.428,306
537,1685412930.536,-14.16,-234.863,296.387,-20.508,1791.432,306
538,1685412930.54,-4.883,416.016,113.77,-17.09,1791.436,301
539,1685412930.544,-31.738,106.934,12.695,-42.969,1791.44,301
540,1685412930.56,-37.598,81.543,75.684,-50.781,1791.458,294
541,1685412930.564,-9.766,181.641,26.855,-29.297,1791.462,294
542,1685412930.568,4.395,45.41,31.25,-17.578,1791.466,286
543,1685412930.572,-8.789,-217.285,66.406,-20.02,1791.47,286
544,1685412930.576,-22.949,-132.812,58.105,-30.273,1791.473,286
545,1685412930.58,-15.137,-41.504,30.762,-23.438,1791.477,272
546,1685412930.583,-7.812,-64.941,23.926,-0.488,1791.481,272
547,1685412930.587,-10.742,-415.527,85.938,-1.953,1791.485,272
548,1685412930.591,-20.508,-340.82,204.102,-28.809,1791.489,272
549,1685412930.591,-18.555,198.73,48.34,-33.203,1791.487,272
550,1685412930.595,-19.043,344.727,85.938,-35.645,1791.493,258
551,1685412930.595,-20.996,287.109,41.016,-41.992,1791.491,258
552,1685412930.599,-4.883,201.66,8.301,-6.836,1791.497,258
553,1685412930.599,-14.648,91.797,33.691,-18.555,1791.495,258
554,1685412930.603,-7.324,37.598,37.598,-11.23,1791.499,258
555,1685412930.603,-8.301,-2.441,26.367,-0.488,1791.501,258
556,1685412930.607,-13.184,33.203,48.34,-26.855,1791.503,258
557,1685412930.611,-17.578,-110.352,50.781,-33.203,1791.507,242
558,1685412930.614,-10.742,-420.898,30.762,-16.602,1791.511,242
559,1685412930.618,-6.836,-580.566,57.617,2.441,1791.514,242
560,1685412930.622,-12.695,-27.832,91.309,-11.719,1791.518,226
561,1685412930.626,-20.996,267.09,52.734,-28.809,1791.522,226
562,1685412930.63,-27.344,-284.668,-34.18,-19.531,1791.526,226
563,1685412930.634,-18.066,-1000.0,47.852,3.418,1791.53,210
564,1685412930.636,-8.789,-321.289,212.891,-12.695,1791.546,210
565,1685412930.64,-12.695,227.539,51.27,-41.504,1791.55,210
566,1685412930.644,-7.812,-31.738,23.926,-27.344,1791.554,210
567,1685412930.648,1.465,162.598,116.699,-2.93,1791.558,210
568,1685412930.652,-1.465,326.172,47.852,-4.883,1791.562,193
569,1685412930.656,-9.277,21.484,-6.348,-20.02,1791.566,193
570,1685412930.659,-11.719,-641.602,45.898,-15.625,1791.569,193
571,1685412930.663,-6.348,-497.07,138.672,-3.906,1791.573,176
572,1685412930.667,-2.93,315.43,104.004,-6.348,1791.577,176
573,1685412930.671,-11.23,190.918,-10.254,-21.484,1791.581,176
574,1685412930.675,-17.09,-310.547,85.449,-32.715,1791.585,159
575,1685412930.679,-10.742,-19.043,161.621,-6.348,1791.589,159
576,1685412930.681,6.348,418.945,54.199,20.508,1791.591,159
577,1685412930.685,8.789,118.164,-0.977,3.906,1791.595,159
578,1685412930.689,-14.16,-116.699,21.973,-18.555,1791.599,159
579,1685412930.693,-19.531,145.996,62.988,-7.324,1791.603,141
580,1685412930.697,-12.207,272.949,29.785,10.742,1791.607,141
581,1685412930.701,-6.348,-227.539,-33.691,8.301,1791.611,141
582,1685412930.704,-11.719,-735.352,0.488,-16.113,1791.615,127
583,1685412930.708,-24.902,-365.234,99.121,-26.367,1791.619,127
584,1685412930.712,-11.23,204.59,82.031,0.488,1791.623,127
585,1685412930.716,2.93,-233.887,-20.02,16.113,1791.627,127
586,1685412930.72,-17.578,-900.879,104.492,5.371,1791.63,113
587,1685412930.724,-23.926,-137.695,213.379,-9.277,1791.634,113
588,1685412930.741,-15.137,286.133,39.062,-3.418,1791.637,102
589,1685412930.745,-9.277,40.527,17.578,4.883,1791.641,93
590,1685412930.749,-10.742,65.918,55.176,-12.207,1791.645,93
591,1685412930.753,-19.531,230.469,36.133,-32.227,1791.649,93
592,1685412930.757,-10.254,190.918,20.996,-18.066,1791.653,93
593,1685412930.761,3.906,-176.758,19.531,4.395,1791.657,87
594,1685412930.764,1.953,-229.004,62.988,-1.953,1791.661,87
595,1685412930.768,-15.137,115.234,63.965,-24.902,1791.664,87
596,1685412930.772,-14.648,82.031,9.277,-25.879,1791.668,84
597,1685412930.776,-7.812,-381.348,76.172,-8.301,1791.672,84
598,1685412930.78,2.441,-155.762,116.211,-1.953,1791.676,84
599,1685412930.784,-0.488,223.145,22.949,-18.066,1791.68,84
600,1685412930.785,-12.695,-251.465,-36.133,-16.602,1791.695,84
601,1685412930.789,-2.441,-444.336,94.238,10.742,1791.699,84
602,1685412930.793,-4.395,117.676,161.133,2.93,1791.703,84
603,1685412930.797,-15.625,284.18,3.906,-23.926,1791.707,84
604,1685412930.801,-15.625,-111.328,4.883,-36.621,1791.711,87
605,1685412930.805,-5.859,-354.492,57.617,-25.391,1791.715,87
606,1685412930.808,0.0,-221.191,66.406,-5.371,1791.719,87
607,1685412930.812,1.465,-138.672,52.246,-11.719,1791.723,87
608,1685412930.816,-2.93,-536.133,-28.32,-27.832,1791.727,88
609,1685412930.82,-7.812,-977.539,66.895,-3.906,1791.73,88
610,1685412930.824,2.441,-246.094,292.969,9.277,1791.734,88
611,1685412930.828,-0.488,274.414,88.867,-10.254,1791.738,93
612,1685412930.831,-12.695,-40.527,-2.441,-22.461,1791.727,93
613,1685412930.835,-10.254,5.859,75.684,-16.113,1791.731,93
614,1685412930.839,6.348,104.98,33.691,1.465,1791.735,93
615,1685412930.843,5.859,-44.922,26.855,0.977,1791.739,100
616,1685412930.847,-25.391,-341.309,28.32,-24.902,1791.743,100
617,1685412930.851,-29.785,-481.934,30.762,-27.344,1791.747,100
618,1685412930.854,-5.859,-215.82,64.453,-7.324,1791.751,109
619,1685412930.858,2.93,-5.371,45.41,-2.93,1791.755,109
620,1685412930.862,-6.348,-255.371,68.848,-6.836,1791.759,109
621,1685412930.866,-14.648,-155.273,117.188,-12.207,1791.762,119
622,1685412930.87,-4.395,324.219,54.688,-4.883,1791.766,119
623,1685412930.874,7.324,103.516,-15.137,5.859,1791.77,119
624,1685412930.876,-10.742,-311.523,78.613,-18.066,1791.772,119
625,1685412930.88,-27.832,-37.598,145.02,-28.32,1791.776,119
626,1685412930.884,-12.207,220.703,25.391,-6.348,1791.78,130
627,1685412930.888,7.324,20.508,20.996,17.578,1791.784,130
628,1685412930.892,6.836,-98.633,29.785,4.883,1791.788,130
629,1685412930.896,-4.395,-116.211,36.133,-26.367,1791.792,140
630,1685412930.899,-3.418,-231.934,43.945,-23.926,1791.796,140
631,1685412930.903,8.301,-437.988,19.043,0.0,1791.799,140
632,1685412930.907,5.371,-1000.0,10.254,6.836,1791.803,140
633,1685412930.911,-4.883,-721.191,105.957,-20.508,1791.807,150
634,1685412930.915,-5.859,13.672,82.52,-30.273,1791.811,150
635,1685412930.919,3.418,1.953,38.574,-14.648,1791.815,150
636,1685412930.921,8.789,80.566,84.961,-9.277,1791.817,150
637,1685412930.925,-14.648,275.879,36.621,-24.414,1791.821,160
638,1685412930.929,-26.855,106.445,-9.277,-39.062,1791.825,160
639,1685412930.933,-12.207,-67.871,57.617,-22.461,1791.829,160
640,1685412930.937,-6.836,82.52,50.781,-1.953,1791.833,171
641,1685412930.941,-14.16,-62.988,29.297,-11.23,1791.837,171
642,1685412930.944,-28.809,-253.906,66.895,-23.926,1791.841,171
643,1685412930.948,-19.531,-636.719,66.406,-9.277,1791.845,171
644,1685412930.952,-1.953,-489.746,259.277,6.348,1791.849,181
645,1685412930.956,-6.348,248.047,166.016,-10.742,1791.853,181
646,1685412930.96,-12.207,27.832,-30.273,-34.18,1791.857,181
647,1685412930.964,-2.93,-386.23,77.637,-20.508,1791.86,181
648,1685412930.965,8.301,-48.34,131.348,0.977,1791.862,192
649,1685412930.969,0.0,334.961,47.852,-8.301,1791.866,192
650,1685412930.973,-9.277,-101.074,-15.137,-24.414,1791.87,192
651,1685412930.977,-9.277,-470.703,37.598,-20.508,1791.874,201
652,1685412930.981,-2.441,-15.137,67.383,-0.977,1791.877,201
653,1685412930.985,5.859,17.09,8.789,4.883,1791.881,201
654,1685412930.988,0.977,-467.285,-18.555,-12.695,1791.885,201
655,1685412930.992,-14.648,-1000.0,26.855,-25.879,1791.889,201
656,1685412930.996,-5.371,-401.855,269.043,-22.949,1791.893,210
657,1685412931.0,14.16,253.418,112.305,3.418,1791.897,210
658,1685412931.004,-8.301,-159.668,17.09,3.906,1791.901,210
659,1685412931.008,-29.785,-193.848,110.84,-30.273,1791.905,219
660,1685412931.011,-21.973,176.758,57.129,-18.066,1791.921,219
661,1685412931.015,-11.719,210.449,16.602,-1.953,1791.925,219
662,1685412931.019,-7.324,-92.773,20.996,-20.02,1791.929,229
663,1685412931.023,-14.648,-91.309,73.242,-33.203,1791.933,229
664,1685412931.027,-17.09,84.473,25.391,-20.996,1791.937,229
665,1685412931.031,-3.418,-85.938,4.395,3.906,1791.941,229
666,1685412931.034,-5.371,-596.68,64.453,16.113,1791.945,238
667,1685412931.038,-14.648,-495.117,161.621,-7.324,1791.949,238
668,1685412931.042,-7.324,150.391,97.656,-19.043,1791.952,238
669,1685412931.046,12.695,101.074,34.668,-1.465,1791.956,238
670,1685412931.05,17.09,-93.75,28.809,6.348,1791.96,246
671,1685412931.054,-7.324,15.625,36.133,-14.648,1791.964,246
672,1685412931.057,-14.648,101.562,46.387,-30.273,1791.966,246
673,1685412931.061,-0.977,-301.758,-9.277,-0.488,1791.97,252
674,1685412931.065,10.254,-363.281,30.273,24.414,1791.974,252
675,1685412931.069,7.812,117.188,92.285,8.301,1791.977,252
676,1685412931.073,-10.742,109.375,27.344,-6.836,1791.981,252
677,1685412931.077,-8.301,-510.254,-58.105,-1.953,1791.985,257
678,1685412931.08,9.766,-802.246,95.215,18.066,1791.989,257
679,1685412931.084,15.625,-382.812,189.941,19.043,1791.993,257
680,1685412931.088,9.766,57.129,69.824,-8.301,1791.997,262
681,1685412931.092,0.977,-412.598,-15.625,-7.812,1792.001,262
682,1685412931.096,10.742,-708.008,156.738,13.672,1792.005,262
683,1685412931.1,12.207,148.438,241.211,2.93,1792.009,262
684,1685412931.115,3.418,241.211,4.883,-14.16,1792.012,264
685,1685412931.119,0.0,-135.742,31.25,-4.395,1792.016,265
686,1685412931.123,14.648,2.93,97.168,13.184,1792.02,265
687,1685412931.127,21.484,148.926,36.133,24.414,1792.024,265
688,1685412931.131,8.301,-22.949,29.297,6.348,1792.028,264
689,1685412931.135,1.465,-636.23,1.465,-10.254,1792.032,264
690,1685412931.138,7.812,-665.527,153.809,10.742,1792.036,264
691,1685412931.142,29.297,223.145,171.875,25.391,1792.039,264
692,1685412931.146,26.855,160.645,-10.742,19.531,1792.043,262
693,1685412931.15,6.836,-173.828,66.895,5.371,1792.047,262
694,1685412931.154,8.301,49.316,119.141,10.742,1792.051,262
695,1685412931.158,27.344,349.609,41.504,34.18,1792.055,261
696,1685412931.161,23.438,87.891,13.184,30.273,1792.057,261
697,1685412931.165,15.137,-147.949,23.438,6.836,1792.061,261
698,1685412931.169,18.555,87.891,51.758,-5.371,1792.065,263
699,1685412931.173,31.738,240.234,50.293,16.113,1792.069,263
700,1685412931.177,35.645,25.879,23.438,37.109,1792.073,263
701,1685412931.181,25.391,-393.555,38.574,24.414,1792.077,263
702,1685412931.184,25.879,-411.133,75.195,11.23,1792.081,263
703,1685412931.188,41.992,-247.559,75.684,20.508,1792.085,265
704,1685412931.192,57.129,-418.945,22.461,41.992,1792.089,265
705,1685412931.196,41.504,-1000.0,-6.348,40.039,1792.093,265
706,1685412931.2,21.484,-692.871,165.527,20.996,1792.097,266
707,1685412931.204,21.973,105.957,142.09,26.367,1792.1,266
708,1685412931.205,36.621,93.75,31.25,48.34,1792.102,266
709,1685412931.209,48.34,157.227,78.613,50.781,1792.106,266
710,1685412931.213,33.691,290.527,26.367,25.391,1792.11,267
711,1685412931.217,32.715,137.207,6.836,22.461,1792.114,267
712,1685412931.221,55.664,-17.09,29.785,46.875,1792.118,267
713,1685412931.225,67.383,-160.156,29.297,56.152,1792.122,267
714,1685412931.228,50.781,-92.773,65.918,42.969,1792.125,269
715,1685412931.232,30.762,95.703,42.48,31.738,1792.129,269
716,1685412931.236,43.945,-610.352,17.578,47.852,1792.133,269
717,1685412931.24,56.152,-594.238,131.348,65.43,1792.137,272
718,1685412931.244,49.805,277.832,96.68,46.875,1792.141,272
719,1685412931.248,45.41,73.242,-10.254,27.832,1792.145,272
720,1685412931.25,47.363,-175.781,13.672,38.086,1792.147,272
721,1685412931.254,60.547,209.961,73.73,62.012,1792.151,272
722,1685412931.258,66.406,373.047,39.551,55.664,1792.155,274
723,1685412931.262,53.711,-1.465,22.949,39.551,1792.159,274
724,1685412931.266,55.176,-102.539,43.945,49.805,1792.163,274
725,1685412931.27,57.129,-47.852,33.203,63.477,1792.167,277
726,1685412931.273,62.5,-150.879,51.758,62.5,1792.171,277
727,1685412931.277,65.43,-478.027,10.742,60.547,1792.175,277
728,1685412931.281,55.176,-1000.0,58.594,71.777,1792.178,279
729,1685412931.285,62.988,-331.055,293.457,85.449,1792.182,279
730,1685412931.289,69.336,318.848,149.902,83.984,1792.186,279
731,1685412931.293,65.918,-94.238,44.922,63.965,1792.19,279
732,1685412931.296,61.035,-104.492,130.371,57.129,1792.192,279
733,1685412931.3,62.5,294.434,71.777,69.336,1792.196,280
734,1685412931.304,74.707,266.113,7.324,79.102,1792.2,280
735,1685412931.308,78.125,-61.523,41.016,55.664,1792.204,280
736,1685412931.312,63.477,-94.727,60.059,41.992,1792.208,282
737,1685412931.316,65.918,-84.473,25.879,66.406,1792.212,282
738,1685412931.319,75.195,-79.59,37.598,81.543,1792.216,282
739,1685412931.323,70.801,-491.211,54.199,79.59,1792.219,285
740,1685412931.327,60.059,-474.121,172.363,67.871,1792.223,285
741,1685412931.331,59.57,211.426,113.281,72.754,1792.227,285
742,1685412931.335,82.031,125.488,13.672,95.703,1792.231,285
743,1685412931.339,53.711,-5.859,14.16,72.754,1792.235,288
744,1685412931.342,20.996,170.41,65.918,25.879,1792.241,288
745,1685412931.346,32.715,135.742,54.199,15.625,1792.244,288
746,1685412931.35,35.645,-266.602,-26.367,27.344,1792.248,290
747,1685412931.354,18.066,-384.277,21.484,34.668,1792.252,290
748,1685412931.358,13.184,56.152,57.617,16.113,1792.256,290
749,1685412931.362,-5.859,-77.148,9.277,-25.879,1792.26,291
750,1685412931.365,-7.812,-522.461,-3.418,-17.578,1792.264,291
751,1685412931.369,10.742,-956.543,58.105,4.883,1792.268,291
752,1685412931.373,-9.766,-375.488,212.891,-26.855,1792.272,291
753,1685412931.377,-25.879,254.395,62.012,-49.316,1792.276,291
754,1685412931.381,-22.949,-41.504,17.578,-32.227,1792.28,292
755,1685412931.385,-5.371,30.273,80.078,-20.508,1792.283,292
756,1685412931.385,-12.695,342.773,46.875,-49.316,1792.297,292
757,1685412931.389,-29.297,208.984,-3.906,-64.941,1792.301,292
758,1685412931.393,-15.137,-55.176,25.391,-41.016,1792.305,294
759,1685412931.397,5.859,72.754,74.219,-5.859,1792.308,294
760,1685412931.401,6.348,65.918,34.668,-5.371,1792.312,294
761,1685412931.405,0.488,-145.996,40.039,-30.273,1792.316,294
762,1685412931.408,2.441,-701.66,9.766,-21.973,1792.32,296
763,1685412931.412,16.602,-686.523,154.785,5.371,1792.324,296
764,1685412931.416,46.387,177.734,172.852,16.602,1792.328,296
765,1685412931.42,37.109,109.375,-8.789,20.02,1792.332,298
766,1685412931.424,19.043,-122.07,19.043,26.855,1792.336,298
767,1685412931.428,40.527,110.352,73.73,44.434,1792.34,298
768,1685412931.431,47.363,332.031,59.082,47.852,1792.342,299
769,1685412931.435,60.547,40.527,8.789,46.875,1792.345,299
770,1685412931.439,70.801,-191.406,10.742,52.734,1792.349,299
771,1685412931.443,78.125,132.812,55.176,73.73,1792.353,299
772,1685412931.447,90.332,350.098,32.715,94.727,1792.357,299
773,1685412931.451,98.633,-214.844,-39.551,95.703,1792.361,299
774,1685412931.454,94.727,-766.113,46.875,88.379,1792.365,299
775,1685412931.458,102.051,-402.344,110.84,99.121,1792.369,299
776,1685412931.462,121.582,-139.16,47.852,116.699,1792.373,300
777,1685412931.466,128.906,-417.969,11.23,119.141,1792.377,300
778,1685412931.47,119.141,-896.973,58.594,124.512,1792.381,300
779,1685412931.474,109.375,-360.84,126.953,129.883,1792.384,300
780,1685412931.49,126.465,201.172,41.504,146.973,1792.387,302
781,1685412931.494,135.742,103.027,33.203,158.203,1792.391,302
782,1685412931.498,132.812,124.512,59.57,143.555,1792.395,302
783,1685412931.502,127.93,228.027,31.25,136.23,1792.399,303
784,1685412931.506,146.484,164.062,10.742,161.133,1792.403,303
785,1685412931.51,169.434,-149.414,40.039,181.641,1792.407,303
786,1685412931.513,161.133,-170.41,78.613,159.18,1792.411,303
787,1685412931.517,147.949,171.387,61.035,135.742,1792.415,304
788,1685412931.521,146.484,124.512,18.555,153.809,1792.419,304
789,1685412931.525,154.297,-455.078,43.945,185.547,1792.422,304
790,1685412931.529,150.391,-323.242,94.238,176.27,1792.426,304
791,1685412931.533,139.648,271.484,54.199,145.508,1792.43,304
792,1685412931.551,149.902,-12.695,-7.812,153.32,1792.447,305
793,1685412931.555,163.574,-315.43,96.191,181.152,1792.451,306
794,1685412931.559,166.016,92.773,150.879,180.664,1792.455,306
795,1685412931.563,148.926,276.367,8.301,150.391,1792.459,306
796,1685412931.567,137.695,-101.074,13.672,145.02,1792.463,306
797,1685412931.571,153.809,-345.215,46.387,167.48,1792.467,308
798,1685412931.574,161.621,-246.582,49.805,176.27,1792.471,308
799,1685412931.578,146.484,-146.484,52.734,161.621,1792.475,308
800,1685412931.581,144.531,-130.371,18.555,142.09,1792.477,308
801,1685412931.582,133.301,-471.68,-10.742,144.043,1792.479,308
802,1685412931.585,138.184,-61.035,116.211,141.602,1792.481,309
803,1685412931.586,150.879,-982.91,71.777,161.621,1792.483,309
804,1685412931.589,162.109,367.676,53.223,169.434,1792.485,309
805,1685412931.59,169.922,-256.348,287.598,171.387,1792.486,309
806,1685412931.593,163.574,338.379,7.812,171.387,1792.489,309
807,1685412931.594,168.945,305.664,102.539,160.156,1792.49,309
808,1685412931.597,149.902,-12.207,9.277,154.785,1792.493,309
809,1685412931.601,148.926,-281.738,40.527,156.738,1792.497,309
810,1685412931.604,158.203,-17.09,89.355,167.48,1792.501,309
811,1685412931.608,163.086,239.258,52.734,177.734,1792.505,309
812,1685412931.612,151.367,-71.289,104.004,162.598,1792.508,309
813,1685412931.616,150.879,-25.879,152.344,153.32,1792.512,309
814,1685412931.62,166.016,307.129,76.172,164.551,1792.516,309
815,1685412931.624,175.293,229.492,3.906,182.617,1792.52,310
816,1685412931.625,166.992,-498.535,53.711,187.012,1792.522,310
817,1685412931.629,148.438,-317.871,174.805,161.133,1792.526,310
818,1685412931.633,152.832,170.41,68.359,169.434,1792.53,310
819,1685412931.637,165.039,-232.91,-22.949,186.523,1792.534,310
820,1685412931.641,158.203,-376.465,-8.301,177.734,1792.538,311
821,1685412931.645,143.066,-153.809,41.992,159.18,1792.542,311
822,1685412931.648,140.625,-159.18,41.504,159.668,1792.546,311
823,1685412931.652,158.203,-429.688,3.418,186.523,1792.549,311
824,1685412931.656,160.645,-933.105,36.621,196.289,1792.553,312
825,1685412931.66,138.672,-351.074,202.148,167.48,1792.557,312
826,1685412931.664,136.719,299.316,72.754,146.973,1792.561,312
827,1685412931.668,156.738,86.914,30.762,160.156,1792.565,314
828,1685412931.671,159.18,138.672,82.031,163.574,1792.567,314
829,1685412931.675,144.043,374.512,44.434,150.391,1792.571,314
830,1685412931.679,135.254,235.84,1.465,132.324,1792.575,314
831,1685412931.683,140.137,43.945,36.133,144.531,1792.579,314
832,1685412931.687,140.137,139.648,66.406,164.551,1792.583,314
833,1685412931.691,134.766,0.488,12.695,149.414,1792.587,314
834,1685412931.694,126.465,-131.348,43.945,133.789,1792.591,314
835,1685412931.698,119.629,-678.711,15.625,153.809,1792.595,314
836,1685412931.702,131.348,-658.691,135.254,172.852,1792.599,314
837,1685412931.706,137.695,245.117,157.715,161.621,1792.602,314
838,1685412931.71,127.93,108.887,10.254,142.09,1792.606,314
839,1685412931.714,123.535,-71.777,32.227,130.859,1792.61,314
840,1685412931.731,138.184,266.602,63.965,155.762,1792.627,315
841,1685412931.735,157.227,402.832,27.832,166.504,1792.631,315
842,1685412931.739,138.672,17.578,-0.488,136.23,1792.635,315
843,1685412931.743,119.141,-177.246,60.059,122.559,1792.639,315
844,1685412931.747,125.488,145.02,53.711,136.719,1792.643,315
845,1685412931.751,129.883,104.492,20.02,153.32,1792.647,316
846,1685412931.754,118.164,-404.297,-13.184,135.254,1792.651,316
847,1685412931.758,104.98,-1000.0,0.977,115.234,1792.655,316
848,1685412931.76,112.305,218.262,77.637,100.586,1792.671,316
849,1685412931.762,117.188,-548.34,266.602,122.07,1792.658,316
850,1685412931.764,115.234,308.594,6.836,113.281,1792.675,315
851,1685412931.766,123.535,279.297,142.09,139.16,1792.662,315
852,1685412931.768,108.398,109.375,13.184,104.492,1792.679,315
853,1685412931.77,112.305,-106.445,14.648,130.859,1792.666,315
854,1685412931.772,89.355,98.145,48.34,76.172,1792.683,315
855,1685412931.774,104.98,-309.57,158.691,107.91,1792.67,315
856,1685412931.776,93.75,156.25,13.184,79.59,1792.687,315
857,1685412931.78,111.328,-110.84,-14.648,104.492,1792.691,315
858,1685412931.783,98.633,-237.793,57.129,106.445,1792.695,315
859,1685412931.787,80.566,-27.344,68.848,74.707,1792.698,315
860,1685412931.791,80.078,180.664,25.391,69.336,1792.702,315
861,1685412931.795,86.426,143.555,-12.207,89.355,1792.706,315
862,1685412931.799,91.309,-579.59,25.391,98.633,1792.71,315
863,1685412931.803,80.078,-508.789,164.062,80.566,1792.714,315
864,1685412931.806,63.965,214.355,69.824,61.035,1792.716,316
865,1685412931.81,63.477,-25.879,-26.855,76.172,1792.72,316
866,1685412931.814,76.66,-184.082,11.719,87.891,1792.724,316
867,1685412931.818,73.242,149.902,48.828,76.172,1792.728,317
868,1685412931.822,62.012,225.586,8.789,63.965,1792.731,317
869,1685412931.826,63.477,-346.68,-39.551,66.895,1792.735,317
870,1685412931.829,78.613,-724.121,11.23,78.613,1792.739,317
871,1685412931.833,75.684,-290.527,95.703,70.312,1792.743,317
872,1685412931.837,58.594,152.344,52.734,51.758,1792.747,317
873,1685412931.841,53.223,-322.266,-31.738,57.129,1792.751,317
874,1685412931.845,65.918,-668.457,121.094,68.848,1792.755,317
875,1685412931.849,70.801,145.508,149.902,69.336,1792.759,317
876,1685412931.867,57.129,222.656,-29.785,64.453,1792.767,317
877,1685412931.871,49.316,-185.059,15.137,51.27,1792.771,317
878,1685412931.875,58.594,-60.547,71.289,53.711,1792.775,317
879,1685412931.879,59.082,329.59,24.902,55.176,1792.778,317
880,1685412931.883,44.434,240.234,-29.785,36.133,1792.782,317
881,1685412931.887,35.645,-515.625,1.953,22.461,1792.786,318
882,1685412931.89,49.316,-532.715,114.746,50.781,1792.79,318
883,1685412931.894,40.527,209.473,45.898,49.805,1792.794,318
884,1685412931.898,11.719,166.016,-32.227,10.742,1792.798,319
885,1685412931.902,1.953,-305.176,32.227,1.465,1792.802,319
886,1685412931.906,3.906,-230.469,42.48,15.137,1792.806,319
887,1685412931.91,15.137,126.953,-8.301,31.25,1792.81,319
888,1685412931.911,11.23,71.777,-36.621,35.156,1792.808,319
889,1685412931.915,-4.395,-136.719,-23.438,20.508,1792.811,318
890,1685412931.919,-11.23,52.734,13.184,3.418,1792.815,318
891,1685412931.923,0.488,28.32,-7.324,18.555,1792.819,318
892,1685412931.927,11.23,-222.656,-6.348,26.855,1792.823,317
893,1685412931.931,-7.324,-380.859,5.859,0.488,1792.827,317
894,1685412931.934,-14.16,-394.043,28.809,-14.16,1792.831,317
895,1685412931.938,-0.977,-281.738,24.414,3.906,1792.835,317
896,1685412931.942,-0.977,-381.836,-6.348,8.789,1792.839,317
897,1685412931.946,-12.207,-988.77,-57.129,-4.883,1792.843,317
898,1685412931.95,-19.043,-720.215,118.164,-28.32,1792.847,317
899,1685412931.954,-7.324,66.406,95.703,-24.414,1792.851,317
900,1685412931.971,4.395,30.273,-14.648,-3.906,1792.867,319
901,1685412931.975,-5.371,71.289,20.02,-12.207,1792.871,319
902,1685412931.979,-18.066,249.512,-6.836,-27.832,1792.875,319
903,1685412931.983,-22.949,155.762,-0.977,-22.461,1792.879,319
904,1685412931.987,-14.648,-20.996,-40.039,-3.418,1792.883,319
905,1685412931.991,-8.301,-173.828,-19.043,1.953,1792.887,319
906,1685412931.994,-25.391,-261.23,21.973,-28.809,1792.891,319
907,1685412931.998,-26.367,-183.594,-2.441,-36.621,1792.894,319
908,1685412932.001,-30.762,-99.609,-7.812,-36.133,1792.897,319
909,1685412932.002,-12.695,-658.691,-35.156,-2.93,1792.898,319
910,1685412932.005,-16.602,266.113,20.996,-16.113,1792.901,319
911,1685412932.006,-8.301,-705.078,85.449,4.395,1792.902,319
912,1685412932.009,-29.297,359.375,-21.484,-29.785,1792.905,319
913,1685412932.01,-23.438,125.0,93.75,-28.32,1792.906,319
914,1685412932.013,-43.945,-57.617,-35.645,-45.898,1792.909,319
915,1685412932.014,-41.016,23.926,-29.297,-51.27,1792.91,319
916,1685412932.017,-38.574,-186.035,-37.109,-24.902,1792.913,319
917,1685412932.021,-16.113,-41.992,-23.926,-10.742,1792.917,319
918,1685412932.024,-13.184,-132.324,3.418,-23.926,1792.92,319
919,1685412932.028,-41.016,-435.059,6.836,-39.551,1792.924,318
920,1685412932.032,-62.012,-496.094,39.062,-40.039,1792.928,318
921,1685412932.036,-44.922,-25.391,23.926,-21.484,1792.932,318
922,1685412932.04,-30.273,312.988,-16.113,-30.762,1792.936,319
923,1685412932.044,-48.828,-240.723,-65.918,-58.594,1792.94,319
924,1685412932.051,-60.547,-1000.0,-30.762,-60.547,1792.946,320
925,1685412932.055,-41.992,-538.574,65.918,-36.621,1792.95,320
926,1685412932.059,-36.621,228.516,1.465,-29.785,1792.954,320
927,1685412932.063,-52.734,87.891,-32.715,-45.41,1792.958,320
928,1685412932.067,-51.758,53.223,-9.766,-55.176,1792.962,320
929,1685412932.071,-35.156,-85.449,-20.996,-42.969,1792.966,320
930,1685412932.074,-24.414,-89.844,6.348,-25.391,1792.97,320
931,1685412932.078,-35.645,-471.191,11.23,-30.762,1792.974,320
932,1685412932.082,-49.316,-455.566,75.684,-51.758,1792.977,320
933,1685412932.086,-53.223,270.508,24.414,-59.57,1792.981,320
934,1685412932.09,-37.109,211.426,-28.32,-46.875,1792.985,320
935,1685412932.09,-53.223,3.906,18.555,-64.453,1792.987,320
936,1685412932.094,-36.621,-112.793,-14.16,-45.41,1792.989,320
937,1685412932.094,-66.895,285.645,15.625,-75.195,1792.991,320
938,1685412932.098,-52.734,26.855,-36.133,-50.293,1792.995,320
939,1685412932.102,-41.016,-281.738,-26.855,-40.039,1792.999,320
940,1685412932.106,-58.594,41.504,11.719,-63.965,1793.003,320
941,1685412932.11,-62.5,-0.488,-17.09,-71.777,1793.006,320
942,1685412932.113,-54.688,-428.711,-49.805,-48.34,1793.01,320
943,1685412932.117,-50.781,-859.375,0.977,-34.668,1793.014,320
944,1685412932.121,-63.477,-295.898,120.117,-61.035,1793.018,321
945,1685412932.125,-82.031,260.254,-7.812,-92.773,1793.022,321
946,1685412932.129,-70.801,-85.938,35.156,-73.242,1793.026,321
947,1685412932.133,-52.246,-13.184,102.539,-49.805,1793.03,321
948,1685412932.151,-61.523,353.027,-3.906,-63.965,1793.049,321
949,1685412932.155,-68.359,145.996,-43.945,-80.078,1793.053,321
950,1685412932.159,-63.965,-366.699,51.27,-71.777,1793.056,321
951,1685412932.163,-59.57,-170.41,136.719,-54.199,1793.06,320
952,1685412932.167,-62.012,262.207,13.184,-63.965,1793.064,320
953,1685412932.171,-76.172,-47.363,-53.223,-94.238,1793.068,320
954,1685412932.174,-83.496,-683.105,35.156,-97.656,1793.072,320
955,1685412932.178,-80.566,-445.801,154.785,-75.195,1793.076,320
956,1685412932.18,-59.082,335.938,10.742,-77.148,1793.092,320
957,1685412932.182,-79.59,312.988,41.504,-77.637,1793.08,320
958,1685412932.184,-73.73,87.891,-38.574,-84.473,1793.096,320
959,1685412932.186,-80.566,152.344,-42.48,-99.121,1793.084,320
960,1685412932.188,-94.238,-175.293,-22.949,-113.77,1793.1,320
961,1685412932.19,-83.008,-142.578,-9.766,-104.492,1793.088,320
962,1685412932.192,-92.773,74.219,19.531,-106.934,1793.103,320
963,1685412932.194,-71.777,41.016,21.484,-92.773,1793.092,320
964,1685412932.196,-78.125,74.219,7.812,-80.078,1793.107,320
965,1685412932.2,-80.078,-377.441,-21.484,-87.402,1793.111,320
966,1685412932.203,-91.309,-645.996,-11.719,-102.539,1793.115,321
967,1685412932.207,-87.891,-394.531,61.035,-86.426,1793.119,321
968,1685412932.211,-70.801,60.547,68.848,-66.406,1793.123,321
969,1685412932.215,-62.012,-183.105,-45.898,-68.359,1793.127,321
970,1685412932.219,-70.801,-1000.0,0.0,-74.707,1793.131,321
971,1685412932.223,-79.59,-537.109,155.762,-82.52,1793.135,321
972,1685412932.24,-70.312,193.359,37.598,-75.195,1793.137,321
973,1685412932.244,-69.336,25.879,-7.812,-64.941,1793.141,321
974,1685412932.248,-78.125,3.418,37.598,-83.984,1793.145,320
975,1685412932.252,-75.684,171.387,6.836,-103.027,1793.149,320
976,1685412932.256,-83.496,166.992,-15.625,-83.984,1793.153,320
977,1685412932.26,-77.148,-117.676,-12.695,-63.477,1793.157,321
978,1685412932.263,-66.895,-217.773,4.883,-79.59,1793.161,321
979,1685412932.267,-72.754,-118.652,28.32,-92.285,1793.165,321
980,1685412932.271,-78.125,11.23,20.02,-85.938,1793.169,321
981,1685412932.275,-66.895,-550.293,25.879,-64.941,1793.173,321
982,1685412932.279,-54.688,-549.805,103.027,-60.059,1793.177,321
983,1685412932.283,-69.336,202.148,8.789,-90.332,1793.18,321
984,1685412932.286,-77.148,0.488,-29.785,-105.469,1793.196,321
985,1685412932.29,-82.031,-81.055,-9.766,-85.449,1793.2,322
986,1685412932.294,-81.055,235.84,20.508,-73.242,1793.203,322
987,1685412932.298,-80.078,291.992,-10.254,-103.027,1793.207,322
988,1685412932.302,-86.914,-80.566,-50.293,-113.77,1793.211,322
989,1685412932.306,-68.359,-345.703,-18.066,-84.473,1793.215,322
990,1685412932.309,-58.105,-191.895,18.066,-64.941,1793.219,322
991,1685412932.313,-68.848,-124.023,0.488,-83.496,1793.223,322
992,1685412932.317,-88.379,-458.008,-44.434,-94.238,1793.227,322
993,1685412932.321,-80.078,-1000.0,13.184,-64.941,1793.231,322
994,1685412932.325,-75.684,-496.582,81.055,-59.57,1793.235,322
995,1685412932.329,-84.473,115.723,-12.207,-81.543,1793.239,321
996,1685412932.331,-79.102,-177.246,14.648,-89.844,1793.227,321
997,1685412932.335,-71.777,-49.805,58.594,-73.73,1793.231,321
998,1685412932.339,-59.57,325.195,8.301,-58.594,1793.235,321
999,1685412932.343,-52.246,343.75,-29.297,-72.754,1793.239,320
1000,1685412932.347,-67.383,40.527,-55.176,-87.891,1793.243,320
1001,1685412932.351,-91.309,-219.238,-12.207,-88.379,1793.247,320
1002,1685412932.354,-76.66,-40.527,50.781,-63.965,1793.251,321
1003,1685412932.358,-50.781,244.629,-19.531,-44.434,1793.255,321
1004,1685412932.362,-63.965,-412.109,16.113,-65.918,1793.258,321
1005,1685412932.366,-80.566,-421.387,154.297,-76.66,1793.262,321
1006,1685412932.37,-64.941,328.613,55.664,-58.105,1793.266,322
1007,1685412932.374,-55.176,163.086,-20.996,-47.852,1793.27,322
1008,1685412932.376,-63.965,-277.832,1.465,-65.918,1793.272,322
1009,1685412932.38,-67.871,-76.172,54.199,-85.449,1793.276,322
1010,1685412932.384,-54.688,329.102,45.41,-61.035,1793.28,322
1011,1685412932.388,-41.992,72.754,-37.109,-37.109,1793.284,322
1012,1685412932.392,-49.805,-277.832,-58.594,-48.828,1793.288,322
1013,1685412932.396,-66.406,-143.555,8.789,-78.613,1793.292,322
1014,1685412932.399,-73.242,-142.578,23.926,-87.402,1793.296,322
1015,1685412932.403,-51.758,-346.68,-17.09,-70.312,1793.3,322
1016,1685412932.407,-59.57,-896.484,9.766,-79.102,1793.303,322
1017,1685412932.411,-91.309,-403.809,124.512,-92.773,1793.307,321
1018,1685412932.415,-93.262,261.719,7.324,-83.008,1793.311,321
1019,1685412932.419,-80.078,63.477,-5.859,-65.43,1793.315,321
1020,1685412932.42,-73.242,164.551,40.527,-62.5,1793.317,321
1021,1685412932.424,-73.73,362.305,-10.254,-92.285,1793.321,321
1022,1685412932.428,-96.68,137.207,-41.016,-114.746,1793.325,321
1023,1685412932.432,-89.844,-275.879,37.109,-89.355,1793.328,321
1024,1685412932.436,-71.289,-95.703,47.363,-62.5,1793.332,321
1025,1685412932.44,-83.008,45.41,-35.156,-78.125,1793.336,322
1026,1685412932.443,-94.238,-121.582,-12.695,-96.68,1793.34,322
1027,1685412932.447,-100.098,-555.664,32.715,-92.285,1793.344,322
1028,1685412932.451,-94.238,-328.613,89.355,-80.566,1793.348,322
1029,1685412932.455,-79.59,462.891,13.184,-87.402,1793.352,323
1030,1685412932.459,-78.125,236.816,-23.926,-102.051,1793.356,323
1031,1685412932.463,-75.684,-70.312,-3.418,-95.215,1793.36,323
1032,1685412932.48,-59.082,195.312,19.043,-62.5,1793.377,323
1033,1685412932.484,-59.57,428.223,0.977,-67.871,1793.381,323
1034,1685412932.488,-97.168,84.473,-19.043,-92.773,1793.385,323
1035,1685412932.492,-103.516,-91.309,9.277,-76.66,1793.389,323
1036,1685412932.496,-72.266,179.199,-1.465,-65.43,1793.393,323
1037,1685412932.5,-63.477,110.84,0.977,-68.848,1793.397,323
1038,1685412932.503,-63.477,-319.824,-20.508,-68.359,1793.401,323
1039,1685412932.507,-74.219,-926.27,13.672,-69.824,1793.405,323
1040,1685412932.51,-70.312,12.695,121.582,-82.031,1793.421,323
1041,1685412932.511,-62.988,-460.449,138.184,-61.523,1793.408,323
1042,1685412932.514,-50.293,373.047,10.254,-58.105,1793.425,323
1043,1685412932.515,-32.715,354.492,64.941,-41.504,1793.412,323
1044,1685412932.518,-33.691,104.492,-2.441,-58.105,1793.429,323
1045,1685412932.519,-35.156,-203.125,-28.32,-51.27,1793.416,323
1046,1685412932.522,-52.246,76.66,57.129,-72.266,1793.433,324
1047,1685412932.523,-59.082,-763.184,53.223,-81.543,1793.42,324
1048,1685412932.526,-49.316,191.406,-6.348,-65.43,1793.437,324
1049,1685412932.53,-48.828,-23.438,-20.996,-45.41,1793.441,324
1050,1685412932.533,-51.27,-198.73,72.266,-55.664,1793.445,325
1051,1685412932.537,-52.734,-120.117,40.039,-77.148,1793.448,325
1052,1685412932.541,-63.965,-55.664,42.48,-81.055,1793.452,325
1053,1685412932.545,-52.246,158.691,46.387,-60.059,1793.456,325
1054,1685412932.549,-53.711,-524.902,-14.648,-33.691,1793.46,325
1055,1685412932.553,-73.73,-701.172,71.777,-67.871,1793.464,325
1056,1685412932.585,-72.266,188.965,86.426,-95.215,1793.482,324
1057,1685412932.589,-66.406,123.047,18.555,-75.195,1793.486,324
1058,1685412932.593,-38.086,5.859,15.625,-58.594,1793.49,325
1059,1685412932.597,-31.25,268.555,44.922,-77.637,1793.494,325
1060,1685412932.601,-54.688,267.578,33.691,-99.121,1793.498,325
1061,1685412932.605,-46.387,-274.414,-16.113,-67.383,1793.502,326
1062,1685412932.608,14.16,-572.754,54.688,8.301,1793.506,326
1063,1685412932.612,39.551,-190.43,155.273,23.926,1793.51,326
1064,1685412932.615,-12.695,400.879,156.25,-36.621,1793.513,327
1065,1685412932.616,17.09,201.172,131.348,-21.973,1793.514,327
1066,1685412932.619,-6.836,-182.617,72.266,-32.227,1793.517,327
1067,1685412932.62,20.02,-234.863,26.855,-24.902,1793.518,327
1068,1685412932.623,9.766,-197.754,293.945,-10.742,1793.521,327
1069,1685412932.624,6.836,-851.074,150.879,-7.324,1793.522,327
1070,1685412932.627,7.812,351.074,215.332,-8.789,1793.525,327
1071,1685412932.628,-10.254,-69.824,365.723,-11.23,1793.525,327
1072,1685412932.631,-1.465,343.75,49.316,-19.043,1793.528,327
1073,1685412932.635,-7.324,-163.574,34.668,-34.668,1793.532,326
1074,1685412932.638,-0.488,-191.895,121.094,-24.414,1793.536,326
1075,1685412932.642,10.742,293.945,128.418,-11.719,1793.54,326
1076,1685412932.646,11.719,232.91,43.945,-20.508,1793.544,325
1077,1685412932.65,-0.977,-133.301,133.301,-35.645,1793.548,325
1078,1685412932.654,-11.719,22.461,196.289,-39.551,1793.552,325
1079,1685412932.658,-9.766,363.77,98.145,-40.527,1793.556,325
1080,1685412932.66,-10.742,207.031,11.719,-51.27,1793.557,325
1081,1685412932.664,-12.695,-726.562,-7.324,-59.57,1793.561,325
1082,1685412932.668,-20.508,-604.492,261.719,-81.055,1793.565,325
1083,1685412932.672,-25.879,299.805,229.004,-89.844,1793.569,325
1084,1685412932.676,-7.812,158.691,29.785,-70.801,1793.573,325
1085,1685412932.68,-15.625,-209.473,45.898,-104.492,1793.577,325
1086,1685412932.683,-31.738,-191.406,93.75,-120.605,1793.581,325
1087,1685412932.687,-11.719,-84.473,83.496,-87.402,1793.585,326
1088,1685412932.691,-20.02,-271.973,20.996,-87.402,1793.588,326
1089,1685412932.695,-31.738,-875.488,46.875,-88.379,1793.592,326
1090,1685412932.699,-22.461,-367.676,267.578,-104.98,1793.596,326
1091,1685412932.703,-13.672,365.723,172.363,-99.609,1793.6,326
1092,1685412932.706,-18.555,208.984,58.105,-68.359,1793.602,326
1093,1685412932.71,-12.695,253.906,108.398,-82.52,1793.606,326
1094,1685412932.714,-13.184,380.859,48.828,-88.867,1793.61,325
1095,1685412932.718,-19.531,184.57,26.855,-73.242,1793.614,325
1096,1685412932.722,-18.066,-217.773,76.172,-60.547,1793.617,325
1097,1685412932.726,-21.973,-291.992,93.75,-47.363,1793.621,324
1098,1685412932.729,-27.344,63.965,95.215,-73.73,1793.625,324
1099,1685412932.733,-21.484,252.441,48.828,-72.266,1793.629,324
1100,1685412932.737,-3.906,-405.273,79.59,-17.578,1793.633,324
1101,1685412932.741,-13.184,-251.953,236.328,-21.484,1793.637,324
1102,1685412932.745,-39.062,385.254,81.055,-69.824,1793.641,324
1103,1685412932.749,-24.902,-34.668,-26.855,-68.359,1793.645,324
1104,1685412932.751,-1.465,-92.285,46.387,-32.715,1793.647,324
1105,1685412932.755,1.465,307.129,91.797,-20.996,1793.651,325
1106,1685412932.759,-8.301,489.746,47.363,-49.805,1793.655,325
1107,1685412932.763,-18.066,141.113,16.113,-56.152,1793.659,325
1108,1685412932.767,-18.555,-54.688,35.156,-28.32,1793.663,325
1109,1685412932.771,-21.484,-15.625,52.246,-18.066,1793.667,325
1110,1685412932.774,-30.273,-20.02,78.613,-37.598,1793.671,325
1111,1685412932.778,-22.949,-261.719,6.836,-48.828,1793.674,325
1112,1685412932.782,-5.859,-1000.0,-18.066,-2.93,1793.678,325
1113,1685412932.786,-6.348,-604.004,187.988,5.859,1793.682,324
1114,1685412932.79,-25.391,307.129,145.02,-35.645,1793.686,324
1115,1685412932.794,-47.363,123.535,31.738,-76.66,1793.69,324
1116,1685412932.811,-22.461,107.91,95.215,-52.734,1793.708,323
1117,1685412932.815,-2.93,405.762,63.965,-20.02,1793.712,323
1118,1685412932.819,-10.742,388.184,11.719,-27.344,1793.715,323
1119,1685412932.823,-15.625,129.395,21.973,-48.34,1793.719,323
1120,1685412932.827,-30.273,72.754,52.246,-65.918,1793.723,323
1121,1685412932.831,-43.457,8.789,27.832,-54.199,1793.727,323
1122,1685412932.834,-36.621,49.805,54.199,-53.223,1793.731,323
1123,1685412932.838,-37.109,-331.543,43.457,-54.688,1793.735,323
1124,1685412932.84,-51.758,97.168,88.379,-86.426,1793.738,323
1125,1685412932.842,-47.363,-493.164,72.266,-68.359,1793.739,323
1126,1685412932.844,-37.598,372.559,30.762,-83.496,1793.741,323
1127,1685412932.846,-51.758,97.656,74.707,-59.57,1793.743,323
1128,1685412932.848,-15.625,186.035,16.602,-48.34,1793.745,323
1129,1685412932.85,-38.086,211.914,21.484,-48.828,1793.747,323
1130,1685412932.852,-35.645,130.371,20.996,-49.316,1793.749,323
1131,1685412932.854,-35.645,-71.777,40.527,-67.871,1793.751,323
1132,1685412932.856,-54.688,329.59,19.531,-65.918,1793.753,323
1133,1685412932.86,-30.762,70.801,3.418,-49.805,1793.757,323
1134,1685412932.863,-20.02,-350.098,21.484,-27.344,1793.761,323
1135,1685412932.867,-23.438,-277.344,79.102,-36.621,1793.765,322
1136,1685412932.871,-23.926,249.023,73.242,-64.941,1793.769,322
1137,1685412932.875,-25.391,455.566,8.789,-47.852,1793.773,322
1138,1685412932.879,-23.926,-65.918,-24.902,-14.648,1793.777,321
1139,1685412932.883,-1.465,-1000.0,13.672,17.578,1793.781,321
1140,1685412932.886,16.113,-521.484,100.586,11.23,1793.786,321
1141,1685412932.89,-9.277,343.75,29.785,-30.762,1793.79,320
1142,1685412932.894,-19.043,210.449,23.926,-29.297,1793.794,320
1143,1685412932.898,11.23,310.547,87.402,0.488,1793.797,320
1144,1685412932.902,5.371,449.219,17.578,-12.695,1793.801,320
1145,1685412932.906,-7.812,245.117,-17.578,-30.762,1793.805,319
1146,1685412932.909,-3.418,-462.402,44.922,-28.32,1793.809,319
1147,1685412932.913,-14.16,-292.48,149.902,-8.301,1793.813,319
1148,1685412932.917,-9.277,609.375,95.215,2.93,1793.817,319
1149,1685412932.921,-16.113,446.777,12.695,-20.996,1793.821,318
1150,1685412932.925,-24.902,159.668,51.27,-32.715,1793.825,318
1151,1685412932.929,-21.484,402.832,76.66,-18.066,1793.829,318
1152,1685412932.946,-6.348,660.645,53.223,-6.836,1793.842,317
1153,1685412932.95,-2.93,345.703,11.23,-20.996,1793.846,314
1154,1685412932.954,-25.391,-13.672,14.648,-36.621,1793.85,314
1155,1685412932.958,-22.461,295.898,77.637,-20.508,1793.854,314
1156,1685412932.962,-19.043,567.871,54.199,-8.301,1793.858,312
1157,1685412932.966,-16.113,86.426,-62.5,-19.531,1793.862,312
1158,1685412932.969,-20.508,-751.465,27.832,-39.551,1793.866,312
1159,1685412932.973,-30.273,-465.82,188.965,-39.551,1793.869,312
1160,1685412932.977,-19.043,353.516,91.309,-15.137,1793.873,310
1161,1685412932.981,-18.555,43.945,11.719,-22.461,1793.877,310
1162,1685412932.985,-31.25,-319.824,59.082,-50.781,1793.881,310
1163,1685412932.989,-29.297,326.66,83.496,-55.176,1793.885,307
1164,1685412932.991,-15.137,517.578,23.438,-28.809,1793.888,307
1165,1685412932.995,-33.203,362.793,29.785,-32.227,1793.891,307
1166,1685412932.999,-48.34,383.301,50.293,-54.199,1793.895,307
1167,1685412933.003,-25.391,490.723,31.738,-44.434,1793.899,305
1168,1685412933.007,-15.137,409.18,37.598,-18.555,1793.903,305
1169,1685412933.011,-15.625,-2.93,46.875,-17.09,1793.907,305
1170,1685412933.014,-33.691,-104.98,86.426,-52.734,1793.911,305
1171,1685412933.018,-34.18,341.309,84.961,-64.941,1793.915,304
1172,1685412933.022,-15.137,467.285,15.137,-60.547,1793.919,304
1173,1685412933.026,-11.23,-190.43,71.289,-45.41,1793.923,304
1174,1685412933.03,8.301,-53.223,161.621,-41.016,1793.927,301
1175,1685412933.034,8.789,595.215,61.523,-60.547,1793.93,301
1176,1685412933.036,-8.789,355.957,15.625,-55.176,1793.932,301
1177,1685412933.04,-15.625,241.211,36.133,-41.992,1793.936,301
1178,1685412933.044,-5.859,528.809,64.453,-39.551,1793.94,298
1179,1685412933.048,-14.16,641.602,52.246,-47.852,1793.944,298
1180,1685412933.052,-27.344,307.129,5.371,-59.57,1793.948,298
1181,1685412933.056,-26.367,-5.371,13.184,-40.527,1793.952,298
1182,1685412933.059,-22.949,129.395,62.5,-21.973,1793.955,297
1183,1685412933.063,-20.508,201.172,46.875,-45.898,1793.959,297
1184,1685412933.067,-50.293,-97.168,6.348,-81.543,1793.963,297
1185,1685412933.071,-48.34,-918.457,17.578,-49.316,1793.967,296
1186,1685412933.075,-13.672,-497.07,130.859,-33.691,1793.971,296
1187,1685412933.079,-13.672,557.129,84.473,-63.477,1793.975,296
1188,1685412933.081,-42.48,387.695,33.203,-77.148,1793.978,296
1189,1685412933.085,-40.527,429.688,81.055,-67.383,1793.981,296
1190,1685412933.089,-17.09,744.141,55.664,-46.875,1793.985,296
1191,1685412933.093,-14.16,689.941,25.879,-30.273,1793.989,296
1192,1685412933.097,-22.949,373.535,4.883,-50.293,1793.993,296
1193,1685412933.101,-28.32,118.164,31.25,-62.988,1793.997,296
1194,1685412933.104,-25.879,339.844,88.379,-55.664,1794.001,296
1195,1685412933.108,-21.484,674.805,41.504,-59.082,1794.005,296
1196,1685412933.112,-36.621,-41.504,25.391,-64.453,1794.009,297
1197,1685412933.116,-43.457,-288.574,101.562,-53.711,1794.013,297
1198,1685412933.12,-23.438,438.477,84.961,-45.898,1794.017,297
1199,1685412933.124,-21.484,556.641,16.602,-52.734,1794.02,297
1200,1685412933.126,-27.832,199.219,35.156,-61.035,1794.022,297
1201,1685412933.13,-45.41,371.582,96.191,-79.59,1794.026,297
1202,1685412933.134,-41.016,672.363,37.598,-55.664,1794.03,297
1203,1685412933.138,-31.25,530.762,32.715,-28.809,1794.034,297
1204,1685412933.142,-48.828,442.383,9.766,-51.758,1794.038,300
1205,1685412933.146,-43.457,354.98,5.859,-77.637,1794.041,300
1206,1685412933.149,-40.527,211.914,50.293,-70.801,1794.045,300
1207,1685412933.153,-41.504,101.562,6.348,-53.711,1794.049,303
1208,1685412933.157,-41.992,-580.566,21.484,-46.875,1794.053,303
1209,1685412933.161,-38.086,-96.68,138.672,-77.637,1794.057,303
1210,1685412933.165,-26.855,721.68,48.34,-75.684,1794.061,303
1211,1685412933.169,-21.484,531.25,23.438,-46.387,1794.065,305
1212,1685412933.171,-17.09,497.559,87.402,-23.926,1794.071,305
1213,1685412933.175,-14.16,714.844,67.383,-28.32,1794.075,305
1214,1685412933.179,-17.09,824.219,1.953,-59.57,1794.079,305
1215,1685412933.183,0.0,410.645,60.059,-19.043,1794.083,307
1216,1685412933.187,2.93,447.754,111.328,16.113,1794.086,307
1217,1685412933.191,-29.297,633.789,14.648,-37.598,1794.09,307
1218,1685412933.194,-54.199,484.863,-0.488,-72.754,1794.094,307
1219,1685412933.198,-46.387,-31.25,49.805,-46.387,1794.098,307
1220,1685412933.202,-47.852,201.66,167.969,-38.574,1794.102,307
1221,1685412933.206,-64.941,-991.211,88.379,-76.172,1794.106,307
1222,1685412933.21,-66.406,789.062,3.906,-86.914,1794.11,308
1223,1685412933.214,-56.641,621.582,31.25,-68.848,1794.114,308
1224,1685412933.216,-34.668,874.023,61.523,-43.457,1794.112,308
1225,1685412933.22,-31.738,-968.75,31.25,-38.574,1794.116,308
1226,1685412933.224,-55.664,708.984,-20.996,-49.805,1794.12,309
1227,1685412933.228,-55.664,451.66,22.949,-66.895,1794.124,309
1228,1685412933.232,-40.527,779.297,46.387,-52.734,1794.128,309
1229,1685412933.236,-32.715,730.957,6.836,-31.25,1794.132,311
1230,1685412933.239,-36.621,325.684,-9.277,-57.129,1794.135,311
1231,1685412933.243,-54.199,-678.711,-42.969,-70.312,1794.139,311
1232,1685412933.247,-54.688,-425.781,168.945,-42.48,1794.143,311
1233,1685412933.251,-38.574,843.75,149.414,-23.438,1794.147,313
1234,1685412933.255,-35.645,761.23,18.555,-40.039,1794.151,313
1235,1685412933.259,-50.781,625.488,73.242,-54.199,1794.155,313
1236,1685412933.261,-46.387,881.348,62.988,-37.598,1794.171,313
1237,1685412933.265,-27.832,964.844,30.273,-24.414,1794.175,314
1238,1685412933.269,-36.621,774.414,24.902,-33.203,1794.179,314
1239,1685412933.273,-52.246,766.113,65.43,-63.965,1794.183,314
1240,1685412933.277,-55.664,791.504,10.254,-62.012,1794.187,314
1241,1685412933.281,-43.457,704.102,7.324,-21.973,1794.191,314
1242,1685412933.284,-33.203,26.855,15.137,-22.461,1794.195,314
1243,1685412933.288,-42.48,-141.602,72.754,-53.711,1794.199,314
1244,1685412933.292,-38.574,826.66,88.379,-69.336,1794.203,315
1245,1685412933.296,-29.785,812.012,18.066,-48.34,1794.206,315
1246,1685412933.3,-36.133,596.191,71.777,-34.18,1794.21,315
1247,1685412933.304,-47.363,845.703,79.102,-57.617,1794.214,317
1248,1685412933.306,-67.383,934.57,41.016,-61.523,1794.216,317
1249,1685412933.31,-65.43,705.078,11.23,-41.504,1794.22,317
1250,1685412933.314,-45.41,599.121,12.207,-33.203,1794.224,317
1251,1685412933.318,-55.176,827.148,43.945,-50.293,1794.228,317
1252,1685412933.322,-61.523,892.578,30.273,-64.941,1794.232,318
1253,1685412933.326,-47.852,368.652,-30.762,-49.316,1794.236,318
1254,1685412933.329,-43.457,-83.984,29.297,-24.414,1794.24,318
1255,1685412933.333,-51.758,304.199,78.613,-29.297,1794.244,318
1256,1685412933.337,-70.801,529.297,17.09,-60.547,1794.248,318
1257,1685412933.341,-73.73,143.555,2.441,-57.129,1794.252,318
1258,1685412933.345,-62.012,-332.52,104.98,-17.578,1794.255,318
1259,1685412933.349,-46.387,449.707,166.504,-24.414,1794.259,318
1260,1685412933.38,-49.316,955.078,12.207,-51.758,1794.292,319
1261,1685412933.384,-60.059,624.512,29.785,-55.664,1794.296,319
1262,1685412933.388,-62.5,699.707,83.008,-31.25,1794.3,319
1263,1685412933.392,-54.688,980.957,56.152,-17.09,1794.304,319
1264,1685412933.396,-59.57,878.906,22.461,-28.32,1794.308,319
1265,1685412933.4,-70.312,355.469,9.277,-44.434,1794.312,319
1266,1685412933.4,-29.785,665.039,10.254,-17.578,1794.306,319
1267,1685412933.403,-75.195,232.422,58.105,-29.297,1794.316,319
1268,1685412933.404,-67.871,276.855,42.48,-30.762,1794.309,319
1269,1685412933.407,-61.523,712.891,78.125,-9.277,1794.319,319
1270,1685412933.408,-71.289,494.629,95.703,-23.438,1794.313,319
1271,1685412933.411,-43.457,835.449,9.766,-24.902,1794.323,319
1272,1685412933.412,-39.551,844.727,53.711,1.465,1794.317,319
1273,1685412933.415,-50.781,185.059,40.039,-36.133,1794.327,319
1274,1685412933.416,-27.344,651.367,11.719,-6.348,1794.321,319
1275,1685412933.419,-52.734,91.797,99.121,-26.855,1794.331,319
1276,1685412933.42,-46.875,229.004,5.859,-27.344,1794.325,319
1277,1685412933.423,-29.297,643.555,66.406,-10.742,1794.335,319
1278,1685412933.423,-66.406,237.305,62.012,-34.18,1794.329,319
1279,1685412933.427,-50.781,349.121,35.156,-25.391,1794.333,319
1280,1685412933.431,-31.25,207.52,54.688,-12.207,1794.337,319
1281,1685412933.435,-38.086,331.543,96.68,-33.203,1794.341,319
1282,1685412933.439,-50.293,691.895,45.41,-44.922,1794.345,319
1283,1685412933.443,-43.945,798.34,22.461,-19.531,1794.348,320
1284,1685412933.462,-27.832,264.648,23.438,13.672,1794.359,320
1285,1685412933.466,-22.461,-71.777,100.586,6.348,1794.363,320
1286,1685412933.47,-39.551,471.68,81.543,-34.18,1794.367,320
1287,1685412933.474,-47.852,706.055,19.043,-37.109,1794.371,321
1288,1685412933.478,-24.414,170.898,-12.695,-3.906,1794.375,321
1289,1685412933.482,-16.602,-932.129,4.395,15.137,1794.379,321
1290,1685412933.485,-40.527,-468.262,109.863,-11.23,1794.383,323
1291,1685412933.489,-47.363,553.223,70.801,-34.18,1794.386,323
1292,1685412933.493,-36.133,362.305,83.984,-4.395,1794.39,323
1293,1685412933.497,-34.668,558.594,99.609,5.371,1794.394,325
1294,1685412933.501,-49.316,868.652,16.113,-26.367,1794.398,325
1295,1685412933.505,-51.27,598.145,11.23,-47.363,1794.402,325
