,timestamps,TP9,AF7,AF8,TP10,Secondary Timestamp,emg_signal
0,1685756709.41,13.184,-418.457,144.043,-25.879,1300.317,336.0330222005337
1,1685756709.41,1.465,-396.973,66.406,-38.086,1300.321,339.92199773848745
2,1685756709.42,-45.41,-735.84,-80.078,-35.156,1300.325,345.9593571743944
3,1685756709.42,-59.57,-691.895,32.227,-24.414,1300.329,337.71507668180277
4,1685756709.42,-8.789,-527.344,82.031,-27.832,1300.333,324.14052569538075
5,1685756709.43,6.836,-808.105,-60.059,-39.062,1300.337,341.9128904826127
6,1685756709.43,-40.039,-1000.0,-295.898,-38.574,1300.34,333.3431119308303
7,1685756709.44,-67.871,-979.492,-220.703,-27.344,1300.344,335.07607298773615
8,1685756709.44,-22.949,-596.191,207.52,-33.691,1300.348,331.9992432815498
9,1685756709.44,1.953,-477.539,139.16,-41.016,1300.352,330.5244630128157
10,1685756709.45,-33.691,-818.359,-70.801,-45.898,1300.356,340.38503494526327
11,1685756709.45,-65.918,-696.289,55.664,-37.598,1300.36,344.23679444485015
12,1685756709.45,-31.25,-406.25,149.902,-26.855,1300.363,340.70355783728075
13,1685756709.46,13.672,-514.16,21.484,-20.996,1300.367,336.77722224625313
14,1685756709.46,-13.184,-811.035,-55.176,-32.227,1300.37,342.19878015459665
15,1685756709.46,-61.523,-671.875,49.316,-41.016,1300.374,340.45663794166524
16,1685756709.47,-41.504,-602.539,86.914,-23.438,1300.378,343.75589379831854
17,1685756709.47,7.324,-880.859,-91.309,-13.184,1300.382,339.43084551917696
18,1685756709.48,-10.254,-986.816,-231.445,-22.949,1300.386,337.0364772530694
19,1685756709.48,-56.641,-1000.0,25.879,-31.738,1300.39,339.7711408519641
20,1685756709.48,-60.059,-871.094,199.219,-22.949,1300.394,341.62715181746603
21,1685756709.49,-9.277,-684.082,41.504,-20.996,1300.398,343.5367416078977
22,1685756709.49,-0.977,-917.48,-213.867,-28.32,1300.402,347.8683033128063
23,1685756709.49,-40.527,-755.859,53.223,-42.48,1300.406,339.53468509774
24,1685756709.51,-69.336,-498.535,191.895,-43.945,1300.41,340.7618259820914
25,1685756709.52,-31.25,-636.719,1.953,-24.902,1300.414,336.88605597921924
26,1685756709.52,13.672,-616.211,56.152,-15.137,1300.418,330.8732318168692
27,1685756709.52,-17.09,-468.75,93.75,-32.715,1300.422,331.06841006252824
28,1685756709.53,-58.594,-520.996,28.32,-33.203,1300.426,338.8875257901486
29,1685756709.53,-27.344,-835.938,-117.676,-20.508,1300.43,341.36454897139146
30,1685756709.54,13.672,-954.59,-71.777,-28.809,1300.433,338.97909631858204
31,1685756709.54,0.488,-613.281,109.375,-32.715,1300.437,343.7657740966851
32,1685756709.54,-41.504,-526.855,62.5,-28.809,1300.441,338.45840569340646
33,1685756709.55,-55.664,-893.066,-228.027,-27.832,1300.445,337.7196389783859
34,1685756709.55,-10.254,-979.98,-63.477,-31.25,1300.449,341.9538580489208
35,1685756709.56,-6.836,-561.035,193.848,-45.41,1300.453,341.16807580850144
36,1685756709.56,-54.688,-541.992,32.227,-57.617,1300.452,346.548414292111
37,1685756709.56,-60.059,-905.273,-160.156,-45.898,1300.456,339.1706878514493
38,1685756709.56,-9.766,-700.195,47.852,-30.273,1300.46,342.43549368127043
39,1685756709.57,10.742,-411.133,166.016,-36.621,1300.464,341.80909706549033
40,1685756709.57,-24.902,-629.395,-69.824,-42.969,1300.468,344.3015284696044
41,1685756709.58,-60.547,-942.871,-148.438,-44.434,1300.472,339.63984368128314
42,1685756709.58,-35.645,-997.559,19.531,-42.48,1300.476,338.3301243098092
43,1685756709.58,12.695,-848.633,109.863,-41.992,1300.48,342.1377821409789
44,1685756709.59,-4.883,-750.0,-20.508,-36.621,1300.484,340.47116903881647
45,1685756709.59,-62.012,-974.121,-263.672,-28.809,1300.488,335.7239968639718
46,1685756709.6,-49.805,-753.906,104.492,-31.25,1300.492,329.1763116610104
47,1685756709.6,1.465,-385.254,229.004,-23.926,1300.495,337.5846960321889
48,1685756709.62,-0.977,-695.312,-57.617,-32.715,1300.515,342.2171102094944
49,1685756709.62,-45.898,-884.277,6.348,-41.016,1300.519,345.13680126757936
50,1685756709.62,-56.152,-584.961,137.207,-27.344,1300.523,336.67360262726345
51,1685756709.63,-11.719,-486.816,91.309,-29.785,1300.527,345.98497548001524
52,1685756709.63,5.371,-794.434,-109.863,-29.785,1300.531,338.3977372361634
53,1685756709.64,-34.18,-1000.0,-157.227,-27.832,1300.535,338.60128599239374
54,1685756709.64,-64.941,-944.336,28.809,-25.391,1300.539,339.8272168838821
55,1685756709.64,-23.438,-628.418,149.902,-25.879,1300.542,339.85800553656406
56,1685756709.65,-0.488,-733.398,3.906,-43.457,1300.543,341.0401057660475
57,1685756709.65,12.695,-809.082,-154.297,-28.809,1300.546,347.8529546362036
58,1685756709.65,-23.438,-634.766,43.945,-50.293,1300.547,340.04216201197505
59,1685756709.65,-26.367,-967.773,-128.418,-43.457,1300.55,338.9568846122994
60,1685756709.65,-68.848,-651.855,35.156,-42.969,1300.551,340.1636106244636
61,1685756709.66,-67.383,-601.074,175.781,-48.34,1300.554,341.26721302954115
62,1685756709.66,-51.758,-906.25,-71.777,-25.879,1300.555,340.6809606852534
63,1685756709.66,-36.133,-516.602,78.613,-38.574,1300.558,334.1150176890789
64,1685756709.66,1.953,-939.941,-123.535,-20.02,1300.559,340.93625187341274
65,1685756709.67,-9.766,-927.246,20.996,-26.367,1300.563,335.95576513521115
66,1685756709.67,-56.641,-977.539,33.691,-37.598,1300.566,339.7735303141051
67,1685756709.67,-65.43,-1000.0,-21.484,-29.297,1300.57,332.34431454551475
68,1685756709.68,-18.555,-835.449,29.297,-24.414,1300.574,339.40462365051525
69,1685756709.68,-5.859,-545.898,105.957,-40.527,1300.578,344.03595903550746
70,1685756709.68,-50.781,-537.598,94.727,-49.805,1300.582,347.19830555906475
71,1685756709.69,-79.102,-778.32,-87.402,-37.598,1300.586,333.57814987383773
72,1685756709.69,-35.645,-1000.0,-289.062,-17.578,1300.59,338.979525311916
73,1685756709.7,0.0,-732.422,126.953,-24.414,1300.594,349.3220959134174
74,1685756709.7,-31.738,-506.836,199.707,-39.551,1300.598,346.91250993725987
75,1685756709.7,-69.824,-782.227,-41.504,-40.039,1300.602,342.6960738694528
76,1685756709.71,-45.898,-732.422,76.172,-42.969,1300.606,335.092463538813
77,1685756709.71,0.488,-783.691,39.551,-41.504,1300.61,341.4333270563584
78,1685756709.72,-9.277,-946.777,20.996,-40.527,1300.614,343.15121742571165
79,1685756709.72,-60.547,-994.141,-164.551,-37.598,1300.618,351.56653372793414
80,1685756709.72,-67.383,-958.496,-174.805,-33.691,1300.622,345.67989865767754
81,1685756709.73,-22.949,-511.23,218.75,-41.016,1300.625,342.4574198661534
82,1685756709.73,-20.02,-456.055,115.234,-50.781,1300.629,349.3324426450572
83,1685756709.74,-62.012,-818.848,-59.57,-55.176,1300.633,336.6201764673877
84,1685756709.74,-79.102,-658.203,81.543,-41.992,1300.633,342.74933549704576
85,1685756709.74,-35.156,-352.539,133.789,-43.945,1300.637,335.91412300521574
86,1685756709.74,-8.789,-497.559,-40.527,-51.27,1300.641,344.7458670844116
87,1685756709.75,-41.504,-797.363,-95.215,-54.199,1300.645,334.7812003128462
88,1685756709.75,-73.242,-703.125,27.832,-41.504,1300.648,338.0815296512836
89,1685756709.76,-38.574,-818.359,1.465,-33.203,1300.652,336.7525883690356
90,1685756709.76,1.953,-932.129,-32.227,-42.969,1300.656,335.1470041752935
91,1685756709.76,-22.949,-976.562,-306.152,-44.434,1300.66,340.4334753820359
92,1685756709.77,-65.918,-983.887,-98.633,-41.016,1300.664,341.11930936963415
93,1685756709.77,-40.039,-592.285,261.719,-28.809,1300.668,335.16712841604823
94,1685756709.78,17.09,-559.082,35.156,-19.043,1300.672,340.2550489948002
95,1685756709.78,5.859,-815.43,-43.457,-27.832,1300.676,344.93394638236157
96,1685756709.8,-44.922,-607.422,112.793,-39.551,1300.707,344.315491815972
97,1685756709.8,-44.922,-455.566,112.305,-32.227,1300.711,343.4353628988982
98,1685756709.8,11.719,-629.395,-29.785,-21.973,1300.715,346.501134502735
99,1685756709.81,17.09,-644.531,37.109,-31.738,1300.719,339.4717084628863
100,1685756709.81,-24.414,-539.062,55.176,-44.434,1300.723,343.93708390033305
101,1685756709.82,-51.27,-838.867,-97.168,-39.551,1300.727,341.4466526585256
102,1685756709.82,-15.137,-1000.0,-156.25,-23.926,1300.73,345.7913103748439
103,1685756709.82,10.254,-846.68,-52.734,-19.043,1300.734,341.1018818831731
104,1685756709.83,-20.02,-547.852,126.953,-49.316,1300.737,330.19617275567003
105,1685756709.83,-26.855,-541.504,153.809,-29.297,1300.738,335.87666684815116
106,1685756709.83,-65.43,-573.73,21.484,-48.828,1300.74,343.6863526003149
107,1685756709.83,-66.895,-525.391,83.496,-37.598,1300.742,340.83263308411455
108,1685756709.83,-47.852,-918.945,-178.223,-24.902,1300.744,341.83722262214405
109,1685756709.84,-37.598,-831.055,-97.656,-24.902,1300.746,329.4191179272471
110,1685756709.84,-0.488,-679.199,34.18,-28.32,1300.748,329.76551377098724
111,1685756709.84,0.977,-877.441,-25.879,-26.367,1300.75,340.6882674556694
112,1685756709.84,-4.395,-543.457,122.559,-42.48,1300.752,338.88748162916875
113,1685756709.85,-51.758,-918.457,-176.27,-33.691,1300.756,334.12318235843594
114,1685756709.85,-58.594,-1000.0,-180.664,-15.137,1300.76,333.76262143855746
115,1685756709.85,-1.953,-842.285,114.746,-11.719,1300.764,339.45080822642893
116,1685756709.86,8.301,-551.758,176.27,-29.297,1300.768,341.33657012834004
117,1685756709.86,-31.25,-680.176,-68.848,-32.227,1300.772,341.32207269182743
118,1685756709.86,-58.105,-979.98,-246.582,-17.578,1300.776,338.20417283712817
119,1685756709.87,-25.879,-666.992,95.703,-29.297,1300.78,343.2512554944398
120,1685756709.89,4.395,-412.109,187.988,-46.387,1300.797,340.04308379468347
121,1685756709.89,-19.531,-780.273,-114.258,-44.922,1300.801,340.39303886403087
122,1685756709.89,-60.059,-949.219,-107.422,-37.598,1300.805,345.0455029172036
123,1685756709.9,-40.527,-537.598,204.59,-35.156,1300.809,337.76748997838564
124,1685756709.9,-0.977,-387.207,115.723,-31.738,1300.813,331.8699866092924
125,1685756709.91,-18.066,-828.613,-203.125,-29.297,1300.817,334.8068198872722
126,1685756709.91,-61.035,-994.141,-61.523,-31.738,1300.821,333.40137377770264
127,1685756709.91,-52.734,-613.281,206.543,-29.785,1300.825,331.40978871656955
128,1685756709.92,-0.977,-411.621,109.863,-27.344,1300.829,341.3287571333154
129,1685756709.92,-5.371,-796.387,-217.285,-35.156,1300.832,340.7517269930697
130,1685756709.92,-51.27,-813.965,-62.988,-39.062,1300.836,340.0110649990574
131,1685756709.93,-55.664,-513.672,145.996,-32.715,1300.84,337.7957658632329
132,1685756709.93,-17.578,-520.02,35.156,-27.344,1300.828,331.97593691816684
133,1685756709.94,-0.977,-759.766,-16.602,-28.32,1300.832,335.16079987637943
134,1685756709.94,-34.668,-653.809,37.598,-32.715,1300.836,334.4638983146985
135,1685756709.94,-67.383,-612.305,28.809,-29.785,1300.84,339.7732280249091
136,1685756709.95,-27.832,-872.07,-92.285,-18.066,1300.844,338.493195143307
137,1685756709.95,-7.324,-978.516,-273.438,-15.625,1300.848,338.50434881834235
138,1685756709.96,-40.039,-1000.0,-46.387,-32.227,1300.852,347.1095445282149
139,1685756709.96,-53.711,-877.93,179.199,-20.02,1300.855,339.6390681219902
140,1685756709.96,-18.555,-765.625,6.836,10.742,1300.859,341.78791257087596
141,1685756709.97,-6.348,-906.738,-133.301,-5.371,1300.863,341.10700761840604
142,1685756709.97,-39.551,-667.969,94.238,-41.504,1300.867,341.28876224839706
143,1685756709.97,-74.219,-498.535,146.973,-39.062,1300.871,338.69113869956556
144,1685756709.98,-65.43,-727.051,-41.016,-15.137,1300.875,340.3657111068045
145,1685756709.98,-16.602,-852.051,-60.059,-18.555,1300.879,339.9472342518017
146,1685756709.99,-6.348,-555.664,134.277,-31.25,1300.883,331.6194639976037
147,1685756709.99,-51.27,-495.605,98.145,-23.438,1300.887,336.12379056842906
148,1685756709.99,-72.754,-808.594,-50.293,-8.301,1300.891,336.8180662224289
149,1685756710.0,-17.578,-962.402,-36.621,10.742,1300.895,339.68840195142525
150,1685756710.0,16.113,-928.711,21.484,16.602,1300.899,333.7228386312528
151,1685756710.0,-19.531,-929.199,28.809,19.531,1300.903,342.77662437049923
152,1685756710.01,-60.059,-1000.0,-149.414,39.551,1300.906,338.20653795871675
153,1685756710.01,-29.297,-946.289,-144.043,47.852,1300.91,337.5286633354546
154,1685756710.02,3.906,-527.344,203.613,28.32,1300.914,338.8585824540608
155,1685756710.02,-16.113,-545.898,107.422,27.832,1300.918,340.731715445858
156,1685756710.05,-61.523,-845.703,-22.461,30.762,1300.948,347.5105633557089
157,1685756710.06,-39.551,-604.492,109.375,26.855,1300.952,335.3829941340645
158,1685756710.06,19.531,-404.297,110.84,24.414,1300.956,337.7343682338367
159,1685756710.06,14.648,-604.492,-59.57,17.578,1300.96,341.82667133682475
160,1685756710.07,-20.996,-921.875,-162.109,26.855,1300.964,334.9132675646796
161,1685756710.07,-9.277,-808.105,-23.438,15.625,1300.965,338.12219445406913
162,1685756710.07,-21.484,-969.238,-69.336,36.133,1300.968,335.74328720982993
163,1685756710.07,-55.176,-623.047,87.402,12.207,1300.969,341.73084542971
164,1685756710.08,16.113,-929.688,72.266,33.691,1300.972,330.0212013298652
165,1685756710.08,-15.625,-485.352,96.191,14.648,1300.973,334.5245052368657
166,1685756710.08,6.836,-929.688,19.531,19.531,1300.975,340.58611952621175
167,1685756710.08,21.973,-663.574,-14.16,12.207,1300.977,334.54435222061585
168,1685756710.08,-37.598,-991.211,-326.172,20.508,1300.979,340.88190397889366
169,1685756710.08,-13.672,-697.266,10.254,-0.977,1300.981,336.6795675990238
170,1685756710.09,-58.105,-988.77,-80.566,32.715,1300.983,323.69901253591576
171,1685756710.09,-43.457,-824.219,-94.727,6.348,1300.985,341.29824691175327
172,1685756710.09,-16.602,-572.266,259.766,25.391,1300.987,343.7711488519844
173,1685756710.09,-23.438,-998.535,-122.559,14.648,1300.988,345.6653985644222
174,1685756710.09,21.484,-550.293,31.25,20.996,1300.991,347.9032911841381
175,1685756710.1,23.438,-940.43,-55.664,4.883,1300.992,334.8478287027855
176,1685756710.1,18.066,-716.309,39.551,-9.277,1300.996,339.8086959001196
177,1685756710.1,-36.133,-566.406,134.277,-13.184,1301.0,333.53522321047194
178,1685756710.11,-47.852,-600.586,61.523,-3.418,1301.004,342.0851629302407
179,1685756710.11,2.441,-881.836,-233.398,-3.418,1301.008,341.47198975720426
180,1685756710.13,11.23,-999.023,-91.309,-16.113,1301.024,340.2783142659254
181,1685756710.13,-23.926,-677.246,175.781,-26.367,1301.028,337.73837731045995
182,1685756710.13,-45.41,-587.402,77.637,-19.531,1301.032,339.921696472033
183,1685756710.14,-4.395,-932.617,-265.137,-2.93,1301.036,336.3310749128997
184,1685756710.14,17.09,-952.148,-111.816,-13.184,1301.04,334.7958952792578
185,1685756710.15,-14.16,-850.586,176.27,-30.762,1301.044,339.3386187501026
186,1685756710.15,-42.969,-934.082,39.062,-21.484,1301.048,333.1684028837797
187,1685756710.15,-20.508,-1000.0,-226.074,-5.371,1301.052,336.781078767673
188,1685756710.16,23.438,-835.938,12.207,-7.324,1301.056,338.9784467552776
189,1685756710.16,7.324,-451.172,205.566,-23.438,1301.059,344.6398480222723
190,1685756710.16,-41.016,-588.379,26.855,-24.902,1301.063,336.69331743010105
191,1685756710.17,-39.062,-679.199,92.773,-9.277,1301.067,342.2814074312736
192,1685756710.17,13.184,-373.535,143.066,-9.766,1301.069,339.82005076574654
193,1685756710.18,18.066,-393.555,56.641,-20.996,1301.073,346.13042146632966
194,1685756710.18,-28.32,-815.918,-118.652,-25.879,1301.076,346.5475121885188
195,1685756710.18,-37.598,-733.398,24.414,-14.648,1301.08,344.9894533561694
196,1685756710.19,7.812,-416.504,149.414,-6.348,1301.084,349.0440070347762
197,1685756710.19,21.973,-729.98,-81.543,-15.625,1301.088,345.35571051183774
198,1685756710.2,-18.555,-987.305,-248.535,-24.414,1301.092,337.66510282832184
199,1685756710.2,-47.363,-751.465,7.324,-13.672,1301.096,339.5136024039208
200,1685756710.2,-27.832,-536.133,225.586,-24.414,1301.113,337.86250983283145
201,1685756710.2,-6.836,-479.004,167.969,-1.465,1301.1,342.7696003662855
202,1685756710.2,11.23,-499.023,69.336,-20.508,1301.116,336.79014426674047
203,1685756710.21,24.414,-441.406,88.867,-17.09,1301.104,342.1227607583892
204,1685756710.21,-2.93,-787.109,-22.949,-28.32,1301.12,334.23175429422577
205,1685756710.21,-6.836,-857.422,-314.453,-32.715,1301.108,334.860296430425
206,1685756710.21,-39.062,-671.875,54.199,-39.062,1301.124,341.3941744568747
207,1685756710.21,-50.293,-958.984,-182.129,-32.227,1301.112,336.03513984466457
208,1685756710.22,-39.062,-572.266,89.355,-22.461,1301.128,344.17617168049134
209,1685756710.22,-2.441,-795.41,-26.855,-11.23,1301.132,344.05573177991647
210,1685756710.22,-6.836,-974.609,-278.32,-18.555,1301.136,337.2237986502764
211,1685756710.23,-50.293,-1000.0,-51.27,-34.668,1301.14,335.6944460043514
212,1685756710.23,-68.848,-853.027,176.758,-40.039,1301.144,340.6795344338006
213,1685756710.24,-21.973,-735.84,11.719,-23.438,1301.148,344.9233657638218
214,1685756710.24,1.953,-945.312,-212.402,-16.602,1301.152,342.452780818519
215,1685756710.24,-35.156,-725.586,61.035,-41.504,1301.155,342.88815900238546
216,1685756710.26,-60.547,-469.727,175.293,-40.527,1301.172,348.80047643170747
217,1685756710.27,-10.742,-667.969,-16.602,-21.484,1301.176,347.69303274175206
218,1685756710.27,23.438,-718.75,53.711,-29.297,1301.18,344.9769382869887
219,1685756710.28,-9.277,-521.484,106.934,-42.969,1301.184,350.94492144449157
220,1685756710.28,-50.293,-570.312,42.969,-37.598,1301.188,346.7584523595804
221,1685756710.28,-44.922,-920.898,-159.18,-23.438,1301.192,350.6116260265798
222,1685756710.29,-0.488,-881.348,-7.812,-20.508,1301.196,344.37386479297163
223,1685756710.29,0.977,-703.125,100.098,-23.926,1301.2,351.7886356924962
224,1685756710.3,-42.48,-916.992,-58.105,-27.832,1301.203,339.7106327979168
225,1685756710.3,-45.41,-1000.0,-135.254,-16.113,1301.207,349.25567687938405
226,1685756710.3,14.648,-809.082,70.801,-8.301,1301.211,344.661191006588
227,1685756710.31,-54.688,-609.375,26.367,-50.781,1301.203,342.83403970243563
228,1685756710.31,20.508,-494.629,176.758,-25.879,1301.215,347.3063428522706
229,1685756710.31,-89.844,-822.754,1.953,-47.852,1301.207,340.08707992978316
230,1685756710.31,-38.086,-617.188,85.449,-39.062,1301.211,340.1997047330853
231,1685756710.32,-6.836,-475.098,83.008,-40.039,1301.215,347.35648038680233
232,1685756710.32,-43.945,-689.453,-106.445,-47.363,1301.219,353.11787635808423
233,1685756710.33,-93.262,-964.355,-160.156,-47.852,1301.222,342.23013613127904
234,1685756710.33,-59.57,-963.867,32.715,-38.086,1301.226,346.0891198907844
235,1685756710.33,-4.883,-929.199,91.309,-33.691,1301.23,338.67462847021153
236,1685756710.34,-22.461,-936.035,-11.719,-41.504,1301.234,342.6599817975835
237,1685756710.34,-75.195,-997.559,-252.93,-51.27,1301.238,353.6311802032659
238,1685756710.34,-63.477,-960.938,37.109,-51.27,1301.242,349.85226204693873
239,1685756710.35,-14.648,-583.496,239.258,-45.898,1301.246,350.20324689411444
240,1685756710.35,-19.043,-662.598,-81.055,-42.48,1301.25,343.6772229572079
241,1685756710.36,-48.828,-967.773,-195.312,-33.203,1301.254,341.6668083482176
242,1685756710.36,-59.57,-702.148,109.863,-28.32,1301.258,346.85841907180463
243,1685756710.36,-8.789,-442.383,169.434,-24.902,1301.262,350.1895845874067
244,1685756710.37,19.043,-677.246,-42.969,-22.949,1301.266,348.33719582789314
245,1685756710.37,-20.02,-1000.0,-177.734,-23.926,1301.269,345.1738568924822
246,1685756710.38,-57.617,-879.883,-20.996,-15.137,1301.273,340.65894176698015
247,1685756710.38,-24.414,-590.82,120.117,-18.066,1301.277,344.84059199428185
248,1685756710.38,14.16,-837.891,-150.879,-21.973,1301.281,340.0130851163458
249,1685756710.39,-16.113,-936.035,-111.328,-26.855,1301.285,347.9140261383617
250,1685756710.39,-57.617,-583.496,169.922,-28.32,1301.289,343.4127818558235
251,1685756710.4,-38.086,-518.555,78.125,-22.461,1301.293,349.3707535359477
252,1685756710.4,-0.488,-854.004,-51.27,-23.926,1301.294,343.4866646873079
253,1685756710.4,-17.578,-901.855,6.836,-33.203,1301.298,346.46340260221956
254,1685756710.4,-61.523,-605.469,108.887,-37.109,1301.302,346.29219827231316
255,1685756710.41,-61.523,-609.863,30.273,-22.949,1301.306,344.0561130513845
256,1685756710.41,-12.207,-930.664,-185.059,-12.695,1301.309,343.5810848254847
257,1685756710.42,0.977,-962.891,-68.848,-23.438,1301.313,339.4747250628614
258,1685756710.42,-39.062,-935.547,63.477,-28.809,1301.317,342.78584416723675
259,1685756710.42,-61.523,-984.863,7.324,-17.578,1301.321,347.6540141800018
260,1685756710.43,-13.672,-1000.0,-234.863,1.465,1301.325,350.9558900632449
261,1685756710.43,8.301,-877.441,-7.812,-4.883,1301.329,341.3443285051296
262,1685756710.44,-28.32,-565.918,219.727,-22.949,1301.333,350.09869018956874
263,1685756710.44,-57.617,-657.715,38.574,-19.531,1301.337,342.42532017313334
264,1685756710.45,-24.414,-661.621,107.91,-11.23,1301.345,344.2865601917421
265,1685756710.45,10.742,-384.766,139.648,-14.16,1301.349,336.90002710902036
266,1685756710.46,-15.625,-511.719,-6.836,-28.809,1301.353,336.29625766066977
267,1685756710.46,-60.059,-833.984,-157.227,-30.762,1301.356,339.34925287873017
268,1685756710.46,-47.363,-714.355,19.531,-30.762,1301.36,329.9647051226673
269,1685756710.47,-6.348,-754.883,11.23,-33.203,1301.364,340.6627398769868
270,1685756710.47,-15.625,-943.848,-112.793,-38.574,1301.368,344.09411835585286
271,1685756710.48,-57.617,-987.305,-239.746,-33.203,1301.372,337.82983488978107
272,1685756710.48,-62.5,-895.02,-83.984,-14.16,1301.376,341.7735897775376
273,1685756710.48,-12.695,-488.77,214.355,-26.367,1301.38,338.5469763014384
274,1685756710.49,-56.641,-765.137,18.066,-41.504,1301.383,332.91699159197816
275,1685756710.49,-1.465,-431.152,85.449,-40.039,1301.384,332.3052057198906
276,1685756710.49,-15.137,-422.852,139.648,-34.668,1301.387,331.5270745481121
277,1685756710.49,-38.086,-805.176,-81.543,-43.457,1301.388,340.0631908429019
278,1685756710.49,18.066,-505.371,15.137,-36.621,1301.391,331.61133372638466
279,1685756710.5,-5.859,-800.293,-57.617,-31.738,1301.394,341.28560096430476
280,1685756710.5,-42.48,-743.652,13.184,-14.16,1301.398,339.0796388651709
281,1685756710.51,-31.25,-892.578,-56.641,-16.602,1301.402,337.98824310499816
282,1685756710.51,-0.977,-966.797,-35.645,-31.25,1301.406,330.6017920168354
283,1685756710.51,-19.043,-986.328,-313.477,-29.297,1301.41,326.4328431925321
284,1685756710.52,-78.125,-994.141,-194.824,-27.832,1301.414,339.23098680314325
285,1685756710.52,-65.43,-626.465,232.422,-32.715,1301.418,320.8454125691826
286,1685756710.52,-0.977,-588.379,111.328,-38.086,1301.422,322.8659234178039
287,1685756710.53,-8.789,-699.219,82.031,-41.504,1301.426,330.7639755169186
288,1685756710.55,-51.758,-693.848,21.484,-39.551,1301.457,329.02630472408003
289,1685756710.55,-51.27,-638.672,39.551,-30.762,1301.461,325.9300008731981
290,1685756710.55,-5.371,-716.309,-8.301,-21.973,1301.465,329.94866718476976
291,1685756710.56,0.488,-704.59,24.414,-31.25,1301.469,327.8541072025002
292,1685756710.56,-46.387,-566.406,54.199,-41.016,1301.473,327.6519169330817
293,1685756710.57,-69.336,-851.074,-90.332,-34.18,1301.477,338.4117675613684
294,1685756710.57,-19.531,-1000.0,-168.945,-20.508,1301.48,340.4553584162425
295,1685756710.57,14.16,-838.867,-39.062,-29.785,1301.484,335.6707673020386
296,1685756710.58,-6.836,-461.914,119.629,-18.066,1301.487,331.9505578226047
297,1685756710.58,-14.648,-727.051,115.723,-39.551,1301.488,330.9243981723678
298,1685756710.58,-46.387,-665.039,-7.324,-28.32,1301.49,326.63135947616985
299,1685756710.58,-51.758,-904.297,32.227,-19.043,1301.492,333.08895457651244
300,1685756710.58,-48.34,-832.031,-23.438,-11.719,1301.494,340.9932328802214
301,1685756710.58,-21.973,-952.637,-78.125,-0.977,1301.496,329.91694156653557
302,1685756710.59,7.812,-575.195,85.449,-2.441,1301.498,331.6887792498968
303,1685756710.59,12.207,-662.109,77.637,-3.906,1301.5,332.94142443197103
304,1685756710.59,10.254,-592.285,46.875,-19.531,1301.502,324.34244664628966
305,1685756710.6,-46.875,-949.219,-229.492,-30.273,1301.506,324.80683794851495
306,1685756710.6,-68.848,-1000.0,-306.641,-23.926,1301.51,333.2593814112872
307,1685756710.6,-18.066,-854.492,73.242,-17.578,1301.514,334.93035986792376
308,1685756710.61,5.371,-516.602,214.355,-35.645,1301.518,338.02142229411095
309,1685756710.61,-28.809,-668.945,-89.844,-47.852,1301.522,330.0106943390636
310,1685756710.62,-60.059,-937.012,-123.535,-34.668,1301.526,336.99685756162825
311,1685756710.62,-31.25,-841.797,93.262,-33.203,1301.529,336.47504135319787
312,1685756710.64,0.977,-564.453,150.879,-47.852,1301.534,335.7325530935811
313,1685756710.64,-28.809,-753.418,-116.699,-49.805,1301.538,340.74689261575725
314,1685756710.64,-69.336,-978.027,-180.664,-34.18,1301.542,336.85448778209957
315,1685756710.65,-52.734,-646.973,151.855,-34.668,1301.545,346.06531970654976
316,1685756710.65,-9.766,-440.918,140.625,-46.875,1301.549,330.25247037069437
317,1685756710.66,-20.02,-815.43,-160.645,-41.992,1301.553,329.4389422031995
318,1685756710.66,-66.406,-985.352,-74.219,-39.062,1301.557,339.7124765953162
319,1685756710.66,-63.477,-592.773,179.688,-41.504,1301.561,333.0008232286061
320,1685756710.67,-0.488,-491.211,89.355,-34.668,1301.565,336.87117850656193
321,1685756710.67,7.324,-837.891,-182.617,-32.227,1301.569,332.56388133890243
322,1685756710.68,-37.598,-815.918,-41.992,-34.668,1301.573,342.0676093274827
323,1685756710.68,-54.688,-551.758,155.762,-31.738,1301.577,331.9465281095558
324,1685756710.68,-26.367,-552.734,50.781,-36.133,1301.579,347.6240651770978
325,1685756710.68,-11.23,-886.23,-110.84,-51.27,1301.582,332.8523451194884
326,1685756710.69,-41.992,-940.918,-80.566,-55.176,1301.586,341.1836125310234
327,1685756710.69,-77.637,-653.32,121.094,-32.227,1301.59,331.00077172465853
328,1685756710.7,-48.34,-675.781,14.16,-22.949,1301.594,338.9463866857119
329,1685756710.7,-5.859,-952.148,-292.48,-21.484,1301.598,323.8956729765666
330,1685756710.7,-23.926,-1000.0,-49.316,-27.344,1301.602,330.70031278147076
331,1685756710.71,-71.777,-835.938,196.777,-33.691,1301.606,336.1213511548848
332,1685756710.71,-61.523,-721.191,51.758,-29.785,1301.61,342.7688050999001
333,1685756710.72,-14.16,-935.547,-221.191,-27.344,1301.614,338.25646425007375
334,1685756710.72,-19.043,-748.047,42.969,-49.316,1301.618,336.82715200099705
335,1685756710.72,-61.035,-523.926,167.48,-63.477,1301.622,342.5131458677781
336,1685756710.73,-63.477,-707.52,-19.043,-40.527,1301.625,340.0382362159475
337,1685756710.73,-18.066,-666.016,80.078,-34.18,1301.629,338.28939658006584
338,1685756710.74,-3.906,-482.422,101.562,-49.805,1301.633,334.4943895583583
339,1685756710.74,-36.621,-608.887,2.441,-48.34,1301.637,334.56888249331627
340,1685756710.74,-65.918,-878.418,-121.094,-35.645,1301.641,335.2202879404039
341,1685756710.75,-23.926,-978.027,-44.922,-32.715,1301.645,340.15064064572977
342,1685756710.75,16.113,-934.57,64.453,-30.273,1301.649,338.9168533618352
343,1685756710.76,-12.695,-769.531,77.148,-38.574,1301.653,337.81023411422365
344,1685756710.76,-62.988,-912.109,-198.242,-43.457,1301.656,342.8746553019668
345,1685756710.76,-49.805,-911.621,-110.352,-36.621,1301.66,339.2472110829344
346,1685756710.77,6.348,-494.629,209.961,-31.25,1301.664,339.1447830766113
347,1685756710.77,1.465,-515.625,45.898,-26.855,1301.668,343.02453562252185
348,1685756710.77,-52.734,-840.332,-77.148,-32.227,1301.668,334.87099549488585
349,1685756710.78,-48.34,-750.977,52.246,-26.855,1301.672,331.24024110842845
350,1685756710.78,4.395,-514.648,125.0,-21.973,1301.675,335.1788177869077
351,1685756710.78,-1.465,-596.191,-3.418,-33.203,1301.679,337.61322304376375
352,1685756710.79,-42.969,-933.594,-158.691,-36.133,1301.683,336.33950311311827
353,1685756710.79,-54.688,-1000.0,-114.746,-33.203,1301.687,334.40722896672344
354,1685756710.8,-1.465,-974.609,12.695,-25.879,1301.691,335.3059007439377
355,1685756710.8,21.484,-971.68,23.926,-25.879,1301.695,338.9747685935515
356,1685756710.8,-17.09,-1000.0,-306.641,-30.273,1301.699,332.8154192698355
357,1685756710.81,-54.688,-975.098,-166.016,-22.461,1301.703,346.8588658148943
358,1685756710.81,-22.461,-583.496,238.77,-24.902,1301.707,341.63799133708926
359,1685756710.81,20.02,-569.336,96.191,-30.762,1301.711,336.39440800097003
360,1685756710.82,-6.348,-717.285,60.059,-44.434,1301.716,342.0059197318585
361,1685756710.82,-55.664,-547.363,106.445,-48.34,1301.719,343.3299422215069
362,1685756710.83,-36.133,-466.797,70.801,-37.598,1301.723,332.1407615978579
363,1685756710.83,14.16,-637.207,-24.902,-37.109,1301.727,335.3650949767212
364,1685756710.83,-1.953,-708.008,-10.254,-40.527,1301.731,332.3998462231282
365,1685756710.84,-60.059,-837.891,-107.422,-26.855,1301.735,335.41840193673005
366,1685756710.84,-58.594,-946.289,-70.801,-23.926,1301.739,333.52518905021304
367,1685756710.84,-0.977,-945.801,-95.703,-24.902,1301.743,335.60265173205767
368,1685756710.85,-6.348,-905.273,-99.609,-31.25,1301.747,327.36789429120125
369,1685756710.85,-48.34,-816.406,73.73,-40.039,1301.751,328.64069986191043
370,1685756710.86,-57.129,-730.957,101.562,-24.902,1301.755,337.2487029555737
371,1685756710.86,-11.23,-844.727,-131.348,-12.207,1301.759,333.03236631936323
372,1685756710.86,5.371,-702.637,-18.555,-22.461,1301.758,331.1207662057427
373,1685756710.86,-27.344,-474.609,107.91,-34.668,1301.761,327.03965531380913
374,1685756710.87,-59.57,-655.273,4.395,-27.344,1301.765,332.18617036886934
375,1685756710.87,-32.227,-770.508,2.93,-18.555,1301.769,340.67817898154027
376,1685756710.88,-0.488,-660.156,29.297,-31.738,1301.773,340.0485218390979
377,1685756710.88,-26.855,-880.859,-118.652,-42.969,1301.777,330.1397793620337
378,1685756710.88,-63.965,-1000.0,-176.27,-39.062,1301.781,337.4999616229719
379,1685756710.89,-46.875,-1000.0,-289.062,-20.02,1301.785,344.0853627543493
380,1685756710.89,-2.93,-868.164,-32.715,-24.414,1301.789,336.21464663459756
381,1685756710.9,-6.348,-507.812,208.984,-44.922,1301.793,350.42226236614647
382,1685756710.9,-52.734,-666.504,19.043,-45.898,1301.797,337.714978061432
383,1685756710.9,-66.895,-854.492,58.594,-30.273,1301.801,341.3875262340092
384,1685756710.94,-2.441,-791.992,71.289,-20.02,1301.835,330.11812240686226
385,1685756710.94,17.578,-577.637,97.656,-30.762,1301.839,328.6384897754984
386,1685756710.94,-44.922,-739.258,-64.941,-45.41,1301.843,334.29914591204226
387,1685756710.95,-81.543,-855.957,-48.34,-48.828,1301.847,330.24652743227995
388,1685756710.95,-58.105,-645.508,91.797,-38.574,1301.862,337.9866058053922
389,1685756710.95,-43.945,-616.211,138.184,-52.246,1301.851,338.6180405301384
390,1685756710.96,-6.836,-685.059,16.602,-36.133,1301.866,337.52268704079466
391,1685756710.96,-16.602,-805.664,2.93,-53.223,1301.855,338.340993146922
392,1685756710.96,-6.836,-912.598,-99.121,-41.504,1301.87,342.4026710129125
393,1685756710.96,-49.316,-1000.0,-226.074,-56.641,1301.859,338.3136644416601
394,1685756710.96,-50.293,-821.289,14.16,-52.734,1301.874,337.083589632475
395,1685756710.96,-83.984,-895.996,-92.285,-49.316,1301.862,341.40470149671575
396,1685756710.97,-66.406,-619.141,127.441,-46.387,1301.878,331.92338468212455
397,1685756710.97,-45.898,-562.5,207.52,-48.828,1301.866,336.3683506265719
398,1685756710.97,-16.602,-878.906,-94.238,-36.133,1301.882,335.8699088056233
399,1685756710.97,-6.348,-536.621,102.051,-57.617,1301.87,336.27584818789694
400,1685756710.98,2.93,-1000.0,-309.57,-41.992,1301.886,334.4841160318358
401,1685756710.98,-30.273,-840.82,-135.254,-57.617,1301.874,335.03036239155193
402,1685756710.98,-39.062,-920.898,7.324,-54.199,1301.889,341.6660049055634
403,1685756710.98,-74.707,-758.301,2.441,-47.363,1301.878,338.61639830430425
404,1685756710.98,-68.848,-637.695,195.801,-40.039,1301.893,335.3856748486858
405,1685756710.99,-18.555,-686.035,-18.066,-24.902,1301.897,330.65106810782567
406,1685756710.99,17.578,-856.445,-56.641,-29.297,1301.901,330.0101941238421
407,1685756710.99,-16.602,-691.895,75.684,-42.969,1301.905,338.15379475420724
408,1685756711.01,-53.711,-573.73,126.465,-41.016,1301.91,329.8678510652412
409,1685756711.02,-28.809,-720.703,-56.152,-29.297,1301.914,325.8248325581367
410,1685756711.02,2.93,-992.188,-292.969,-24.902,1301.918,337.1359376833524
411,1685756711.02,-20.02,-787.109,65.43,-32.227,1301.922,335.1863130511227
412,1685756711.03,-59.082,-633.301,152.344,-34.18,1301.926,338.08803839118866
413,1685756711.03,-56.641,-893.066,-46.387,-20.508,1301.929,332.6819312880303
414,1685756711.04,-12.695,-986.328,14.16,-14.16,1301.933,339.15712325774496
415,1685756711.04,-1.953,-823.242,120.117,-23.926,1301.937,332.73107706787346
416,1685756711.04,-34.18,-630.371,83.008,-40.039,1301.941,338.4296286903357
417,1685756711.05,-50.781,-901.855,-246.094,-28.32,1301.945,334.7823726821853
418,1685756711.05,-11.719,-875.977,-75.195,-18.555,1301.949,337.91441990120103
419,1685756711.06,6.348,-478.027,193.848,-33.691,1301.953,339.5498094295761
420,1685756711.06,-24.414,-571.289,25.391,-43.945,1301.953,334.2659021615603
421,1685756711.06,-59.082,-846.68,-42.969,-37.598,1301.957,329.2214411096193
422,1685756711.06,-25.879,-694.336,66.895,-32.715,1301.96,341.2937141882592
423,1685756711.07,13.672,-457.031,126.465,-34.668,1301.964,337.2368334930162
424,1685756711.07,-21.973,-616.211,-29.297,-45.41,1301.968,338.41038727861104
425,1685756711.08,-69.824,-953.125,-167.48,-48.828,1301.972,333.54359825457817
426,1685756711.08,-47.852,-987.793,-13.672,-38.574,1301.976,332.44891917710527
427,1685756711.08,4.883,-931.641,90.332,-33.203,1301.98,336.9684348099777
428,1685756711.09,-0.488,-931.152,11.719,-41.992,1301.984,325.16754430459974
429,1685756711.09,-50.293,-1000.0,-291.016,-39.551,1301.988,331.5375531660525
430,1685756711.1,-56.152,-877.93,-41.992,-32.227,1301.992,327.86213757135664
431,1685756711.1,-4.883,-507.324,231.445,-34.668,1301.996,335.1275350317019
432,1685756711.1,-0.488,-637.207,32.227,-38.574,1302.0,337.9838668299032
433,1685756711.11,-38.086,-770.996,62.988,-40.039,1302.004,337.21839687309114
434,1685756711.11,-52.734,-535.156,139.16,-27.832,1302.008,330.90312790579674
435,1685756711.11,-8.789,-422.852,115.723,-21.484,1302.012,333.53930029139667
436,1685756711.12,17.578,-696.777,-63.965,-21.484,1302.016,326.3281185435315
437,1685756711.12,-20.02,-987.305,-181.152,-28.32,1302.02,341.1416102413094
438,1685756711.13,-58.105,-953.125,-71.777,-33.203,1302.024,337.25626268179695
439,1685756711.13,-29.785,-672.852,115.234,-33.203,1302.028,340.43606422831266
440,1685756711.13,6.836,-816.895,-146.484,-32.227,1302.032,326.94077870839885
441,1685756711.14,-17.578,-995.117,-174.805,-33.691,1302.035,336.8399205247794
442,1685756711.14,-66.895,-886.719,103.027,-36.621,1302.039,338.97450370333553
443,1685756711.14,-58.105,-723.145,98.633,-20.996,1302.043,342.3103459254942
444,1685756711.15,14.16,-836.426,-159.18,-4.395,1302.043,334.9912365344491
445,1685756711.15,18.066,-763.184,-14.16,-32.227,1302.047,336.91118251065785
446,1685756711.15,-34.668,-571.289,135.254,-59.082,1302.051,329.8085372792309
447,1685756711.16,-34.668,-661.133,-1.465,-43.945,1302.055,331.25664975440253
448,1685756711.16,12.207,-849.609,-29.297,-34.668,1302.058,331.7723414309802
449,1685756711.17,23.926,-953.613,-27.344,-28.809,1302.062,327.6385063902881
450,1685756711.17,-20.996,-991.699,-98.145,-29.297,1302.066,329.713082697611
451,1685756711.17,-45.41,-988.77,-67.871,-27.344,1302.07,335.51645638396934
452,1685756711.18,1.953,-1000.0,-229.492,-18.555,1302.074,332.95523664856813
453,1685756711.18,32.227,-876.953,-29.785,-27.832,1302.078,329.76240650608156
454,1685756711.18,-0.488,-590.332,179.199,-41.504,1302.082,332.5732702300728
455,1685756711.19,-43.945,-678.711,33.203,-27.344,1302.086,332.4616952237281
456,1685756711.21,-18.066,-796.875,61.523,-13.672,1302.108,325.6000984550825
457,1685756711.21,24.902,-771.973,67.871,-17.578,1302.112,336.1410400134599
458,1685756711.22,0.977,-613.281,65.918,-25.391,1302.116,327.59453488943694
459,1685756711.22,-42.48,-761.719,-60.059,-22.461,1302.12,338.8615851186232
460,1685756711.22,-41.992,-841.309,20.508,-13.672,1302.124,342.5201190038717
461,1685756711.23,1.953,-812.988,65.918,-9.766,1302.128,334.43528048786163
462,1685756711.23,6.348,-940.43,-10.254,-18.066,1302.132,342.02378986934207
463,1685756711.24,-32.227,-1000.0,-190.43,-26.367,1302.136,323.40661178528705
464,1685756711.24,-59.57,-758.301,33.691,-30.762,1302.133,337.2239926837158
465,1685756711.24,-26.855,-481.445,142.09,-23.438,1302.137,332.7382532091213
466,1685756711.24,-42.969,-874.512,-80.078,-23.926,1302.14,338.36404155087564
467,1685756711.24,2.441,-502.93,209.961,-25.391,1302.144,336.25353610479505
468,1685756711.24,10.254,-541.016,8.789,-28.32,1302.141,337.4999808026611
469,1685756711.25,20.02,-500.977,72.266,-30.273,1302.147,341.462021464757
470,1685756711.25,-17.578,-892.578,-142.09,-39.551,1302.144,339.2220504762645
471,1685756711.25,-20.508,-838.379,-110.352,-33.203,1302.151,345.6469158084318
472,1685756711.25,-58.594,-867.188,2.93,-44.434,1302.148,340.63393833417166
473,1685756711.26,-35.645,-846.68,69.824,-26.367,1302.152,337.54490967865735
474,1685756711.26,6.348,-972.168,-49.316,-18.555,1302.156,342.20401096728165
475,1685756711.26,-18.066,-915.527,-72.754,-40.039,1302.16,351.4946626509124
476,1685756711.27,-64.453,-707.52,87.891,-44.434,1302.164,346.60989888333586
477,1685756711.27,-60.547,-560.059,137.695,-27.344,1302.168,348.6962960218411
478,1685756711.28,-10.742,-670.898,-28.32,-31.738,1302.172,351.0230181264563
479,1685756711.28,-7.812,-977.539,-370.605,-34.18,1302.176,355.483648576741
480,1685756711.28,-55.176,-973.145,-139.16,-40.527,1302.206,361.0926804752342
481,1685756711.29,-75.195,-644.043,212.891,-47.363,1302.21,351.2317506785314
482,1685756711.29,-31.25,-666.504,51.758,-39.062,1302.214,359.5244615281618
483,1685756711.29,-5.859,-646.484,94.727,-42.48,1302.218,360.54867422459245
484,1685756711.3,-44.434,-551.758,77.148,-49.316,1302.222,359.3735503252582
485,1685756711.3,-83.496,-891.113,-104.004,-45.41,1302.226,364.15240320301285
486,1685756711.31,-48.828,-1000.0,-247.559,-40.039,1302.23,366.6878168787909
487,1685756711.31,-14.16,-980.957,-224.121,-41.016,1302.234,373.46695292806845
488,1685756711.31,-35.156,-677.246,151.367,-54.688,1302.237,370.73048692537225
489,1685756711.32,-73.242,-559.57,120.605,-53.223,1302.241,365.69658472848806
490,1685756711.32,-53.711,-832.52,-44.922,-34.668,1302.245,375.3747906410315
491,1685756711.32,-5.371,-616.699,83.984,-35.645,1302.249,368.08143900637975
492,1685756711.32,-13.184,-409.18,95.703,-50.293,1302.237,374.12716741156436
493,1685756711.33,-58.594,-580.566,-4.883,-53.711,1302.241,369.5092728771812
494,1685756711.33,-65.918,-818.848,-45.41,-44.922,1302.245,376.1876988975377
495,1685756711.34,-15.625,-626.465,60.059,-38.086,1302.249,379.37465683247024
496,1685756711.34,3.418,-568.359,42.48,-45.41,1302.253,381.20255048271514
497,1685756711.34,-41.992,-924.316,-176.758,-55.176,1302.257,390.5213462221109
498,1685756711.35,-67.871,-1000.0,-334.473,-38.086,1302.261,390.4098913123837
499,1685756711.35,-27.832,-835.449,28.32,-32.227,1302.265,388.3070064341609
500,1685756711.36,-5.859,-659.668,198.73,-41.504,1302.268,389.3996989373601
501,1685756711.36,-40.527,-916.992,-10.254,-44.922,1302.272,390.31391265871787
502,1685756711.36,-73.73,-898.438,-0.977,-43.457,1302.276,390.59377971310965
503,1685756711.37,-50.781,-516.602,139.648,-38.086,1302.28,392.23994325220315
504,1685756711.39,-7.812,-552.734,64.941,-33.203,1302.284,385.230655150497
505,1685756711.39,-21.484,-908.203,-151.855,-48.828,1302.288,386.88241034725894
506,1685756711.4,-76.172,-892.578,-83.496,-53.711,1302.292,391.43906779394
507,1685756711.4,-59.082,-557.129,153.32,-49.805,1302.296,398.81394836142556
508,1685756711.4,-1.953,-460.449,104.004,-44.434,1302.3,389.4166767280873
509,1685756711.41,-10.254,-865.234,-181.641,-41.016,1302.304,379.66164638746193
510,1685756711.41,-52.734,-1000.0,-111.816,-53.711,1302.308,380.3720241597959
511,1685756711.41,-57.129,-631.348,155.762,-43.457,1302.312,384.55214830951525
512,1685756711.42,-6.836,-499.512,98.633,-31.25,1302.316,380.27632138784344
513,1685756711.42,10.254,-814.453,-152.344,-36.133,1302.32,385.82057973636455
514,1685756711.43,-31.738,-877.93,-73.73,-44.922,1302.324,382.6144578636109
515,1685756711.43,-59.082,-854.492,80.078,-36.621,1302.327,375.23704448268023
516,1685756711.43,-20.996,-729.98,63.965,-20.996,1302.328,386.13646454838795
517,1685756711.44,11.719,-833.984,-157.715,-21.484,1302.332,390.46693118630526
518,1685756711.44,-18.066,-785.645,-32.227,-45.898,1302.336,382.10419199312514
519,1685756711.44,-55.176,-591.797,108.887,-44.922,1302.34,375.0834132715383
520,1685756711.45,-28.809,-648.438,4.883,-26.855,1302.343,380.56540969901704
521,1685756711.45,11.23,-886.23,-68.848,-31.25,1302.347,385.5175468573208
522,1685756711.46,-9.766,-1000.0,-50.293,-39.551,1302.351,377.2877043639563
523,1685756711.46,-58.594,-927.734,30.762,-41.992,1302.355,373.2972226183459
524,1685756711.46,-63.477,-856.445,-1.953,-38.574,1302.359,367.0455141196697
525,1685756711.47,-10.742,-982.422,-253.906,-25.879,1302.363,377.90363430229814
526,1685756711.47,-2.441,-772.461,87.891,-46.387,1302.367,365.95336134976714
527,1685756711.47,-48.828,-540.527,205.566,-59.082,1302.371,368.5463484797067
528,1685756711.48,-62.5,-698.242,20.02,-39.551,1302.379,365.63804823174
529,1685756711.48,-9.766,-792.48,81.543,-36.133,1302.383,357.5079570593598
530,1685756711.49,11.23,-766.113,65.918,-39.062,1302.387,372.4608175476887
531,1685756711.49,-33.203,-655.762,61.035,-45.898,1302.391,365.45594076666197
532,1685756711.5,-64.453,-839.355,-112.793,-33.691,1302.395,358.7011359929059
533,1685756711.5,-30.273,-1000.0,-122.07,-18.555,1302.399,362.2499220845951
534,1685756711.5,0.0,-842.285,123.535,-34.18,1302.403,359.1825877879692
535,1685756711.51,-15.625,-619.629,114.746,-37.109,1302.407,358.16215611045936
536,1685756711.51,-33.203,-909.668,-172.363,-12.207,1302.41,363.884410080336
537,1685756711.51,-17.09,-912.109,-80.566,-5.859,1302.414,352.8639595298759
538,1685756711.52,-1.465,-522.461,198.73,-27.344,1302.418,361.6945351913585
539,1685756711.52,-54.199,-878.418,-78.125,-23.926,1302.418,356.358065887299
540,1685756711.52,-17.09,-617.676,60.547,-32.227,1302.422,362.868800313462
541,1685756711.52,-47.852,-713.867,60.547,-9.277,1302.422,350.5103077839759
542,1685756711.53,8.789,-496.582,127.441,0.0,1302.426,363.5906277035043
543,1685756711.53,20.508,-632.812,-38.086,-16.602,1302.43,352.8661422027171
544,1685756711.54,-17.578,-948.242,-168.945,-22.461,1302.434,346.98620440535484
545,1685756711.54,-43.945,-997.559,-27.344,-11.23,1302.438,350.1485324057473
546,1685756711.54,1.953,-958.984,72.754,-5.859,1302.442,352.95950308602994
547,1685756711.55,32.715,-968.262,9.277,-10.742,1302.445,347.8084138967112
548,1685756711.55,0.0,-1000.0,-328.125,-2.93,1302.449,344.00158192402006
549,1685756711.56,-46.875,-990.234,-201.172,2.441,1302.453,344.30978588180454
550,1685756711.56,-22.461,-619.141,217.773,-3.418,1302.457,340.39382551640193
551,1685756711.56,16.602,-548.34,119.629,-9.766,1302.461,340.1957116738436
552,1685756711.57,-12.695,-719.238,94.727,-26.367,1302.465,342.17840956839115
553,1685756711.57,-55.664,-619.629,108.398,-27.344,1302.469,341.01827438294845
554,1685756711.58,-43.945,-515.625,80.078,-17.578,1302.473,335.8274812228603
555,1685756711.58,0.0,-648.438,-2.93,-15.625,1302.477,345.2514827565917
556,1685756711.58,1.953,-726.074,13.672,-27.832,1302.481,333.50283898445286
557,1685756711.59,-42.969,-874.512,-128.906,-38.086,1302.485,338.0561001589545
558,1685756711.59,-53.711,-998.535,-89.844,-27.832,1302.489,337.1080490571781
559,1685756711.59,-1.465,-977.051,-113.281,-20.996,1302.493,342.2011064869602
560,1685756711.6,6.836,-995.117,-211.426,-24.414,1302.496,334.18903834902926
561,1685756711.6,-38.574,-658.691,152.832,-38.086,1302.5,336.40147451707554
562,1685756711.61,-63.477,-524.902,143.066,-28.809,1302.504,335.54354551831324
563,1685756711.61,-24.902,-798.828,-34.668,-17.578,1302.508,327.5765330277916
564,1685756711.61,3.906,-621.582,57.617,-25.879,1302.508,322.01114421018656
565,1685756711.62,-27.832,-457.52,87.891,-34.18,1302.512,331.0716200384638
566,1685756711.62,-61.523,-654.297,-17.09,-27.832,1302.516,327.94829597206217
567,1685756711.62,-34.18,-798.828,-29.785,-20.02,1302.519,329.36346387818617
568,1685756711.63,4.395,-695.312,55.664,-26.855,1302.523,327.8927321165599
569,1685756711.63,-15.625,-895.996,-86.914,-41.016,1302.527,335.33626541812754
570,1685756711.64,-65.43,-1000.0,-168.945,-42.48,1302.531,327.0715480439905
571,1685756711.64,-57.617,-1000.0,-259.766,-23.926,1302.535,323.1285832832447
572,1685756711.64,-5.859,-861.816,-26.855,-24.902,1302.539,328.7466288644877
573,1685756711.65,-8.301,-704.59,176.27,-39.062,1302.543,328.1490808875131
574,1685756711.65,-51.758,-932.129,-2.441,-47.363,1302.547,327.25211993730187
575,1685756711.65,-61.523,-886.719,1.465,-44.922,1302.551,320.1119448494676
576,1685756711.66,-8.789,-529.785,169.922,-34.668,1302.567,327.9578831446945
577,1685756711.66,9.766,-455.566,101.562,-31.738,1302.57,320.90527151674627
578,1685756711.66,-31.738,-772.949,-75.195,-37.109,1302.574,323.2331832487115
579,1685756711.67,-64.453,-733.887,51.27,-32.715,1302.578,324.1500298392837
580,1685756711.67,-33.203,-507.324,113.281,-24.902,1302.582,321.3772594366842
581,1685756711.68,9.277,-793.945,-109.375,-20.996,1302.586,330.18951741851447
582,1685756711.68,-4.883,-1000.0,-252.93,-19.043,1302.59,333.3052274563276
583,1685756711.68,-52.246,-893.555,-85.449,-23.438,1302.594,329.4710352535593
584,1685756711.69,-40.039,-541.504,211.426,-29.297,1302.598,326.9416801418752
585,1685756711.69,6.348,-463.379,102.539,-36.621,1302.602,327.8743573783141
586,1685756711.7,-8.301,-810.547,-176.27,-41.992,1302.606,326.54433084472225
587,1685756711.7,-62.988,-860.84,-57.129,-46.875,1302.61,333.749037403654
588,1685756711.7,-74.707,-832.52,57.617,-51.758,1302.611,332.82810969647386
589,1685756711.71,-22.949,-711.914,64.453,-54.688,1302.615,330.5478072328189
590,1685756711.71,-11.719,-872.559,-192.871,-57.617,1302.619,321.83829126941436
591,1685756711.71,-54.688,-798.828,-32.227,-65.43,1302.623,335.86035546162714
592,1685756711.72,-69.336,-672.852,153.809,-54.688,1302.627,322.4076960277079
593,1685756711.72,-21.484,-920.41,-15.625,-44.922,1302.631,322.09297982302706
594,1685756711.73,5.371,-1000.0,-241.211,-39.551,1302.635,335.0410158190314
595,1685756711.73,-29.297,-919.922,-1.465,-50.781,1302.638,335.09517918579854
596,1685756711.73,-62.988,-624.023,221.191,-57.129,1302.642,327.2110436689743
597,1685756711.74,-30.273,-700.195,-13.672,-39.062,1302.646,327.9823635402873
598,1685756711.74,0.0,-851.074,-44.922,-42.969,1302.65,326.4464053757449
599,1685756711.74,-28.32,-629.883,104.492,-60.059,1302.654,334.67179511685134
600,1685756711.76,-70.312,-602.051,60.547,-54.199,1302.66,334.6305755251165
601,1685756711.77,-54.199,-752.441,1.465,-40.039,1302.664,332.7150868921867
602,1685756711.77,-2.441,-836.426,37.598,-45.898,1302.668,334.6225903750952
603,1685756711.77,-3.418,-826.66,37.109,-59.082,1302.672,338.9493196931975
604,1685756711.78,-53.223,-724.609,94.238,-67.871,1302.676,326.91339308809665
605,1685756711.78,-68.359,-917.48,-159.18,-51.27,1302.679,331.92051968407907
606,1685756711.79,-20.02,-997.559,-230.957,-38.086,1302.683,325.78863681914703
607,1685756711.79,-9.766,-683.594,132.812,-53.711,1302.687,329.51254405104334
608,1685756711.79,-51.758,-636.719,99.609,-52.734,1302.691,333.8534467417665
609,1685756711.8,-75.195,-904.297,-83.496,-34.668,1302.695,333.9247684133977
610,1685756711.8,-31.738,-713.867,58.105,-34.18,1302.699,334.693233408803
611,1685756711.8,0.0,-483.398,120.605,-43.457,1302.703,316.46527600820684
612,1685756711.81,-37.109,-791.992,-109.375,-54.199,1302.703,325.4600964527172
613,1685756711.81,-71.777,-933.594,-89.844,-41.504,1302.707,324.84259776538414
614,1685756711.81,-36.133,-662.109,104.98,-29.297,1302.711,329.51257100705504
615,1685756711.82,8.789,-506.836,118.164,-26.367,1302.715,327.09761073877274
616,1685756711.82,-18.066,-721.68,-83.496,-27.832,1302.719,329.58125447589015
617,1685756711.83,-68.848,-990.234,-168.457,-31.738,1302.723,324.36255821993313
618,1685756711.83,-62.5,-993.652,11.23,-29.785,1302.726,327.44634737338254
619,1685756711.83,-11.719,-981.934,81.055,-23.438,1302.73,332.14047766624094
620,1685756711.84,-7.324,-966.309,14.16,-28.809,1302.734,323.6836715541339
621,1685756711.84,-51.27,-1000.0,-321.289,-23.438,1302.738,333.90786127485467
622,1685756711.84,-65.918,-917.969,-73.242,-7.324,1302.742,332.54870644203396
623,1685756711.85,-14.16,-550.781,240.723,-12.207,1302.746,331.46560921553777
624,1685756711.87,1.953,-617.188,49.805,-32.227,1302.765,331.0356692836215
625,1685756711.87,-37.109,-766.113,68.359,-40.527,1302.769,320.1582619580393
626,1685756711.88,-58.105,-654.785,82.52,-25.879,1302.773,318.2784969441202
627,1685756711.88,-21.484,-534.668,90.332,-15.625,1302.777,325.16302474591265
628,1685756711.88,12.695,-740.723,-60.059,-17.09,1302.781,326.36542762859835
629,1685756711.89,-19.043,-1000.0,-205.566,-23.926,1302.785,329.1079413544483
630,1685756711.89,-64.941,-924.805,-25.879,-26.367,1302.789,322.6051622874854
631,1685756711.9,-37.598,-744.141,156.738,-20.508,1302.792,325.75227778764094
632,1685756711.9,-14.16,-810.059,-23.926,-22.949,1302.793,329.08221717141345
633,1685756711.9,8.789,-924.805,-132.812,-16.113,1302.796,325.5309810169106
634,1685756711.9,-6.836,-674.805,66.895,-40.527,1302.797,328.33223000199604
635,1685756711.9,-7.324,-1000.0,-229.492,-25.879,1302.8,328.13336212879005
636,1685756711.9,-42.969,-560.059,86.914,-43.945,1302.801,330.13106303790573
637,1685756711.91,-58.105,-708.496,156.738,-37.109,1302.804,320.2953986923714
638,1685756711.91,-62.988,-674.316,1.953,-26.855,1302.805,331.50510391795274
639,1685756711.91,-59.57,-583.496,133.789,-22.461,1302.808,322.5040911656162
640,1685756711.91,-19.531,-897.949,-56.152,-18.066,1302.809,325.16065150789404
641,1685756711.92,8.301,-975.098,-11.23,-31.25,1302.812,328.1766231337643
642,1685756711.92,-24.902,-963.379,-1.465,-39.551,1302.816,335.89285757946806
643,1685756711.92,-60.547,-1000.0,-45.898,-33.691,1302.82,325.09898569788254
644,1685756711.93,-27.832,-880.859,14.16,-24.902,1302.824,324.6185931538465
645,1685756711.93,21.973,-597.656,129.883,-9.277,1302.828,330.89615348593475
646,1685756711.94,8.301,-779.785,-8.301,-15.137,1302.832,328.3234004940888
647,1685756711.94,-56.641,-983.398,-91.797,-41.016,1302.836,321.91844777722025
648,1685756711.94,-55.664,-1000.0,-263.672,-34.18,1302.84,321.37242036243924
649,1685756711.95,-8.301,-897.461,-62.012,-36.133,1302.843,324.00111959567926
650,1685756711.95,-34.18,-609.375,197.266,-63.965,1302.847,317.03073582063854
651,1685756711.95,-90.82,-759.277,32.715,-69.336,1302.851,318.22392877559975
652,1685756711.96,-83.984,-726.074,87.402,-61.035,1302.855,321.10997376077984
653,1685756711.96,-31.25,-751.465,64.453,-52.734,1302.859,318.96193812082436
654,1685756711.97,-18.066,-916.504,40.039,-47.852,1302.863,323.60133859782746
655,1685756711.97,-43.457,-976.074,-136.719,-41.992,1302.867,316.3464334196273
656,1685756711.97,-62.5,-897.461,-92.285,-35.156,1302.871,318.88558871666356
657,1685756711.98,-18.066,-512.695,210.938,-28.32,1302.875,326.04538457726017
658,1685756711.98,13.184,-460.449,90.82,-23.926,1302.879,314.7598050237278
659,1685756711.98,-18.066,-813.965,-145.02,-36.621,1302.882,316.4759653799968
660,1685756711.99,-54.199,-869.629,-55.176,-38.086,1302.886,322.8711255716955
661,1685756711.99,-16.602,-794.434,81.055,-24.902,1302.89,313.5622477641006
662,1685756712.0,29.785,-673.34,43.457,-29.785,1302.894,308.98198346270226
663,1685756712.0,9.766,-847.168,-174.805,-37.598,1302.898,319.8866435612998
664,1685756712.0,-36.621,-824.707,-31.738,-28.809,1302.902,308.17679890937535
665,1685756712.01,-24.414,-869.629,73.242,-16.602,1302.906,309.6619490046118
666,1685756712.01,18.066,-966.797,-14.648,-15.625,1302.91,311.3603412490233
667,1685756712.01,8.789,-994.141,-293.945,-17.09,1302.913,308.5957280635545
668,1685756712.02,-33.691,-907.715,-84.961,-23.438,1302.917,306.05452907569526
669,1685756712.02,-41.992,-559.57,228.516,-16.602,1302.921,299.7477223199428
670,1685756712.03,10.254,-634.766,62.988,-7.324,1302.925,302.3755575865404
671,1685756712.03,17.578,-745.605,96.68,-13.184,1302.929,300.20653528768725
672,1685756712.03,-30.273,-604.98,102.539,-20.508,1302.942,292.28055544926553
673,1685756712.04,-58.594,-562.5,56.152,-12.207,1302.945,297.61838135912
674,1685756712.04,-16.602,-693.848,-35.156,0.488,1302.949,297.5127902082466
675,1685756712.04,17.578,-879.395,14.16,-11.719,1302.953,296.32631183531043
676,1685756712.05,-13.672,-833.984,67.871,-28.809,1302.957,299.4737296664583
677,1685756712.05,-50.293,-913.574,3.906,-25.879,1302.961,289.6194550381502
678,1685756712.06,-20.996,-1000.0,-93.75,-11.719,1302.965,295.1577511637292
679,1685756712.06,21.484,-995.117,-197.754,-1.465,1302.969,295.563372084921
680,1685756712.06,6.348,-687.988,133.789,-22.949,1302.973,296.5650659002123
681,1685756712.07,-35.645,-543.457,156.25,-25.391,1302.977,302.76338327787016
682,1685756712.07,-30.762,-823.242,-22.461,-8.301,1302.981,309.5456620492224
683,1685756712.08,14.648,-643.066,81.543,-11.23,1302.985,296.95180875294943
684,1685756712.08,17.578,-461.914,94.238,-28.32,1302.987,300.29169845938907
685,1685756712.08,-25.879,-665.527,-7.324,-21.484,1302.991,309.19105468575253
686,1685756712.08,-46.875,-847.168,-48.828,-8.301,1302.995,299.2858891899446
687,1685756712.09,-1.953,-576.66,85.938,-12.207,1302.998,306.0687962074183
688,1685756712.09,15.625,-493.652,71.777,-16.113,1303.002,304.4639426085714
689,1685756712.1,-21.973,-913.086,-191.895,-18.066,1303.006,301.06804335030745
690,1685756712.1,-56.641,-1000.0,-336.914,-2.93,1303.01,306.0181013711128
691,1685756712.1,-28.32,-988.77,4.883,-2.93,1303.014,302.6336639998892
692,1685756712.11,11.23,-807.617,234.375,-17.09,1303.018,295.97568548892076
693,1685756712.11,-8.301,-733.398,-15.625,-30.273,1303.022,304.6769876133265
694,1685756712.12,-55.176,-975.586,-256.836,-27.832,1303.026,306.87764457369553
695,1685756712.12,-43.457,-714.355,112.305,-26.855,1303.03,303.3929495586289
696,1685756712.14,9.277,-423.34,209.961,-29.785,1303.034,310.0747858343234
697,1685756712.14,1.465,-684.57,-53.711,-30.762,1303.038,306.39968595001346
698,1685756712.14,-47.852,-841.797,14.16,-27.344,1303.042,315.16633212132734
699,1685756712.15,-35.645,-667.969,119.629,-19.531,1303.046,314.9183110583408
700,1685756712.15,19.043,-576.172,78.613,-18.066,1303.05,320.97464338615526
701,1685756712.16,26.367,-889.16,-210.938,-18.066,1303.054,315.11354891992124
702,1685756712.16,-21.484,-961.426,-136.23,-28.32,1303.058,316.377834935966
703,1685756712.16,-49.805,-629.883,182.617,-21.973,1303.062,312.6299660534545
704,1685756712.17,1.465,-645.996,81.055,-10.742,1303.066,315.97333856918823
705,1685756712.17,32.715,-939.941,-145.508,-9.766,1303.07,315.44149285263506
706,1685756712.18,-1.465,-875.0,15.137,-14.16,1303.073,313.30327182652263
707,1685756712.18,-41.016,-593.262,176.758,-19.043,1303.077,315.9018547779317
708,1685756712.18,-12.695,-589.844,67.383,-6.348,1303.078,321.44729017985424
709,1685756712.18,31.25,-808.594,-22.461,0.488,1303.082,311.34515803373904
710,1685756712.19,7.812,-693.359,38.574,-8.301,1303.086,322.7772798933056
711,1685756712.19,-32.715,-580.566,85.449,-2.93,1303.089,317.0027289283908
712,1685756712.2,-13.184,-647.461,33.203,13.672,1303.093,323.1044468218946
713,1685756712.2,33.203,-899.902,-86.914,19.043,1303.097,317.40007687095647
714,1685756712.2,25.879,-991.699,-21.973,2.441,1303.101,318.28431741117856
715,1685756712.21,-14.648,-942.871,20.996,2.441,1303.105,322.23901355266247
716,1685756712.21,-14.16,-839.355,13.184,21.484,1303.109,326.1329370860128
717,1685756712.22,31.25,-956.543,-227.051,29.785,1303.113,329.02562922121456
718,1685756712.22,41.992,-869.629,0.488,20.02,1303.117,322.76160412566173
719,1685756712.22,8.789,-774.414,128.906,7.812,1303.121,329.71654060923225
720,1685756712.23,-14.648,-982.422,-12.695,17.578,1303.125,328.02962886961785
721,1685756712.23,21.973,-857.91,40.039,30.273,1303.129,323.3805023656559
722,1685756712.24,52.734,-510.742,147.461,20.996,1303.133,327.14552075902213
723,1685756712.24,22.461,-541.992,61.035,14.648,1303.137,315.6828265436988
724,1685756712.24,-12.207,-830.566,-58.594,32.227,1303.141,331.9523668531246
725,1685756712.25,24.414,-979.004,-2.93,54.199,1303.145,326.91998136364884
726,1685756712.25,71.777,-764.16,131.348,62.012,1303.149,323.3603043762121
727,1685756712.25,61.523,-529.297,125.488,52.734,1303.153,328.15087339229234
728,1685756712.26,19.531,-882.812,-214.355,58.105,1303.156,327.8698946834266
729,1685756712.26,22.949,-926.27,-126.465,66.406,1303.16,321.90507271500195
730,1685756712.27,72.266,-495.605,204.59,52.246,1303.164,328.9472901979073
731,1685756712.27,70.801,-534.18,53.711,42.969,1303.168,323.37278673991324
732,1685756712.27,29.785,-828.613,-87.402,39.062,1303.171,326.0466303917583
733,1685756712.28,23.926,-810.547,21.973,40.527,1303.175,328.4709976203289
734,1685756712.28,72.266,-776.367,94.727,49.316,1303.179,327.5820632478513
735,1685756712.28,93.262,-702.148,50.293,54.688,1303.183,326.62872992394443
736,1685756712.29,57.129,-910.156,-200.684,59.082,1303.187,325.2727850138008
737,1685756712.29,26.367,-1000.0,-57.129,64.941,1303.19,327.35847506972897
738,1685756712.3,64.941,-952.148,124.023,70.312,1303.194,333.05777368182726
739,1685756712.3,110.352,-937.012,27.344,75.684,1303.198,331.7575783962169
740,1685756712.3,83.008,-1000.0,-265.625,77.637,1303.202,333.1215554215132
741,1685756712.31,38.086,-887.207,-55.664,74.707,1303.206,334.3117750970874
742,1685756712.31,68.359,-488.281,240.234,80.078,1303.21,334.8075901913026
743,1685756712.32,116.699,-568.848,73.242,79.59,1303.214,325.4658883117993
744,1685756712.32,98.633,-738.77,74.219,70.801,1303.215,340.61299994426633
745,1685756712.32,48.828,-603.516,100.098,72.266,1303.219,333.8444721322122
746,1685756712.32,59.082,-522.461,99.121,80.078,1303.223,334.6979620254245
747,1685756712.33,113.77,-685.547,-22.461,85.449,1303.227,333.8417609329944
748,1685756712.33,112.793,-866.699,-44.434,83.984,1303.231,334.8185297641942
749,1685756712.34,79.102,-948.242,-15.625,82.031,1303.235,326.98088005327156
750,1685756712.34,68.848,-952.637,72.754,94.727,1303.239,334.5575194895914
751,1685756712.34,110.84,-950.684,-54.199,110.352,1303.242,332.66943854770625
752,1685756712.35,128.906,-1000.0,-210.938,103.516,1303.246,322.04423653148666
753,1685756712.35,96.68,-711.914,141.602,86.914,1303.25,330.2848572128075
754,1685756712.36,65.918,-569.336,158.691,101.074,1303.254,325.66642010170114
755,1685756712.36,104.98,-797.363,-5.859,114.258,1303.258,329.4477073643454
756,1685756712.36,145.508,-628.906,85.449,116.211,1303.272,336.52005450244667
757,1685756712.36,122.559,-530.273,72.754,110.84,1303.276,321.51551213370254
758,1685756712.37,86.426,-705.078,9.766,115.234,1303.28,332.529187940155
759,1685756712.37,100.098,-769.043,10.742,132.812,1303.284,334.2075867751481
760,1685756712.38,149.902,-628.418,78.613,127.441,1303.288,337.8067203808021
761,1685756712.38,147.949,-857.422,-50.293,122.559,1303.292,331.5643704775708
762,1685756712.38,101.562,-1000.0,-162.598,125.0,1303.296,329.30104639753796
763,1685756712.39,101.074,-998.047,-296.387,139.648,1303.3,332.3039345595384
764,1685756712.39,156.738,-990.723,-170.898,147.949,1303.304,334.45898347420143
765,1685756712.4,169.434,-604.004,210.449,133.301,1303.308,337.0799333826189
766,1685756712.4,133.301,-626.465,117.188,133.789,1303.311,336.0368461883981
767,1685756712.4,112.305,-809.082,85.938,143.066,1303.315,335.3410172625628
768,1685756712.42,156.25,-470.215,181.152,149.414,1303.32,340.29088209390125
769,1685756712.43,181.641,-358.398,118.164,150.391,1303.324,335.91607849698073
770,1685756712.43,149.902,-697.754,-65.43,141.113,1303.328,338.22798399411454
771,1685756712.43,114.258,-761.23,32.715,140.625,1303.332,337.64325443285935
772,1685756712.44,147.461,-543.945,141.113,162.598,1303.336,343.8232198584096
773,1685756712.44,195.312,-716.797,33.203,163.086,1303.34,343.14490297805514
774,1685756712.45,172.852,-993.164,-152.832,148.926,1303.344,351.13656904519905
775,1685756712.45,126.953,-913.574,-74.219,155.273,1303.348,349.111183606408
776,1685756712.45,131.836,-555.664,212.891,158.691,1303.362,347.30008987105987
777,1685756712.45,137.207,-576.172,179.688,164.062,1303.351,359.4158318075666
778,1685756712.46,193.848,-492.676,113.281,166.504,1303.366,340.8838044698152
779,1685756712.46,180.176,-596.191,117.188,164.551,1303.355,348.9985298161042
780,1685756712.46,213.379,-779.785,-10.254,158.203,1303.37,348.9265255163564
781,1685756712.46,178.711,-944.824,-186.035,160.156,1303.359,349.64117787698115
782,1685756712.46,180.664,-641.113,63.965,157.227,1303.373,358.2867368429369
783,1685756712.46,136.23,-932.129,-116.211,156.25,1303.363,356.85800749889347
784,1685756712.47,156.738,-608.398,100.586,175.781,1303.377,353.75184722912354
785,1685756712.47,189.941,-901.855,-38.086,189.453,1303.381,356.5522484404222
786,1685756712.48,223.633,-1000.0,-80.078,190.43,1303.385,373.2581732438894
787,1685756712.48,193.359,-894.531,71.777,191.895,1303.389,365.6896738315057
788,1685756712.48,153.32,-617.676,171.875,200.684,1303.393,371.48655922444294
789,1685756712.49,185.547,-626.465,45.898,211.914,1303.397,377.9344419440089
790,1685756712.49,243.164,-959.473,-291.992,223.145,1303.401,367.36152535030794
791,1685756712.49,229.004,-929.199,-69.336,208.496,1303.405,365.87295551488177
792,1685756712.51,179.688,-840.332,163.086,194.336,1303.415,375.61662310799466
793,1685756712.52,188.965,-914.551,66.895,207.031,1303.418,385.40437633848654
794,1685756712.52,234.375,-764.16,94.238,214.844,1303.422,377.1447866549067
795,1685756712.53,233.887,-496.582,137.695,203.613,1303.426,377.0540573946263
796,1685756712.53,192.871,-543.457,59.082,204.59,1303.43,390.6561518005317
797,1685756712.53,176.27,-893.066,-37.109,220.703,1303.434,389.37845363961645
798,1685756712.54,222.168,-897.461,33.691,221.68,1303.438,391.21979661011875
799,1685756712.54,237.793,-495.605,142.578,210.938,1303.442,385.02719959856785
800,1685756712.54,201.172,-504.883,98.145,211.914,1303.446,392.22708061498275
801,1685756712.55,188.477,-881.348,-107.91,234.863,1303.45,393.7468954494832
802,1685756712.55,226.074,-690.918,37.598,238.77,1303.454,392.5701019217826
803,1685756712.56,244.629,-556.152,19.043,224.609,1303.453,397.15154899323335
804,1685756712.56,264.648,-369.141,176.758,231.934,1303.458,390.46720352785013
805,1685756712.56,195.312,-809.082,-49.316,225.098,1303.457,396.4528695008788
806,1685756712.56,219.727,-773.926,54.688,241.211,1303.46,386.31099283655044
807,1685756712.57,274.414,-729.492,92.285,241.699,1303.464,387.1769623865701
808,1685756712.57,259.277,-704.102,18.066,229.98,1303.468,382.5112605107346
809,1685756712.58,205.078,-917.969,-126.465,225.586,1303.472,390.64655487068734
810,1685756712.58,201.66,-1000.0,13.672,233.887,1303.476,396.30253210700624
811,1685756712.58,256.836,-817.871,177.734,248.047,1303.48,392.8626187569968
812,1685756712.59,260.254,-651.855,85.938,237.793,1303.484,388.1590602975034
813,1685756712.59,215.82,-959.961,-312.988,235.84,1303.488,384.50482520382997
814,1685756712.6,197.754,-993.164,-173.828,246.582,1303.492,390.5898869668217
815,1685756712.6,237.793,-545.41,246.094,237.305,1303.496,385.53905449735385
816,1685756712.6,259.277,-554.199,134.766,230.957,1303.501,386.7473637657713
817,1685756712.61,219.238,-736.328,97.656,224.121,1303.504,392.8346119648258
818,1685756712.61,184.082,-569.336,139.16,222.168,1303.508,384.737300204261
819,1685756712.62,219.238,-443.848,135.742,224.121,1303.512,388.1858143757507
820,1685756712.62,248.047,-730.469,-37.109,228.027,1303.516,378.97458343309023
821,1685756712.62,220.703,-1000.0,-110.352,232.91,1303.52,381.07076996561466
822,1685756712.63,182.129,-978.027,14.16,231.445,1303.524,386.8180658646761
823,1685756712.63,203.613,-916.016,111.328,238.77,1303.528,379.4129918866929
824,1685756712.63,259.277,-937.988,-74.707,244.141,1303.532,380.0458828153607
825,1685756712.64,245.605,-1000.0,-198.73,232.91,1303.536,380.8773386566802
826,1685756712.64,197.754,-658.203,185.547,222.656,1303.54,380.74206230768885
827,1685756712.65,191.406,-486.328,179.199,230.469,1303.544,380.26512960338306
828,1685756712.65,230.957,-786.621,-21.973,236.328,1303.543,387.744472945348
829,1685756712.65,251.953,-624.023,94.727,229.492,1303.547,385.6113570849314
830,1685756712.65,218.75,-494.141,99.121,229.492,1303.551,371.3928373014815
831,1685756712.66,188.965,-612.305,55.176,236.816,1303.555,366.1588098550393
832,1685756712.66,236.328,-781.25,23.926,239.258,1303.559,378.03411454265614
833,1685756712.67,261.23,-876.953,24.414,232.422,1303.562,368.54465539949007
834,1685756712.67,227.051,-946.289,27.344,222.656,1303.566,370.6930629448455
835,1685756712.67,186.035,-985.352,9.766,223.145,1303.57,375.746391004223
836,1685756712.68,204.59,-1000.0,-206.055,233.887,1303.574,382.42731386568954
837,1685756712.68,242.188,-983.887,-140.625,226.074,1303.578,374.81763394040746
838,1685756712.68,223.145,-590.332,225.586,198.73,1303.582,372.69057900514434
839,1685756712.69,179.688,-592.773,146.973,200.195,1303.586,374.5898220502683
840,1685756712.69,192.383,-721.191,153.809,211.914,1303.59,373.2420952072992
841,1685756712.7,235.84,-391.113,196.777,205.566,1303.594,376.0461688123752
842,1685756712.7,223.633,-367.188,100.098,197.754,1303.598,378.1407422182653
843,1685756712.7,176.758,-676.758,-25.391,193.848,1303.602,377.0943283770025
844,1685756712.71,163.574,-705.078,64.941,206.055,1303.606,364.59619932931247
845,1685756712.71,214.844,-782.227,77.148,215.82,1303.61,370.7864591343792
846,1685756712.72,229.492,-878.906,49.316,197.266,1303.614,374.0835820392612
847,1685756712.72,184.57,-956.055,-70.801,188.477,1303.618,369.93568859614044
848,1685756712.72,149.902,-897.949,-50.293,202.637,1303.622,367.06462988388944
849,1685756712.73,182.129,-487.305,203.125,201.66,1303.625,367.9214031392318
850,1685756712.73,217.773,-566.895,80.078,197.754,1303.629,373.9845327060462
851,1685756712.74,187.5,-931.641,-159.18,198.242,1303.633,367.5448046918015
852,1685756712.74,142.09,-770.02,30.762,194.824,1303.633,353.8838149566868
853,1685756712.74,168.457,-474.121,186.035,187.5,1303.637,358.9864427216949
854,1685756712.74,219.238,-565.918,43.457,187.012,1303.641,358.8027991322165
855,1685756712.75,211.914,-777.832,18.066,191.895,1303.645,353.4296174745394
856,1685756712.75,162.109,-675.293,68.848,195.312,1303.649,350.71392095132836
857,1685756712.76,157.715,-808.594,41.016,201.172,1303.653,351.2136846170556
858,1685756712.76,195.312,-929.199,24.414,190.43,1303.657,363.49076555560333
859,1685756712.76,192.383,-991.211,-281.738,184.082,1303.661,356.48618986590355
860,1685756712.77,150.391,-901.855,-85.938,188.477,1303.664,349.96367307513987
861,1685756712.77,134.277,-515.137,256.836,192.871,1303.668,357.51249749946
862,1685756712.78,197.266,-547.852,122.07,206.055,1303.672,350.23324208508336
863,1685756712.78,221.191,-665.527,125.977,204.59,1303.676,356.4971207430294
864,1685756712.78,165.039,-567.383,82.52,177.246,1303.684,361.480128457657
865,1685756712.79,123.047,-794.922,20.996,171.387,1303.688,358.95550603759636
866,1685756712.79,168.457,-930.176,-0.488,183.105,1303.692,354.0891045581067
867,1685756712.8,208.984,-739.746,54.199,177.734,1303.696,354.39638604071683
868,1685756712.8,173.828,-545.41,119.629,159.18,1303.7,351.4510466582483
869,1685756712.8,124.512,-834.961,23.438,162.598,1303.704,349.1450633827195
870,1685756712.81,136.23,-1000.0,-70.312,180.176,1303.708,354.22988678389
871,1685756712.81,185.547,-831.055,-14.648,173.34,1303.712,354.1094250109391
872,1685756712.82,174.805,-473.145,177.734,158.203,1303.716,353.5156489634695
873,1685756712.82,125.0,-517.578,89.844,154.785,1303.719,346.2014488078957
874,1685756712.82,125.977,-847.656,-65.918,162.109,1303.723,344.3185742632812
875,1685756712.83,173.34,-385.254,137.207,140.137,1303.737,342.2992518491767
876,1685756712.83,174.805,-633.301,57.617,155.762,1303.727,345.45557273915585
877,1685756712.83,125.977,-606.934,19.043,143.066,1303.741,349.51081787428495
878,1685756712.83,97.656,-823.73,-47.852,151.367,1303.745,341.818185640575
879,1685756712.84,129.395,-731.934,34.668,142.09,1303.749,352.5423819495887
880,1685756712.84,156.738,-855.469,-9.766,128.906,1303.753,349.03526686011895
881,1685756712.85,137.207,-990.723,-102.539,125.0,1303.756,345.57648515348944
882,1685756712.85,90.82,-996.582,-355.469,126.953,1303.76,348.7613071529492
883,1685756712.85,110.84,-1000.0,-236.328,125.488,1303.764,343.27916050803873
884,1685756712.86,156.738,-642.09,215.82,119.629,1303.768,345.7055255929194
885,1685756712.86,135.742,-578.613,137.695,115.723,1303.772,352.5115990366995
886,1685756712.86,83.984,-794.434,88.867,119.141,1303.776,344.948344891966
887,1685756712.87,99.121,-531.738,171.387,139.648,1303.78,346.6324898640202
888,1685756712.93,144.043,-385.254,106.934,132.324,1303.828,359.6451140854451
889,1685756712.93,71.777,-534.18,108.887,86.426,1303.835,356.9070265588925
890,1685756712.94,126.953,-644.531,-32.227,101.562,1303.832,354.02474212394037
891,1685756712.94,112.793,-771.973,5.371,90.332,1303.839,356.2738633408591
892,1685756712.94,76.66,-790.039,2.441,102.539,1303.836,344.6117934615188
893,1685756712.94,93.75,-742.188,45.898,77.148,1303.843,357.28135130030597
894,1685756712.94,65.43,-583.008,115.723,105.957,1303.84,358.70572918800696
895,1685756712.95,47.363,-665.527,101.562,72.754,1303.847,339.3937680032231
896,1685756712.95,118.164,-491.211,116.699,96.191,1303.844,355.71907972361953
897,1685756712.95,47.852,-696.289,60.547,88.379,1303.851,354.99167514494764
898,1685756712.95,128.906,-826.66,-181.152,94.727,1303.848,358.3201637469725
899,1685756712.95,85.938,-892.09,-34.668,85.938,1303.855,349.0342960140611
900,1685756712.96,81.543,-1000.0,-166.504,85.449,1303.852,352.57074502799816
901,1685756712.96,62.988,-832.52,197.754,89.355,1303.856,357.87248283559035
902,1685756712.96,77.148,-1000.0,15.625,59.082,1303.859,351.26195990395865
903,1685756712.96,28.809,-901.367,107.91,44.434,1303.863,359.78761863254283
904,1685756712.96,98.145,-499.023,189.453,97.656,1303.86,360.3140262137329
905,1685756712.96,13.672,-848.633,59.082,56.641,1303.867,349.025139549998
906,1685756712.97,115.723,-783.203,-91.797,90.82,1303.863,353.55148300170976
907,1685756712.97,55.176,-837.402,27.832,66.406,1303.871,356.9749073953222
908,1685756712.97,83.008,-923.34,-15.625,77.637,1303.867,356.85081074957475
909,1685756712.97,72.266,-574.219,144.531,58.105,1303.874,358.0277395061117
910,1685756712.97,45.898,-583.984,177.246,74.219,1303.871,352.64052459577374
911,1685756712.98,42.969,-518.066,137.695,53.223,1303.878,345.6351268351947
912,1685756712.98,18.555,-768.066,-38.574,69.336,1303.876,350.66446825790484
913,1685756712.98,48.34,-907.715,-108.398,82.52,1303.88,348.18452721110987
914,1685756712.99,68.359,-588.379,161.621,58.594,1303.884,347.65845770953666
915,1685756712.99,45.898,-501.465,145.508,36.621,1303.887,348.0555084349337
916,1685756712.99,7.324,-803.711,-29.297,39.551,1303.891,358.26893725184044
917,1685756713.0,20.508,-1000.0,27.832,45.898,1303.895,355.2616193527626
918,1685756713.0,66.406,-875.0,140.137,38.086,1303.899,347.1969691326256
919,1685756713.0,53.223,-604.004,164.551,17.09,1303.903,347.9180671733953
920,1685756713.01,2.441,-842.773,-76.172,15.625,1303.907,349.6965050900399
921,1685756713.01,-6.348,-1000.0,-266.602,30.273,1303.911,358.781338366439
922,1685756713.02,29.297,-815.918,114.258,11.23,1303.915,351.82353711195856
923,1685756713.02,34.18,-686.035,192.871,-6.836,1303.919,351.4404200612691
924,1685756713.04,-5.859,-919.922,-101.074,-4.395,1303.933,348.0507419170384
925,1685756713.04,-30.273,-685.059,101.074,1.953,1303.937,349.93276604173144
926,1685756713.04,17.09,-343.75,250.977,16.113,1303.941,347.5319862134144
927,1685756713.05,24.902,-448.242,96.191,9.766,1303.944,339.0422845167595
928,1685756713.05,-22.461,-829.59,8.301,-5.371,1303.948,344.1522939563836
929,1685756713.06,-49.316,-966.797,52.246,2.441,1303.952,343.4068119406468
930,1685756713.06,-22.949,-906.25,124.023,1.953,1303.956,343.6683270885175
931,1685756713.06,9.766,-861.816,88.867,-13.672,1303.96,345.8803657031683
932,1685756713.07,-5.371,-706.543,93.75,-19.043,1303.966,340.43409253502836
933,1685756713.07,-16.602,-989.746,-251.465,-20.02,1303.964,338.0781724528955
934,1685756713.07,-66.406,-904.297,-51.758,-17.578,1303.968,336.9398746668219
935,1685756713.07,-56.641,-662.598,110.352,-30.273,1303.97,335.18018424081436
936,1685756713.08,-45.898,-447.754,299.805,-9.277,1303.972,335.0678448871025
937,1685756713.08,-64.453,-780.762,81.543,-31.25,1303.974,328.3308278216353
938,1685756713.08,8.301,-459.961,142.09,-7.324,1303.976,326.9680563990648
939,1685756713.08,-16.602,-880.859,77.637,-30.762,1303.978,332.4851378206509
940,1685756713.08,-4.395,-768.066,134.766,-34.18,1303.982,323.9578018431967
941,1685756713.09,-42.969,-835.449,87.402,-47.852,1303.986,335.7193074653926
942,1685756713.09,-64.941,-944.824,52.734,-39.551,1303.99,335.2425198995826
943,1685756713.09,-30.273,-895.02,47.363,-23.926,1303.994,331.5787312992657
944,1685756713.1,-6.836,-715.332,144.531,-33.691,1303.998,338.6809805561596
945,1685756713.1,-41.504,-475.586,178.711,-49.316,1304.002,328.47090600406995
946,1685756713.11,-83.496,-481.445,121.582,-54.688,1304.006,334.6331664076633
947,1685756713.11,-49.805,-867.676,-105.957,-44.922,1304.009,333.39383211719854
948,1685756713.11,-12.207,-816.895,60.547,-47.852,1304.008,325.4993503855565
949,1685756713.12,-34.668,-404.297,219.238,-59.082,1304.012,333.1640621825138
950,1685756713.12,-74.219,-555.176,58.105,-54.688,1304.015,334.9601206094983
951,1685756713.12,-73.73,-795.898,22.461,-44.922,1304.019,328.0134831282597
952,1685756713.13,-33.691,-674.316,65.918,-51.27,1304.023,326.22979752612
953,1685756713.13,-23.438,-802.734,38.086,-62.012,1304.027,326.832527721146
954,1685756713.14,-62.988,-965.82,24.902,-55.664,1304.031,315.40903166085997
955,1685756713.14,-78.613,-1000.0,-252.441,-43.945,1304.035,326.40290436075094
956,1685756713.14,-31.738,-994.141,-181.641,-41.992,1304.039,317.75478771783
957,1685756713.15,-17.578,-562.012,247.559,-60.547,1304.043,319.86492550211995
958,1685756713.15,-54.688,-530.273,138.672,-70.312,1304.047,323.6686729026504
959,1685756713.15,-95.703,-726.562,125.488,-56.152,1304.051,310.8527715882582
960,1685756713.16,-62.012,-402.344,203.613,-47.363,1304.067,319.7677435986086
961,1685756713.16,-13.184,-332.031,102.539,-49.316,1304.071,319.72852006431407
962,1685756713.17,-38.574,-642.578,-14.648,-56.641,1304.075,319.12196578500277
963,1685756713.17,-92.285,-692.871,65.918,-69.336,1304.079,323.0325023430116
964,1685756713.17,-89.355,-485.84,119.629,-71.777,1304.083,313.0009101924956
965,1685756713.18,-54.199,-698.73,52.734,-74.707,1304.087,319.8118917264331
966,1685756713.18,-52.246,-983.887,-126.465,-73.73,1304.091,322.45663121132776
967,1685756713.18,-87.402,-979.492,-189.941,-60.059,1304.095,315.45169428974026
968,1685756713.19,-90.82,-587.891,199.219,-66.406,1304.099,314.32319009106567
969,1685756713.19,-47.363,-390.137,191.406,-85.449,1304.103,321.27880420296344
970,1685756713.2,-44.922,-787.109,-91.797,-90.82,1304.107,315.944577231302
971,1685756713.2,-123.047,-491.699,173.34,-81.543,1304.112,316.2029853354367
972,1685756713.2,-95.703,-807.617,16.113,-89.844,1304.11,317.0099028505262
973,1685756713.2,-75.195,-476.074,85.449,-72.754,1304.116,296.6732926197612
974,1685756713.21,-41.992,-736.328,0.0,-70.312,1304.12,299.22591702935034
975,1685756713.21,-71.777,-649.902,51.758,-74.707,1304.124,306.1416211603613
976,1685756713.22,-105.469,-590.332,83.008,-69.824,1304.128,301.1035042040386
977,1685756713.22,-71.289,-832.52,-14.16,-69.336,1304.131,300.4033958686132
978,1685756713.22,-33.203,-1000.0,-259.766,-69.336,1304.135,291.7240227257894
979,1685756713.23,-66.406,-931.641,-8.789,-80.078,1304.139,291.82237146094366
980,1685756713.23,-111.328,-604.98,238.281,-86.426,1304.143,291.4748355918037
981,1685756713.24,-85.449,-631.836,35.645,-65.43,1304.147,288.7596190623794
982,1685756713.24,-36.621,-944.824,-211.426,-62.012,1304.151,290.07058440765314
983,1685756713.24,-47.852,-695.312,91.309,-79.59,1304.155,290.2619271906923
984,1685756713.26,-91.309,-453.613,194.336,-84.473,1304.16,302.08307376172047
985,1685756713.27,-82.52,-658.691,5.371,-74.219,1304.163,290.1885905574048
986,1685756713.27,-43.457,-686.523,99.609,-76.66,1304.167,297.3985920732028
987,1685756713.27,-50.781,-465.332,128.906,-91.309,1304.171,293.9221023051205
988,1685756713.28,-75.195,-528.809,72.266,-93.262,1304.175,296.9005092756086
989,1685756713.28,-96.68,-905.762,-162.109,-74.219,1304.179,293.52268417650737
990,1685756713.29,-66.895,-1000.0,-123.535,-62.5,1304.183,289.52752497230114
991,1685756713.29,-36.621,-616.211,190.918,-70.312,1304.187,289.957649839835
992,1685756713.29,-64.453,-520.508,108.887,-79.102,1304.191,293.5954225783011
993,1685756713.3,-110.352,-872.07,-100.586,-71.289,1304.195,296.64116603025633
994,1685756713.3,-82.031,-713.867,54.688,-61.523,1304.199,295.19521418687964
995,1685756713.3,-39.551,-503.906,136.23,-71.777,1304.202,293.04884471172153
996,1685756713.31,-64.941,-804.199,-69.824,-85.938,1304.203,298.6355735102605
997,1685756713.31,-113.77,-982.422,-241.699,-85.938,1304.207,295.91533564610273
998,1685756713.31,-101.562,-690.43,56.641,-80.566,1304.211,301.17317038889007
999,1685756713.32,-47.852,-425.781,201.66,-84.961,1304.214,301.2282095241288
1000,1685756713.32,-48.34,-609.863,-16.602,-97.168,1304.218,299.3659269158013
1001,1685756713.33,-94.727,-941.895,-134.277,-104.98,1304.222,304.76800585629275
1002,1685756713.33,-106.445,-995.117,-16.602,-97.656,1304.226,307.32259424659196
1003,1685756713.33,-67.383,-891.113,125.977,-91.309,1304.23,309.5823151191652
1004,1685756713.34,-57.617,-733.398,63.477,-94.238,1304.234,309.4003957005861
1005,1685756713.34,-92.285,-944.336,-249.023,-86.426,1304.238,306.26178029206187
1006,1685756713.34,-117.188,-838.379,112.305,-88.867,1304.242,317.16613485465797
1007,1685756713.35,-69.336,-384.277,293.457,-86.914,1304.246,305.10167536661857
1008,1685756713.35,-35.645,-502.441,61.523,-82.52,1304.25,317.3672453796793
1009,1685756713.36,-76.172,-678.223,111.816,-86.426,1304.254,317.3530390618337
1010,1685756713.36,-122.07,-639.16,92.285,-79.59,1304.258,315.43222142324834
1011,1685756713.36,-96.191,-760.254,80.078,-72.754,1304.262,317.71473814265283
1012,1685756713.37,-43.945,-797.363,56.152,-64.453,1304.265,304.1251381272655
1013,1685756713.37,-53.711,-943.848,-0.977,-62.5,1304.269,311.4561727581671
1014,1685756713.38,-93.262,-847.168,152.344,-68.359,1304.273,308.4704344680791
1015,1685756713.38,-86.426,-512.207,235.352,-61.523,1304.277,313.6266935170059
1016,1685756713.38,-35.645,-763.184,-42.48,-55.176,1304.281,315.3647731517486
1017,1685756713.39,-39.551,-894.043,-44.434,-68.848,1304.285,321.22178291443913
1018,1685756713.39,-90.332,-499.023,205.566,-92.773,1304.289,314.6824913730338
1019,1685756713.4,-100.586,-490.723,142.578,-83.496,1304.293,315.4268074317041
1020,1685756713.4,-47.363,-767.578,25.391,-69.336,1304.293,330.67237774019486
1021,1685756713.4,-27.832,-577.148,109.375,-82.52,1304.297,326.9855151467116
1022,1685756713.4,-63.477,-449.219,132.812,-86.426,1304.301,320.822615799603
1023,1685756713.41,-95.703,-576.172,98.145,-76.172,1304.305,324.09325143543043
1024,1685756713.41,-61.523,-798.34,70.312,-71.777,1304.308,332.809149575792
1025,1685756713.42,-25.879,-889.16,69.336,-76.172,1304.312,327.02768669074356
1026,1685756713.42,-53.223,-929.688,62.012,-88.867,1304.316,331.62716730559333
1027,1685756713.42,-83.984,-968.262,76.66,-78.125,1304.32,320.20050668700213
1028,1685756713.43,-62.988,-1000.0,-153.32,-52.246,1304.324,321.6116786005584
1029,1685756713.43,-27.832,-989.258,-117.676,-58.105,1304.328,328.22065130300405
1030,1685756713.44,-39.062,-589.355,241.699,-83.984,1304.332,329.7836058585845
1031,1685756713.44,-83.984,-559.57,176.758,-87.402,1304.336,333.94975865040635
1032,1685756713.44,-87.402,-660.645,181.641,-75.195,1304.34,326.1818913676876
1033,1685756713.45,-34.668,-362.793,215.82,-68.848,1304.344,330.0951641585769
1034,1685756713.45,-26.367,-370.117,96.191,-69.336,1304.347,326.9950914550396
1035,1685756713.45,-64.941,-653.809,18.555,-71.289,1304.351,332.09909873276507
1036,1685756713.46,-74.219,-672.852,108.398,-60.059,1304.355,333.2470716010396
1037,1685756713.46,-33.203,-724.121,91.309,-47.852,1304.359,320.7547999774694
1038,1685756713.47,-15.137,-822.266,75.195,-58.594,1304.363,330.1637455634651
1039,1685756713.47,-46.875,-936.523,-70.312,-67.871,1304.367,329.2968141002197
1040,1685756713.47,-85.938,-971.191,-72.754,-65.43,1304.371,338.2124599441432
1041,1685756713.48,-56.641,-498.047,253.418,-68.359,1304.375,336.11190998739306
1042,1685756713.48,-21.484,-303.223,189.453,-72.754,1304.379,337.6434380493292
1043,1685756713.48,-44.922,-780.762,-138.184,-73.242,1304.383,330.6779905555767
1044,1685756713.49,-88.379,-926.27,-39.551,-76.172,1304.383,329.32444105142093
1045,1685756713.49,-81.543,-514.648,209.961,-78.613,1304.387,338.4264346918645
1046,1685756713.49,-25.879,-423.34,122.07,-70.312,1304.391,339.3618232638905
1047,1685756713.5,-29.785,-703.613,30.762,-71.289,1304.395,340.3472651557163
1048,1685756713.5,-76.66,-648.438,80.566,-68.848,1304.399,342.01652450372825
1049,1685756713.51,-73.73,-786.621,71.777,-57.129,1304.402,338.3253915143734
1050,1685756713.51,-17.578,-890.625,44.434,-53.711,1304.406,337.044378804317
1051,1685756713.51,-10.742,-980.957,-222.656,-41.504,1304.41,337.17755082834384
1052,1685756713.52,-58.594,-878.906,-43.945,-57.617,1304.414,341.23125671155526
1053,1685756713.52,-78.125,-426.27,282.227,-59.082,1304.418,334.36154561516815
1054,1685756713.52,-37.109,-511.23,115.234,-47.852,1304.422,333.74711385945875
1055,1685756713.53,-4.883,-722.656,61.523,-61.523,1304.426,332.60747822713176
1056,1685756713.53,-31.738,-479.004,139.16,-62.5,1304.452,340.2479203313712
1057,1685756713.54,-75.195,-374.512,114.746,-58.594,1304.456,334.60528806908906
1058,1685756713.54,-56.152,-575.684,31.25,-56.641,1304.46,339.8740519826341
1059,1685756713.54,-13.672,-637.695,95.703,-60.059,1304.464,344.28290456515805
1060,1685756713.55,-26.367,-448.242,105.469,-67.383,1304.468,334.24250804874316
1061,1685756713.55,-68.848,-700.684,42.969,-61.035,1304.472,337.0856113709309
1062,1685756713.56,-59.57,-986.328,-48.828,-52.734,1304.475,335.5033602469866
1063,1685756713.56,-20.02,-864.746,-23.438,-53.223,1304.479,341.8863754911483
1064,1685756713.56,-29.297,-454.102,194.824,-64.453,1304.483,349.00182690571273
1065,1685756713.57,-70.312,-419.922,126.953,-63.965,1304.487,340.82211385397386
1066,1685756713.57,-89.355,-796.875,3.418,-51.758,1304.491,341.4118680642303
1067,1685756713.58,-41.992,-563.965,134.766,-48.828,1304.495,341.9008732356608
1068,1685756713.58,-11.719,-392.09,123.047,-49.316,1304.477,336.968824231916
1069,1685756713.58,-51.27,-810.547,-39.062,-55.664,1304.481,346.30837879933205
1070,1685756713.58,-82.52,-993.164,-159.668,-52.246,1304.485,345.5986920808034
1071,1685756713.59,-41.016,-597.168,97.656,-47.363,1304.488,344.74006989373856
1072,1685756713.59,-6.348,-434.082,201.172,-49.316,1304.492,338.23007708077523
1073,1685756713.6,-42.48,-854.98,-9.277,-61.523,1304.496,340.6015821949954
1074,1685756713.6,-95.215,-1000.0,-232.422,-57.617,1304.5,337.23506529419706
1075,1685756713.6,-74.219,-806.641,78.613,-51.758,1304.504,341.2359846897982
1076,1685756713.61,-23.926,-291.992,320.312,-54.688,1304.508,348.1536852463156
1077,1685756713.61,-32.227,-447.754,53.223,-52.734,1304.512,345.890587573127
1078,1685756713.62,-70.801,-813.965,-8.301,-53.223,1304.516,339.9579842517408
1079,1685756713.62,-72.266,-493.164,160.156,-50.781,1304.52,340.3340060053116
1080,1685756713.64,-20.996,-266.113,144.043,-46.387,1304.535,349.8767672815842
1081,1685756713.64,-17.578,-530.273,-2.93,-55.664,1304.538,341.28486543476504
1082,1685756713.64,-68.848,-697.754,70.801,-69.336,1304.542,347.10177065595025
1083,1685756713.65,-81.543,-630.859,104.004,-49.316,1304.546,341.93185704307257
1084,1685756713.65,-25.391,-770.508,78.613,-30.762,1304.55,348.2582995997979
1085,1685756713.66,-14.648,-910.645,-45.898,-47.363,1304.554,342.68034553413236
1086,1685756713.66,-64.941,-988.77,-223.145,-65.43,1304.558,351.2098355134484
1087,1685756713.66,-93.75,-663.574,158.203,-64.941,1304.562,339.45299834594726
1088,1685756713.67,-52.246,-389.648,257.812,-58.594,1304.566,348.92548819095356
1089,1685756713.67,-19.043,-626.465,38.574,-59.57,1304.57,344.45165202504796
1090,1685756713.68,-51.758,-607.422,86.426,-72.754,1304.574,344.70918890788903
1091,1685756713.68,-99.609,-408.203,157.715,-84.473,1304.578,339.66879769000894
1092,1685756713.68,-87.402,-474.121,107.422,-82.52,1304.578,344.03575740609824
1093,1685756713.68,-34.668,-786.621,-35.156,-76.66,1304.582,344.67899196345417
1094,1685756713.69,-39.062,-660.645,43.457,-84.961,1304.586,342.769687586971
1095,1685756713.69,-82.52,-433.594,131.836,-87.891,1304.59,342.71706550219216
1096,1685756713.7,-85.449,-549.316,57.129,-55.176,1304.594,343.5650298811642
1097,1685756713.7,-42.969,-881.348,-24.414,-47.363,1304.598,339.5037861400247
1098,1685756713.7,-35.156,-943.848,17.578,-61.035,1304.601,344.5468174106508
1099,1685756713.71,-71.289,-914.551,53.711,-61.035,1304.605,341.27876217321864
1100,1685756713.71,-92.285,-935.547,68.359,-56.152,1304.609,340.6411784807142
1101,1685756713.72,-45.898,-1000.0,-176.27,-38.574,1304.613,339.89272248533814
1102,1685756713.72,-18.555,-917.969,-40.039,-44.922,1304.617,343.75346615319864
1103,1685756713.72,-51.27,-468.75,241.699,-73.242,1304.621,344.0765497664664
1104,1685756713.73,-87.402,-527.832,121.094,-70.801,1304.625,339.88431948911546
1105,1685756713.73,-58.105,-607.422,158.691,-54.688,1304.629,348.44231734964336
1106,1685756713.74,-17.09,-351.562,174.316,-58.105,1304.633,337.70383192294855
1107,1685756713.74,-43.457,-400.391,84.961,-61.523,1304.637,343.93955406034974
1108,1685756713.74,-91.797,-670.41,-2.441,-53.711,1304.641,332.5783160666952
1109,1685756713.75,-68.848,-910.645,29.785,-49.805,1304.645,338.603316327956
1110,1685756713.75,-16.602,-706.543,126.953,-46.875,1304.648,336.46689895536423
1111,1685756713.75,-27.832,-400.879,166.504,-60.059,1304.652,333.201327651951
1112,1685756713.76,-72.754,-792.969,-91.309,-67.383,1304.656,347.33684090564054
1113,1685756713.76,-82.031,-948.73,-100.098,-52.734,1304.66,341.5266860572252
1114,1685756713.77,-34.668,-399.414,237.793,-51.758,1304.664,327.08830802394266
1115,1685756713.77,-25.879,-293.945,141.113,-61.523,1304.668,328.0457179758749
1116,1685756713.77,-65.43,-786.133,-115.234,-62.988,1304.668,340.97834264582696
1117,1685756713.78,-94.727,-710.449,36.621,-60.059,1304.672,336.8266166448131
1118,1685756713.78,-54.688,-310.547,176.758,-58.105,1304.676,332.832996235883
1119,1685756713.78,-12.207,-364.746,69.336,-59.57,1304.68,341.31696900264905
1120,1685756713.79,-43.457,-807.617,-101.562,-66.406,1304.684,333.98721190323283
1121,1685756713.79,-88.379,-994.141,-117.188,-65.918,1304.688,326.00458336818417
1122,1685756713.8,-65.918,-895.996,52.246,-58.594,1304.691,339.4202870396308
1123,1685756713.8,-23.438,-829.102,54.199,-55.176,1304.695,338.127006225764
1124,1685756713.8,-38.086,-975.586,-239.746,-53.223,1304.699,342.8322755735398
1125,1685756713.81,-86.914,-892.09,-47.852,-61.035,1304.703,336.7412693661836
1126,1685756713.81,-81.543,-432.617,262.695,-64.941,1304.707,329.786877337131
1127,1685756713.81,-27.344,-479.004,96.68,-60.059,1304.711,341.9299104428265
1128,1685756713.82,-27.832,-698.73,-2.441,-64.941,1304.715,337.7934768562419
1129,1685756713.82,-74.707,-437.5,105.957,-73.73,1304.719,342.8886706975348
1130,1685756713.82,-91.797,-309.57,101.562,-66.895,1304.723,348.3669254203907
1131,1685756713.83,-50.293,-522.949,-13.672,-56.152,1304.727,349.353731053187
1132,1685756713.83,-29.785,-583.496,54.688,-69.824,1304.731,345.9714691201065
1133,1685756713.84,-62.988,-722.656,-39.062,-85.449,1304.735,339.0140828015132
1134,1685756713.84,-89.844,-852.051,-40.039,-77.637,1304.738,334.9274050391311
1135,1685756713.84,-50.781,-854.98,-30.762,-67.383,1304.742,342.82500219571006
1136,1685756713.85,-21.484,-840.82,-45.41,-69.336,1304.746,342.2189353125286
1137,1685756713.85,-45.898,-435.059,163.086,-70.312,1304.75,341.6509683922465
1138,1685756713.86,-80.566,-393.066,98.633,-56.641,1304.754,344.12492693689745
1139,1685756713.86,-63.965,-708.984,-44.922,-46.387,1304.758,338.6296141496471
1140,1685756713.86,-24.414,-463.379,70.312,-57.617,1304.761,357.2318738252236
1141,1685756713.87,-39.551,-311.523,85.449,-72.754,1304.765,343.8707332098388
1142,1685756713.87,-72.266,-733.887,-118.652,-66.895,1304.769,343.1757133982755
1143,1685756713.87,-72.266,-923.828,-196.777,-50.781,1304.772,341.0218289225827
1144,1685756713.88,-27.832,-583.984,35.645,-52.734,1304.776,345.41455306255176
1145,1685756713.88,-18.555,-623.047,60.547,-56.152,1304.78,347.4593300422255
1146,1685756713.89,-71.289,-911.133,-93.262,-57.617,1304.784,355.47925549986974
1147,1685756713.89,-94.238,-1000.0,-306.641,-50.293,1304.788,348.5837330868888
1148,1685756713.89,-50.293,-794.922,-29.297,-51.27,1304.792,346.4210489177333
1149,1685756713.9,-28.32,-250.488,245.117,-64.453,1304.796,348.55455282091293
1150,1685756713.9,-60.547,-397.461,29.785,-70.312,1304.8,346.7444782205442
1151,1685756713.9,-84.473,-659.18,-12.695,-65.43,1304.804,345.4765698361091
1152,1685756713.91,-46.387,-462.891,62.012,-50.293,1304.817,345.9663173364457
1153,1685756713.91,-0.977,-312.988,89.844,-44.922,1304.821,335.40632121638964
1154,1685756713.92,-21.484,-505.371,-51.758,-58.594,1304.825,341.70193964622405
1155,1685756713.92,-75.195,-597.168,18.066,-67.871,1304.829,345.2783238754564
1156,1685756713.92,-64.453,-477.539,79.102,-56.641,1304.832,343.7783533315369
1157,1685756713.93,-20.996,-658.691,36.621,-54.199,1304.836,344.5318423548104
1158,1685756713.93,-27.832,-879.395,-98.633,-69.824,1304.84,334.63798523978903
1159,1685756713.93,-82.52,-991.699,-254.395,-75.684,1304.844,343.3040906566407
1160,1685756713.94,-94.727,-566.895,136.719,-75.684,1304.848,340.15290587733307
1161,1685756713.94,-42.48,-269.043,198.73,-77.637,1304.852,348.5399893536278
1162,1685756713.95,-35.156,-574.707,-45.41,-79.59,1304.856,354.74767993566957
1163,1685756713.95,-72.754,-540.039,49.316,-79.59,1304.86,349.92660523979174
1164,1685756713.95,-97.168,-302.734,145.508,-72.266,1304.862,333.93471864100803
1165,1685756713.96,-55.664,-354.492,53.711,-56.641,1304.865,344.7053588120701
1166,1685756713.96,-29.297,-650.391,-27.344,-62.988,1304.869,341.5005576519483
1167,1685756713.96,-59.082,-510.742,38.086,-65.918,1304.873,352.0472394699164
1168,1685756713.97,-108.398,-416.504,64.941,-72.754,1304.877,348.248090091414
1169,1685756713.97,-69.336,-730.469,-13.672,-52.734,1304.881,340.2020302303909
1170,1685756713.98,-54.199,-949.707,-308.594,-78.125,1304.885,349.5785596947055
1171,1685756713.98,-656.738,-1000.0,-218.262,-674.805,1304.889,343.20125537223475
1172,1685756713.98,-1000.0,-838.867,-83.008,-1000.0,1304.893,356.4242374280866
1173,1685756713.99,-975.586,-679.199,-402.832,-975.098,1304.897,345.61446540219004
1174,1685756713.99,-1000.0,-878.418,-568.359,-1000.0,1304.901,349.8430181998192
1175,1685756713.99,-1000.0,-685.547,-458.984,-1000.0,1304.905,344.2623473965744
1176,1685756714.01,-1000.0,-511.23,-487.305,-1000.0,1304.921,339.98222380549777
1177,1685756714.02,-1000.0,-710.449,-558.105,-1000.0,1304.925,342.7078150986748
1178,1685756714.02,-1000.0,-699.707,-476.074,-1000.0,1304.929,343.2559579773984
1179,1685756714.02,-1000.0,-494.141,-448.73,-1000.0,1304.933,341.23007972409755
1180,1685756714.03,-999.023,-604.492,-519.043,-1000.0,1304.937,343.05586015684975
1181,1685756714.03,-1000.0,-941.895,-586.426,-999.512,1304.941,341.54222984833183
1182,1685756714.04,-1000.0,-871.582,-397.461,-999.512,1304.945,338.8074417365826
1183,1685756714.04,-943.359,-439.453,-241.211,-1000.0,1304.949,340.1057617312013
1184,1685756714.04,-888.184,-424.805,-368.164,-958.008,1304.953,339.1932032898446
1185,1685756714.05,-868.652,-868.652,-489.746,-883.301,1304.956,343.24152013756805
1186,1685756714.05,-797.852,-840.82,-329.102,-830.078,1304.96,340.55897673590204
1187,1685756714.06,-712.891,-402.344,-201.172,-799.316,1304.964,343.6910781838727
1188,1685756714.06,-687.5,-439.941,-319.336,-765.625,1304.956,343.0121435675503
1189,1685756714.06,-686.035,-874.512,-500.488,-713.379,1304.96,341.4184736004728
1190,1685756714.06,-651.367,-789.062,-292.969,-666.992,1304.964,342.0062686503166
1191,1685756714.07,-578.613,-379.883,-127.93,-629.395,1304.968,342.6143912058108
1192,1685756714.07,-545.898,-462.891,-282.227,-604.004,1304.972,335.9515599891804
1193,1685756714.08,-565.918,-862.793,-306.152,-581.543,1304.975,333.1297767431523
1194,1685756714.08,-559.57,-985.352,-252.441,-550.293,1304.979,337.2530504994292
1195,1685756714.08,-478.516,-806.152,-198.242,-518.555,1304.983,338.5364204198332
1196,1685756714.09,-415.039,-622.559,-228.516,-500.0,1304.987,335.9292892024144
1197,1685756714.09,-424.316,-926.27,-462.891,-481.445,1304.991,331.9429489378237
1198,1685756714.1,-437.012,-848.633,-145.02,-456.543,1304.995,336.950238552276
1199,1685756714.1,-382.812,-394.043,120.117,-428.711,1304.999,334.60182031137344
1200,1685756714.1,-328.125,-548.828,-128.906,-416.016,1305.0,325.39194249484535
1201,1685756714.11,-331.543,-715.82,-146.484,-413.086,1305.004,344.91039761215654
1202,1685756714.11,-358.398,-485.352,-6.836,-387.695,1305.008,342.0292866723264
1203,1685756714.11,-334.473,-355.469,18.066,-361.816,1305.012,341.264037124767
1204,1685756714.12,-272.461,-585.938,-119.629,-347.656,1305.016,341.94628836924386
1205,1685756714.12,-272.461,-917.48,-241.211,-335.449,1305.02,337.01497436532327
1206,1685756714.13,-318.848,-903.32,-133.301,-331.543,1305.024,343.7538601123018
1207,1685756714.13,-308.594,-539.062,82.031,-320.312,1305.028,340.68718569009474
1208,1685756714.13,-242.188,-664.551,-182.129,-292.969,1305.031,344.5367476296468
1209,1685756714.14,-230.469,-1000.0,-367.188,-281.25,1305.035,349.1127503213837
1210,1685756714.14,-265.625,-592.773,77.637,-293.457,1305.039,337.5590577557403
1211,1685756714.14,-274.414,-383.301,103.516,-276.367,1305.043,335.20309967569295
1212,1685756714.15,-226.562,-683.594,-133.789,-261.23,1305.044,336.633030291475
1213,1685756714.15,-196.777,-461.914,17.09,-261.719,1305.047,333.2331116161725
1214,1685756714.15,-227.539,-339.844,37.598,-264.16,1305.051,328.1596378025139
1215,1685756714.16,-263.184,-721.191,-201.172,-255.371,1305.055,336.07805848159035
1216,1685756714.16,-223.145,-941.895,-265.625,-234.375,1305.059,340.3571915551451
1217,1685756714.17,-173.34,-816.406,-38.086,-233.887,1305.063,341.8229256917183
1218,1685756714.17,-192.383,-802.734,-23.438,-238.281,1305.067,330.62024167208335
1219,1685756714.17,-232.91,-906.738,-109.375,-229.98,1305.071,345.8523956164071
1220,1685756714.18,-223.633,-1000.0,-258.301,-205.566,1305.075,340.51685936586125
1221,1685756714.18,-172.852,-794.922,-44.434,-206.543,1305.079,332.7253896016626
1222,1685756714.18,-165.039,-276.855,211.914,-226.562,1305.083,346.8921957348984
1223,1685756714.19,-207.52,-417.48,-40.527,-219.727,1305.087,339.0483771292088
1224,1685756714.19,-215.82,-593.75,-64.941,-199.219,1305.09,332.2797367486722
1225,1685756714.2,-164.551,-257.812,85.938,-195.801,1305.094,338.437941241998
1226,1685756714.2,-142.578,-174.805,15.137,-207.031,1305.098,339.3443690827427
1227,1685756714.2,-169.922,-515.625,-145.508,-204.59,1305.102,325.7457250981906
1228,1685756714.21,-187.988,-626.953,-20.508,-182.617,1305.106,336.0457268435105
1229,1685756714.21,-147.949,-582.52,-12.695,-161.133,1305.11,339.0147247502171
1230,1685756714.22,-123.047,-654.785,-101.074,-174.316,1305.114,337.4067537441042
1231,1685756714.22,-161.133,-859.863,-241.699,-188.477,1305.117,330.5144376646897
1232,1685756714.22,-194.824,-992.676,-285.156,-176.27,1305.121,329.6107824808997
1233,1685756714.23,-161.621,-497.07,129.395,-162.598,1305.125,341.33697462568927
1234,1685756714.23,-114.258,-195.312,167.969,-158.691,1305.129,332.3264961994164
1235,1685756714.24,-125.488,-533.691,-88.379,-169.434,1305.133,336.4344721718731
1236,1685756714.24,-163.086,-479.98,2.441,-164.551,1305.133,328.34738339052643
1237,1685756714.24,-150.879,-193.848,122.07,-151.367,1305.137,341.3793885276201
1238,1685756714.24,-101.074,-309.57,6.836,-150.879,1305.141,337.64145325732585
1239,1685756714.25,-108.887,-597.168,-26.855,-155.273,1305.144,336.1702034095316
1240,1685756714.25,-145.02,-567.383,-27.344,-149.414,1305.148,336.1476255737095
1241,1685756714.26,-153.32,-714.355,-83.984,-135.254,1305.152,334.15658616772384
1242,1685756714.26,-113.281,-784.18,7.324,-133.301,1305.156,330.58198709398346
1243,1685756714.26,-83.496,-940.43,-298.828,-128.906,1305.16,336.6473468233794
1244,1685756714.27,-121.582,-995.117,-225.098,-136.719,1305.164,332.04959882368956
1245,1685756714.27,-155.273,-458.496,221.68,-139.648,1305.168,337.2080121899319
1246,1685756714.28,-115.234,-321.777,94.727,-128.906,1305.172,341.30217849758077
1247,1685756714.28,-84.961,-542.48,-15.137,-135.254,1305.176,333.99462312334975
1248,1685756714.3,-110.84,-395.02,47.363,-139.16,1305.195,333.9445308808103
1249,1685756714.3,-148.926,-307.617,46.387,-130.371,1305.199,331.63281180217854
1250,1685756714.3,-133.789,-462.402,-37.598,-121.582,1305.203,332.3829085254487
1251,1685756714.31,-93.262,-421.875,61.523,-121.582,1305.207,329.7161918203642
1252,1685756714.31,-100.586,-296.387,46.387,-133.301,1305.21,329.8202435612568
1253,1685756714.32,-139.16,-661.621,-143.066,-145.02,1305.214,323.405950372827
1254,1685756714.32,-141.113,-922.363,-145.02,-128.418,1305.218,333.06587109738507
1255,1685756714.32,-92.285,-771.484,-14.16,-111.328,1305.222,331.97924958758335
1256,1685756714.33,-67.871,-384.277,75.684,-118.164,1305.236,336.0609122453145
1257,1685756714.33,-85.938,-287.598,170.41,-129.883,1305.226,333.2001127516131
1258,1685756714.33,-99.609,-459.473,-23.926,-126.465,1305.24,325.7394811796329
1259,1685756714.33,-125.488,-252.441,44.922,-134.277,1305.23,327.4926718235594
1260,1685756714.33,-136.23,-840.82,-223.633,-117.188,1305.244,329.9451432087453
1261,1685756714.34,-148.438,-757.324,-152.832,-122.07,1305.234,332.19184577942366
1262,1685756714.34,-107.91,-624.023,2.93,-112.305,1305.248,336.34230125373375
1263,1685756714.34,-101.074,-689.941,20.508,-114.258,1305.238,334.96572884358164
1264,1685756714.34,-69.336,-348.145,128.906,-115.234,1305.252,334.37683623232726
1265,1685756714.35,-95.703,-753.418,-141.602,-123.535,1305.256,330.6472605470641
1266,1685756714.35,-135.742,-965.332,-139.648,-116.211,1305.259,335.9595531987454
1267,1685756714.35,-112.793,-748.535,83.984,-95.215,1305.263,334.4739712971765
1268,1685756714.36,-58.594,-307.129,176.27,-90.82,1305.267,333.21809655904684
1269,1685756714.36,-66.895,-389.648,-51.27,-103.516,1305.271,338.2079460898539
1270,1685756714.36,-119.141,-936.523,-327.148,-105.469,1305.275,333.2354502422343
1271,1685756714.37,-126.465,-727.051,84.961,-105.469,1305.279,338.8192367144949
1272,1685756714.37,-67.871,-250.0,198.242,-104.98,1305.296,337.69433387511754
1273,1685756714.38,-57.617,-507.812,-68.359,-101.074,1305.3,330.26722310494637
1274,1685756714.38,-107.422,-774.902,-49.805,-108.887,1305.304,320.6033279142439
1275,1685756714.39,-132.324,-397.949,113.77,-107.422,1305.308,333.0024868700592
1276,1685756714.39,-80.566,-170.41,103.027,-99.121,1305.312,330.320644250233
1277,1685756714.39,-48.828,-631.348,-186.035,-98.145,1305.316,330.6415569485751
1278,1685756714.4,-87.891,-880.859,-145.02,-102.539,1305.319,328.51828505270396
1279,1685756714.4,-125.0,-442.383,125.0,-108.398,1305.323,328.6509071987037
1280,1685756714.4,-92.285,-242.676,87.891,-93.262,1305.327,333.8680774602877
1281,1685756714.41,-50.293,-600.586,-93.262,-88.379,1305.331,330.31360589248385
1282,1685756714.41,-71.289,-624.023,-29.297,-104.98,1305.335,328.3796529262062
1283,1685756714.42,-113.281,-312.988,119.629,-104.98,1305.339,327.73680644526587
1284,1685756714.43,-98.633,-323.242,59.082,-89.355,1305.328,334.2214029680641
1285,1685756714.44,-51.27,-610.84,-83.008,-86.426,1305.332,336.6795826602118
1286,1685756714.44,-56.641,-481.445,7.812,-103.027,1305.336,334.99828675541625
1287,1685756714.44,-100.098,-424.316,41.016,-107.91,1305.34,334.9765422586133
1288,1685756714.45,-107.422,-743.164,-93.75,-91.309,1305.344,336.36264953243693
1289,1685756714.45,-63.965,-956.543,-283.691,-84.961,1305.348,343.0569989414945
1290,1685756714.46,-62.5,-966.797,-97.168,-97.656,1305.351,337.2746579970588
1291,1685756714.46,-102.051,-616.211,244.141,-113.281,1305.355,339.58066640320357
1292,1685756714.46,-127.441,-556.641,86.914,-105.957,1305.359,336.5787492727963
1293,1685756714.47,-96.191,-819.824,-49.316,-91.797,1305.363,337.81225976065946
1294,1685756714.47,-62.988,-420.41,145.508,-99.609,1305.367,330.99638848447313
1295,1685756714.47,-85.938,-202.148,136.23,-105.469,1305.371,334.73425509651815
