,timestamps,TP9,AF7,AF8,TP10,Secondary Timestamp,emg_signal
0,1686111144.15,28.809,-75.684,60.547,-26.855,1151.044,372.1238610359552
1,1686111144.15,-65.918,-547.852,-84.473,-137.207,1151.048,378.59018651506375
2,1686111144.15,-27.832,-468.262,25.391,5.859,1151.052,398.2431018687007
3,1686111144.16,61.035,22.949,221.191,131.348,1151.056,386.47876862253815
4,1686111144.16,28.809,-72.266,71.777,15.137,1151.06,392.18839169258086
5,1686111144.17,-88.867,-786.133,-278.809,-141.602,1151.064,363.870555356332
6,1686111144.17,-77.637,-656.738,-84.961,-62.5,1151.067,374.31232029108014
7,1686111144.17,48.34,106.934,259.277,116.211,1151.071,374.0649648408846
8,1686111144.18,58.594,-172.363,-11.719,65.918,1151.075,378.72522649593975
9,1686111144.18,-36.621,-611.328,-152.832,-119.629,1151.079,376.7994171887555
10,1686111144.18,-62.988,-252.93,73.242,-111.816,1151.083,391.7956296041565
11,1686111144.19,35.156,-87.891,91.797,92.773,1151.087,377.12576715484755
12,1686111144.19,92.773,-209.473,46.387,127.441,1151.088,376.90449337796485
13,1686111144.2,4.883,-333.984,-2.441,-62.012,1151.092,379.6267884705029
14,1686111144.2,-67.383,-138.184,78.125,-127.441,1151.096,391.2644496673302
15,1686111144.2,2.441,-20.996,108.398,37.109,1151.1,382.7971547094942
16,1686111144.21,79.59,-390.137,-5.859,144.531,1151.104,380.91290899639273
17,1686111144.21,18.555,-712.402,-82.031,-10.254,1151.108,392.224294945999
18,1686111144.21,-71.289,-661.133,-155.762,-144.531,1151.112,387.0764692350503
19,1686111144.22,-34.668,-517.09,-33.691,-8.789,1151.116,375.4785698609671
20,1686111144.22,48.34,-675.293,-168.457,143.066,1151.12,387.50877018725464
21,1686111144.23,13.672,-988.77,-395.02,41.016,1151.124,398.60601190210076
22,1686111144.23,-59.082,-424.805,52.734,-133.789,1151.127,380.1217060600526
23,1686111144.23,-48.828,-101.074,91.797,-68.848,1151.131,386.73029336728285
24,1686111144.24,37.109,-229.492,29.785,111.816,1151.134,386.5734660298318
25,1686111144.24,62.988,-115.723,122.07,79.102,1151.138,381.7295624440821
26,1686111144.24,-26.367,-45.41,104.98,-118.164,1151.142,379.6100207427028
27,1686111144.25,-70.312,-189.453,23.926,-130.371,1151.146,385.4884723749656
28,1686111144.25,16.113,-320.801,10.742,70.312,1151.15,385.1411215731406
29,1686111144.26,65.918,-384.766,30.762,114.746,1151.154,384.86841089317693
30,1686111144.26,-12.695,-437.988,11.23,-74.707,1151.158,386.01775866960855
31,1686111144.26,-69.336,-507.812,-58.105,-141.602,1151.161,370.83799807089264
32,1686111144.27,-12.207,-949.707,-316.406,45.41,1151.165,387.88194154991385
33,1686111144.27,71.289,-556.641,-28.809,152.832,1151.169,386.1689186549194
34,1686111144.28,42.48,68.848,174.805,-4.395,1151.173,387.4179579290546
35,1686111144.28,-55.176,-334.961,-72.266,-148.926,1151.177,375.38916865092824
36,1686111144.28,-38.086,-408.203,-4.883,-34.668,1151.178,384.8223495362882
37,1686111144.29,69.824,53.223,169.922,132.812,1151.182,371.7385868080068
38,1686111144.29,61.035,69.824,115.723,49.805,1151.186,394.06826748882906
39,1686111144.29,-43.457,-355.469,-25.391,-125.977,1151.19,374.8987964538823
40,1686111144.3,-57.129,-372.559,8.789,-74.219,1151.194,377.1680445653642
41,1686111144.3,47.363,-211.426,78.613,122.559,1151.198,384.0536715695392
42,1686111144.3,89.844,-338.379,80.078,118.164,1151.202,386.0926263632632
43,1686111144.31,-16.602,-705.566,-222.168,-74.219,1151.205,379.32156714031765
44,1686111144.31,-83.008,-958.984,-372.559,-111.328,1151.209,376.53270519946835
45,1686111144.32,27.344,-444.336,53.711,83.008,1151.213,374.7605208475266
46,1686111144.32,98.145,-229.004,83.984,145.996,1151.217,381.09076292020444
47,1686111144.32,19.043,-540.039,-69.336,-44.922,1151.221,378.1949644974272
48,1686111144.33,-39.062,-363.281,49.805,-140.137,1151.223,380.8574123117463
49,1686111144.33,16.602,71.289,187.012,15.137,1151.227,373.37860650918174
50,1686111144.34,88.867,-65.918,77.148,150.391,1151.231,373.48552604085523
51,1686111144.34,50.781,-268.555,50.293,14.16,1151.235,378.70263019584394
52,1686111144.34,-30.762,-218.75,58.105,-133.789,1151.239,371.0117446750681
53,1686111144.35,-12.695,-328.125,28.32,-13.672,1151.243,370.2969006164893
54,1686111144.35,79.102,-494.629,-3.906,162.109,1151.247,378.7815482543239
55,1686111144.35,82.52,-774.902,-164.551,94.727,1151.251,378.0255696982639
56,1686111144.36,-22.461,-443.848,5.859,-114.258,1151.255,374.0184493623466
57,1686111144.36,-38.574,19.043,163.086,-93.75,1151.259,383.91020726325416
58,1686111144.37,59.57,-157.715,61.523,116.699,1151.263,379.40306915526656
59,1686111144.37,94.238,-278.32,25.879,131.348,1151.266,378.58099609384
60,1686111144.37,-2.93,-348.145,27.344,-69.336,1151.271,387.72132818859075
61,1686111144.38,-51.758,-187.5,91.797,-125.977,1151.275,373.8481081849858
62,1686111144.38,26.855,-431.152,-24.414,59.57,1151.279,384.6754039552644
63,1686111144.38,88.867,-589.844,-67.383,141.113,1151.283,368.1242348777265
64,1686111144.39,36.133,-123.535,123.047,-29.297,1151.287,388.9937910695022
65,1686111144.39,-45.41,-338.867,14.648,-139.16,1151.291,386.3873489183197
66,1686111144.4,-28.32,-790.527,-254.883,21.973,1151.295,392.5519677865593
67,1686111144.4,56.152,-862.793,-212.402,168.945,1151.299,388.46248384405436
68,1686111144.4,47.363,-262.207,130.859,21.973,1151.303,381.66555490777904
69,1686111144.41,-55.664,-66.406,68.848,-157.227,1151.307,373.9902610349574
70,1686111144.41,-53.223,-585.449,-125.0,-61.035,1151.31,387.8819917287965
71,1686111144.42,52.734,-420.898,64.941,119.629,1151.314,365.80959076537107
72,1686111144.42,77.148,150.879,192.871,68.359,1151.328,368.7554356147406
73,1686111144.42,-23.926,-93.75,19.043,-111.816,1151.332,368.0199068453747
74,1686111144.42,-64.941,-539.551,-69.336,-98.633,1151.336,378.3503018967903
75,1686111144.43,30.273,-363.77,71.777,96.191,1151.339,376.40403188418645
76,1686111144.43,82.031,-17.09,160.645,117.676,1151.343,378.3934475559002
77,1686111144.44,-8.301,-316.406,-6.836,-71.777,1151.347,372.10045825050366
78,1686111144.44,-97.168,-941.895,-363.77,-121.094,1151.351,378.4429230592659
79,1686111144.44,-24.414,-659.668,-166.016,46.875,1151.355,375.29880526769756
80,1686111144.45,82.031,92.285,219.727,134.766,1151.359,368.81132270865015
81,1686111144.45,31.738,-161.621,10.742,-21.484,1151.363,375.85837963106417
82,1686111144.46,-67.383,-393.555,-28.32,-165.039,1151.367,373.16841582359336
83,1686111144.46,-34.18,-90.332,125.977,-40.527,1151.371,372.2209799883398
84,1686111144.46,68.848,42.969,136.719,133.789,1151.374,380.69912745617245
85,1686111144.47,46.875,-272.461,22.461,33.691,1151.378,389.92422815409435
86,1686111144.47,-63.965,-396.973,20.02,-152.832,1151.382,381.87945933486264
87,1686111144.47,-63.965,-53.711,155.762,-85.938,1151.385,377.81944382654063
88,1686111144.48,45.898,40.039,129.883,106.445,1151.389,374.48727135325066
89,1686111144.48,65.43,-411.133,-47.363,79.102,1151.393,385.3238594024202
90,1686111144.48,-41.992,-703.125,-105.957,-118.652,1151.397,385.2752399266676
91,1686111144.49,-92.285,-574.219,-69.336,-119.629,1151.401,380.61348068023614
92,1686111144.49,-5.371,-411.133,69.824,70.801,1151.405,383.6286263948667
93,1686111144.5,53.223,-644.531,-162.598,106.934,1151.409,377.1672969229753
94,1686111144.5,-33.203,-987.793,-392.09,-80.078,1151.413,375.50143439937625
95,1686111144.5,-99.609,-366.211,67.383,-177.246,1151.417,386.33239381895856
96,1686111144.52,-19.043,-28.32,118.164,-7.812,1151.419,385.6891247261448
97,1686111144.53,61.523,-244.629,41.016,116.699,1151.423,374.7841543911468
98,1686111144.53,11.23,-152.344,126.953,-23.438,1151.426,377.42287728523087
99,1686111144.53,-78.125,16.113,142.09,-165.527,1151.43,381.9317582502885
100,1686111144.54,-54.199,-115.723,65.43,-52.246,1151.434,379.7331857008851
101,1686111144.54,38.574,-518.555,-40.039,116.699,1151.438,394.0911954028276
102,1686111144.54,29.785,-386.719,29.785,15.137,1151.442,378.2805758281448
103,1686111144.55,-65.43,-194.336,11.23,-180.176,1151.446,388.3356597207633
104,1686111144.55,-80.078,-510.254,-125.0,-112.305,1151.45,379.90451139106443
105,1686111144.56,0.977,-841.797,-216.309,93.262,1151.454,387.6545091401464
106,1686111144.56,46.387,-384.766,58.594,74.707,1151.458,373.4364342758519
107,1686111144.56,-22.949,10.742,142.578,-120.605,1151.462,377.4831660015981
108,1686111144.57,-74.707,-358.398,-30.762,-136.719,1151.464,384.9184846331488
109,1686111144.57,0.488,-318.848,40.527,42.969,1151.468,377.43751947889194
110,1686111144.58,66.406,52.246,148.438,94.238,1151.472,385.3297630248326
111,1686111144.58,9.277,16.602,94.727,-71.289,1151.476,366.57617378518256
112,1686111144.58,-72.754,-391.602,-77.148,-168.945,1151.479,387.38028386555396
113,1686111144.59,-21.484,-574.707,-67.383,-2.441,1151.483,378.4166339865721
114,1686111144.59,62.988,-405.273,46.875,135.742,1151.487,379.2740270788628
115,1686111144.59,4.395,-448.73,12.207,-5.371,1151.491,382.6726805078538
116,1686111144.6,-89.844,-778.809,-280.273,-154.785,1151.495,373.12136843349845
117,1686111144.6,-75.195,-929.199,-356.445,-53.223,1151.499,383.3852354805926
118,1686111144.61,29.297,-418.945,56.641,116.211,1151.503,385.49962795494775
119,1686111144.61,56.641,-298.828,28.32,54.199,1151.507,376.96487423058176
120,1686111144.61,-46.387,-603.027,-107.422,-129.883,1151.509,371.3514337343482
121,1686111144.62,-70.312,-333.008,53.711,-104.004,1151.513,388.6706232798196
122,1686111144.62,43.457,127.93,183.105,91.797,1151.517,376.4824749994265
123,1686111144.62,80.078,-18.555,83.496,97.168,1151.52,374.3435797288389
124,1686111144.63,-13.672,-319.336,-11.719,-98.145,1151.524,375.59473126737817
125,1686111144.63,-75.195,-524.902,-38.086,-139.648,1151.528,382.9322466342768
126,1686111144.63,-2.441,-314.453,87.402,57.129,1151.532,384.28664586565156
127,1686111144.64,79.102,-206.055,49.805,148.438,1151.536,382.0892693894017
128,1686111144.64,14.16,-780.762,-237.793,-13.184,1151.54,378.0721515110132
129,1686111144.65,-74.707,-509.766,-8.301,-132.324,1151.544,372.82120260492127
130,1686111144.65,-18.555,43.945,182.129,9.766,1151.548,376.6574346136379
131,1686111144.65,75.195,-113.77,44.434,168.945,1151.552,382.16281558998736
132,1686111144.66,49.805,-312.5,-16.602,44.434,1151.557,376.86654156796567
133,1686111144.66,-46.875,-371.094,12.695,-134.277,1151.56,385.6922484127341
134,1686111144.66,-34.668,-142.09,139.16,-50.781,1151.564,380.36866352631665
135,1686111144.67,73.242,-372.07,-18.066,145.508,1151.568,383.78381722672356
136,1686111144.67,89.355,-599.121,-104.492,101.074,1151.572,387.86237295633765
137,1686111144.68,-9.277,-374.023,14.16,-102.539,1151.576,371.4697385791749
138,1686111144.68,-50.293,-442.871,1.953,-92.285,1151.58,382.9376929806564
139,1686111144.68,30.762,-697.754,-172.852,113.281,1151.584,385.1053211926735
140,1686111144.69,68.848,-954.59,-306.152,138.672,1151.588,378.5940500670755
141,1686111144.69,11.719,-349.609,80.566,-62.988,1151.592,385.4134831774328
142,1686111144.7,-44.434,-114.746,73.73,-125.977,1151.596,377.9065222326133
143,1686111144.7,22.461,-263.672,45.41,55.176,1151.6,383.9408761936365
144,1686111144.7,108.887,-34.668,168.945,156.738,1151.598,385.6015968342824
145,1686111144.71,51.758,90.332,167.48,-1.465,1151.602,382.50520211554056
146,1686111144.71,-44.434,-165.527,30.762,-129.883,1151.606,399.18894367724886
147,1686111144.71,-18.066,-498.047,-37.109,0.0,1151.61,378.11087735073045
148,1686111144.72,75.195,-303.711,92.773,156.25,1151.614,374.65545053918277
149,1686111144.72,47.363,-262.695,41.504,55.176,1151.618,387.1946273594732
150,1686111144.72,-61.523,-524.414,-86.914,-123.535,1151.622,380.70407595330244
151,1686111144.73,-72.754,-931.641,-366.211,-48.34,1151.626,385.39827281214104
152,1686111144.73,43.457,-611.816,-143.555,140.625,1151.63,385.64148106536845
153,1686111144.74,87.402,130.371,208.984,102.051,1151.634,378.411533576738
154,1686111144.74,-14.16,-207.52,-21.973,-86.914,1151.637,376.8400660485839
155,1686111144.74,-49.316,-365.234,-21.484,-107.422,1151.641,383.4305316998252
156,1686111144.75,37.109,18.555,154.297,75.684,1151.643,376.6485804234912
157,1686111144.75,96.191,99.609,130.371,137.207,1151.647,375.75282224785155
158,1686111144.75,16.602,-240.234,10.742,-41.016,1151.651,383.86902453995486
159,1686111144.76,-81.055,-336.914,18.066,-136.23,1151.655,377.6779273127655
160,1686111144.76,-21.484,-36.621,145.508,26.855,1151.659,391.63424016039505
161,1686111144.77,76.172,-250.0,86.914,150.879,1151.663,382.12176573931237
162,1686111144.77,26.855,-754.395,-249.023,18.066,1151.667,377.8943322429967
163,1686111144.77,-77.637,-956.543,-416.992,-127.93,1151.671,390.1979681407889
164,1686111144.78,-33.691,-515.625,-42.48,-28.809,1151.674,380.0177195138214
165,1686111144.78,83.984,-3.418,160.645,138.672,1151.678,382.48132686782566
166,1686111144.78,59.082,-542.969,-223.145,69.336,1151.682,380.06612243178785
167,1686111144.79,-45.41,-727.539,-232.422,-110.352,1151.686,382.91602219011503
168,1686111144.81,-46.875,-25.879,153.809,-71.289,1151.703,378.7015186814126
169,1686111144.81,45.898,-2.93,108.398,124.512,1151.707,371.09138052636297
170,1686111144.82,77.148,-192.871,70.312,113.77,1151.711,371.8452455297393
171,1686111144.82,-11.23,-99.609,87.402,-92.773,1151.715,375.63841680434257
172,1686111144.82,-58.105,-20.508,102.051,-128.418,1151.719,376.7634682445146
173,1686111144.83,16.113,-315.918,0.0,62.988,1151.723,379.0266102942861
174,1686111144.83,63.965,-750.0,-167.48,129.395,1151.727,377.60908371549164
175,1686111144.83,-5.371,-435.059,2.93,-41.992,1151.731,363.30754878945254
176,1686111144.84,-65.43,3.418,100.586,-168.457,1151.747,381.38757906605673
177,1686111144.84,-83.008,-110.84,66.406,-143.066,1151.735,370.9613800732247
178,1686111144.84,-43.945,-339.355,-15.137,-56.641,1151.751,373.64542300095206
179,1686111144.84,-34.18,-520.996,-106.445,12.695,1151.739,377.5150083505405
180,1686111144.84,54.199,-292.969,78.125,124.023,1151.755,378.3325009389278
181,1686111144.85,59.082,-597.168,-87.402,146.973,1151.742,381.7584775528559
182,1686111144.85,58.105,27.832,159.668,58.594,1151.759,380.93111933344136
183,1686111144.85,29.297,-67.383,143.555,-4.395,1151.746,381.100441151422
184,1686111144.85,-31.25,-75.684,41.504,-117.188,1151.763,375.4458225255395
185,1686111144.86,-63.477,-537.598,-124.512,-91.797,1151.767,383.66756484032743
186,1686111144.86,21.973,-647.461,-56.152,96.68,1151.771,379.5180144657301
187,1686111144.86,68.359,-438.477,18.555,113.77,1151.775,393.10197895417775
188,1686111144.87,-10.742,-244.629,41.016,-78.125,1151.778,387.5482649490478
189,1686111144.87,-84.961,-604.492,-251.465,-121.582,1151.782,382.1920406893164
190,1686111144.88,-20.508,-941.895,-360.352,59.57,1151.786,381.8597087761154
191,1686111144.88,77.637,-441.895,47.363,141.602,1151.79,390.96418280346313
192,1686111144.9,21.484,-228.516,34.668,-20.02,1151.793,385.6450442396111
193,1686111144.9,-74.707,-437.5,-88.379,-149.902,1151.797,368.6420844941611
194,1686111144.9,-19.531,-247.07,61.523,-5.859,1151.801,384.838385880994
195,1686111144.91,85.938,105.469,188.965,152.832,1151.805,383.151727115407
196,1686111144.91,58.594,-114.746,30.273,40.527,1151.809,374.1523612947778
197,1686111144.92,-56.152,-758.789,-263.672,-119.141,1151.813,378.956686103723
198,1686111144.92,-55.176,-620.605,-82.52,-40.527,1151.817,375.30775136625715
199,1686111144.92,53.711,110.84,224.609,140.137,1151.821,382.35980793556547
200,1686111144.93,66.406,-167.48,-13.672,102.051,1151.825,373.99369038754486
201,1686111144.93,-41.016,-641.113,-169.922,-94.727,1151.828,384.83034815716303
202,1686111144.94,-69.336,-204.59,73.73,-100.098,1151.832,383.1588090456563
203,1686111144.94,36.621,126.465,166.992,94.238,1151.836,386.4933795999027
204,1686111144.94,87.402,-126.953,43.945,125.0,1151.853,374.75113724706597
205,1686111144.95,-1.953,-386.719,-60.547,-68.359,1151.857,382.0287398340001
206,1686111144.95,-75.195,-376.465,7.324,-145.02,1151.861,388.00220682307923
207,1686111144.95,-1.465,-71.289,126.465,32.227,1151.864,382.22008269844883
208,1686111144.96,72.266,-371.582,-56.152,142.578,1151.868,379.872460809206
209,1686111144.96,15.137,-884.766,-243.652,-11.719,1151.872,376.7891536085882
210,1686111144.96,-67.871,-669.922,-159.18,-145.508,1151.876,382.46189977997585
211,1686111144.97,-33.203,-457.52,-23.438,-24.902,1151.88,385.53237542731716
212,1686111144.97,56.641,-660.645,-180.664,143.555,1151.884,372.9102632818331
213,1686111144.98,24.902,-966.797,-331.543,54.199,1151.888,371.4862050655476
214,1686111144.98,-66.895,-375.977,34.18,-141.602,1151.892,378.40153733074567
215,1686111144.98,-44.922,-83.984,74.707,-80.566,1151.896,374.1487391097726
216,1686111144.99,60.059,-195.312,77.637,119.629,1151.884,381.36266077676163
217,1686111144.99,63.965,-18.555,127.441,75.195,1151.888,374.7163754792534
218,1686111145.0,-40.527,42.969,114.746,-130.371,1151.892,376.91708160568106
219,1686111145.0,-69.824,-184.082,40.527,-133.301,1151.896,377.78247575235525
220,1686111145.0,23.926,-427.734,-20.508,78.613,1151.9,374.93948724695997
221,1686111145.01,83.984,-393.555,31.25,134.766,1151.904,377.3218539430035
222,1686111145.01,3.906,-418.457,9.277,-52.734,1151.908,382.9788763302131
223,1686111145.01,-75.195,-564.453,-141.602,-126.465,1151.912,384.1589272392664
224,1686111145.02,-15.137,-817.383,-262.207,57.617,1151.916,380.4146302546298
225,1686111145.02,78.125,-340.82,65.43,181.152,1151.919,380.6532335168661
226,1686111145.03,46.387,91.797,149.902,36.133,1151.923,378.78683205745284
227,1686111145.03,-51.758,-554.199,-244.141,-97.656,1151.927,375.49076667068914
228,1686111145.05,-24.414,-729.492,-210.449,18.555,1151.952,379.14017124515607
229,1686111145.06,89.355,-65.918,168.457,180.176,1151.956,376.04927169192166
230,1686111145.06,83.008,69.824,110.352,114.746,1151.96,377.8410196254135
231,1686111145.06,-26.855,-273.438,-7.812,-67.871,1151.964,387.36292042833287
232,1686111145.07,-43.945,-321.289,-5.371,-31.738,1151.968,384.5428252510381
233,1686111145.07,65.43,-231.934,38.574,174.805,1151.972,379.63835204584865
234,1686111145.07,104.004,-402.344,66.895,174.316,1151.975,379.8367429110426
235,1686111145.08,-37.109,-213.867,83.008,-111.816,1151.974,377.0476858496793
236,1686111145.08,7.812,-699.219,-206.055,-24.414,1151.979,374.4501182909965
237,1686111145.08,2.441,119.141,184.082,44.434,1151.978,388.4879085496442
238,1686111145.08,-54.688,-1000.0,-539.062,-61.035,1151.983,385.1877168480251
239,1686111145.08,84.961,57.129,120.605,190.918,1151.982,382.05687907984026
240,1686111145.09,36.621,-560.547,-105.469,117.188,1151.987,377.94072077699224
241,1686111145.09,47.852,-207.031,38.086,62.5,1151.986,381.7002518528275
242,1686111145.09,120.605,25.391,168.945,178.711,1151.991,378.60037814795925
243,1686111145.09,-55.176,-168.457,48.34,-104.492,1151.99,377.07605895859
244,1686111145.09,49.805,-262.207,5.859,-5.371,1151.995,375.8443159706809
245,1686111145.1,-49.805,-255.371,45.898,-12.207,1151.994,382.53638623909154
246,1686111145.1,44.434,-532.227,-27.344,159.668,1151.997,381.4392932777755
247,1686111145.1,55.664,-561.523,-36.133,92.285,1152.001,367.0972418618952
248,1686111145.11,-36.621,-232.91,63.965,-102.051,1152.005,381.0247442087878
249,1686111145.11,-65.918,-215.82,56.152,-74.219,1152.009,370.086984235691
250,1686111145.12,31.738,-519.043,-75.195,135.742,1152.013,375.81166877479006
251,1686111145.12,67.871,-917.48,-298.828,149.414,1152.017,378.0874259828916
252,1686111145.12,-9.766,-540.039,-48.828,-52.734,1152.018,375.0382360142842
253,1686111145.13,-47.852,-53.223,110.352,-103.027,1152.022,378.1874817343086
254,1686111145.13,12.207,-376.465,-6.348,73.73,1152.026,377.71444367552846
255,1686111145.13,80.078,-298.828,59.082,150.879,1152.03,378.6467379106263
256,1686111145.14,35.645,-40.527,62.012,-16.113,1152.034,372.30871533983355
257,1686111145.14,-55.664,-322.754,-3.906,-140.137,1152.038,382.32381312686095
258,1686111145.14,-25.391,-770.508,-226.074,12.207,1152.042,378.784135848988
259,1686111145.15,66.406,-859.863,-294.434,164.551,1152.046,380.3632685919709
260,1686111145.15,52.246,-224.121,75.684,32.715,1152.05,365.0702444030645
261,1686111145.16,-41.992,-70.801,77.148,-138.672,1152.054,374.82786763732787
262,1686111145.16,-40.039,-305.664,24.414,-58.594,1152.057,387.2394043845269
263,1686111145.16,57.617,-130.371,111.816,129.395,1152.061,370.88784398101495
264,1686111145.17,56.641,-134.277,78.125,90.82,1152.067,379.81094820372005
265,1686111145.17,-48.828,-299.805,-29.297,-106.934,1152.07,375.19649549233543
266,1686111145.18,-79.59,-522.461,-85.449,-110.84,1152.074,381.4359058908233
267,1686111145.18,19.043,-263.672,70.801,81.055,1152.078,387.02285505080636
268,1686111145.18,75.684,84.961,154.785,113.77,1152.082,372.81993653083975
269,1686111145.19,-9.277,-370.605,-109.863,-64.941,1152.086,382.1192571447257
270,1686111145.19,-87.402,-839.844,-290.039,-133.789,1152.09,371.0873025489924
271,1686111145.2,-9.277,-380.859,70.312,39.062,1152.094,368.44618712120126
272,1686111145.2,82.52,152.832,210.449,151.367,1152.098,373.4209417699735
273,1686111145.2,19.531,-227.539,-36.621,-0.977,1152.102,373.79625919191216
274,1686111145.21,-73.73,-429.199,-73.242,-138.672,1152.106,371.38057929485444
275,1686111145.21,-36.621,-78.125,128.906,-19.043,1152.109,365.7068043564393
276,1686111145.23,59.082,70.801,157.715,142.09,1152.124,375.06095412211386
277,1686111145.23,37.109,-230.957,11.719,47.852,1152.127,376.8008377677974
278,1686111145.24,-73.73,-526.367,-57.617,-131.348,1152.131,372.0132502548335
279,1686111145.24,-80.078,-410.156,18.066,-70.312,1152.135,371.14377018816987
280,1686111145.24,23.926,-121.582,143.066,104.004,1152.139,375.30788183145563
281,1686111145.25,40.527,-509.277,-159.18,81.055,1152.143,366.6348340710378
282,1686111145.25,-63.965,-1000.0,-454.59,-91.309,1152.147,375.8808302175828
283,1686111145.25,-91.797,-755.859,-110.352,-109.863,1152.151,377.34351788278417
284,1686111145.26,4.395,-188.965,125.977,62.5,1152.155,364.77438066251415
285,1686111145.26,52.246,-440.918,-76.172,122.559,1152.159,369.926291983634
286,1686111145.27,-21.484,-610.352,-74.707,-58.105,1152.163,379.73628464527707
287,1686111145.27,-74.219,-93.262,125.0,-152.832,1152.167,398.57993722995536
288,1686111145.27,-14.16,-84.473,76.172,6.836,1152.169,378.80070304683466
289,1686111145.28,61.035,-162.109,58.105,125.488,1152.173,385.91464906217107
290,1686111145.28,22.949,-106.445,100.098,-10.742,1152.176,374.587796318008
291,1686111145.28,-63.477,-61.035,114.258,-160.156,1152.18,383.16436085033246
292,1686111145.29,-36.621,-251.465,9.766,-47.363,1152.184,376.50786032654213
293,1686111145.29,54.199,-498.047,-42.48,125.0,1152.188,379.3468759209998
294,1686111145.3,50.781,-586.914,-43.945,51.758,1152.192,379.339048738316
295,1686111145.3,-41.504,-456.543,24.902,-137.695,1152.196,371.8211453251297
296,1686111145.3,-63.477,-362.793,11.23,-105.469,1152.2,394.69053397069945
297,1686111145.31,10.742,-896.484,-306.152,102.539,1152.204,376.66357034272954
298,1686111145.31,47.363,-566.406,-60.059,94.727,1152.208,378.03050642834063
299,1686111145.32,-19.043,33.203,172.363,-97.168,1152.212,382.39266409406815
300,1686111145.32,-69.824,-310.547,-19.043,-126.953,1152.213,387.3978037473562
301,1686111145.32,9.277,-281.25,38.086,48.828,1152.217,386.8681467212103
302,1686111145.32,81.055,38.086,155.762,120.605,1152.221,397.0699586544073
303,1686111145.33,12.695,-41.504,94.727,-42.48,1152.225,387.93935834765153
304,1686111145.33,-75.684,-419.922,-78.125,-151.367,1152.229,385.4667844071379
305,1686111145.34,-22.949,-645.508,-120.117,2.441,1152.233,394.94798061238146
306,1686111145.34,66.895,-487.793,-6.348,126.465,1152.237,389.2565398248062
307,1686111145.34,32.715,-531.738,-35.156,-5.859,1152.241,394.18521403362223
308,1686111145.35,-61.035,-748.535,-265.625,-144.043,1152.245,398.913581338612
309,1686111145.35,-62.012,-1000.0,-513.184,-50.781,1152.249,398.0643327593452
310,1686111145.36,42.969,-613.77,-132.324,120.605,1152.252,400.44607558566526
311,1686111145.36,63.477,-10.254,144.531,52.246,1152.256,401.0414049343901
312,1686111145.36,-30.762,-267.578,36.133,-138.672,1152.259,403.50356818725174
313,1686111145.37,-48.828,-169.434,88.379,-113.77,1152.263,405.3084425992898
314,1686111145.37,42.969,190.918,169.434,89.355,1152.267,406.37745190236103
315,1686111145.37,76.66,72.266,111.816,111.816,1152.271,404.9908179088759
316,1686111145.38,-16.602,-290.527,-33.691,-72.754,1152.274,404.7748391076237
317,1686111145.38,-83.008,-453.613,-58.594,-122.559,1152.278,405.3866551350813
318,1686111145.38,-14.648,-298.34,108.887,54.688,1152.282,411.5241862709786
319,1686111145.39,57.129,-180.664,62.988,133.789,1152.286,405.22181963925675
320,1686111145.39,0.977,-713.379,-214.844,-21.484,1152.29,406.27940593389746
321,1686111145.4,-72.754,-500.977,-24.902,-132.812,1152.294,401.71220089745026
322,1686111145.4,-35.645,-108.887,122.07,-4.883,1152.298,421.31329960066796
323,1686111145.4,35.645,-503.906,-83.496,134.277,1152.302,407.4653139735543
324,1686111145.41,16.113,-620.605,-138.672,33.691,1152.304,424.75602882985436
325,1686111145.41,-59.082,-134.766,89.355,-122.559,1152.308,425.3381385937167
326,1686111145.42,-42.969,-0.977,94.238,-48.34,1152.312,423.58431827240287
327,1686111145.42,46.875,-221.68,69.336,126.953,1152.316,423.85126002165885
328,1686111145.42,55.176,-229.492,82.52,89.355,1152.32,414.39288306960964
329,1686111145.43,-36.621,-378.906,-48.34,-88.867,1152.324,408.52403360855396
330,1686111145.43,-74.219,-513.184,-38.574,-96.191,1152.328,420.58021258581493
331,1686111145.43,4.395,-708.984,-172.852,83.496,1152.332,420.61511468980643
332,1686111145.44,47.363,-964.355,-314.453,127.93,1152.336,417.7927854837519
333,1686111145.44,-15.137,-341.797,52.734,-50.293,1152.339,426.393240720332
334,1686111145.45,-69.336,-72.266,92.773,-125.0,1152.343,418.32306782481527
335,1686111145.45,-1.465,-261.23,56.152,43.457,1152.347,417.9587589747644
336,1686111145.45,82.031,-111.816,119.629,152.344,1152.353,415.3741218426212
337,1686111145.46,36.133,-187.988,78.125,2.441,1152.356,421.5160475175439
338,1686111145.46,-56.641,-313.965,-8.301,-138.672,1152.36,416.98506452650486
339,1686111145.46,-40.527,-479.98,-80.078,-16.113,1152.364,427.43186113370405
340,1686111145.47,45.898,-222.168,101.074,144.531,1152.368,432.6558251432393
341,1686111145.47,31.738,-164.551,122.07,52.246,1152.372,422.2589800504788
342,1686111145.48,-67.383,-580.078,-133.789,-126.953,1152.376,415.4951542811649
343,1686111145.48,-75.684,-817.871,-224.609,-70.801,1152.38,432.43930950729896
344,1686111145.48,36.133,-318.848,98.145,122.07,1152.384,422.90535614791094
345,1686111145.49,83.008,213.379,218.262,105.957,1152.388,421.64615572108943
346,1686111145.49,-19.043,-211.426,-30.762,-87.402,1152.392,427.58439214927677
347,1686111145.5,-72.754,-400.879,-56.641,-114.746,1152.396,418.9508175492182
348,1686111145.5,18.066,30.273,173.828,65.43,1152.41,428.5025970135232
349,1686111145.5,80.566,134.277,181.152,123.535,1152.413,425.1656973530282
350,1686111145.5,6.836,-250.977,16.602,-44.434,1152.417,434.8839930406891
351,1686111145.51,-75.195,-553.711,-77.148,-139.648,1152.421,426.0065694940387
352,1686111145.51,-11.23,-370.117,4.883,18.066,1152.425,419.7921990905717
353,1686111145.52,74.219,-331.543,59.57,137.695,1152.429,425.82611226914764
354,1686111145.52,29.297,-685.547,-205.566,11.23,1152.433,437.8587055515012
355,1686111145.52,-65.918,-1000.0,-572.754,-124.512,1152.437,427.0875869022164
356,1686111145.53,-37.109,-637.207,-164.062,-35.645,1152.441,432.93729162797973
357,1686111145.53,74.219,11.23,186.035,123.535,1152.445,423.8350124220604
358,1686111145.54,72.266,-162.598,39.062,61.035,1152.449,428.62695606562806
359,1686111145.54,-16.602,-187.988,86.426,-116.699,1152.453,435.19060757744836
360,1686111145.54,-36.133,-18.066,115.723,-95.215,1152.453,432.19969583188
361,1686111145.55,49.805,-60.547,68.359,88.867,1152.457,434.36631689959046
362,1686111145.55,82.52,-237.305,41.504,101.074,1152.461,431.90887967554374
363,1686111145.55,-2.441,-187.988,71.289,-80.566,1152.464,428.5928123258325
364,1686111145.56,-55.664,-93.262,81.055,-126.465,1152.468,430.9640142319224
365,1686111145.56,11.719,-375.488,-1.465,55.664,1152.472,421.7529584735798
366,1686111145.56,67.383,-833.496,-173.828,133.301,1152.476,427.35707508144935
367,1686111145.57,-0.977,-606.445,-57.617,-45.898,1152.48,433.426586570171
368,1686111145.57,-66.895,-71.289,143.066,-157.227,1152.484,419.88745530841516
369,1686111145.58,-12.207,-293.945,-15.137,-3.418,1152.488,428.86970560931235
370,1686111145.58,69.336,-676.27,-125.0,142.09,1152.492,423.6289585383329
371,1686111145.58,47.852,-265.625,107.91,17.09,1152.496,427.46229703656047
372,1686111145.6,-35.645,-55.176,93.75,-142.578,1152.498,420.9406796710761
373,1686111145.6,-28.32,-323.73,-3.418,-51.758,1152.502,424.18543687029546
374,1686111145.61,69.336,-257.812,82.031,126.953,1152.506,405.9370328090312
375,1686111145.61,79.59,-13.672,141.602,79.59,1152.51,420.1842627084033
376,1686111145.62,-18.066,-125.488,73.242,-111.816,1152.514,411.6494683515005
377,1686111145.62,-50.781,-608.887,-143.555,-95.215,1152.518,422.76231915368317
378,1686111145.62,39.062,-749.512,-157.715,100.098,1152.522,412.8997971252858
379,1686111145.63,90.332,-403.809,63.477,122.559,1152.526,411.4727656568642
380,1686111145.63,8.301,-251.465,76.172,-68.848,1152.53,410.9321813369278
381,1686111145.64,-58.105,-677.734,-288.086,-124.023,1152.533,407.45732392401453
382,1686111145.64,6.836,-950.684,-346.68,58.594,1152.537,413.89838513245417
383,1686111145.64,92.773,-227.539,104.004,141.113,1152.541,406.6757373082385
384,1686111145.65,32.227,-53.711,51.758,-16.602,1152.543,402.2256432947217
385,1686111145.65,-69.336,-393.555,-26.855,-147.461,1152.547,426.4879410949765
386,1686111145.65,-29.297,-152.344,131.348,-31.738,1152.551,403.2141937883685
387,1686111145.66,70.312,173.828,223.633,122.07,1152.555,403.9816483899951
388,1686111145.66,43.457,-8.789,82.52,25.879,1152.559,420.5339043954339
389,1686111145.67,-62.988,-589.844,-197.754,-147.949,1152.563,419.1780119077491
390,1686111145.67,-65.918,-691.895,-127.93,-83.984,1152.567,406.2757923789784
391,1686111145.67,31.25,-111.328,166.504,99.609,1152.571,419.8288073075715
392,1686111145.68,45.41,-145.508,17.09,70.801,1152.575,407.60239995754256
393,1686111145.68,-55.664,-815.43,-273.926,-105.957,1152.579,410.11777079331466
394,1686111145.68,-80.078,-447.754,4.395,-114.746,1152.582,413.7127834287805
395,1686111145.69,17.578,-20.996,151.367,72.266,1152.586,400.806301178544
396,1686111145.69,64.941,-511.23,-115.723,125.977,1152.588,407.18909002546394
397,1686111145.7,-11.23,-703.613,-200.684,-58.105,1152.592,412.2542541109306
398,1686111145.7,-79.102,-183.105,100.586,-151.855,1152.596,406.4009485887118
399,1686111145.7,-20.996,2.441,140.625,10.742,1152.6,405.4880396600425
400,1686111145.71,59.57,-257.812,34.668,128.906,1152.604,401.56674089776294
401,1686111145.71,13.184,-571.777,-98.145,-11.23,1152.608,401.40163623119344
402,1686111145.71,-82.031,-620.117,-187.5,-155.273,1152.612,406.34070900456663
403,1686111145.72,-49.805,-434.57,-19.531,-52.246,1152.616,400.23789164377666
404,1686111145.72,49.316,-635.742,-157.715,115.234,1152.62,407.13577846310267
405,1686111145.73,27.344,-973.145,-344.727,34.18,1152.623,392.1573643025886
406,1686111145.73,-64.453,-371.094,40.527,-164.062,1152.627,400.8004020722735
407,1686111145.73,-66.895,-64.453,96.191,-116.699,1152.631,402.9222461257453
408,1686111145.74,27.832,-186.035,66.895,76.66,1152.637,403.83399958490145
409,1686111145.74,58.105,-93.262,128.906,69.336,1152.641,391.9522469227867
410,1686111145.74,-30.273,-261.719,38.574,-111.328,1152.645,396.5586285539373
411,1686111145.75,-69.336,-382.324,-25.391,-141.113,1152.649,395.26821402425946
412,1686111145.75,14.648,-485.84,1.465,50.293,1152.653,386.90588061373734
413,1686111145.76,68.359,-524.902,22.949,118.652,1152.657,385.1941174099944
414,1686111145.76,-14.16,-372.07,43.945,-66.406,1152.66,385.55565027636084
415,1686111145.76,-89.355,-364.258,-8.789,-164.062,1152.664,381.23676022826993
416,1686111145.77,-31.25,-762.207,-178.711,5.371,1152.668,368.6119382948613
417,1686111145.77,61.523,-337.402,79.59,131.836,1152.672,386.97730973710765
418,1686111145.78,30.762,129.395,163.574,-8.301,1152.676,372.81085198979537
419,1686111145.78,-67.383,-330.078,-79.102,-157.227,1152.68,369.2617787834807
420,1686111145.78,-49.316,-373.047,-1.953,-55.176,1152.678,374.10000887338845
421,1686111145.78,53.223,96.191,178.223,114.258,1152.682,367.26842479291406
422,1686111145.79,62.5,121.094,143.066,57.617,1152.686,370.23373122172916
423,1686111145.79,-42.969,-331.543,-18.066,-121.582,1152.69,366.5348788373565
424,1686111145.8,-80.078,-532.227,-46.387,-107.91,1152.694,372.504730862128
425,1686111145.8,18.555,-385.742,43.457,83.984,1152.698,372.61784508511863
426,1686111145.8,57.617,-421.875,26.855,102.539,1152.702,360.2171809025993
427,1686111145.81,-37.109,-720.703,-236.816,-74.707,1152.706,368.81724834673844
428,1686111145.81,-97.168,-1000.0,-497.559,-110.352,1152.71,360.93139899281573
429,1686111145.82,-10.254,-502.93,-58.105,57.617,1152.713,368.8195996377449
430,1686111145.82,68.848,70.312,181.152,122.07,1152.717,342.5026908192284
431,1686111145.82,10.254,-271.484,-29.785,-39.062,1152.721,353.41288910628253
432,1686111145.83,-76.66,-272.461,50.293,-145.996,1152.723,338.186885254998
433,1686111145.83,-30.762,68.359,162.598,-6.836,1152.727,352.2369176805965
434,1686111145.84,69.336,29.785,106.445,139.648,1152.731,336.7498548144065
435,1686111145.84,43.945,-202.148,51.758,24.414,1152.735,337.1547614406818
436,1686111145.84,-51.758,-210.938,50.293,-138.184,1152.739,345.3878537221265
437,1686111145.85,-50.781,-326.172,30.273,-54.688,1152.743,343.5762618115029
438,1686111145.85,50.293,-425.781,58.105,122.559,1152.747,342.29576367683575
439,1686111145.85,46.387,-846.191,-285.156,76.66,1152.751,337.7555958990803
440,1686111145.86,-55.664,-741.699,-232.422,-115.234,1152.754,352.3932716802298
441,1686111145.86,-60.547,-32.715,158.203,-107.91,1152.758,332.9039551815567
442,1686111145.87,29.297,-146.973,51.758,87.402,1152.762,320.38496732773507
443,1686111145.87,70.312,-361.328,-12.207,123.535,1152.766,336.5415953799303
444,1686111145.87,-18.066,-105.957,91.797,-69.336,1152.768,344.40873624164027
445,1686111145.88,-72.754,-12.207,102.539,-141.113,1152.772,344.934902163805
446,1686111145.88,8.301,-270.996,14.648,41.016,1152.776,320.58823043652666
447,1686111145.88,70.312,-227.051,98.633,131.836,1152.78,342.97786241223133
448,1686111145.89,14.16,-100.098,75.195,-25.391,1152.784,327.9352407577945
449,1686111145.89,-60.547,-397.461,-73.242,-140.625,1152.788,330.63157595160993
450,1686111145.89,-37.109,-779.785,-261.23,-7.812,1152.792,324.01374468856824
451,1686111145.9,42.969,-886.23,-299.805,149.902,1152.796,339.37187191807055
452,1686111145.9,44.922,-280.273,56.641,40.039,1152.8,321.7688234762838
453,1686111145.91,-53.711,-148.926,40.039,-145.02,1152.803,321.744440456781
454,1686111145.91,-63.477,-684.082,-169.434,-74.219,1152.807,326.3680303157864
455,1686111145.91,44.922,-484.375,-20.508,112.305,1152.811,325.03628406296565
456,1686111145.92,72.754,98.145,193.359,74.707,1152.827,331.71650423472664
457,1686111145.92,-34.18,-159.668,2.93,-112.305,1152.831,320.5262369881207
458,1686111145.92,-73.73,-481.934,-76.172,-115.723,1152.835,325.9239315679044
459,1686111145.93,25.391,-113.281,144.043,68.848,1152.839,328.9061523634398
460,1686111145.93,86.426,97.656,175.781,111.328,1152.843,328.22506022141044
461,1686111145.94,3.906,-365.723,-82.52,-62.012,1152.847,321.0331226034932
462,1686111145.94,-74.219,-839.355,-294.434,-135.742,1152.85,324.68045783087865
463,1686111145.94,-3.906,-417.969,37.109,21.973,1152.854,329.0768489581426
464,1686111145.95,78.613,122.559,227.539,124.512,1152.858,314.35395795441724
465,1686111145.95,33.203,-243.652,-43.945,-12.695,1152.862,335.8019948348801
466,1686111145.96,-63.965,-489.746,-107.422,-154.297,1152.866,329.49653984707845
467,1686111145.96,-40.527,-118.164,106.934,-45.898,1152.87,339.4830564181204
468,1686111145.96,63.965,-153.32,67.383,135.742,1152.873,333.6901946926799
469,1686111145.97,47.852,-502.441,-54.688,61.035,1152.877,322.6651678529947
470,1686111145.97,-50.781,-433.594,-4.883,-120.117,1152.881,336.80658655756974
471,1686111145.97,-54.688,-96.191,109.375,-72.754,1152.885,341.03090901127945
472,1686111145.98,46.387,27.832,146.484,109.863,1152.889,332.27960029498433
473,1686111145.98,66.895,-514.16,-169.434,105.469,1152.893,326.94066591581895
474,1686111145.98,-38.086,-975.586,-395.996,-74.219,1152.896,319.7462279337101
475,1686111145.99,-75.195,-632.324,-54.688,-108.398,1152.9,323.190936034094
476,1686111145.99,24.902,-86.914,169.922,65.918,1152.904,344.24369204978706
477,1686111146.0,72.266,-485.84,-141.602,129.395,1152.908,338.59171377989304
478,1686111146.0,-13.672,-793.945,-216.309,-46.875,1152.912,329.5347954059701
479,1686111146.0,-72.266,-133.301,139.648,-151.367,1152.916,324.4392496671305
480,1686111146.02,-14.16,-46.387,76.66,8.301,1152.919,337.44345368607196
481,1686111146.02,63.477,-162.598,83.008,139.648,1152.923,334.1843678377802
482,1686111146.03,27.832,-172.852,65.43,13.672,1152.926,348.16912504406014
483,1686111146.03,-60.547,-311.035,-1.953,-139.648,1152.93,348.0752972489756
484,1686111146.04,-43.457,-256.836,56.641,-43.945,1152.934,327.0576123035747
485,1686111146.04,33.691,-630.859,-109.863,133.789,1152.938,333.20356215911
486,1686111146.04,40.039,-623.535,-41.992,69.336,1152.942,341.04792357600036
487,1686111146.05,-45.898,-80.566,148.438,-122.07,1152.946,341.34738474005087
488,1686111146.05,-80.078,-255.859,-17.09,-97.168,1152.95,355.1645977830567
489,1686111146.06,8.301,-600.586,-72.266,92.773,1152.954,349.31628850004944
490,1686111146.06,60.059,-172.363,142.578,102.539,1152.958,348.9355796505308
491,1686111146.06,-10.742,58.105,98.633,-70.312,1152.962,338.65602577151554
492,1686111146.07,-72.266,-347.168,-49.316,-119.141,1152.964,342.924540871577
493,1686111146.07,7.324,-325.195,29.297,50.781,1152.968,352.95388410003056
494,1686111146.07,92.773,57.129,176.27,139.648,1152.972,351.6859389610913
495,1686111146.08,29.785,27.344,106.445,-33.203,1152.976,353.9449603830869
496,1686111146.08,-57.129,-434.57,-88.379,-141.602,1152.979,345.87483657325447
497,1686111146.09,-18.555,-671.387,-121.582,6.836,1152.983,358.90269557339064
498,1686111146.09,61.035,-440.918,-2.93,136.23,1152.987,356.6977894988496
499,1686111146.09,40.039,-468.75,-33.203,23.926,1152.991,361.8631825993008
500,1686111146.1,-51.27,-749.023,-280.273,-128.418,1152.995,372.332313653988
501,1686111146.1,-56.152,-1000.0,-486.816,-47.363,1152.999,356.77424300186
502,1686111146.1,48.34,-562.012,-74.707,106.934,1153.003,359.56821080586775
503,1686111146.11,74.219,-1.953,138.184,62.012,1153.007,358.79653877550055
504,1686111146.11,-30.273,-246.582,16.113,-122.07,1153.008,366.0711224298366
505,1686111146.12,-56.152,-169.434,104.004,-117.676,1153.012,358.47166674277463
506,1686111146.12,37.598,90.82,175.293,81.543,1153.016,371.43448794465445
507,1686111146.12,78.125,-3.906,87.402,113.77,1153.02,369.0838353190303
508,1686111146.13,-2.93,-299.805,-17.09,-68.359,1153.024,353.75654525605495
509,1686111146.13,-67.871,-511.719,-38.574,-132.324,1153.028,364.1844978150655
510,1686111146.14,1.953,-294.434,83.984,37.598,1153.032,360.73822890274755
511,1686111146.14,78.125,-141.113,98.633,132.812,1153.036,365.7559612201701
512,1686111146.14,9.766,-846.191,-349.609,-8.301,1153.04,362.1791480275255
513,1686111146.15,-70.801,-701.172,-201.66,-139.16,1153.044,364.5278037470084
514,1686111146.15,-20.996,72.754,203.613,-24.414,1153.047,368.7655392640407
515,1686111146.16,64.941,-77.148,55.664,131.836,1153.051,349.4423826400025
516,1686111146.16,43.457,-281.738,11.23,39.551,1153.053,363.19210764765955
517,1686111146.16,-52.734,-78.125,104.492,-137.207,1153.057,354.3028303826763
518,1686111146.16,-54.688,-5.859,102.051,-79.59,1153.061,361.0717587033053
519,1686111146.17,40.527,-166.504,83.984,97.656,1153.065,365.5655001078628
520,1686111146.17,59.57,-210.938,76.66,69.336,1153.069,355.06464471712974
521,1686111146.18,-38.574,-374.512,-48.34,-109.863,1153.073,362.9837664204891
522,1686111146.18,-77.148,-546.875,-102.051,-121.582,1153.077,366.7171397938741
523,1686111146.18,7.324,-738.281,-215.332,66.406,1153.081,358.6776194025093
524,1686111146.19,51.27,-964.355,-309.57,117.188,1153.085,362.4305933914286
525,1686111146.19,-12.207,-392.578,35.156,-72.266,1153.088,352.083054354373
526,1686111146.2,-69.824,-204.59,39.551,-145.996,1153.092,356.17304158482557
527,1686111146.2,-11.719,-620.117,-78.125,26.855,1153.096,366.6119243489001
528,1686111146.2,71.777,-354.004,73.242,125.488,1153.098,352.88790320239593
529,1686111146.21,37.598,69.824,145.02,-18.066,1153.102,359.0461895131252
530,1686111146.21,-60.059,-220.215,-12.207,-151.367,1153.106,363.41168203552775
531,1686111146.21,-46.387,-406.25,13.184,-51.27,1153.11,361.01854027207827
532,1686111146.22,66.406,-53.223,160.645,115.723,1153.114,351.26303632096074
533,1686111146.22,60.059,-208.496,42.969,36.621,1153.118,357.8467054586741
534,1686111146.22,-44.434,-583.984,-183.105,-153.809,1153.122,366.1263467228958
535,1686111146.23,-58.594,-802.246,-273.926,-106.934,1153.126,342.2973999655522
536,1686111146.23,48.34,-371.094,71.777,91.309,1153.13,349.86476990447625
537,1686111146.24,92.285,160.645,223.633,84.961,1153.133,366.4596898975167
538,1686111146.24,-4.883,-238.281,-57.129,-101.562,1153.137,355.97912734746205
539,1686111146.24,-52.734,-443.359,-96.68,-123.535,1153.141,354.2184040548443
540,1686111146.25,15.625,-70.312,129.395,54.199,1153.147,364.7642926044432
541,1686111146.25,67.383,-116.211,108.887,126.953,1153.151,358.8625942764175
542,1686111146.26,-1.465,-664.062,-178.711,-28.809,1153.155,359.8294961083016
543,1686111146.26,-74.219,-679.199,-183.105,-143.066,1153.159,348.18565391384294
544,1686111146.26,-3.906,-73.242,131.348,1.465,1153.162,356.5054530046476
545,1686111146.27,86.426,-139.648,131.836,131.836,1153.166,358.30787146889963
546,1686111146.27,39.551,-693.848,-216.309,13.184,1153.17,356.4599192411262
547,1686111146.27,-66.406,-959.473,-386.719,-127.93,1153.174,357.53435430414567
548,1686111146.28,-33.203,-314.941,99.609,-41.504,1153.178,354.05559390608863
549,1686111146.28,71.289,129.395,209.961,132.324,1153.182,360.5068172552945
550,1686111146.29,58.105,-307.129,-54.688,77.637,1153.186,356.5275749374679
551,1686111146.29,-39.551,-467.285,-80.078,-109.863,1153.19,367.40177648902943
552,1686111146.29,-53.711,-56.152,126.953,-99.121,1153.203,344.54910658303214
553,1686111146.3,44.922,14.648,106.445,87.891,1153.207,353.6926177829879
554,1686111146.3,93.75,-187.012,49.316,113.281,1153.211,369.58095731142623
555,1686111146.3,0.977,-229.98,40.527,-72.266,1153.215,357.5452953810257
556,1686111146.31,-63.477,-403.809,-23.438,-129.883,1153.219,364.39438289802695
557,1686111146.31,14.16,-489.746,19.531,59.57,1153.223,363.7652119486381
558,1686111146.31,73.73,-829.102,-261.23,156.25,1153.227,367.0428648790889
559,1686111146.32,14.16,-785.645,-251.953,-10.254,1153.231,369.7004834053539
560,1686111146.32,-52.734,-131.836,116.211,-136.719,1153.235,353.42035275923746
561,1686111146.33,-4.883,-237.305,19.531,0.488,1153.238,354.8883562631592
562,1686111146.33,87.891,-300.781,42.48,147.461,1153.242,365.58372329174745
563,1686111146.33,63.965,4.395,129.883,34.18,1153.246,361.44990121206627
564,1686111146.34,-34.18,-73.242,38.574,-126.465,1153.248,356.4783943853027
565,1686111146.34,-29.785,-373.047,-27.832,-45.41,1153.252,361.17816413533234
566,1686111146.34,79.59,-255.371,72.754,139.16,1153.256,360.4692642289775
567,1686111146.35,90.82,51.758,152.344,92.285,1153.259,362.10642005740294
568,1686111146.35,-20.996,-64.453,67.383,-104.492,1153.263,354.42706231205074
569,1686111146.36,-44.922,-548.828,-69.336,-85.938,1153.267,356.1623545406093
570,1686111146.36,42.969,-662.598,-41.992,103.516,1153.271,365.55469943943353
571,1686111146.36,79.102,-444.824,17.09,125.977,1153.275,362.86265294768765
572,1686111146.37,3.418,-521.484,-60.547,-57.129,1153.279,363.3929144182159
573,1686111146.37,-72.266,-780.762,-315.918,-124.512,1153.283,370.001267650823
574,1686111146.38,-18.066,-992.188,-359.863,53.711,1153.287,365.61826000512525
575,1686111146.38,66.895,-324.219,99.609,141.602,1153.291,363.61550282907587
576,1686111146.4,15.625,-18.066,65.918,-22.461,1153.294,372.9838004762121
577,1686111146.4,-78.125,-376.465,-45.41,-161.133,1153.298,380.7968971790047
578,1686111146.4,-31.25,-177.734,139.16,-33.203,1153.302,383.7129662983106
579,1686111146.41,69.336,110.352,181.641,124.023,1153.305,374.6957171494116
580,1686111146.41,43.945,-90.82,54.199,21.484,1153.309,392.5180635690993
581,1686111146.42,-57.617,-631.836,-168.945,-151.367,1153.313,384.6315522053127
582,1686111146.42,-52.246,-554.688,-62.5,-86.426,1153.317,386.94364760320065
583,1686111146.42,47.363,-4.883,176.27,103.516,1153.321,390.4262327601595
584,1686111146.43,64.941,-175.781,20.02,83.008,1153.325,396.89206113061164
585,1686111146.43,-35.156,-841.309,-279.785,-97.168,1153.329,396.7047916272415
586,1686111146.44,-77.637,-535.156,-16.602,-129.395,1153.333,396.148730895947
587,1686111146.44,23.926,69.824,197.266,43.457,1153.337,414.81805905429843
588,1686111146.44,67.871,-162.109,21.973,102.051,1153.338,402.7804951815773
589,1686111146.44,-17.09,-374.512,-3.906,-67.871,1153.342,402.2559924631676
590,1686111146.45,-70.312,-138.184,107.422,-144.043,1153.346,401.1071184307664
591,1686111146.45,-10.742,-2.93,145.508,15.137,1153.35,420.85500703043033
592,1686111146.46,54.688,-198.73,90.82,125.488,1153.354,402.89544096732425
593,1686111146.46,4.883,-570.312,-115.234,-14.16,1153.358,414.3965730870274
594,1686111146.46,-87.402,-667.48,-190.43,-158.691,1153.362,430.3442408072923
595,1686111146.47,-51.27,-480.469,8.301,-48.828,1153.366,419.2117707553491
596,1686111146.47,57.617,-641.113,-125.977,126.953,1153.37,417.9934024092014
597,1686111146.48,44.922,-968.262,-341.797,46.875,1153.373,425.5043884163309
598,1686111146.48,-38.574,-435.059,17.578,-146.484,1153.377,421.380972216255
599,1686111146.48,-44.434,-203.613,62.012,-103.027,1153.381,429.91635446232374
600,1686111146.49,40.039,-581.055,-62.988,89.844,1153.383,429.83967230852204
601,1686111146.49,73.242,-341.309,63.477,90.82,1153.387,432.16345437864385
602,1686111146.49,-17.09,67.383,130.859,-95.215,1153.391,439.0708319747771
603,1686111146.5,-64.453,-108.887,48.34,-137.695,1153.395,431.1740513177237
604,1686111146.5,21.484,-487.793,7.812,50.781,1153.399,446.4681162296877
605,1686111146.51,83.008,-484.375,28.32,142.578,1153.403,443.12058884616437
606,1686111146.51,10.742,-403.32,-3.418,-28.809,1153.407,442.44180810520413
607,1686111146.51,-67.871,-524.414,-108.398,-145.02,1153.411,455.0746136210985
608,1686111146.52,-25.879,-762.207,-182.129,5.859,1153.415,436.88898972794937
609,1686111146.52,69.336,-312.5,89.844,138.184,1153.419,445.4718779609495
610,1686111146.52,45.898,174.316,194.336,11.719,1153.422,452.45222016043886
611,1686111146.53,-58.594,-250.488,-28.809,-144.043,1153.426,450.4070062960376
612,1686111146.53,-41.992,-330.078,36.133,-55.176,1153.432,446.4132461748038
613,1686111146.54,62.012,51.27,187.5,121.094,1153.436,440.75489739100186
614,1686111146.54,58.594,-131.836,78.613,69.824,1153.439,443.3849325959334
615,1686111146.54,-45.898,-673.34,-177.246,-120.605,1153.443,440.5531358231045
616,1686111146.55,-59.57,-647.949,-156.738,-96.191,1153.447,448.561043595357
617,1686111146.55,49.805,-251.953,104.004,104.492,1153.451,452.9063156480837
618,1686111146.56,78.613,-317.383,94.238,106.445,1153.455,449.41759658017276
619,1686111146.56,-23.926,-700.684,-206.543,-80.566,1153.459,439.67189882302085
620,1686111146.56,-89.844,-971.68,-354.004,-124.512,1153.463,453.7523979338111
621,1686111146.57,-10.742,-257.324,116.699,41.016,1153.467,449.5212476609133
622,1686111146.57,63.477,145.02,179.688,127.441,1153.471,450.0706770589304
623,1686111146.58,-5.859,-223.633,43.945,-34.18,1153.475,445.4495396065641
624,1686111146.58,-87.402,-204.59,81.055,-161.133,1153.473,450.32446330514415
625,1686111146.58,-33.691,114.746,192.871,-22.461,1153.477,447.65122117627277
626,1686111146.58,62.5,88.867,138.672,133.789,1153.481,442.34471961225654
627,1686111146.59,33.691,-190.918,33.203,30.762,1153.485,453.52122947434685
628,1686111146.59,-67.871,-294.922,22.949,-130.859,1153.489,441.60296674665705
629,1686111146.6,-57.129,-382.812,8.301,-57.617,1153.493,450.1064391150869
630,1686111146.6,36.621,-392.09,56.641,111.816,1153.497,436.72569835484245
631,1686111146.6,41.016,-817.383,-272.949,83.984,1153.501,438.5641683167492
632,1686111146.61,-46.875,-756.836,-235.352,-101.562,1153.505,439.7237265309712
633,1686111146.61,-66.406,-64.941,159.668,-116.699,1153.508,450.0911671855126
634,1686111146.62,33.203,-93.75,74.707,86.426,1153.512,446.54694282278575
635,1686111146.62,88.867,-152.832,64.453,128.418,1153.516,439.2438129385565
636,1686111146.64,8.789,54.688,160.645,-65.918,1153.534,436.64552363641974
637,1686111146.64,-68.848,-8.301,83.496,-137.207,1153.538,446.7265349614626
638,1686111146.64,-6.348,-282.227,20.996,36.621,1153.542,433.42854781576176
639,1686111146.65,88.379,-200.684,97.656,150.391,1153.546,419.97061867903295
640,1686111146.65,43.457,-20.996,89.844,5.859,1153.55,424.6783265961079
641,1686111146.66,-43.945,-337.891,-19.531,-125.977,1153.554,439.47479969528507
642,1686111146.66,-12.695,-750.977,-250.488,18.555,1153.558,439.0158762902329
643,1686111146.66,58.105,-975.586,-367.676,170.41,1153.561,438.61984289392444
644,1686111146.67,91.797,125.0,191.895,126.953,1153.578,439.6588610909967
645,1686111146.67,45.41,-516.113,22.949,55.664,1153.565,436.6193940455139
646,1686111146.67,-13.672,-44.922,25.391,-67.383,1153.582,439.5301078038511
647,1686111146.67,-36.133,-69.824,118.652,-116.699,1153.569,428.13863361901167
648,1686111146.67,-61.035,-333.008,13.672,-86.914,1153.585,426.96416113155414
649,1686111146.68,-47.852,-555.664,-136.719,-50.293,1153.573,430.3396030115872
650,1686111146.68,31.25,-63.477,146.973,97.168,1153.589,427.75099802462734
651,1686111146.68,53.711,-513.672,0.488,147.461,1153.577,433.64617461441026
652,1686111146.68,93.75,111.816,140.625,154.785,1153.593,420.35942586428126
653,1686111146.69,19.531,-366.211,-53.711,-15.625,1153.597,420.0855474073321
654,1686111146.69,-55.664,-615.234,-104.98,-114.258,1153.601,428.5726495843277
655,1686111146.69,10.742,-191.406,110.84,42.969,1153.605,416.7502993601862
656,1686111146.7,97.656,143.066,201.172,170.41,1153.609,423.6621919316246
657,1686111146.7,59.082,-221.191,-16.113,33.691,1153.613,415.785011248415
658,1686111146.7,-46.875,-986.328,-453.125,-103.516,1153.617,413.7745407066158
659,1686111146.71,-29.297,-627.93,-134.277,-11.23,1153.621,421.5032983120532
660,1686111146.71,83.496,127.93,246.094,141.602,1153.627,421.0296188077856
661,1686111146.72,74.219,-156.738,-6.348,73.73,1153.631,409.40532738783463
662,1686111146.72,-31.25,-429.688,-74.219,-111.816,1153.634,411.28690570406746
663,1686111146.72,-43.945,-97.168,117.188,-75.684,1153.638,400.66416331094683
664,1686111146.73,61.523,90.82,154.785,115.723,1153.642,402.5962841034549
665,1686111146.73,96.191,-423.34,-85.449,126.953,1153.646,405.35447517218574
666,1686111146.73,-1.465,-883.789,-250.488,-56.641,1153.65,412.18074801790743
667,1686111146.74,-54.199,-674.805,-122.559,-107.91,1153.654,398.3107982057608
668,1686111146.74,40.527,-157.715,134.277,69.336,1153.658,414.3705062123286
669,1686111146.75,86.426,-474.609,-112.793,150.391,1153.662,406.80503531030246
670,1686111146.75,-7.324,-818.359,-253.418,-26.367,1153.666,395.8194294462598
671,1686111146.75,-71.289,-210.938,104.492,-148.926,1153.67,404.68609079905883
672,1686111146.77,-17.09,-218.262,50.293,9.766,1153.669,392.1684668911362
673,1686111146.78,70.312,-514.16,-30.762,151.855,1153.672,384.7031563269762
674,1686111146.78,30.273,-306.152,62.5,14.16,1153.676,388.34103298951004
675,1686111146.78,-59.57,-9.277,125.0,-142.09,1153.68,389.9819003118023
676,1686111146.79,-43.945,-183.105,39.062,-43.457,1153.684,392.7282632130972
677,1686111146.79,40.039,-544.922,-25.879,132.324,1153.688,385.4508681989843
678,1686111146.8,48.34,-455.566,17.09,63.965,1153.692,386.8360850442832
679,1686111146.8,-36.133,-72.754,118.652,-121.094,1153.696,390.7076205217442
680,1686111146.8,-57.129,-229.004,10.254,-79.59,1153.7,393.58991998132615
681,1686111146.81,28.809,-621.094,-110.352,115.723,1153.704,381.678877321777
682,1686111146.81,79.59,-221.68,98.145,128.418,1153.708,383.0454253418031
683,1686111146.82,-1.465,65.43,161.133,-58.594,1153.711,386.53985304894803
684,1686111146.82,-75.684,-338.379,-32.227,-122.559,1153.713,387.26719872992635
685,1686111146.82,5.371,-349.609,8.789,51.758,1153.717,388.17340806636906
686,1686111146.82,99.121,18.555,189.941,143.555,1153.721,379.69556202845496
687,1686111146.83,35.645,-239.746,41.504,-14.648,1153.725,386.5659270394505
688,1686111146.83,-55.664,-732.422,-251.465,-133.789,1153.729,375.4558075192692
689,1686111146.84,-7.324,-814.941,-208.984,0.977,1153.733,390.8728015897856
690,1686111146.84,86.426,-479.004,24.902,146.973,1153.737,393.79742280556627
691,1686111146.84,61.035,-448.73,-56.641,37.109,1153.741,388.2212858977174
692,1686111146.85,-49.805,-768.066,-323.73,-122.07,1153.745,386.96764724016606
693,1686111146.85,-54.688,-964.844,-351.074,-46.875,1153.749,382.8663770345648
694,1686111146.86,59.082,-264.648,105.957,117.676,1153.753,378.36202886683697
695,1686111146.86,78.125,62.988,103.027,72.266,1153.756,381.20423821100457
696,1686111146.86,-23.438,-298.828,-1.953,-110.84,1153.758,379.5334101330181
697,1686111146.86,-55.664,-195.801,130.371,-103.027,1153.762,377.19833170417587
698,1686111146.87,42.48,76.66,171.875,83.496,1153.766,379.8242020520249
699,1686111146.87,88.379,-1.953,101.562,114.258,1153.77,386.6064565851986
700,1686111146.88,2.93,-382.324,-52.734,-60.547,1153.774,374.6576021181409
701,1686111146.88,-60.547,-595.215,-138.672,-128.418,1153.778,366.31166497964125
702,1686111146.88,3.418,-467.285,-9.277,34.18,1153.782,379.7010135982136
703,1686111146.89,75.195,-362.305,62.012,141.602,1153.786,372.9246513259462
704,1686111146.89,5.859,-831.055,-310.059,3.418,1153.79,378.1044443370351
705,1686111146.9,-83.008,-748.047,-239.258,-135.742,1153.794,385.02735502540474
706,1686111146.9,-40.039,-52.734,159.668,-27.832,1153.797,382.5931273676583
707,1686111146.9,48.828,-115.723,69.336,136.23,1153.801,383.9642429351349
708,1686111146.91,36.133,-242.188,16.602,46.387,1153.804,378.7080230748901
709,1686111146.91,-58.105,-25.391,98.145,-134.277,1153.808,380.9288666076702
710,1686111146.92,-60.059,-2.93,100.586,-84.473,1153.812,388.29501386941416
711,1686111146.92,50.781,-183.105,57.129,106.934,1153.815,386.8764941511201
712,1686111146.92,80.078,-212.402,29.785,89.844,1153.819,384.5263657768832
713,1686111146.93,-38.574,-361.328,-40.039,-117.188,1153.823,381.5636418355201
714,1686111146.93,-85.938,-520.02,-14.648,-142.09,1153.827,380.5236738427863
715,1686111146.93,-14.648,-654.297,-120.117,48.34,1153.831,387.1758684926926
716,1686111146.94,15.625,-1000.0,-474.609,113.281,1153.835,383.60853959629975
717,1686111146.94,-33.203,-660.645,-187.012,-69.336,1153.839,393.71702786186876
718,1686111146.95,-82.52,-91.797,108.398,-182.617,1153.843,387.694859497972
719,1686111146.95,-34.18,-157.227,87.891,-13.672,1153.847,389.66680974305376
720,1686111146.95,52.246,-31.25,161.621,112.793,1153.849,388.05512448420194
721,1686111146.96,17.578,135.742,169.434,-29.297,1153.853,389.1814231607402
722,1686111146.96,-73.242,-104.004,39.062,-166.016,1153.857,391.6717277244475
723,1686111146.96,-47.852,-271.973,38.574,-54.688,1153.861,395.4060201792758
724,1686111146.97,53.711,-97.656,121.582,100.586,1153.864,384.13562834681557
725,1686111146.97,39.551,-323.242,7.812,20.02,1153.868,387.18646606504734
726,1686111146.97,-49.805,-563.477,-124.023,-134.277,1153.872,392.45465597210097
727,1686111146.98,-72.754,-813.477,-259.766,-89.355,1153.876,391.5552379985595
728,1686111146.98,18.066,-426.758,30.273,96.191,1153.88,382.7880865086742
729,1686111146.99,68.359,169.434,197.754,87.891,1153.884,393.26969912169614
730,1686111146.99,-13.184,-309.082,-104.492,-79.102,1153.888,388.56058858676323
731,1686111146.99,-69.824,-592.285,-139.16,-118.164,1153.892,400.91628154054064
732,1686111147.0,14.16,-35.156,163.086,39.551,1153.893,392.7514283848879
733,1686111147.0,89.355,213.867,208.496,123.047,1153.897,389.42632352322335
734,1686111147.0,12.207,-345.215,-70.312,-38.086,1153.901,392.96560263564646
735,1686111147.01,-74.707,-566.895,-114.258,-149.414,1153.905,393.4088697174907
736,1686111147.01,-10.254,-95.703,109.863,2.441,1153.909,406.5297181393298
737,1686111147.02,91.797,-176.27,114.258,152.344,1153.913,396.40271622394715
738,1686111147.02,47.363,-651.855,-219.238,37.109,1153.917,393.0391931036403
739,1686111147.02,-61.035,-992.188,-458.008,-116.211,1153.921,397.9753202570154
740,1686111147.03,-36.621,-366.699,60.547,-28.809,1153.924,389.35520737167633
741,1686111147.03,65.43,112.305,172.852,142.09,1153.928,386.405755391342
742,1686111147.04,67.383,-155.762,45.898,87.891,1153.932,391.165117873158
743,1686111147.04,-33.203,-192.383,77.148,-103.027,1153.936,374.5920110393271
744,1686111147.04,-60.547,-28.809,92.285,-98.145,1153.942,389.48303927577155
745,1686111147.05,39.551,-126.953,85.449,89.355,1153.946,395.9424570959851
746,1686111147.05,83.984,-452.148,-37.109,109.375,1153.95,388.9801600899378
747,1686111147.05,0.488,-328.613,6.836,-76.172,1153.954,392.2001275567733
748,1686111147.06,-55.176,-49.316,104.98,-135.742,1153.957,376.3707498514261
749,1686111147.06,-1.465,-342.773,-9.766,38.086,1153.961,382.64015216512735
750,1686111147.06,53.711,-767.09,-159.668,139.648,1153.965,383.3717492587453
751,1686111147.07,1.465,-454.102,-10.254,-24.902,1153.969,371.47471528263134
752,1686111147.07,-73.73,-23.926,103.027,-156.738,1153.973,383.42740711103664
753,1686111147.08,-32.715,-218.262,22.461,-20.02,1153.977,384.0363140548184
754,1686111147.08,55.664,-325.195,35.645,133.301,1153.981,388.7557949977421
755,1686111147.08,37.598,-59.57,105.957,23.438,1153.985,375.46788957357273
756,1686111147.09,-54.199,-11.23,106.445,-150.391,1153.998,364.59453665359166
757,1686111147.09,-63.477,-335.938,-5.371,-85.938,1154.002,370.45710136888727
758,1686111147.09,26.367,-306.641,23.926,95.215,1154.006,377.6460471191821
759,1686111147.1,50.781,-72.266,62.5,58.594,1154.01,368.0431377918751
760,1686111147.1,-46.387,-413.574,-100.098,-138.672,1154.014,367.42109579440717
761,1686111147.11,-91.797,-802.734,-307.129,-122.559,1154.017,366.1659617606128
762,1686111147.11,-13.184,-990.234,-379.883,91.797,1154.021,358.13972287512456
763,1686111147.11,49.316,-531.25,-12.207,129.395,1154.025,366.1068263712207
764,1686111147.12,-18.066,-92.285,144.043,-60.059,1154.029,373.8199570320468
765,1686111147.12,-87.402,-581.543,-158.203,-139.16,1154.033,359.9122157646535
766,1686111147.12,-13.184,-620.605,-117.188,33.203,1154.037,350.7857403827396
767,1686111147.13,76.66,20.996,206.543,132.812,1154.041,353.0318118603306
768,1686111147.15,26.367,-10.254,51.27,-24.414,1154.043,348.03799869880635
769,1686111147.15,-62.5,-335.449,-14.16,-146.973,1154.047,338.9297677339254
770,1686111147.15,-22.949,-144.043,140.625,-24.902,1154.051,336.89829505284894
771,1686111147.16,67.383,150.879,175.781,124.023,1154.055,347.2736431835075
772,1686111147.16,41.016,-27.344,56.641,34.18,1154.059,343.24496122916423
773,1686111147.17,-56.641,-631.836,-165.039,-134.766,1154.063,344.705968124019
774,1686111147.17,-59.082,-749.512,-145.996,-78.613,1154.067,335.40135403691636
775,1686111147.17,40.527,-247.559,130.371,107.422,1154.071,341.62781236359984
776,1686111147.18,66.406,-180.176,37.109,91.309,1154.075,338.0512310643964
777,1686111147.18,-41.016,-793.945,-300.781,-95.215,1154.079,345.41520218148617
778,1686111147.18,-80.566,-562.988,-30.762,-124.023,1154.083,334.60991552091554
779,1686111147.19,20.508,54.199,185.059,63.477,1154.086,328.64671164966734
780,1686111147.19,71.289,-136.23,24.902,124.023,1154.088,326.4930043162814
781,1686111147.2,-5.371,-362.793,-22.461,-51.27,1154.092,333.9423967132783
782,1686111147.2,-79.102,-146.484,96.191,-153.809,1154.096,327.6364732078662
783,1686111147.2,-20.996,-15.137,113.77,-0.977,1154.1,326.3437931577862
784,1686111147.21,59.57,-254.395,9.277,131.348,1154.104,324.35731019226256
785,1686111147.21,18.555,-601.562,-108.887,0.977,1154.108,324.8456301361627
786,1686111147.21,-69.824,-647.461,-148.926,-145.02,1154.112,326.8963344707242
787,1686111147.22,-50.293,-490.234,-33.691,-45.41,1154.116,324.21751766131365
788,1686111147.22,41.016,-619.629,-100.098,126.953,1154.12,330.3237629701279
789,1686111147.23,20.508,-1000.0,-479.98,71.289,1154.124,325.9885442930801
790,1686111147.23,-62.988,-663.574,-207.031,-115.234,1154.127,321.2817390609392
791,1686111147.23,-52.246,-115.234,116.699,-91.797,1154.131,324.3307827296679
792,1686111147.24,49.316,-161.133,86.426,106.445,1154.133,316.28756613477844
793,1686111147.24,83.496,-66.406,125.977,110.84,1154.137,324.9385615562136
794,1686111147.24,-17.578,33.203,122.559,-79.102,1154.141,333.8236634426544
795,1686111147.25,-81.543,-140.625,36.133,-111.328,1154.145,316.79899655780855
796,1686111147.25,-3.906,-224.609,54.199,70.801,1154.149,319.6640952560954
797,1686111147.26,59.57,-253.906,75.684,133.301,1154.153,332.5274817939232
798,1686111147.26,-6.836,-339.844,33.203,-41.504,1154.157,324.46289209721465
799,1686111147.26,-75.684,-338.867,-17.578,-148.438,1154.161,323.260236745034
800,1686111147.27,-33.691,-719.727,-167.969,1.953,1154.165,323.4157628203571
801,1686111147.27,66.406,-349.609,62.988,141.602,1154.169,329.3118542783961
802,1686111147.28,53.711,148.926,165.527,18.555,1154.172,326.1285707155179
803,1686111147.28,-41.016,-388.184,-128.418,-129.395,1154.176,323.11324174490517
804,1686111147.28,-30.762,-570.801,-126.953,-48.828,1154.182,327.61245032822785
805,1686111147.29,67.871,0.488,170.898,113.281,1154.186,316.162602450303
806,1686111147.29,69.336,151.367,162.598,65.43,1154.19,316.15175415569473
807,1686111147.29,-54.199,-396.973,-58.105,-112.793,1154.194,322.1499861276804
808,1686111147.3,-81.543,-571.777,-83.496,-95.703,1154.198,318.48146369387854
809,1686111147.3,22.461,-263.184,64.941,99.121,1154.201,318.93991283409855
810,1686111147.3,64.453,-342.773,88.867,121.582,1154.205,323.12015103192135
811,1686111147.31,-20.508,-710.938,-250.488,-71.289,1154.209,313.0988684463507
812,1686111147.31,-96.68,-992.676,-451.172,-136.23,1154.213,305.152665763714
813,1686111147.32,-5.371,-316.406,88.379,32.715,1154.217,308.1159090152601
814,1686111147.32,82.031,89.355,152.344,125.488,1154.221,318.4639027433735
815,1686111147.32,23.438,-211.426,-11.719,-22.461,1154.225,330.3236087189386
816,1686111147.33,-59.082,-192.383,93.75,-145.02,1154.226,318.6134266983898
817,1686111147.33,-19.043,4.395,152.344,-18.066,1154.23,312.0203565372217
818,1686111147.34,76.172,-146.973,85.449,143.066,1154.234,315.1162169443114
819,1686111147.34,36.621,-428.711,-36.621,36.621,1154.238,310.61861468994596
820,1686111147.34,-56.152,-276.855,17.09,-140.625,1154.242,313.07496260490456
821,1686111147.35,-34.18,-275.879,51.758,-62.012,1154.246,320.11411563652626
822,1686111147.35,51.758,-423.34,57.617,114.258,1154.25,321.87087318029364
823,1686111147.35,45.41,-816.406,-264.16,81.055,1154.254,318.792719728106
824,1686111147.36,-46.875,-752.93,-260.254,-104.492,1154.258,310.6209841218991
825,1686111147.36,-60.059,-26.367,177.246,-109.375,1154.262,322.5576493585803
826,1686111147.37,35.156,-80.566,81.543,85.449,1154.265,317.822546011174
827,1686111147.37,80.078,-200.195,61.523,117.676,1154.269,318.23394899666545
828,1686111147.37,14.16,-12.207,109.375,-63.477,1154.269,318.487187858412
829,1686111147.38,-55.176,2.93,79.59,-142.09,1154.272,323.1261948257227
830,1686111147.38,-0.977,-203.125,30.273,26.855,1154.276,331.3675592375501
831,1686111147.38,72.754,-192.871,34.18,130.371,1154.28,322.72230799845255
832,1686111147.39,18.066,-146.973,8.301,-23.926,1154.284,326.1902057743436
833,1686111147.39,-68.359,-422.363,-76.66,-145.508,1154.288,321.9844945324099
834,1686111147.39,-43.457,-701.66,-223.633,-31.25,1154.292,327.30642194374025
835,1686111147.4,46.875,-1000.0,-461.426,130.859,1154.296,325.5765892188236
836,1686111147.4,49.805,-627.93,-167.48,54.688,1154.3,323.32143289423453
837,1686111147.41,-39.062,-129.883,98.145,-124.512,1154.304,319.98919255708086
838,1686111147.41,-49.805,-318.848,-6.836,-74.707,1154.308,328.68478843110864
839,1686111147.41,57.617,-144.043,74.219,121.582,1154.312,322.55290602981336
840,1686111147.42,99.609,152.832,159.668,97.656,1154.328,320.87882882832054
841,1686111147.42,2.93,-105.469,10.742,-95.703,1154.331,316.5700180247241
842,1686111147.42,-60.547,-388.672,-21.973,-124.512,1154.335,322.16354955634256
843,1686111147.43,20.508,-82.031,136.719,57.129,1154.339,332.49088141832334
844,1686111147.43,85.449,106.445,136.23,131.348,1154.343,322.5331662344553
845,1686111147.44,4.883,-331.543,-111.816,-35.156,1154.347,311.53002907326646
846,1686111147.44,-83.496,-794.922,-278.809,-119.629,1154.351,329.7855882705
847,1686111147.44,-14.648,-624.023,-43.457,32.227,1154.355,333.6270203408369
848,1686111147.45,86.426,-83.008,162.598,147.949,1154.359,325.77366114964263
849,1686111147.45,48.828,-187.988,-25.879,27.344,1154.363,334.9973766209251
850,1686111147.46,-46.875,-606.934,-146.973,-110.352,1154.367,333.4476077459379
851,1686111147.46,-26.367,-231.445,88.867,-16.113,1154.371,333.6521234145393
852,1686111147.46,81.055,64.453,157.715,152.832,1154.373,339.94323070948684
853,1686111147.46,76.172,-216.797,3.906,87.402,1154.377,331.3731157382843
854,1686111147.47,-36.621,-411.621,-76.66,-100.098,1154.38,335.07669344486266
855,1686111147.47,-47.363,-143.555,75.684,-78.613,1154.384,336.4083783421461
856,1686111147.48,58.105,12.207,150.391,116.699,1154.388,339.0141533896395
857,1686111147.48,89.355,-470.703,-96.191,134.766,1154.392,332.9468915373187
858,1686111147.48,-1.953,-906.25,-312.012,-61.523,1154.396,345.66211030124947
859,1686111147.49,-59.082,-608.887,-147.949,-113.281,1154.4,330.5693169771611
860,1686111147.49,17.09,-124.512,105.957,61.523,1154.404,333.03894071872077
861,1686111147.5,83.496,-484.375,-148.926,145.508,1154.408,332.4232639612135
862,1686111147.5,11.23,-915.039,-374.023,-17.578,1154.412,338.98921381661495
863,1686111147.5,-60.059,-254.395,75.684,-149.902,1154.416,334.5106523895579
864,1686111147.52,-16.113,-5.859,119.629,-17.578,1154.419,341.1229287651264
865,1686111147.52,66.895,-228.516,33.691,127.93,1154.423,345.7900928018941
866,1686111147.53,44.434,-182.617,79.59,12.695,1154.427,355.5040581192385
867,1686111147.53,-41.992,-20.508,104.004,-152.344,1154.431,343.477303546033
868,1686111147.54,-28.32,-123.047,61.523,-67.871,1154.435,344.36682154885875
869,1686111147.54,60.547,-474.609,-22.949,126.465,1154.438,354.44379972364294
870,1686111147.54,62.988,-436.523,5.371,80.566,1154.442,341.2793461997268
871,1686111147.55,-30.762,-89.844,105.469,-118.164,1154.446,351.41198715649034
872,1686111147.55,-60.547,-241.699,-0.488,-106.445,1154.45,363.8663939902648
873,1686111147.56,26.855,-609.375,-162.598,86.914,1154.454,350.5888072719541
874,1686111147.56,75.684,-259.277,59.57,101.562,1154.458,354.3485790865775
875,1686111147.56,-6.348,-124.512,92.285,-81.543,1154.462,361.73795376305713
876,1686111147.57,-70.801,-576.66,-156.25,-132.324,1154.477,351.8102377994539
877,1686111147.57,0.488,-536.621,-90.82,37.109,1154.481,352.1307902122294
878,1686111147.57,70.312,-17.09,173.34,123.047,1154.484,347.2824373976212
879,1686111147.58,12.207,7.812,94.727,-40.039,1154.488,361.4658570332713
880,1686111147.58,-68.359,-479.492,-93.262,-143.555,1154.492,370.00988969433575
881,1686111147.59,-25.879,-718.262,-116.211,0.977,1154.496,356.45543492737414
882,1686111147.59,59.57,-488.281,-7.812,123.047,1154.5,361.7479274549797
883,1686111147.59,40.039,-491.211,-40.039,11.719,1154.504,358.90880429589845
884,1686111147.6,-61.523,-770.508,-318.359,-140.137,1154.508,374.93806828306197
885,1686111147.6,-78.613,-972.168,-389.16,-67.871,1154.512,366.6986985374168
886,1686111147.6,34.668,-337.402,99.121,100.098,1154.516,368.77879507808206
887,1686111147.61,62.012,16.602,132.324,71.289,1154.52,377.358074694431
888,1686111147.61,-33.691,-307.617,-47.363,-107.422,1154.508,361.5316534904979
889,1686111147.62,-64.453,-220.703,46.387,-111.328,1154.512,368.0921767310795
890,1686111147.62,16.113,1.953,129.883,67.871,1154.516,369.6387843686077
891,1686111147.62,64.453,-201.66,51.27,118.164,1154.52,375.8584893902502
892,1686111147.63,-10.742,-580.566,-138.184,-52.246,1154.524,377.0053083882946
893,1686111147.63,-83.984,-711.914,-212.891,-139.648,1154.528,376.30656936126456
894,1686111147.63,-21.484,-282.227,77.148,15.625,1154.532,374.10192094842984
895,1686111147.64,65.43,-85.938,105.957,119.629,1154.536,383.2215897239528
896,1686111147.64,20.996,-662.109,-178.711,-18.555,1154.54,384.6131458494174
897,1686111147.65,-80.078,-488.77,-7.324,-155.762,1154.544,380.3086095564892
898,1686111147.65,-53.711,52.734,180.176,-38.574,1154.547,393.9522248414165
899,1686111147.65,49.805,-208.496,-15.625,137.207,1154.551,379.3319956798884
900,1686111147.66,40.527,-467.285,-85.449,61.035,1154.553,386.8732259818623
901,1686111147.66,-44.434,-171.875,86.914,-126.953,1154.557,382.44616148131144
902,1686111147.66,-45.898,-40.039,97.168,-89.844,1154.561,386.3666156017673
903,1686111147.67,46.875,-130.859,91.309,103.027,1154.565,374.97552685056894
904,1686111147.67,59.57,-263.184,30.762,87.891,1154.569,399.29181136833796
905,1686111147.68,-40.527,-507.324,-151.367,-97.656,1154.573,402.6425718253672
906,1686111147.68,-70.312,-620.605,-182.617,-113.281,1154.577,410.19530852415505
907,1686111147.68,13.672,-712.402,-197.754,74.707,1154.581,396.2661533742398
908,1686111147.69,61.035,-1000.0,-493.652,153.809,1154.585,398.2148690344111
909,1686111147.69,-8.789,-712.402,-218.262,-30.762,1154.589,402.1491724966192
910,1686111147.7,-66.406,-173.828,82.031,-131.836,1154.592,411.1553587703655
911,1686111147.7,-7.812,-187.988,66.406,35.156,1154.596,403.505343940471
912,1686111147.7,72.266,-13.184,148.926,155.273,1154.599,410.6081736347561
913,1686111147.71,31.738,155.762,135.742,12.695,1154.602,407.76241645810074
914,1686111147.71,-56.641,-135.742,-8.301,-122.559,1154.606,411.5327083760343
915,1686111147.71,-22.461,-319.824,9.766,-8.789,1154.61,405.7190637722635
916,1686111147.72,81.543,-12.207,164.062,152.832,1154.614,407.0847120662569
917,1686111147.72,79.102,-156.738,60.059,88.379,1154.618,418.74270725244
918,1686111147.72,-22.949,-527.344,-176.27,-85.938,1154.622,402.1533921454171
919,1686111147.73,-59.57,-760.254,-259.766,-52.246,1154.626,407.39980711553875
920,1686111147.73,36.621,-572.754,-12.207,126.953,1154.63,399.9968192012719
921,1686111147.74,80.566,20.996,176.758,117.676,1154.634,418.2766592637749
922,1686111147.74,-2.441,-178.711,-45.41,-62.988,1154.638,405.51075851946723
923,1686111147.74,-56.152,-597.168,-159.668,-108.398,1154.642,417.4399020330059
924,1686111147.75,33.203,-91.797,150.879,63.965,1154.643,421.44335630388844
925,1686111147.75,114.746,202.148,185.547,148.926,1154.647,414.69377905513824
926,1686111147.75,30.273,-190.918,-7.812,-21.484,1154.651,414.76744490497646
927,1686111147.76,-72.266,-355.957,-6.836,-144.043,1154.655,421.7989640989936
928,1686111147.76,-20.508,-57.129,115.234,3.906,1154.659,419.07816477981754
929,1686111147.77,76.66,-151.855,104.492,158.691,1154.663,415.31927226652664
930,1686111147.77,45.41,-621.094,-192.871,50.781,1154.667,411.4055063116892
931,1686111147.77,-63.965,-963.379,-412.598,-117.188,1154.671,413.0851781716964
932,1686111147.78,-44.434,-375.977,29.785,-54.688,1154.674,413.37266644072315
933,1686111147.78,66.406,145.02,186.523,120.605,1154.678,423.19204631259356
934,1686111147.78,63.965,-449.219,-102.051,82.031,1154.682,414.29962691126406
935,1686111147.79,-39.062,-693.359,-114.746,-109.375,1154.686,423.30385613527886
936,1686111147.79,-62.5,-84.473,126.465,-109.863,1154.702,408.2417129406701
937,1686111147.8,26.855,62.5,118.652,77.148,1154.706,408.8886708761635
938,1686111147.8,74.219,-359.863,-47.852,113.77,1154.71,406.03335677588484
939,1686111147.8,4.883,-375.977,-7.324,-63.477,1154.714,408.0580097836475
940,1686111147.81,-53.223,-68.359,109.375,-131.836,1154.718,420.934423710293
941,1686111147.81,6.836,-299.805,10.254,37.598,1154.721,408.4683108999283
942,1686111147.82,70.312,-703.125,-110.84,137.695,1154.725,419.3265877370741
943,1686111147.82,15.137,-468.262,-0.977,-18.555,1154.729,411.20648364257454
944,1686111147.82,-71.777,-42.969,130.371,-149.414,1154.733,414.42648998427
945,1686111147.83,-27.832,-205.078,16.113,-14.648,1154.737,413.81173842862506
946,1686111147.83,71.777,-256.348,3.418,143.555,1154.741,414.8184463305094
947,1686111147.84,57.617,-23.926,100.586,47.852,1154.745,414.3050986708636
948,1686111147.84,-34.668,-52.734,53.711,-115.723,1154.747,407.79772161324405
949,1686111147.84,-43.945,-433.105,-62.012,-52.246,1154.751,406.2027198670185
950,1686111147.85,49.805,-429.688,-23.926,128.906,1154.755,419.157145291757
951,1686111147.85,71.777,19.531,130.371,104.004,1154.759,426.2633281412476
952,1686111147.86,-22.949,-75.684,74.707,-88.867,1154.763,412.48424961868204
953,1686111147.86,-72.754,-669.434,-262.695,-94.727,1154.766,412.9284075968676
954,1686111147.86,5.371,-871.582,-296.387,97.656,1154.77,407.78053767940537
955,1686111147.87,75.195,-442.871,51.27,140.625,1154.774,416.9591271120141
956,1686111147.87,17.09,-125.488,98.145,-40.039,1154.778,416.82404794168934
957,1686111147.88,-61.035,-588.379,-226.562,-125.488,1154.782,424.35044497374514
958,1686111147.88,-12.207,-792.969,-221.191,29.785,1154.786,419.19595732660326
959,1686111147.88,89.844,-7.324,213.867,138.184,1154.79,421.8496195127967
960,1686111147.9,46.387,20.02,64.941,0.0,1154.794,420.7070913466789
961,1686111147.9,-62.5,-361.328,-95.215,-138.672,1154.798,434.3464580116762
962,1686111147.9,-24.902,-173.34,91.797,-27.344,1154.802,436.262794534675
963,1686111147.91,84.473,34.668,158.203,132.324,1154.805,429.33088860221244
964,1686111147.91,73.73,-269.531,-5.859,58.105,1154.809,436.64257586692935
965,1686111147.92,-58.105,-788.574,-253.906,-123.047,1154.813,431.36417473087437
966,1686111147.92,-76.172,-643.066,-111.328,-92.285,1154.817,424.82919137130307
967,1686111147.92,43.945,61.523,206.055,100.098,1154.821,430.7324702018655
968,1686111147.93,74.707,-92.773,21.484,109.863,1154.825,445.80563372374735
969,1686111147.93,-21.973,-591.309,-142.578,-76.66,1154.829,439.4388951147606
970,1686111147.94,-77.148,-274.902,69.824,-125.977,1154.833,444.01230730972935
971,1686111147.94,1.953,122.559,187.5,54.688,1154.837,436.85741054989046
972,1686111147.94,65.43,-146.484,13.184,131.836,1154.838,448.7449655980388
973,1686111147.94,4.395,-416.992,-92.773,-36.133,1154.842,439.2398551479427
974,1686111147.95,-67.383,-189.941,42.969,-136.719,1154.846,434.6016814942059
975,1686111147.95,-21.484,-13.184,108.887,20.02,1154.85,453.17542571052974
976,1686111147.96,61.523,-201.66,62.5,155.762,1154.854,447.2686876759242
977,1686111147.96,35.156,-568.359,-79.59,28.809,1154.858,443.0724882636706
978,1686111147.96,-43.457,-625.0,-201.66,-117.676,1154.862,442.0498527244358
979,1686111147.97,-20.02,-539.062,-90.82,-28.32,1154.866,441.01918970439505
980,1686111147.97,74.707,-698.73,-138.672,141.113,1154.87,445.10039537814635
981,1686111147.98,56.641,-1000.0,-491.699,78.125,1154.874,449.9961174570104
982,1686111147.98,-35.645,-750.0,-263.672,-115.723,1154.877,451.6433548514535
983,1686111147.98,-43.945,-376.953,32.715,-84.473,1154.881,437.75034279610884
984,1686111147.99,43.945,-209.961,97.656,107.91,1154.883,452.1847776377859
985,1686111147.99,82.031,13.184,141.602,107.422,1154.887,448.7450815148643
986,1686111148.0,-11.23,50.293,107.91,-85.449,1154.891,440.13256566314055
987,1686111148.0,-70.801,-144.043,24.902,-129.883,1154.895,453.1454619535002
988,1686111148.0,7.812,-303.223,7.812,43.945,1154.899,446.4357004332692
989,1686111148.01,70.312,-358.398,21.484,124.023,1154.903,443.97808792852527
990,1686111148.01,14.648,-287.109,57.617,-37.598,1154.907,455.7129528490086
991,1686111148.01,-61.035,-223.633,3.418,-150.391,1154.911,442.38449343285885
992,1686111148.02,-34.668,-671.387,-178.711,-7.812,1154.915,443.805201222061
993,1686111148.02,59.57,-621.094,-15.137,127.441,1154.919,442.0016448080839
994,1686111148.03,37.598,-66.895,140.625,9.766,1154.922,447.70636805346135
995,1686111148.03,-74.219,-298.828,-70.312,-154.785,1154.926,442.317676807857
996,1686111148.03,-73.73,-612.305,-145.508,-72.266,1154.943,446.3080624374775
997,1686111148.04,39.062,-34.668,152.832,115.723,1154.947,432.7313254506997
998,1686111148.04,69.824,163.574,154.297,78.613,1154.951,433.84996617247486
999,1686111148.04,-29.297,-254.883,-7.324,-102.539,1154.955,431.2413177737303
1000,1686111148.05,-68.359,-368.652,1.465,-103.027,1154.958,449.5617337171154
1001,1686111148.05,25.391,-258.789,52.246,79.59,1154.962,429.0475927584779
1002,1686111148.05,73.242,-382.324,36.621,109.863,1154.966,433.31718321904333
1003,1686111148.06,-21.973,-695.312,-226.074,-65.43,1154.97,434.9793223328252
1004,1686111148.06,-93.262,-976.074,-391.113,-132.324,1154.974,419.7773024150885
1005,1686111148.07,-7.812,-285.156,85.938,21.484,1154.978,415.28630759766145
1006,1686111148.07,76.66,165.039,183.594,118.164,1154.982,408.79248804118834
1007,1686111148.07,19.043,-334.473,-65.43,-21.484,1154.986,418.4553406877257
1008,1686111148.08,-67.871,-456.543,-46.387,-151.367,1154.976,407.99962750056767
1009,1686111148.08,-15.137,39.062,182.617,-26.367,1154.98,405.93189617271264
1010,1686111148.08,86.426,97.656,110.84,131.836,1154.984,401.6068401918634
1011,1686111148.09,54.199,-410.645,-91.797,39.551,1154.987,388.09346826700244
1012,1686111148.09,-52.246,-453.125,-27.344,-131.836,1154.991,383.352503495865
1013,1686111148.1,-51.758,-308.594,47.852,-80.078,1154.995,390.61073432553593
1014,1686111148.1,54.199,-374.512,15.137,108.887,1154.999,386.89119111254695
1015,1686111148.1,72.266,-624.023,-91.309,86.426,1155.003,375.97701799489374
1016,1686111148.11,-30.762,-518.555,-33.203,-103.516,1155.007,371.00340957167316
1017,1686111148.11,-62.988,-21.973,145.996,-109.863,1155.011,379.18297785760063
1018,1686111148.12,29.785,-167.48,22.461,88.379,1155.015,366.6110733294462
1019,1686111148.12,83.008,-586.426,-118.652,141.113,1155.019,359.10541952117364
1020,1686111148.12,3.906,-241.699,93.262,-48.828,1155.032,346.72755847797356
1021,1686111148.13,-69.824,12.207,124.023,-140.137,1155.036,367.52173589515354
1022,1686111148.13,-10.742,-380.371,-50.293,31.738,1155.04,354.24190534885764
1023,1686111148.13,71.777,-381.348,1.465,149.414,1155.044,346.1089216306654
1024,1686111148.14,38.574,-25.391,119.629,9.766,1155.048,338.3557947855877
1025,1686111148.14,-54.688,-291.016,-7.812,-127.93,1155.052,334.0864885570008
1026,1686111148.14,-43.945,-729.004,-214.355,-15.137,1155.056,329.9817752617509
1027,1686111148.15,45.898,-1000.0,-414.062,155.273,1155.06,332.80405975674176
1028,1686111148.15,45.898,-530.762,-87.891,57.129,1155.064,340.0474137740363
1029,1686111148.16,-42.969,-59.082,110.84,-134.277,1155.067,343.49240469283836
1030,1686111148.16,-50.293,-271.973,-18.066,-95.215,1155.071,331.6391570805386
1031,1686111148.16,50.293,-111.328,104.004,102.539,1155.075,337.3706574087135
1032,1686111148.17,86.426,148.926,193.848,108.398,1155.078,327.6499655378871
1033,1686111148.17,-15.137,-72.754,13.672,-83.496,1155.082,328.9822662508768
1034,1686111148.17,-65.43,-373.535,-60.059,-123.047,1155.085,316.358532770509
1035,1686111148.18,16.602,-119.141,122.07,52.734,1155.089,325.9636966374796
1036,1686111148.18,72.266,43.457,106.445,120.117,1155.093,315.51054222636077
1037,1686111148.19,0.0,-325.195,-73.73,-50.781,1155.097,313.704469138771
1038,1686111148.19,-98.633,-891.602,-368.164,-138.672,1155.101,322.8922219263576
1039,1686111148.19,-40.527,-701.66,-180.176,13.672,1155.105,324.60434755507686
1040,1686111148.2,66.406,89.844,223.145,128.418,1155.109,318.10953609875725
1041,1686111148.2,30.273,-154.785,-34.668,16.602,1155.113,319.2803394191376
1042,1686111148.2,-58.594,-542.969,-164.062,-129.395,1155.117,308.39024777820714
1043,1686111148.21,-43.945,-123.535,114.258,-41.992,1155.121,305.3968990083119
1044,1686111148.21,47.852,161.621,183.105,143.555,1155.123,312.1833087647367
1045,1686111148.22,47.852,-222.656,-24.902,83.008,1155.127,300.92737941184055
1046,1686111148.22,-46.387,-478.027,-103.516,-108.887,1155.131,320.8843769228998
1047,1686111148.22,-55.176,-137.207,83.008,-81.055,1155.134,301.56898886084133
1048,1686111148.23,36.621,38.574,149.902,99.121,1155.138,314.6067887454046
1049,1686111148.23,60.547,-467.773,-110.84,102.051,1155.142,307.54082846228647
1050,1686111148.23,-25.879,-942.871,-299.316,-76.66,1155.146,308.9633753770047
1051,1686111148.24,-69.824,-695.312,-125.488,-127.441,1155.15,307.86424354455755
1052,1686111148.24,9.277,-426.27,64.941,41.992,1155.154,307.6475682375135
1053,1686111148.25,81.543,-642.09,-146.484,140.625,1155.158,311.91754329047063
1054,1686111148.25,7.812,-969.238,-380.859,-16.602,1155.162,320.6345077800673
1055,1686111148.25,-74.707,-452.148,-4.395,-143.555,1155.166,304.3124077723576
1056,1686111148.27,-10.742,-96.191,85.449,-0.488,1155.17,300.9646408440958
1057,1686111148.28,82.031,-166.504,97.656,147.949,1155.174,305.20341790834595
1058,1686111148.28,49.805,-99.121,112.305,33.203,1155.178,318.7731379942192
1059,1686111148.28,-41.992,-71.289,77.637,-108.398,1155.182,312.5361852987418
1060,1686111148.29,-37.109,-50.781,93.262,-81.543,1155.186,307.31586253350054
1061,1686111148.29,-40.039,-134.277,27.832,-106.934,1155.19,319.25758183799
1062,1686111148.3,-27.832,-625.488,-168.457,-23.438,1155.194,320.8018544159406
1063,1686111148.3,56.152,-704.59,-135.254,115.723,1155.198,316.2072153120678
1064,1686111148.3,40.527,-277.344,115.234,17.09,1155.202,324.87771988742907
1065,1686111148.31,-57.129,-190.43,35.156,-142.578,1155.206,312.56362286147333
1066,1686111148.31,-63.965,-689.453,-266.602,-68.359,1155.21,317.9077809872352
1067,1686111148.32,37.109,-446.289,-10.254,114.258,1155.213,319.83756570649
1068,1686111148.32,66.895,-22.461,175.293,86.914,1155.227,315.7119211022949
1069,1686111148.32,-31.25,-192.871,26.855,-104.492,1155.231,323.46958863895173
1070,1686111148.32,-79.59,-559.082,-72.754,-117.676,1155.235,324.2951231868913
1071,1686111148.33,14.16,-504.883,-12.207,79.59,1155.239,325.22203683575134
1072,1686111148.33,72.754,-111.816,132.812,117.676,1155.243,319.5793360529818
1073,1686111148.34,-10.254,-388.184,-60.059,-65.43,1155.247,332.5043985968923
1074,1686111148.34,-90.332,-990.234,-444.824,-125.488,1155.251,318.51084261458885
1075,1686111148.34,-19.531,-697.266,-140.137,35.156,1155.255,312.26025497875776
1076,1686111148.35,83.984,42.48,215.332,133.789,1155.259,321.88855857148
1077,1686111148.35,40.527,-168.945,-26.855,3.418,1155.262,326.2787562814592
1078,1686111148.36,-55.664,-609.375,-167.969,-131.348,1155.266,326.746170471256
1079,1686111148.36,-37.109,-201.66,68.359,-25.879,1155.27,342.29786479067275
1080,1686111148.36,44.922,124.023,179.199,132.324,1155.272,342.154137899232
1081,1686111148.37,38.574,-253.418,-35.645,51.758,1155.276,327.3726507020623
1082,1686111148.37,-57.129,-551.27,-101.074,-130.859,1155.28,340.18554292803316
1083,1686111148.38,-62.988,-186.035,99.609,-89.355,1155.284,338.92918750698317
1084,1686111148.38,37.109,97.656,166.992,103.027,1155.288,340.1343687322948
1085,1686111148.38,54.688,-434.082,-118.652,100.586,1155.292,345.12361179166
1086,1686111148.39,-30.762,-811.523,-190.43,-84.961,1155.296,338.8701758341554
1087,1686111148.39,-57.617,-278.32,82.031,-117.676,1155.3,339.89706857256147
1088,1686111148.39,25.879,-12.695,132.324,71.777,1155.303,326.33138888734237
1089,1686111148.4,73.242,-484.863,-117.188,136.23,1155.307,343.743428800472
1090,1686111148.4,0.0,-530.273,-58.105,-43.945,1155.311,324.1626869132793
1091,1686111148.41,-62.988,-220.703,92.773,-135.254,1155.315,352.3944555533287
1092,1686111148.42,-12.695,-261.719,33.203,20.508,1155.318,352.8302200499807
1093,1686111148.42,58.594,-669.434,-153.32,150.391,1155.322,358.38387681454253
1094,1686111148.43,26.855,-441.895,-35.645,2.441,1155.326,347.8368539239963
1095,1686111148.43,-57.129,-370.117,-28.32,-142.09,1155.33,348.44955166207615
1096,1686111148.44,-45.898,-546.387,-92.773,-33.691,1155.334,350.32386532500476
1097,1686111148.44,37.109,-871.094,-297.852,139.648,1155.338,342.9251185323052
1098,1686111148.44,48.34,-690.43,-151.855,70.801,1155.342,354.7425585787661
1099,1686111148.45,-26.855,-74.219,128.418,-120.117,1155.346,353.32621565823814
1100,1686111148.45,-50.293,-243.164,0.488,-86.426,1155.35,360.9788415582201
1101,1686111148.46,40.039,-522.949,-6.348,107.91,1155.354,351.76030735340305
1102,1686111148.46,81.543,-94.238,141.113,105.957,1155.357,349.64084692683207
1103,1686111148.46,-2.441,72.754,103.516,-85.449,1155.361,356.3125731698121
1104,1686111148.47,-56.641,-363.281,-61.523,-124.512,1155.363,350.2391691430201
1105,1686111148.47,13.184,-394.531,5.859,50.781,1155.367,356.0670036514934
1106,1686111148.48,85.938,-66.406,110.84,118.164,1155.371,347.686284533214
1107,1686111148.48,23.438,-302.734,-18.066,-37.109,1155.375,360.33696920935915
1108,1686111148.48,-89.844,-665.039,-206.055,-143.066,1155.379,351.6253461352808
1109,1686111148.49,-47.363,-770.508,-190.43,-0.488,1155.383,369.6971172631971
1110,1686111148.49,68.359,-363.77,61.523,141.113,1155.387,362.4676535067341
1111,1686111148.49,49.805,-44.434,105.469,23.438,1155.391,350.1914021235181
1112,1686111148.5,-66.406,-636.719,-241.211,-132.812,1155.395,351.8661449100621
1113,1686111148.5,-57.617,-706.055,-151.367,-43.457,1155.399,357.91354914246693
1114,1686111148.51,65.918,49.316,221.68,133.301,1155.402,351.5671594154714
1115,1686111148.51,63.965,26.367,111.328,78.613,1155.406,357.87679261771177
1116,1686111148.51,-40.527,-494.141,-115.234,-109.863,1155.408,360.22932159777906
1117,1686111148.52,-59.57,-270.996,13.672,-96.191,1155.412,352.8933278028726
1118,1686111148.52,32.227,34.18,152.344,96.68,1155.416,359.1121349849909
1119,1686111148.52,69.824,-333.984,-8.789,120.117,1155.42,360.1156645054176
1120,1686111148.53,-17.578,-888.184,-342.773,-62.012,1155.424,356.35448738136813
1121,1686111148.53,-85.449,-862.793,-264.648,-127.93,1155.428,359.05102498091156
1122,1686111148.53,-11.23,-458.008,29.785,35.645,1155.432,370.72295455381874
1123,1686111148.54,75.684,-433.594,-8.789,123.535,1155.436,373.2977276944341
1124,1686111148.54,7.812,-885.254,-385.254,-31.738,1155.439,361.3125424140135
1125,1686111148.55,-82.031,-629.395,-152.832,-159.18,1155.443,366.24530795425125
1126,1686111148.55,-38.574,-57.617,170.898,-32.715,1155.447,360.568162125159
1127,1686111148.55,51.758,-93.75,70.312,126.465,1155.451,370.6782643202023
1128,1686111148.56,32.715,-192.871,76.172,32.715,1155.455,372.1188163430281
1129,1686111148.56,-60.547,-63.965,95.215,-145.02,1155.459,362.1724050030311
1130,1686111148.56,-57.617,-16.113,98.633,-87.891,1155.463,364.9028166435564
1131,1686111148.57,39.062,-190.918,34.668,102.051,1155.467,375.53391562933245
1132,1686111148.57,54.199,-160.645,94.238,77.148,1155.471,367.4780888673913
1133,1686111148.58,-48.34,-369.141,-52.246,-113.281,1155.475,365.3070582720893
1134,1686111148.58,-82.031,-526.367,-105.957,-120.605,1155.479,366.3460579852091
1135,1686111148.58,11.719,-618.164,-115.723,70.312,1155.482,351.6668216158497
1136,1686111148.59,51.758,-833.008,-169.922,104.492,1155.486,375.76906180139895
1137,1686111148.59,-14.648,-301.758,79.102,-86.426,1155.49,367.2030574222704
1138,1686111148.6,-60.547,-75.195,80.078,-161.133,1155.494,366.0608948505731
1139,1686111148.6,-19.043,-618.652,-171.387,6.348,1155.498,372.5642534741834
1140,1686111148.6,44.922,-373.047,12.695,109.375,1155.498,369.11479834395266
1141,1686111148.6,10.742,76.172,182.617,-34.18,1155.502,381.7976871179284
1142,1686111148.61,-88.867,-221.191,10.254,-168.457,1155.506,372.57239492482597
1143,1686111148.61,-66.895,-652.344,-70.312,-53.223,1155.51,362.8757198465864
1144,1686111148.62,37.109,-254.395,110.84,104.004,1155.514,364.65933441461897
1145,1686111148.62,29.297,-252.441,44.922,26.855,1155.518,374.3051326829116
1146,1686111148.62,-69.336,-674.805,-168.945,-144.531,1155.522,367.5247793657445
1147,1686111148.63,-88.867,-934.082,-371.582,-97.656,1155.526,362.2201767177136
1148,1686111148.63,5.859,-521.973,-61.523,83.496,1155.53,377.5991427924618
1149,1686111148.64,42.48,96.191,208.984,68.848,1155.533,366.0988861660541
1150,1686111148.64,-49.805,-256.348,-62.5,-119.629,1155.537,377.6038845605255
1151,1686111148.64,-100.586,-603.516,-125.977,-146.484,1155.541,366.52529184358684
1152,1686111148.65,-15.625,-134.277,129.395,45.898,1155.55,373.2601069850731
1153,1686111148.65,43.945,160.645,164.551,110.352,1155.553,372.69171549104806
1154,1686111148.66,-27.344,-347.656,-110.84,-62.012,1155.557,365.9243461544671
1155,1686111148.66,-103.027,-684.082,-131.348,-155.762,1155.561,370.9690435790422
1156,1686111148.66,-44.922,-144.531,137.695,-8.789,1155.565,364.434413534318
1157,1686111148.67,47.363,-120.605,111.328,111.816,1155.569,377.9121953795239
1158,1686111148.67,8.301,-663.574,-171.875,-11.719,1155.573,369.80261031003545
1159,1686111148.68,-90.332,-753.418,-160.156,-162.598,1155.577,366.56044964656667
1160,1686111148.68,-57.617,-205.078,129.395,-73.242,1155.581,362.950272023699
1161,1686111148.68,47.852,15.625,129.395,95.215,1155.585,361.06202686777374
1162,1686111148.69,38.086,-309.57,-32.715,35.645,1155.589,369.58596271314434
1163,1686111148.69,-65.918,-259.766,38.574,-140.625,1155.592,375.3056137032161
1164,1686111148.69,-82.52,10.742,145.508,-111.816,1155.595,361.3684112005792
1165,1686111148.7,9.766,-133.789,70.801,83.008,1155.599,373.1826637001054
1166,1686111148.7,37.598,-768.555,-200.684,98.145,1155.603,365.29092677271325
1167,1686111148.7,-42.48,-768.555,-179.688,-99.121,1155.607,376.1194448114277
1168,1686111148.71,-86.914,-296.875,62.5,-149.902,1155.611,372.90517309091814
1169,1686111148.71,-20.508,-388.184,14.16,33.691,1155.615,373.225816670252
1170,1686111148.72,34.668,-940.43,-368.652,118.652,1155.618,366.43087840801957
1171,1686111148.72,-22.461,-744.141,-180.176,-47.363,1155.622,369.8401106921994
1172,1686111148.72,-83.008,-132.812,143.066,-165.527,1155.626,366.219911384077
1173,1686111148.73,-37.109,-119.629,76.172,-20.02,1155.63,384.5006021127765
1174,1686111148.73,56.152,-174.805,115.234,121.094,1155.634,376.395638491898
1175,1686111148.74,32.715,-47.852,121.094,3.418,1155.638,369.7646020289863
1176,1686111148.74,-68.848,-55.664,65.918,-152.344,1155.647,384.33297569636886
1177,1686111148.74,-60.547,-257.324,5.859,-68.359,1155.651,383.5690921311219
1178,1686111148.74,27.832,-157.715,111.816,87.891,1155.655,373.8099354842483
1179,1686111148.75,40.039,-18.555,90.82,30.762,1155.659,359.8545338517842
1180,1686111148.75,-54.199,-310.547,-50.781,-147.949,1155.663,376.16736721338503
1181,1686111148.76,-99.609,-741.211,-262.207,-129.883,1155.667,370.7532120137629
1182,1686111148.76,-20.508,-940.43,-348.145,62.5,1155.671,369.271029617228
1183,1686111148.76,51.27,-232.91,70.801,80.566,1155.674,370.0779585946431
1184,1686111148.77,-19.043,-48.34,87.891,-99.121,1155.678,374.7712728286062
1185,1686111148.77,-106.934,-502.93,-128.418,-154.785,1155.682,377.29434700182065
1186,1686111148.78,-33.691,-211.426,68.359,12.207,1155.686,375.6169430277362
1187,1686111148.78,55.664,135.254,196.289,108.887,1155.69,378.53128649126097
1188,1686111148.8,7.324,-123.047,47.852,-38.574,1155.694,379.0884236815522
1189,1686111148.8,-88.379,-537.598,-90.82,-164.062,1155.697,367.95164291851887
1190,1686111148.8,-42.969,-325.195,50.781,-26.855,1155.701,374.845909263225
1191,1686111148.81,46.387,-285.645,91.309,116.699,1155.705,382.1805373601371
1192,1686111148.81,20.508,-508.789,-59.082,9.277,1155.709,370.3663559148588
1193,1686111148.82,-85.449,-895.02,-433.105,-146.973,1155.713,363.28975187674723
1194,1686111148.82,-88.867,-850.098,-229.004,-83.008,1155.717,369.15104184386126
1195,1686111148.82,31.738,-262.695,154.785,93.262,1155.721,370.9539055363776
1196,1686111148.83,64.453,-221.68,8.301,69.336,1155.725,381.52187890386597
1197,1686111148.83,-28.32,-703.125,-224.609,-111.328,1155.729,379.56886379517357
1198,1686111148.84,-64.941,-370.605,10.742,-133.301,1155.733,378.02011419586785
1199,1686111148.84,15.137,-81.055,160.156,50.781,1155.737,375.0241863693483
1200,1686111148.84,67.871,-197.266,57.617,97.656,1155.738,374.86398938048836
1201,1686111148.84,-2.441,-231.934,57.129,-72.266,1155.742,375.33428741095804
1202,1686111148.85,-72.754,-75.684,91.797,-152.344,1155.746,373.23872160713915
1203,1686111148.85,-13.184,-2.93,119.141,-4.883,1155.75,384.710480034493
1204,1686111148.86,65.43,-244.629,40.039,104.492,1155.754,387.08809653943763
1205,1686111148.86,20.996,-571.289,-65.43,-25.391,1155.758,375.49890633839937
1206,1686111148.86,-70.801,-493.652,-40.527,-166.016,1155.762,366.85146998511937
1207,1686111148.87,-37.598,-85.449,120.117,-61.523,1155.766,382.3087366225654
1208,1686111148.87,57.617,-481.934,-112.793,111.816,1155.77,378.08235165328006
1209,1686111148.88,43.457,-880.859,-220.703,42.48,1155.774,374.3537993374444
1210,1686111148.88,-41.016,-286.133,90.332,-139.648,1155.777,384.0853694973175
1211,1686111148.88,-49.316,-71.289,83.984,-92.773,1155.781,375.27725000818583
1212,1686111148.89,35.645,-603.027,-185.547,104.98,1155.783,373.7075269682395
1213,1686111148.89,69.824,-357.91,1.953,93.75,1155.787,383.56705202276737
1214,1686111148.89,-12.695,-67.383,95.703,-97.656,1155.791,386.9297428008212
1215,1686111148.9,-69.336,-544.922,-167.969,-117.676,1155.795,378.59051521834505
1216,1686111148.9,0.977,-863.281,-280.273,65.43,1155.799,381.52654741412476
1217,1686111148.91,72.754,-629.883,-74.707,124.023,1155.803,372.119300582373
1218,1686111148.91,10.742,-444.824,-11.23,-33.203,1155.807,381.0328387379555
1219,1686111148.91,-69.336,-439.453,-74.707,-124.023,1155.811,389.4989036288053
1220,1686111148.92,-20.508,-814.453,-266.602,31.738,1155.815,383.57604192687785
1221,1686111148.92,78.613,-339.355,32.227,153.809,1155.819,380.8709438109139
1222,1686111148.92,48.828,118.164,177.734,20.996,1155.822,392.7226801212864
1223,1686111148.93,-57.617,-363.281,-102.539,-128.906,1155.826,383.79331106959086
1224,1686111148.93,-37.109,-509.766,-79.59,-31.25,1155.83,375.43263206582577
1225,1686111148.94,74.219,-23.438,139.16,141.113,1155.834,379.0717874197233
1226,1686111148.94,75.195,136.719,139.648,78.125,1155.838,375.03913527053226
1227,1686111148.94,-36.133,-345.703,-105.957,-106.445,1155.842,381.81161433435585
1228,1686111148.95,-54.688,-564.941,-99.121,-87.891,1155.846,378.24883475295326
1229,1686111148.95,60.059,-372.07,61.523,109.863,1155.85,382.3511529586032
1230,1686111148.96,93.75,-310.059,41.016,124.023,1155.854,372.51133580279225
1231,1686111148.96,-11.23,-657.227,-213.867,-66.406,1155.858,377.38231989197425
1232,1686111148.96,-71.289,-814.941,-199.219,-116.211,1155.862,397.1682199304291
1233,1686111148.97,12.695,-111.328,175.781,57.617,1155.866,383.4809959917819
1234,1686111148.97,72.754,72.754,143.555,138.672,1155.869,395.65133872409143
1235,1686111148.98,10.254,-355.469,-39.551,-10.742,1155.873,373.4274910381347
1236,1686111148.98,-63.477,-272.949,35.156,-117.188,1155.873,390.6725089888924
1237,1686111148.98,-10.254,36.133,162.598,17.578,1155.877,382.3893361068379
1238,1686111148.98,75.684,-119.629,79.59,162.109,1155.881,376.8040806743281
1239,1686111148.99,33.691,-795.41,-235.84,55.664,1155.885,394.09962190457117
1240,1686111148.99,-72.266,-704.102,-143.555,-122.07,1155.889,390.63438027558203
1241,1686111149.0,-56.641,-385.254,45.41,-45.898,1155.893,379.98350912933586
1242,1686111149.0,54.688,-518.555,-24.902,139.648,1155.897,381.7404154083016
1243,1686111149.0,49.805,-928.223,-348.145,90.82,1155.901,372.92055612235185
1244,1686111149.01,-44.434,-744.141,-185.547,-97.168,1155.904,376.9146439360836
1245,1686111149.01,-49.805,-61.523,134.766,-97.656,1155.908,391.347685557407
1246,1686111149.02,36.621,-0.488,88.867,89.844,1155.912,378.39562837766493
1247,1686111149.02,71.289,-131.348,112.793,113.77,1155.916,383.0994765824056
1248,1686111149.02,-3.418,-49.316,108.887,-71.777,1155.921,384.3553489253969
1249,1686111149.03,-60.547,-28.809,77.148,-133.789,1155.925,391.8405397687656
1250,1686111149.03,8.789,-237.305,28.32,32.227,1155.929,385.6496571414337
1251,1686111149.04,96.68,-142.09,103.027,137.695,1155.933,390.07959963016054
1252,1686111149.04,35.156,-62.988,72.754,-3.906,1155.936,380.73410108955403
1253,1686111149.04,-64.453,-332.52,-52.246,-132.812,1155.94,384.64279094250645
1254,1686111149.05,-27.832,-742.676,-240.723,6.348,1155.944,381.7428097071769
1255,1686111149.05,52.734,-809.57,-191.895,159.18,1155.948,387.53915336274645
1256,1686111149.05,44.922,-138.672,125.977,38.574,1155.952,383.5430271682057
1257,1686111149.06,-41.504,-87.402,45.41,-131.348,1155.956,374.76104306303216
1258,1686111149.06,-54.199,-514.16,-125.0,-56.641,1155.96,376.11587534547306
1259,1686111149.07,45.41,-150.879,92.285,126.953,1155.964,377.5520606040807
1260,1686111149.08,74.707,186.523,195.312,105.957,1155.978,384.8000166511183
1261,1686111149.08,-25.391,-67.383,44.434,-78.613,1155.982,385.02776949889096
1262,1686111149.09,-71.289,-504.395,-47.852,-99.121,1155.986,373.6041198728209
1263,1686111149.09,15.625,-465.332,18.555,82.52,1155.99,382.6269975405351
1264,1686111149.1,74.219,-52.734,131.836,126.465,1155.994,378.61610215507255
1265,1686111149.1,0.488,-305.176,-57.129,-45.41,1155.998,387.57705516076834
1266,1686111149.1,-85.449,-938.965,-449.707,-120.117,1156.002,375.6850380980886
1267,1686111149.11,-32.715,-793.945,-184.082,29.785,1156.006,381.3125501593905
1268,1686111149.11,60.547,-228.027,139.648,138.184,1156.01,390.24076487275124
1269,1686111149.11,75.195,171.387,165.527,138.672,1156.022,377.6830715937165
1270,1686111149.12,21.484,-233.887,-30.762,5.371,1156.014,386.5096083921346
1271,1686111149.12,61.523,-96.191,31.25,60.059,1156.026,394.607890426254
1272,1686111149.12,-72.266,-556.641,-64.941,-138.184,1156.017,380.4243232524101
1273,1686111149.12,-43.457,-264.648,26.855,-125.0,1156.03,374.689726348856
1274,1686111149.12,-33.203,-143.555,133.301,-32.227,1156.021,379.1815383291713
1275,1686111149.12,-44.922,-30.762,110.84,-74.707,1156.034,380.2910864198582
1276,1686111149.13,50.781,90.332,145.508,123.535,1156.038,381.28635387511986
1277,1686111149.13,68.848,-330.078,-38.574,120.605,1156.042,391.0211213350142
1278,1686111149.14,-27.832,-554.199,-130.371,-76.66,1156.046,385.8199638901987
1279,1686111149.14,-64.453,-163.086,81.543,-116.211,1156.05,381.93143040770707
1280,1686111149.14,29.297,74.219,165.039,79.59,1156.054,381.3497957110629
1281,1686111149.15,77.148,-511.719,-180.176,152.832,1156.057,384.25002476097535
1282,1686111149.15,0.488,-908.691,-277.832,-18.555,1156.061,382.34552616888567
1283,1686111149.16,-61.035,-319.824,73.242,-121.582,1156.065,385.43140804059715
1284,1686111149.17,-2.93,-72.266,100.098,30.762,1156.068,381.9025318667052
1285,1686111149.18,77.637,-553.223,-174.316,160.156,1156.072,383.9638234818788
1286,1686111149.18,38.086,-454.59,-68.359,23.438,1156.076,381.92989835092203
1287,1686111149.18,-45.41,-373.535,-38.574,-116.699,1156.08,384.69361503751344
1288,1686111149.19,-12.695,-520.508,-131.836,-16.113,1156.084,380.4395004959147
1289,1686111149.19,66.406,-855.957,-321.289,163.574,1156.088,385.4315965053075
1290,1686111149.2,56.641,-691.406,-156.738,90.82,1156.092,378.8752234650378
1291,1686111149.2,-24.902,-86.914,117.676,-109.375,1156.096,385.1984187744662
1292,1686111149.2,-47.852,-209.473,-4.395,-83.496,1156.1,383.5447449353329
1293,1686111149.21,39.062,-499.023,0.977,113.281,1156.104,379.9895523117361
1294,1686111149.21,83.984,-83.008,132.812,124.023,1156.107,385.8465645097283
1295,1686111149.22,-3.418,65.918,92.773,-74.707,1156.111,377.0580018476704
