,timestamps,TP9,AF7,AF8,TP10,Secondary Timestamp,emg_signal
0,1685766070.81,-35.156,179.199,109.863,-51.27,623.723,304.606155210991
1,1685766070.82,-75.684,263.672,134.766,-4.883,623.727,310.84341006435943
2,1685766070.82,20.996,143.066,80.078,4.395,623.731,310.28700856985955
3,1685766070.82,71.289,117.188,48.34,-30.273,623.735,308.750561395579
4,1685766070.83,-21.484,154.297,17.578,-45.898,623.739,315.9706180262867
5,1685766070.83,-101.562,-135.254,-117.676,-14.16,623.743,319.0891294281447
6,1685766070.84,-13.672,-558.594,-261.23,9.277,623.747,312.15232122433054
7,1685766070.84,70.312,-600.586,-203.613,-17.578,623.751,316.54971315731683
8,1685766070.84,12.207,68.359,81.543,-50.781,623.754,314.97946152931723
9,1685766070.85,-83.984,42.48,-9.766,-20.02,623.758,314.34816481233196
10,1685766070.85,-48.828,-476.074,-141.113,7.324,623.762,319.90782731790114
11,1685766070.86,56.152,-167.48,18.066,-14.648,623.766,307.97358014952
12,1685766070.86,38.086,428.711,172.363,-40.527,623.767,319.63926995954193
13,1685766070.86,-79.102,133.301,10.254,-33.691,623.771,314.7036865162693
14,1685766070.87,-83.496,-197.266,-84.961,-3.906,623.775,310.6220523858407
15,1685766070.87,37.109,145.508,100.586,-13.672,623.779,311.0094185395489
16,1685766070.87,46.875,403.32,156.738,-45.898,623.783,313.7219260498326
17,1685766070.88,-62.012,-110.352,-93.262,-41.992,623.787,309.91161873145995
18,1685766070.88,-103.516,-701.172,-291.016,7.324,623.791,304.85881885442
19,1685766070.88,1.465,-515.625,-106.934,10.254,623.795,310.7645581831971
20,1685766070.89,64.453,151.855,118.652,-29.297,623.799,311.62697776231494
21,1685766070.89,-11.23,185.059,29.297,-44.922,623.802,319.59838701271156
22,1685766070.9,-107.422,-692.871,-345.215,-14.648,623.806,306.30232255969537
23,1685766070.9,-41.016,-525.879,-158.203,3.906,623.81,311.19128482977897
24,1685766070.9,60.059,142.578,142.578,-20.02,623.812,314.0859089010847
25,1685766070.91,1.465,-214.355,-124.512,-51.758,623.816,311.45179619787757
26,1685766070.91,-97.656,-518.066,-197.754,-33.203,623.82,313.5902586724225
27,1685766070.92,-56.152,18.066,104.98,-2.441,623.824,313.36517706971483
28,1685766070.92,49.316,472.168,198.73,-15.625,623.828,317.448722081568
29,1685766070.92,29.785,-140.625,-137.695,-53.711,623.832,309.03156023293246
30,1685766070.93,-83.008,-672.363,-280.273,-61.035,623.836,311.09150140456364
31,1685766070.93,-90.82,-19.043,125.488,-19.531,623.84,314.2360865889989
32,1685766070.94,25.391,380.859,161.133,-12.695,623.844,321.17733994378153
33,1685766070.94,53.223,34.668,-3.418,-49.805,623.848,318.64503197778356
34,1685766070.94,-51.27,-121.582,-12.695,-66.895,623.851,310.8492683368287
35,1685766070.95,-109.863,124.512,76.66,-31.738,623.855,308.5639248331672
36,1685766070.96,-9.766,190.43,111.328,-24.902,623.859,311.9631008096598
37,1685766070.97,53.223,154.297,103.516,-51.27,623.863,313.1903664846868
38,1685766070.97,-19.531,-94.727,-18.555,-59.082,623.867,305.3997401475364
39,1685766070.98,-104.98,-202.637,-45.898,-25.879,623.871,306.96865669488693
40,1685766070.98,-40.527,139.16,100.586,-1.953,623.875,316.7316306035742
41,1685766070.98,51.27,-411.133,-182.129,-25.879,623.879,312.26336339370437
42,1685766070.99,9.766,-912.109,-375.488,-47.363,623.883,305.32010749862076
43,1685766070.99,-87.891,-332.031,-71.777,-32.227,623.887,306.9561772618509
44,1685766070.99,-74.219,-7.324,23.438,-10.742,623.891,314.4883921022716
45,1685766071.0,32.715,-471.68,-137.695,-23.438,623.894,309.8604981787035
46,1685766071.0,37.109,-236.816,13.672,-52.734,623.898,309.36316990929174
47,1685766071.01,-64.941,255.371,96.68,-44.922,623.902,310.9298888410859
48,1685766071.01,-95.703,-105.957,-45.41,-5.859,623.904,307.1760962544588
49,1685766071.01,13.672,-14.16,39.062,-8.301,623.908,308.33902967446153
50,1685766071.02,60.547,388.672,154.785,-42.969,623.912,315.6376370769604
51,1685766071.02,-41.992,323.73,112.793,-50.781,623.916,309.02421940361177
52,1685766071.02,-104.004,-179.199,-67.871,-13.672,623.92,307.91896211607565
53,1685766071.03,-10.254,-390.137,-154.785,5.859,623.924,305.91861141926597
54,1685766071.03,52.246,-189.453,-45.898,-17.09,623.927,319.88600902543214
55,1685766071.04,-17.578,-15.137,49.805,-47.363,623.931,306.33143462869697
56,1685766071.04,-112.305,-411.133,-200.195,-35.156,623.935,313.86901149760894
57,1685766071.04,-57.129,-946.777,-386.23,-7.324,623.939,315.5153055347291
58,1685766071.05,51.758,-87.402,85.938,-21.484,623.943,314.4978136277083
59,1685766071.05,11.719,367.188,116.211,-58.105,623.947,305.1116845256705
60,1685766071.08,-99.609,-95.215,-73.73,-49.805,623.98,319.6486774680983
61,1685766071.09,-84.961,-47.852,17.09,-12.207,623.983,305.4654596764155
62,1685766071.09,42.48,331.543,138.184,-20.996,623.987,314.4839423640604
63,1685766071.1,48.828,324.707,101.074,-47.363,623.991,308.84663159071584
64,1685766071.1,-3.906,-83.008,-52.246,-49.805,623.994,321.3319421277478
65,1685766071.1,-66.406,-113.77,-100.098,-43.457,623.995,319.82951510622263
66,1685766071.1,-94.238,118.164,105.469,-33.203,623.998,315.1132270935155
67,1685766071.1,-107.422,-365.234,-193.359,-10.254,623.999,325.0611960438775
68,1685766071.11,-54.199,293.457,160.645,-3.418,624.002,314.16717990556566
69,1685766071.11,2.441,-208.984,-48.34,-1.465,624.003,310.886478773759
70,1685766071.11,56.641,-65.43,45.41,-31.738,624.007,315.4273549432691
71,1685766071.11,51.758,197.266,50.293,-23.438,624.006,308.9265043619055
72,1685766071.11,-41.992,-622.559,-310.547,-46.387,624.011,311.3674951119821
73,1685766071.11,28.809,35.156,-13.184,-69.336,624.01,314.7966647856901
74,1685766071.12,-80.566,-128.906,-36.133,-53.223,624.014,314.7996372738011
75,1685766071.12,-118.652,-999.512,-418.945,-12.207,624.015,312.0638221046794
76,1685766071.12,-22.949,-120.605,101.562,1.465,624.019,310.2069035079305
77,1685766071.12,-82.031,-279.785,-79.102,-5.859,624.018,310.4375803582622
78,1685766071.12,34.18,-320.312,-71.777,-12.207,624.022,310.1120849040431
79,1685766071.13,62.988,140.137,74.219,-20.996,624.022,303.4238627553817
80,1685766071.13,55.664,-123.047,9.766,-38.086,624.026,306.1441364417474
81,1685766071.13,-57.129,183.105,92.773,-41.992,624.03,309.6193764348842
82,1685766071.14,-104.98,-69.336,-25.879,-14.16,624.033,303.2156899819692
83,1685766071.14,6.836,-322.266,-60.059,-4.395,624.037,306.6653630049385
84,1685766071.16,76.172,38.086,79.102,-28.809,624.054,306.3878714294555
85,1685766071.16,-10.742,304.199,127.93,-46.387,624.058,306.1914623830448
86,1685766071.17,-108.398,120.117,55.664,-23.438,624.062,321.9214356285791
87,1685766071.17,-44.922,-557.617,-268.555,5.859,624.066,308.5709797961176
88,1685766071.17,48.828,-693.359,-235.84,-12.695,624.07,308.8715452943779
89,1685766071.18,5.859,-153.32,21.973,-49.805,624.073,315.33723028834606
90,1685766071.18,-95.215,-222.656,-104.98,-34.668,624.077,315.5728381794956
91,1685766071.18,-78.125,-756.348,-334.961,5.859,624.081,307.41010745223775
92,1685766071.19,35.156,-688.477,-188.965,-3.906,624.085,314.5247988711002
93,1685766071.19,16.602,269.531,148.438,-5.859,624.088,309.35810983237576
94,1685766071.19,40.527,322.266,214.844,-43.457,624.089,308.9740713865211
95,1685766071.19,53.223,261.719,108.887,-46.387,624.092,304.2233289846751
96,1685766071.2,-56.641,-281.738,-164.551,-52.734,624.096,314.4897698767162
97,1685766071.2,-73.242,152.344,-2.93,-36.621,624.093,306.0860895046132
98,1685766071.2,-99.121,-128.906,-40.527,0.977,624.097,315.54005213088186
99,1685766071.2,-106.445,-488.77,-191.895,-4.883,624.1,308.6041326190781
100,1685766071.2,-6.836,173.828,162.109,11.23,624.104,310.5917778868573
101,1685766071.21,54.199,236.328,90.82,-27.832,624.108,292.2473670952926
102,1685766071.21,-30.273,-375.977,-153.809,-53.223,624.112,312.86325984244445
103,1685766071.22,-114.258,-396.484,-113.77,-15.137,624.115,313.6032319355178
104,1685766071.22,-40.527,172.852,114.258,12.207,624.119,312.9927033451017
105,1685766071.22,56.152,500.977,167.48,-16.602,624.123,298.98869519926393
106,1685766071.23,5.371,-229.004,-195.312,-43.945,624.127,311.51395644157355
107,1685766071.23,-106.445,-761.23,-291.992,-28.32,624.131,322.17201240576463
108,1685766071.25,-80.078,53.223,156.738,-3.418,624.144,313.4223184040809
109,1685766071.25,36.133,354.492,127.441,-15.625,624.148,310.6977788006227
110,1685766071.26,25.879,158.203,40.527,-51.758,624.152,309.4972152765056
111,1685766071.26,-86.426,-144.043,-41.504,-55.664,624.156,315.69243803419505
112,1685766071.26,-113.77,-201.172,-76.66,-20.996,624.16,310.8529824066066
113,1685766071.27,-2.441,1.465,70.801,-31.738,624.164,307.79507445961485
114,1685766071.27,43.945,-504.883,-245.605,-59.082,624.168,305.41293158991755
115,1685766071.28,-62.012,-1000.0,-489.746,-67.383,624.171,316.41327906883294
116,1685766071.28,-111.816,250.977,86.426,-45.41,624.188,298.6184417131309
117,1685766071.28,-132.812,-295.898,-1.953,-41.504,624.175,311.6625376283159
118,1685766071.28,-53.223,17.578,14.648,-1.953,624.192,301.714814910199
119,1685766071.28,-35.645,180.664,110.84,-24.414,624.179,302.7417996805547
120,1685766071.29,52.246,82.031,20.996,-25.391,624.196,309.2819630560992
121,1685766071.29,45.41,143.555,65.43,-52.734,624.183,305.28882982295664
122,1685766071.29,16.113,338.379,123.535,-62.012,624.2,318.35921402582045
123,1685766071.29,-24.902,306.641,128.906,-83.008,624.187,303.90874022614446
124,1685766071.29,-93.262,220.215,84.473,-51.758,624.204,301.2594354006678
125,1685766071.3,-80.566,-332.52,-150.879,-7.812,624.208,308.3838932273928
126,1685766071.3,35.156,-509.277,-193.359,-8.301,624.212,306.5405164318966
127,1685766071.3,39.551,-110.84,0.488,-46.875,624.216,304.85771949622244
128,1685766071.31,-71.777,168.945,107.91,-61.523,624.22,309.5904277354125
129,1685766071.31,-110.352,-332.52,-167.969,-23.926,624.224,315.4460024256145
130,1685766071.32,-0.488,-871.582,-339.844,-6.836,624.228,310.71002945393764
131,1685766071.32,61.523,45.41,109.863,-41.992,624.231,304.7565648118112
132,1685766071.34,-23.926,342.773,124.023,-59.57,624.234,317.22299790011067
133,1685766071.34,-99.121,-111.328,-43.457,-24.414,624.238,314.51964872378016
134,1685766071.35,-20.508,38.086,45.898,-1.953,624.242,312.40007353332743
135,1685766071.35,62.012,406.25,176.27,-27.344,624.246,315.468570580413
136,1685766071.35,10.742,260.742,47.852,-52.246,624.25,307.3004819616787
137,1685766071.36,-87.402,-318.359,-196.777,-27.344,624.254,310.6188054952433
138,1685766071.36,-57.129,-438.965,-155.762,-4.883,624.257,310.58366338707725
139,1685766071.36,48.34,-50.781,48.828,-29.297,624.261,310.2839053831444
140,1685766071.37,24.414,131.836,69.824,-62.012,624.265,306.32515793963097
141,1685766071.37,-86.914,-645.02,-382.324,-50.293,624.269,308.322694527577
142,1685766071.38,-94.727,-860.352,-396.484,-15.137,624.273,311.31462571391864
143,1685766071.38,33.691,220.215,166.016,-25.391,624.277,315.6274013703089
144,1685766071.38,57.129,317.383,44.434,-58.105,624.279,316.37818832841924
145,1685766071.39,-65.918,-97.656,-102.539,-69.824,624.283,316.6799806582647
146,1685766071.39,-113.77,112.793,87.891,-24.902,624.287,308.1934134017275
147,1685766071.4,-3.906,401.855,165.527,-11.23,624.291,318.60945734790687
148,1685766071.4,52.734,300.293,58.105,-45.898,624.295,319.87204477871404
149,1685766071.4,-40.039,-274.902,-225.586,-68.848,624.299,309.78990038511614
150,1685766071.41,-129.395,-326.172,-129.883,-39.551,624.302,307.8811440305731
151,1685766071.41,-56.152,297.852,193.848,-11.719,624.306,303.0481392590413
152,1685766071.41,45.898,-52.734,-61.035,-28.32,624.31,312.72124282246784
153,1685766071.42,-8.301,-619.141,-246.582,-53.711,624.314,300.474842120956
154,1685766071.42,-99.121,-27.344,80.566,-29.785,624.318,314.1555127435424
155,1685766071.43,-59.082,63.477,58.594,12.207,624.322,310.9384181727281
156,1685766071.43,43.457,-297.363,-59.57,-0.488,624.324,315.44016553782194
157,1685766071.43,46.387,-100.586,39.551,-37.109,624.328,303.9260103804347
158,1685766071.44,-53.711,183.105,74.707,-39.551,624.332,310.0048954236137
159,1685766071.44,-93.262,0.977,-31.25,-8.789,624.336,313.3851350193225
160,1685766071.44,7.812,-34.668,24.414,-15.137,624.34,309.15972967937023
161,1685766071.45,46.387,-40.039,36.621,-51.758,624.344,313.4753658583044
162,1685766071.45,-51.27,-218.75,-105.469,-61.035,624.348,304.1759663222259
163,1685766071.46,-105.957,-249.512,-146.484,-9.277,624.352,314.31722886846023
164,1685766071.46,-5.371,-712.402,-302.734,20.02,624.356,310.3482449801139
165,1685766071.46,70.312,-690.43,-187.5,-7.324,624.36,308.423358145325
166,1685766071.47,0.0,248.535,166.504,-43.457,624.363,315.7825186639723
167,1685766071.47,-98.145,56.152,-18.066,-26.367,624.367,313.0454933701007
168,1685766071.47,-48.34,-87.891,-46.387,-1.953,624.373,318.8718520263164
169,1685766071.48,57.617,330.078,140.137,-24.414,624.377,315.91006873783545
170,1685766071.48,22.461,178.223,79.102,-56.152,624.38,311.58026133669927
171,1685766071.49,-90.82,-371.094,-208.984,-33.691,624.384,314.16763873654753
172,1685766071.49,-70.312,-455.078,-194.336,6.836,624.388,312.00822431110635
173,1685766071.49,50.293,-66.406,62.012,-5.371,624.392,318.4989845238283
174,1685766071.5,51.27,165.527,118.164,-39.062,624.396,309.48141989503
175,1685766071.5,-58.105,-271.484,-146.484,-40.527,624.4,312.14007206537553
176,1685766071.5,-83.496,-707.52,-235.352,4.883,624.404,304.35990111997916
177,1685766071.51,35.156,178.711,189.453,12.207,624.408,312.70187239294694
178,1685766071.51,74.707,497.07,136.719,-23.438,624.412,323.5299906068795
179,1685766071.52,-28.809,-10.254,-60.547,-41.992,624.416,311.0872393294719
180,1685766071.52,-102.051,-68.359,10.742,-3.906,624.414,298.9564795424836
181,1685766071.52,-11.719,320.312,155.762,10.254,624.418,308.009524985708
182,1685766071.53,69.336,405.762,103.027,-16.602,624.422,313.88001750344256
183,1685766071.53,-11.23,64.453,-47.852,-36.133,624.426,306.93823207868144
184,1685766071.53,-117.188,-231.934,-162.598,-9.277,624.43,304.6406195193004
185,1685766071.54,-55.664,-252.441,-134.277,23.438,624.434,305.88463644103007
186,1685766071.54,62.012,-12.695,62.012,12.695,624.438,310.8292213738871
187,1685766071.54,28.32,-502.93,-247.559,-15.625,624.442,315.0546249982962
188,1685766071.55,-82.031,-1000.0,-468.75,-12.207,624.446,320.11644046157255
189,1685766071.55,-69.824,-176.27,48.34,23.926,624.449,311.6961676636857
190,1685766071.56,46.875,283.203,121.094,14.648,624.453,321.5525004044541
191,1685766071.56,55.176,149.414,49.805,-22.949,624.457,319.5974278971544
192,1685766071.56,-58.594,237.305,92.773,-38.086,624.459,307.46831618061935
193,1685766071.57,-102.051,258.789,94.238,-2.93,624.463,319.4439432655097
194,1685766071.57,12.207,123.535,54.199,12.695,624.467,310.48692765650935
195,1685766071.58,71.289,156.25,67.871,-16.602,624.471,309.25859540597656
196,1685766071.58,-25.879,257.324,90.332,-27.344,624.475,318.4880036261198
197,1685766071.58,-107.422,-57.129,-61.035,8.301,624.479,318.34266295080585
198,1685766071.59,-28.32,-500.977,-248.047,24.414,624.483,311.41250256785975
199,1685766071.59,58.594,-722.656,-272.949,-12.207,624.487,316.0869828372044
200,1685766071.59,0.977,-48.828,45.41,-43.457,624.491,312.46095454762633
201,1685766071.6,-100.098,241.699,83.496,-15.137,624.495,303.73089864476015
202,1685766071.6,-57.617,-125.0,-37.109,20.02,624.498,313.7542574821179
203,1685766071.61,59.082,37.109,44.922,5.859,624.502,311.65281087304555
204,1685766071.61,42.969,411.133,125.0,-26.855,624.535,310.12420133158463
205,1685766071.61,-70.801,161.133,14.16,-20.02,624.539,314.23137256989247
206,1685766071.62,-89.355,-158.203,-69.824,11.719,624.543,306.4563345481034
207,1685766071.62,29.297,127.93,69.336,10.254,624.547,306.04835986468095
208,1685766071.62,58.105,309.082,85.449,-27.832,624.551,314.16774496878
209,1685766071.63,-54.688,-64.453,-82.52,-41.504,624.555,304.46391140337056
210,1685766071.63,-105.957,-782.715,-427.246,-0.488,624.559,317.3928902471132
211,1685766071.64,-0.977,-662.109,-262.207,7.812,624.562,320.15721530811095
212,1685766071.64,69.336,348.633,188.965,-21.973,624.566,311.1583257447249
213,1685766071.64,-20.996,174.805,-44.922,-46.875,624.57,312.6734934607263
214,1685766071.65,-113.77,-572.266,-242.188,-22.949,624.574,315.73217701056325
215,1685766071.65,-28.809,-164.062,41.016,1.953,624.578,314.14897342397836
216,1685766071.65,77.637,528.32,226.562,-20.996,624.563,310.09658110641686
217,1685766071.66,9.766,150.879,-55.176,-50.781,624.567,322.59645023380983
218,1685766071.66,-109.863,-255.371,-159.18,-37.598,624.571,310.61326512392645
219,1685766071.66,-77.148,98.633,90.82,3.418,624.575,318.414156802776
220,1685766071.67,47.363,455.566,196.289,-0.977,624.579,312.8366007356739
221,1685766071.67,40.039,-121.094,-134.277,-35.156,624.583,319.80898350423234
222,1685766071.68,-72.266,-718.262,-380.371,-34.18,624.587,309.44518980198734
223,1685766071.68,-91.309,-81.055,37.598,-7.812,624.591,311.7259525085014
224,1685766071.68,23.438,413.574,199.707,-6.836,624.595,312.41554471423615
225,1685766071.69,61.523,2.93,-8.789,-34.668,624.599,314.93194845448033
226,1685766071.69,-35.645,-210.449,-41.016,-48.828,624.603,305.2677447295499
227,1685766071.7,-95.703,29.297,49.316,-2.441,624.606,311.3274864057418
228,1685766071.71,-13.672,11.719,40.039,13.184,624.609,312.58223796740555
229,1685766071.72,51.758,-384.277,-143.555,-19.531,624.613,307.27342542289074
230,1685766071.72,-20.508,-440.43,-129.395,-46.387,624.617,311.56057920922603
231,1685766071.72,-114.258,73.242,78.613,-30.273,624.621,312.1547040904393
232,1685766071.73,-55.664,108.398,40.039,2.441,624.625,313.8074320758259
233,1685766071.73,56.641,-114.746,-44.922,-13.184,624.629,322.38393345313744
234,1685766071.74,13.184,-263.672,-125.977,-56.152,624.632,306.8731943093066
235,1685766071.74,-100.098,-372.559,-186.035,-42.969,624.636,305.8870210580419
236,1685766071.74,-81.543,-237.793,-123.535,1.953,624.64,312.8973630479315
237,1685766071.75,26.367,-646.973,-291.992,-1.953,624.644,309.9930870428367
238,1685766071.75,19.531,-651.855,-197.266,-37.598,624.648,309.403228281346
239,1685766071.76,-84.473,193.359,128.418,-44.922,624.652,310.72622966134134
240,1685766071.76,-108.398,-34.18,-35.156,-5.371,624.668,316.5161100020285
241,1685766071.76,-3.906,-16.602,-14.16,-4.395,624.672,312.23711014847754
242,1685766071.77,37.109,222.656,56.641,-40.039,624.676,308.05828058042607
243,1685766071.77,-56.152,69.336,48.34,-50.293,624.68,312.23502434303856
244,1685766071.77,-119.629,-265.137,-129.883,-13.184,624.684,307.47396485501326
245,1685766071.78,-29.297,-586.426,-249.023,12.695,624.688,312.53774635471495
246,1685766071.78,60.547,-45.898,46.875,-14.648,624.691,312.00198185099066
247,1685766071.78,1.953,390.137,153.809,-50.781,624.695,316.64226034224566
248,1685766071.79,-107.422,-318.848,-172.363,-25.391,624.699,315.2405120707312
249,1685766071.79,-71.777,-707.031,-241.211,18.066,624.703,312.4972068454723
250,1685766071.8,49.805,280.762,191.406,-3.906,624.707,316.71439091491374
251,1685766071.8,22.461,430.664,86.914,-47.363,624.711,319.7338286568983
252,1685766071.8,-84.961,-116.211,-108.398,-35.645,624.7,323.38478778244325
253,1685766071.81,-76.172,-50.781,22.949,1.953,624.704,310.0000148324729
254,1685766071.81,41.016,410.645,179.199,-8.789,624.708,318.98683842681476
255,1685766071.82,58.105,427.246,93.262,-37.598,624.712,318.2706558811697
256,1685766071.82,-57.129,-64.941,-107.91,-41.016,624.716,309.6328098565645
257,1685766071.82,-112.793,-349.121,-169.922,-12.695,624.72,314.0186625034066
258,1685766071.83,-18.555,-155.273,15.137,-10.254,624.723,322.15863508392374
259,1685766071.83,47.852,-31.25,33.203,-34.668,624.727,312.4917520847252
260,1685766071.84,-38.574,-507.324,-206.055,-41.992,624.731,323.79476421870686
261,1685766071.84,-113.281,-455.566,-74.707,-9.766,624.735,307.37689577570944
262,1685766071.84,-28.809,221.68,138.672,3.906,624.739,314.554936934146
263,1685766071.85,65.918,375.0,117.188,-21.484,624.743,311.7318074714755
264,1685766071.85,3.418,-590.82,-331.543,-46.387,624.744,309.9115279786397
265,1685766071.85,-109.863,-776.855,-296.875,-31.738,624.748,310.93664564800673
266,1685766071.86,-71.289,137.207,142.09,3.418,624.752,314.23636660358727
267,1685766071.86,41.016,208.008,66.406,-14.16,624.756,315.3232131873133
268,1685766071.86,21.973,96.68,-8.301,-57.617,624.76,317.1431068215594
269,1685766071.87,-83.496,-163.574,-134.766,-47.363,624.764,306.7941949320764
270,1685766071.87,-90.82,-109.863,-15.137,-7.324,624.767,312.27015501072935
271,1685766071.88,17.578,-121.582,-52.734,-12.695,624.771,316.319662293621
272,1685766071.88,29.297,-832.031,-359.863,-47.852,624.775,322.50978728672845
273,1685766071.88,-70.801,-355.957,-12.207,-55.664,624.779,316.97235037324396
274,1685766071.89,-113.77,204.59,136.23,-14.16,624.783,320.6881548378697
275,1685766071.89,-17.578,57.129,18.066,1.465,624.787,327.5126936929409
276,1685766071.89,49.316,196.289,82.031,-40.527,624.789,314.05980038938475
277,1685766071.9,-16.113,374.023,154.785,-69.824,624.793,312.2277162223158
278,1685766071.9,-104.004,141.113,25.879,-32.227,624.797,318.63063877882877
279,1685766071.9,-45.898,15.137,60.547,-10.254,624.801,316.38397960430854
280,1685766071.91,58.594,275.391,161.621,-28.809,624.805,308.73619873550865
281,1685766071.91,11.23,77.148,-21.973,-51.27,624.809,319.1287968427638
282,1685766071.92,-90.332,-246.582,-160.645,-35.645,624.813,311.05635560005817
283,1685766071.92,-66.895,-756.348,-387.207,6.836,624.816,315.5276867866987
284,1685766071.92,37.109,-704.102,-220.215,-8.789,624.82,320.42467525623783
285,1685766071.93,31.25,257.812,192.871,-50.781,624.824,304.355730122581
286,1685766071.93,-79.59,32.715,-59.57,-43.457,624.828,321.3999645798597
287,1685766071.94,-101.562,-369.629,-121.094,-1.465,624.832,311.7454590837261
288,1685766071.98,9.277,150.879,129.395,-4.395,624.894,317.75417200388137
289,1685766071.99,48.828,552.734,192.383,-32.227,624.898,314.1484337593554
290,1685766071.99,-43.457,10.742,-101.074,-35.156,624.902,313.78805296312
291,1685766072.0,-104.004,-485.352,-209.473,0.0,624.906,312.6054234137931
292,1685766072.0,0.488,115.723,132.812,10.254,624.91,319.37186345382736
293,1685766072.0,81.055,272.461,147.461,-21.973,624.914,306.46122369748815
294,1685766072.0,-74.707,175.781,107.422,14.16,624.903,306.80035664380466
295,1685766072.01,-5.859,-366.699,-203.125,-44.434,624.917,307.72032971497686
296,1685766072.01,49.316,144.531,67.871,13.672,624.907,309.8856946048887
297,1685766072.01,-119.141,-744.141,-373.047,-20.996,624.921,309.98211997551573
298,1685766072.01,45.898,-221.68,-65.43,-29.297,624.911,311.3433833690806
299,1685766072.01,-64.941,13.672,60.059,-1.953,624.925,313.9713010642366
300,1685766072.02,-73.242,-215.82,-7.812,-35.645,624.915,323.4138977712823
301,1685766072.02,52.246,535.156,207.52,-17.578,624.929,308.5296353465276
302,1685766072.02,-99.609,124.023,73.73,7.324,624.919,321.1335671624248
303,1685766072.02,16.113,175.293,5.371,-43.457,624.933,306.9474884537466
304,1685766072.02,15.137,33.691,49.316,13.184,624.923,313.5492665550608
305,1685766072.03,-97.168,-23.438,-26.855,-33.203,624.937,319.2980983824641
306,1685766072.03,54.688,-214.355,-53.711,-20.996,624.927,323.9546750164304
307,1685766072.03,-105.469,265.625,104.98,-24.902,624.94,311.8438685117212
308,1685766072.03,-39.551,-336.426,-165.527,-40.527,624.931,317.6356681223547
309,1685766072.03,-72.754,-50.781,-32.227,1.953,624.943,327.5742573270008
310,1685766072.03,-108.398,7.812,34.18,-9.766,624.935,318.82890543670527
311,1685766072.04,58.105,-131.836,-83.008,-3.906,624.947,315.09309200660266
312,1685766072.04,-15.137,137.695,71.777,10.742,624.938,323.37734503675824
313,1685766072.04,39.551,58.105,22.949,-30.762,624.951,314.85553392104555
314,1685766072.04,93.75,-77.148,10.254,8.789,624.942,320.5421818004902
315,1685766072.04,-82.52,-90.332,-66.895,-21.484,624.955,312.5162214084767
316,1685766072.05,29.785,143.555,84.473,-14.648,624.946,330.8463814458531
317,1685766072.05,-77.637,-494.629,-262.207,24.902,624.959,317.6211793871332
318,1685766072.05,39.062,-494.141,-172.363,31.25,624.963,325.4007594982658
319,1685766072.06,55.176,193.848,118.164,-1.953,624.967,310.9932849944615
320,1685766072.06,-54.199,244.141,70.312,-9.277,624.971,328.55011115293803
321,1685766072.06,-95.215,-314.941,-127.441,34.18,624.975,322.102652154224
322,1685766072.07,10.742,-1000.0,-461.914,54.199,624.979,315.64685708237926
323,1685766072.07,71.289,-868.652,-291.016,26.367,624.982,314.89475301499937
324,1685766072.09,-2.441,-157.715,34.18,9.277,624.984,310.88859525968246
325,1685766072.09,-81.543,-66.895,-20.02,46.387,624.988,312.4851276672499
326,1685766072.1,-4.395,93.75,48.828,70.312,624.992,322.50969894873674
327,1685766072.1,93.262,519.043,200.684,52.246,624.996,318.10788361286563
328,1685766072.1,46.387,412.598,115.723,29.785,625.0,313.3680850216884
329,1685766072.11,-54.199,-242.188,-110.352,41.992,625.004,313.095176374367
330,1685766072.11,-22.949,-372.07,-64.941,77.148,625.008,316.80594669017273
331,1685766072.12,102.051,-7.324,63.965,70.312,625.012,320.907736204581
332,1685766072.12,99.609,93.262,58.105,37.109,625.015,324.2562007920043
333,1685766072.12,-30.273,-593.262,-279.297,41.016,625.019,312.7170183547506
334,1685766072.13,-58.105,-847.168,-321.289,72.754,625.023,324.6103848387307
335,1685766072.13,56.152,243.652,188.965,65.43,625.027,321.6211710895206
336,1685766072.14,82.031,433.105,108.887,21.484,625.038,320.34944320547277
337,1685766072.15,-21.973,48.34,-52.246,3.418,625.041,324.19749050613336
338,1685766072.15,-71.777,203.125,115.234,45.898,625.045,312.42365529010567
339,1685766072.15,28.32,436.035,199.219,64.453,625.049,305.9826752886203
340,1685766072.16,85.938,303.223,83.984,29.785,625.053,306.8233659978238
341,1685766072.16,6.836,-183.594,-118.652,5.859,625.057,305.93623786882046
342,1685766072.17,-80.566,-295.41,-105.957,39.551,625.061,308.50709114971517
343,1685766072.17,-15.625,188.477,143.066,54.199,625.065,304.300303324215
344,1685766072.17,84.473,-38.086,-51.27,25.391,625.069,308.046491298129
345,1685766072.18,33.203,-829.59,-335.938,-8.301,625.073,311.22897511201955
346,1685766072.18,-71.777,-256.348,44.434,1.953,625.077,300.6212061330114
347,1685766072.18,-44.922,302.246,169.922,48.34,625.081,311.9760115750234
348,1685766072.19,76.66,187.988,107.422,43.457,625.089,318.13736400031763
349,1685766072.2,74.219,254.883,136.23,4.883,625.093,311.5732468574107
350,1685766072.2,-44.922,305.176,130.859,0.977,625.097,305.1405962227897
351,1685766072.2,-69.824,162.109,47.363,39.062,625.101,302.7370896717124
352,1685766072.21,54.688,94.727,64.941,41.992,625.105,305.73053948246974
353,1685766072.21,89.844,-19.043,35.156,3.418,625.109,306.5116434475182
354,1685766072.22,-26.367,-217.773,-98.145,-6.836,625.112,308.73734505150185
355,1685766072.22,-80.078,-179.688,-59.082,32.715,625.116,295.0082917554093
356,1685766072.22,-37.598,-386.719,-87.891,53.711,625.119,305.15472609081746
357,1685766072.22,15.625,-675.293,-250.977,55.664,625.12,295.3412395001673
358,1685766072.23,73.242,273.926,171.387,31.25,625.123,312.84297030134115
359,1685766072.23,81.055,-698.73,-204.102,23.926,625.124,303.1022889720739
360,1685766072.23,37.109,586.426,206.543,-6.836,625.127,300.4629506696437
361,1685766072.23,7.324,232.91,155.762,-20.508,625.128,310.97514240518296
362,1685766072.24,-79.102,-43.457,-70.312,-2.93,625.131,300.15450899967215
363,1685766072.24,-93.75,-45.41,-57.129,10.254,625.132,300.86089913107617
364,1685766072.24,-68.848,-349.121,-182.617,30.273,625.135,296.4843481091229
365,1685766072.24,50.781,28.809,59.082,21.484,625.139,297.85689373649734
366,1685766072.25,62.988,233.887,116.211,-14.648,625.143,295.037551355563
367,1685766072.25,-54.199,-158.203,-68.848,-27.344,625.147,296.521908501171
368,1685766072.25,-100.098,-392.578,-116.699,7.812,625.151,294.5250213343644
369,1685766072.26,28.32,243.652,167.48,25.391,625.155,304.1688710905707
370,1685766072.26,86.914,582.031,233.398,-6.836,625.158,295.15481583447456
371,1685766072.27,-14.648,-249.023,-188.477,-20.02,625.162,307.4886321356021
372,1685766072.27,-91.309,-713.867,-284.668,12.207,625.167,306.7236184225695
373,1685766072.27,-3.418,119.629,157.715,24.902,625.171,299.72429845152215
374,1685766072.28,83.496,175.781,84.961,-6.836,625.175,300.46804270200954
375,1685766072.28,20.02,-260.742,-77.637,-32.715,625.179,305.3112230241083
376,1685766072.28,-83.008,-247.07,-17.09,-0.488,625.183,306.9966989231822
377,1685766072.29,-49.316,-123.047,-2.93,22.949,625.187,304.39146472135064
378,1685766072.29,60.547,-56.641,44.434,0.0,625.191,305.71744344542907
379,1685766072.3,40.527,-525.879,-233.398,-24.902,625.194,305.61875325502433
380,1685766072.3,-83.008,-783.691,-302.734,-27.344,625.198,302.2124520179226
381,1685766072.3,-83.984,147.949,167.48,-1.953,625.202,301.75896214563414
382,1685766072.31,37.598,317.383,127.93,0.0,625.206,305.6433306668638
383,1685766072.31,54.199,85.449,55.664,-32.715,625.21,296.96203565570545
384,1685766072.31,-56.641,196.289,113.281,-39.551,625.239,301.0792856868018
385,1685766072.32,-103.027,274.902,141.602,0.977,625.243,302.4750140432111
386,1685766072.32,5.371,173.34,58.105,26.855,625.246,297.5140355630271
387,1685766072.32,78.125,186.035,44.434,-3.906,625.25,297.41941654370055
388,1685766072.33,-11.23,127.441,27.344,-36.621,625.254,305.09973998620336
389,1685766072.33,-102.539,-157.227,-62.5,-12.695,625.258,302.8328903607118
390,1685766072.34,-24.414,-393.555,-190.918,20.02,625.262,306.3093338064396
391,1685766072.34,70.312,-779.297,-293.945,-0.488,625.266,293.0064656462568
392,1685766072.34,18.555,-213.867,31.738,-40.527,625.27,310.9759258135987
393,1685766072.35,-91.797,257.324,119.629,-32.715,625.274,301.1039923436785
394,1685766072.35,-56.641,-61.523,2.441,3.906,625.278,311.2690726334189
395,1685766072.36,64.453,64.453,51.27,0.488,625.282,307.39288067650375
396,1685766072.36,60.059,488.281,166.992,-24.902,625.268,317.69416567732907
397,1685766072.36,-59.57,233.398,62.5,-18.555,625.272,304.66804801653757
398,1685766072.37,-89.844,-104.004,14.16,8.301,625.276,306.9662495762502
399,1685766072.37,37.598,224.609,142.578,-1.953,625.28,302.8590798078183
400,1685766072.37,74.707,452.148,135.742,-35.156,625.284,305.2909945583349
401,1685766072.38,-37.598,-60.059,-92.773,-31.738,625.288,313.11601600585607
402,1685766072.38,-87.402,-648.438,-261.719,18.555,625.292,311.77528877096915
403,1685766072.38,11.719,-488.281,-83.496,27.344,625.296,304.4253745311359
404,1685766072.39,90.82,123.535,139.16,-10.254,625.299,302.20670825644936
405,1685766072.39,17.09,167.969,33.203,-31.738,625.303,309.7524424950303
406,1685766072.4,-95.703,-250.0,-69.824,-7.812,625.307,300.9768870302881
407,1685766072.4,-34.668,7.812,98.145,15.625,625.311,307.89418560018333
408,1685766072.4,78.125,444.336,190.43,-0.977,625.314,306.8557286206412
409,1685766072.41,27.832,255.859,52.246,-39.062,625.318,304.0223344073845
410,1685766072.41,-92.285,-774.414,-416.992,-26.367,625.321,302.5745242263579
411,1685766072.41,-68.359,-681.152,-214.844,13.672,625.325,305.3090045096783
412,1685766072.42,57.617,426.758,254.883,-11.23,625.329,319.07089289097996
413,1685766072.42,55.664,39.062,-79.59,-44.434,625.333,311.1754117310902
414,1685766072.43,-64.941,-503.418,-203.125,-36.133,625.337,312.08241579460497
415,1685766072.43,-93.262,59.082,125.0,-0.977,625.341,307.4817420552278
416,1685766072.43,29.297,528.809,225.098,0.0,625.345,323.2456950338155
417,1685766072.44,82.031,-97.656,-94.238,-20.508,625.349,318.3410939083306
418,1685766072.44,-23.438,-584.961,-237.793,-37.109,625.353,301.4288928048472
419,1685766072.44,-95.703,135.742,114.746,-20.996,625.357,310.54303719691563
420,1685766072.46,1.465,384.766,163.574,-6.836,625.359,306.4904438428597
421,1685766072.47,81.543,144.043,39.062,-34.668,625.363,312.84893198794055
422,1685766072.47,13.184,93.75,39.551,-67.383,625.367,311.8219143868225
423,1685766072.48,-87.402,238.77,134.277,-39.062,625.371,312.43418311056814
424,1685766072.48,-37.109,203.613,66.406,-1.465,625.375,307.8956576759021
425,1685766072.48,69.336,-10.254,-36.621,-29.297,625.379,314.51705084388794
426,1685766072.49,39.062,-206.055,-61.523,-56.641,625.383,318.36170355415294
427,1685766072.49,-83.008,-279.785,-88.867,-41.992,625.387,307.28027216435
428,1685766072.49,-75.684,27.832,35.645,-5.371,625.39,314.0369335484972
429,1685766072.5,45.898,-508.301,-197.266,-0.977,625.394,312.2624845815108
430,1685766072.5,48.828,-711.914,-236.328,-31.738,625.398,314.9306673703754
431,1685766072.51,-53.223,178.223,132.324,-38.574,625.402,317.8897678296251
432,1685766072.51,-94.238,-82.52,-28.32,-4.883,625.405,316.8547120594296
433,1685766072.51,13.184,-327.637,-32.715,-1.953,625.409,318.62291103909325
434,1685766072.52,78.125,282.227,176.27,-38.086,625.413,318.41052572704587
435,1685766072.52,-15.137,405.762,104.004,-51.27,625.417,313.70503148245655
436,1685766072.52,-99.121,-45.898,-26.855,-15.137,625.42,307.2364698436365
437,1685766072.53,-17.09,-271.973,-28.809,5.371,625.424,314.2311982674061
438,1685766072.53,73.242,38.086,92.773,-27.344,625.428,315.74499352320885
439,1685766072.54,11.23,414.551,202.148,-69.336,625.432,314.13453671819826
440,1685766072.54,-104.004,-239.746,-124.023,-48.828,625.436,304.3450750653959
441,1685766072.54,-62.988,-704.102,-234.375,-10.742,625.44,311.72486431903
442,1685766072.55,62.988,211.914,189.453,-23.438,625.444,319.41261662091097
443,1685766072.55,48.34,451.172,136.23,-58.105,625.448,308.77267789675295
444,1685766072.55,-73.242,-24.414,-40.039,-43.945,625.449,321.0170388933175
445,1685766072.56,-70.801,16.113,40.527,-0.977,625.453,314.77856097350053
446,1685766072.56,46.875,270.02,92.285,-11.719,625.457,310.378783154782
447,1685766072.56,54.199,136.719,42.969,-40.527,625.461,310.31486284591665
448,1685766072.57,-52.246,-335.938,-120.605,-42.969,625.465,304.42784382396644
449,1685766072.57,-104.98,-529.785,-190.918,-9.277,625.469,311.0192236872609
450,1685766072.58,-5.859,-167.969,-0.488,-14.16,625.473,325.2383812452262
451,1685766072.58,61.035,54.199,101.074,-44.434,625.477,317.8346467311718
452,1685766072.58,-23.438,-564.941,-265.625,-53.711,625.481,328.75453438915883
453,1685766072.59,-109.375,-790.527,-284.668,-24.902,625.484,317.3277990945489
454,1685766072.59,-23.438,229.004,214.355,3.418,625.488,321.8868580050968
455,1685766072.6,80.566,375.977,96.68,-20.508,625.492,321.753633512022
456,1685766072.6,33.203,58.105,-4.395,-48.828,625.494,319.1296361270248
457,1685766072.6,-81.055,181.152,140.625,-28.32,625.498,313.0572342615497
458,1685766072.61,-48.34,355.957,191.406,-1.465,625.502,319.68788876029834
459,1685766072.61,76.172,268.555,90.332,-9.277,625.506,312.67589607626564
460,1685766072.61,66.895,98.145,11.23,-39.551,625.51,319.5775300416205
461,1685766072.62,-52.734,-73.73,-17.578,-42.48,625.514,316.1126464457514
462,1685766072.62,-81.055,-160.645,20.996,-3.418,625.518,327.78856877110246
463,1685766072.62,33.691,-281.738,-69.824,-1.953,625.521,315.36386577250573
464,1685766072.63,72.266,-855.957,-352.539,-32.227,625.525,313.2903176731897
465,1685766072.63,-37.109,-420.41,-77.148,-53.223,625.529,317.54793376772903
466,1685766072.64,-97.656,246.582,144.043,-26.367,625.533,316.05911742592957
467,1685766072.64,3.418,-32.227,36.133,1.465,625.537,307.9828365850292
468,1685766072.67,77.148,108.398,121.582,-19.531,625.586,312.67042037768636
469,1685766072.68,3.418,443.848,176.758,-46.387,625.59,309.43223833569004
470,1685766072.68,-95.703,160.156,55.664,-24.414,625.594,310.4895316711012
471,1685766072.68,-32.715,38.086,96.68,6.348,625.598,321.6904851679047
472,1685766072.69,73.242,277.832,150.391,-16.602,625.602,315.101597970254
473,1685766072.69,33.203,289.551,160.645,27.344,625.591,321.8590755454203
474,1685766072.69,20.02,81.543,-0.977,-46.387,625.606,315.5732325941618
475,1685766072.69,84.473,615.723,211.426,-4.395,625.595,331.1642839251372
476,1685766072.7,-83.496,-261.719,-130.859,-27.832,625.61,310.74730858552624
477,1685766072.7,-26.367,197.266,19.531,-41.016,625.598,326.54537658365604
478,1685766072.7,-58.594,-750.977,-390.625,12.695,625.613,316.87927034003644
479,1685766072.7,-114.746,-99.121,-52.246,-16.113,625.602,320.8393558597338
480,1685766072.7,41.504,-966.797,-372.559,11.719,625.617,315.0432508858142
481,1685766072.7,-15.137,266.602,132.812,12.695,625.606,317.05287103653234
482,1685766072.71,45.41,-53.711,133.301,-27.832,625.621,313.20055465988094
483,1685766072.71,83.496,226.562,104.004,-6.836,625.61,317.4199674463978
484,1685766072.71,-64.941,207.031,74.707,-30.273,625.625,321.99593284418864
485,1685766072.71,13.672,-305.176,-147.949,-37.598,625.614,317.5295380004606
486,1685766072.72,-87.891,-93.75,-36.621,13.672,625.629,315.53767048923544
487,1685766072.72,-104.492,-385.742,-182.129,-24.902,625.618,315.389119555269
488,1685766072.72,-52.246,199.219,138.672,-1.465,625.622,312.88703252136924
489,1685766072.72,67.383,479.492,187.988,-19.043,625.626,321.90249549526993
490,1685766072.73,37.598,-111.328,-71.777,-50.781,625.63,313.48383848352074
491,1685766072.73,-73.242,-401.855,-96.191,-40.039,625.634,323.5777431872631
492,1685766072.73,-72.754,133.301,127.93,-3.906,625.643,312.0899474490256
493,1685766072.74,43.945,436.523,180.664,-13.672,625.647,314.8951703341036
494,1685766072.74,64.453,-284.18,-199.219,-38.574,625.651,314.5289383765772
495,1685766072.74,-48.34,-729.004,-274.414,-41.504,625.655,313.1427013587721
496,1685766072.75,-99.121,-19.531,74.219,-13.184,625.658,313.63844746093037
497,1685766072.75,15.625,73.73,72.266,0.488,625.662,321.2113914708214
498,1685766072.76,80.078,-449.219,-185.059,-17.578,625.666,310.94967173051987
499,1685766072.76,-22.949,-1000.0,-540.527,-37.109,625.67,312.284186284549
500,1685766072.76,-104.492,-442.871,-123.047,-13.672,625.674,314.0614874131595
501,1685766072.77,-19.531,263.184,166.992,16.113,625.678,307.45153619529685
502,1685766072.77,78.613,162.109,64.453,-5.371,625.682,307.02575040750065
503,1685766072.78,23.438,221.68,122.559,-30.273,625.686,309.00637683492886
504,1685766072.78,-84.473,312.012,155.762,-4.395,625.688,300.2004114725281
505,1685766072.78,-50.293,-32.227,6.836,24.414,625.692,306.62020759325503
506,1685766072.79,62.988,-185.547,-26.367,8.301,625.696,298.0848472735523
507,1685766072.79,51.27,288.574,114.258,-24.902,625.7,303.4849226763749
508,1685766072.8,-62.988,392.09,125.488,-23.926,625.704,295.53897720431337
509,1685766072.8,-72.266,-248.535,-117.676,14.16,625.708,296.32985711648627
510,1685766072.8,51.27,-432.617,-145.02,10.742,625.711,309.1883207252192
511,1685766072.81,84.473,284.18,145.508,-25.391,625.715,302.7324711799064
512,1685766072.81,-30.273,430.176,135.742,-31.738,625.719,308.35378754671444
513,1685766072.81,-96.191,-271.973,-113.281,1.465,625.723,304.0292929385608
514,1685766072.82,6.348,-338.379,-112.305,4.883,625.727,304.3365927789242
515,1685766072.82,86.914,445.312,188.965,-21.973,625.731,306.63736706858776
516,1685766072.84,2.93,379.883,112.793,-36.133,625.734,311.7485455270233
517,1685766072.84,-87.891,-82.031,-35.156,-12.695,625.738,306.77678530333225
518,1685766072.85,-18.066,97.656,48.828,18.066,625.742,306.57304185586764
519,1685766072.85,80.566,310.059,101.074,-6.836,625.746,306.60600462664786
520,1685766072.85,38.574,67.383,24.902,-40.527,625.75,307.6360395839567
521,1685766072.86,-78.613,-579.59,-288.086,-20.996,625.754,303.7261178671018
522,1685766072.86,-60.059,-824.707,-310.547,2.441,625.758,309.3871476027501
523,1685766072.86,57.129,-1.465,115.723,-22.461,625.762,308.82487466903655
524,1685766072.87,61.035,321.777,68.848,-54.688,625.765,309.21397505622485
525,1685766072.87,-51.27,-445.312,-204.102,-50.781,625.769,309.79020036737745
526,1685766072.88,-75.684,-428.223,-38.086,-12.695,625.773,317.93479252547667
527,1685766072.88,47.852,413.086,226.074,-4.395,625.777,321.82555618815115
528,1685766072.88,77.148,250.0,49.805,-45.898,625.779,312.48393042676156
529,1685766072.89,-42.48,-100.098,-92.773,-65.918,625.783,321.61151053419735
530,1685766072.89,-103.516,148.438,89.844,-17.578,625.787,319.9026300034792
531,1685766072.9,7.324,412.109,167.969,6.348,625.791,330.07158860802576
532,1685766072.9,81.543,230.957,25.391,-24.414,625.795,334.4692839523708
533,1685766072.9,-8.301,-279.297,-191.895,-47.852,625.799,327.389664174726
534,1685766072.91,-101.562,-410.156,-177.246,-15.137,625.803,336.4461224718711
535,1685766072.91,-37.598,14.16,70.801,10.254,625.807,338.780532586622
536,1685766072.91,69.336,-23.926,-35.645,-7.812,625.811,342.6647977550304
537,1685766072.92,27.344,-769.531,-322.266,-43.457,625.815,342.1690764400612
538,1685766072.92,-84.473,-294.434,16.602,-40.527,625.818,343.511082985071
539,1685766072.93,-62.988,287.598,138.184,-0.977,625.822,350.1791041776138
540,1685766072.93,61.035,207.031,141.113,-11.719,625.824,352.35563027377174
541,1685766072.93,71.289,295.898,169.922,-41.504,625.828,351.90060646097044
542,1685766072.94,-52.246,339.355,106.445,-41.992,625.832,345.3277309475133
543,1685766072.94,-91.309,158.691,63.477,-10.254,625.836,349.2423851896739
544,1685766072.94,27.832,42.48,67.383,-2.441,625.84,348.3167340122929
545,1685766072.95,72.754,-42.969,27.344,-19.043,625.844,353.0865875787553
546,1685766072.95,-28.809,-206.543,-70.312,-29.297,625.848,360.4353026159372
547,1685766072.96,-97.168,-221.191,-43.457,-1.465,625.852,364.05120684362527
548,1685766072.96,-6.836,-654.785,-276.855,26.367,625.855,357.4329293236076
549,1685766072.96,69.336,-962.402,-354.492,0.0,625.859,366.7995425432283
550,1685766072.97,8.789,-102.539,104.004,-36.133,625.863,366.45041300242076
551,1685766072.97,-96.68,94.727,70.801,-18.555,625.867,366.3877415588162
552,1685766072.97,-55.664,-67.383,0.488,7.324,625.869,361.2290914118944
553,1685766072.98,58.105,387.207,183.594,-7.812,625.873,372.7059705297418
554,1685766072.98,41.016,527.344,188.477,-37.109,625.877,358.4891702617243
555,1685766072.98,-73.73,75.195,6.348,-29.297,625.881,374.4455493210506
556,1685766072.99,-81.055,-90.82,-30.762,2.93,625.885,364.8389691997182
557,1685766072.99,40.039,55.176,64.941,-2.93,625.889,366.07037404670217
558,1685766073.0,57.129,49.316,76.172,-30.273,625.893,367.2465868584724
559,1685766073.0,-64.453,-343.262,-177.734,-38.574,625.897,372.61177585969835
560,1685766073.0,-114.746,-664.062,-240.234,-6.348,625.901,360.2865802409642
561,1685766073.01,5.371,182.617,169.922,1.465,625.904,371.2771376928898
562,1685766073.01,59.57,577.637,171.387,-34.668,625.908,374.0544493024259
563,1685766073.02,-32.715,-67.383,-60.059,-49.316,625.912,369.5286830815819
564,1685766073.02,-111.328,-187.012,-4.883,-12.207,625.931,363.378007733886
565,1685766073.02,-25.391,380.859,194.824,7.324,625.935,372.67031797660536
566,1685766073.03,72.266,475.586,141.602,-18.066,625.939,365.3359694082609
567,1685766073.03,1.465,46.387,-37.109,-41.992,625.942,362.06909475816224
568,1685766073.03,-117.188,-129.883,-37.598,-29.297,625.946,352.685175582072
569,1685766073.04,-76.66,-83.496,18.066,4.883,625.95,360.3365200972202
570,1685766073.04,47.852,7.812,57.129,-12.207,625.954,356.21795786206536
571,1685766073.04,33.203,-509.766,-248.047,-39.551,625.958,361.730156416449
572,1685766073.05,-87.402,-850.098,-371.582,-28.809,625.962,361.2292064845698
573,1685766073.05,-91.797,71.777,126.465,5.859,625.966,364.18419992377966
574,1685766073.06,37.598,341.309,128.906,9.766,625.97,367.72614450621484
575,1685766073.06,60.547,185.547,51.27,-30.762,625.974,366.48324455590637
576,1685766073.06,-54.688,283.691,108.398,-49.805,625.973,362.4078804505441
577,1685766073.07,-109.375,294.434,101.074,-15.137,625.977,364.3326546178598
578,1685766073.07,-14.16,-44.922,-24.414,-14.648,625.981,364.4061663914376
579,1685766073.08,59.57,-178.223,-46.387,-42.969,625.985,359.8809698905837
580,1685766073.08,-9.277,184.082,70.312,-49.805,625.989,359.30857153203203
581,1685766073.08,-92.285,21.973,0.0,-9.766,625.993,365.08036775400296
582,1685766073.09,-17.09,-403.32,-157.715,30.762,625.997,352.0341453055595
583,1685766073.09,83.008,-508.789,-148.438,3.418,626.001,350.9985702367807
584,1685766073.1,34.668,115.723,112.793,-34.668,626.004,355.6449860078712
585,1685766073.1,-78.125,300.781,89.355,-14.16,626.008,349.6998006381722
586,1685766073.1,-56.641,-32.227,4.395,20.996,626.012,348.8324922688869
587,1685766073.11,58.594,125.0,64.941,13.184,626.016,353.18048271559667
588,1685766073.11,58.594,453.613,139.648,-18.555,626.018,349.971108571777
589,1685766073.11,-52.246,243.652,38.086,-15.137,626.022,333.727345106822
590,1685766073.12,-79.102,-27.832,27.832,20.508,626.026,340.0109585612077
591,1685766073.12,41.016,204.59,111.328,20.02,626.03,343.3132908838788
592,1685766073.12,85.449,283.203,64.453,-13.672,626.033,341.4494763073884
593,1685766073.13,-31.25,-37.598,-5.371,-33.691,626.037,340.91082410470784
594,1685766073.13,-104.004,-650.391,-322.754,10.742,626.041,337.7041817787508
595,1685766073.14,-3.906,-915.039,-363.77,20.508,626.045,345.69650746323276
596,1685766073.14,78.613,23.926,114.258,-28.32,626.049,335.4623402981007
597,1685766073.14,5.371,330.078,48.828,-53.711,626.053,333.4001000374442
598,1685766073.15,-97.168,-491.699,-197.266,-27.832,626.057,340.0391568562954
599,1685766073.15,-37.598,-269.043,44.922,-0.977,626.061,328.3064204263196
600,1685766073.15,77.148,542.969,201.66,-20.996,626.066,329.7766847212468
601,1685766073.16,42.48,229.492,11.719,-51.758,626.07,331.35410544170435
602,1685766073.16,-78.613,-132.324,-69.824,-40.527,626.074,333.2061617258186
603,1685766073.16,-77.637,217.285,126.953,1.465,626.078,332.82006145611825
604,1685766073.17,56.641,516.602,173.828,-1.465,626.082,320.55607352858675
605,1685766073.17,71.289,-31.738,-132.812,-26.855,626.085,326.65864291922645
606,1685766073.18,-50.293,-599.121,-258.301,-29.297,626.089,319.59396632249104
607,1685766073.18,-84.961,-239.258,0.0,-1.465,626.093,320.6640432664115
608,1685766073.18,33.691,314.453,191.895,7.324,626.097,319.1950442196141
609,1685766073.19,77.637,-6.348,-49.316,-20.996,626.101,319.72182217242664
610,1685766073.19,-30.273,-531.25,-254.395,-46.387,626.105,328.1769160460426
611,1685766073.2,-100.586,-6.836,87.402,-14.648,626.109,316.4083590856551
612,1685766073.24,-9.766,321.777,136.23,6.836,626.168,307.4874395965859
613,1685766073.25,78.613,242.188,67.871,-29.297,626.172,313.15116738757433
614,1685766073.25,13.184,202.637,50.293,-55.176,626.176,297.2894813720011
615,1685766073.26,-92.285,270.02,95.215,-20.508,626.18,312.13437091628805
616,1685766073.26,-47.852,214.844,90.82,18.066,626.184,307.7237398980172
617,1685766073.26,60.059,-34.668,-39.551,-1.953,626.188,305.7201681100138
618,1685766073.27,38.086,-222.656,-86.426,-34.668,626.192,307.5055743737101
619,1685766073.27,-71.777,-207.031,-97.656,-22.949,626.195,304.42860338553527
620,1685766073.27,-97.656,140.625,45.898,1.953,626.176,312.17896585434687
621,1685766073.28,-76.66,31.25,25.879,4.883,626.199,303.7642593614337
622,1685766073.28,8.301,-1.953,9.277,12.207,626.18,310.36875008038476
623,1685766073.28,46.875,-567.871,-226.074,10.742,626.203,309.1887928473859
624,1685766073.28,67.871,384.277,138.672,-26.367,626.184,297.5835896586457
625,1685766073.28,75.195,-737.305,-246.094,-17.578,626.207,308.04078958714325
626,1685766073.29,-15.625,444.824,125.0,-33.691,626.188,301.52109251813283
627,1685766073.29,-42.48,210.938,160.156,-41.016,626.211,304.00297168414573
628,1685766073.29,-104.98,45.41,-36.133,-12.207,626.192,308.1697466624565
629,1685766073.29,-43.945,-256.836,-109.375,-8.301,626.195,309.9934447089001
630,1685766073.3,56.152,88.379,86.426,-48.828,626.199,308.9014354958459
631,1685766073.3,2.441,388.184,126.953,-83.984,626.203,308.76890589187815
632,1685766073.3,-112.793,-221.191,-104.98,-65.43,626.199,309.3330409921022
633,1685766073.3,-114.746,-67.871,-52.246,-56.152,626.207,298.27977677399406
634,1685766073.31,-123.535,-225.586,-0.977,-18.066,626.203,299.15994091338666
635,1685766073.31,-98.633,-157.715,1.953,-35.156,626.211,316.3375004087869
636,1685766073.31,8.789,406.738,166.992,-13.672,626.207,309.780629616085
637,1685766073.31,7.324,422.363,203.613,-54.688,626.215,308.1976877300059
638,1685766073.32,45.41,502.93,118.652,-43.945,626.211,311.037813319291
639,1685766073.32,2.441,461.914,104.98,-78.125,626.219,303.4157034879248
640,1685766073.32,-63.965,-285.156,-189.453,-59.57,626.215,300.63715590586764
641,1685766073.32,-126.953,-707.031,-261.719,-32.715,626.219,308.39228385144474
642,1685766073.33,-25.879,-152.832,11.23,-9.766,626.222,314.28906540026145
643,1685766073.33,52.246,-39.062,17.578,-26.367,626.226,309.2580007247232
644,1685766073.33,-32.227,-184.57,-93.262,-53.711,626.23,295.6290020750729
645,1685766073.34,-128.906,-59.57,-10.742,-20.508,626.234,298.80808282207107
646,1685766073.34,-50.293,278.32,126.953,10.742,626.238,291.6353122955802
647,1685766073.35,62.988,397.949,130.371,-11.719,626.242,303.8727612739798
648,1685766073.35,8.789,-500.977,-338.379,-36.133,626.244,293.47069831308903
649,1685766073.35,-118.164,-1000.0,-461.914,-21.973,626.248,292.8503325916041
650,1685766073.36,-87.891,-175.781,60.059,-5.371,626.252,298.47927195044446
651,1685766073.36,49.316,39.551,39.551,-13.184,626.256,292.6859833976107
652,1685766073.36,43.457,-173.34,-34.668,-36.621,626.26,297.63447490924995
653,1685766073.37,-74.219,-124.512,12.695,-41.992,626.264,297.1030603421029
654,1685766073.37,-101.562,61.523,103.027,-5.859,626.268,298.69178939160884
655,1685766073.38,12.207,-33.203,-26.367,0.0,626.272,290.63950319189917
656,1685766073.38,53.223,-443.848,-178.711,-24.414,626.275,298.6958451797996
657,1685766073.38,-46.875,122.07,137.695,-40.527,626.279,294.6427695720401
658,1685766073.39,-107.91,375.488,152.344,-2.93,626.283,294.2974061159855
659,1685766073.39,-1.953,143.066,68.359,10.254,626.287,291.336060833083
660,1685766073.41,86.426,281.738,102.051,-27.832,626.304,280.878261188649
661,1685766073.41,5.371,486.816,149.902,-52.734,626.308,287.19964419980715
662,1685766073.42,-97.656,275.879,52.734,-31.738,626.312,281.60559861496847
663,1685766073.42,-41.504,118.164,73.242,-2.93,626.316,267.5478944409991
664,1685766073.42,72.266,307.617,117.676,-6.836,626.32,281.6214488093999
665,1685766073.43,34.668,162.109,4.883,-41.992,626.324,274.4563800304466
666,1685766073.43,-84.473,-77.637,-13.184,-41.504,626.328,270.0134401075373
667,1685766073.44,-72.754,-613.281,-256.836,0.977,626.332,278.53786762073474
668,1685766073.44,18.555,253.418,136.719,-24.414,626.334,270.4311635244637
669,1685766073.44,41.992,-844.727,-319.336,-14.648,626.336,268.70158007957315
670,1685766073.44,73.242,641.113,188.477,-56.641,626.338,272.2185817464015
671,1685766073.44,52.734,103.027,97.656,-68.359,626.339,266.00841109054085
672,1685766073.45,-25.879,97.168,-45.898,-65.43,626.342,267.4057168370728
673,1685766073.45,-53.223,229.98,43.457,-66.895,626.343,273.0475771645549
674,1685766073.45,-132.324,-387.207,-128.906,-46.387,626.346,270.9471546125288
675,1685766073.45,-85.938,-166.016,-46.875,-18.555,626.347,270.87312613354453
676,1685766073.45,-48.828,181.641,123.047,-35.156,626.35,277.70831547433244
677,1685766073.46,45.898,286.133,89.844,-64.941,626.354,264.89665777094297
678,1685766073.46,-23.926,-252.93,-148.926,-93.262,626.357,267.1127992940938
679,1685766073.46,-120.605,-370.117,-181.641,-59.57,626.361,258.2634772685495
680,1685766073.47,-72.754,-70.801,60.059,-25.879,626.365,263.490061860814
681,1685766073.47,41.504,419.434,206.543,-43.945,626.369,270.89837240864745
682,1685766073.48,20.996,-21.973,-126.953,-67.383,626.373,265.39668249899006
683,1685766073.48,-105.469,-908.203,-399.902,-56.641,626.377,273.2352638158437
684,1685766073.48,-104.004,-161.133,53.223,-23.926,626.393,271.9080093973835
685,1685766073.49,28.809,449.219,179.199,-28.809,626.397,263.7981811083963
686,1685766073.49,45.41,267.09,94.727,-56.152,626.401,262.7021117795911
687,1685766073.5,-69.336,203.613,93.262,-56.641,626.405,264.4569938673123
688,1685766073.5,-107.422,210.449,48.828,-24.414,626.409,256.63565676672516
689,1685766073.5,8.789,150.879,52.734,-15.137,626.413,260.04283501970514
690,1685766073.51,59.57,-448.73,-208.984,-40.039,626.416,253.74605829281163
691,1685766073.51,-33.203,-792.969,-327.148,-63.965,626.42,258.0788829385074
692,1685766073.51,-108.887,35.156,68.359,-41.016,626.424,274.4063290850494
693,1685766073.52,-28.32,300.781,120.605,-17.578,626.428,264.7335716316252
694,1685766073.52,60.547,-148.926,-53.711,-41.504,626.432,267.6654177611088
695,1685766073.53,0.977,-63.477,6.348,-77.637,626.436,267.7040126767166
696,1685766073.53,-108.887,375.977,171.387,-65.918,626.438,272.57204404000794
697,1685766073.53,-66.895,164.062,34.18,-21.484,626.442,269.1752293716417
698,1685766073.54,56.641,-105.957,-45.898,-14.648,626.446,270.04106598015505
699,1685766073.54,43.457,273.438,117.676,-48.828,626.45,277.70305212156086
700,1685766073.54,-79.59,396.484,116.211,-56.641,626.454,268.5811889533665
701,1685766073.55,-94.727,-272.461,-180.176,-18.066,626.458,270.49296204868676
702,1685766073.55,30.273,-480.957,-194.336,-11.719,626.461,270.71022601246034
703,1685766073.56,63.477,255.859,140.137,-43.945,626.465,269.7479201576228
704,1685766073.56,-40.527,354.004,68.359,-57.617,626.469,275.5440896634051
705,1685766073.56,-104.98,-135.254,-61.035,-18.555,626.473,269.76032415782385
706,1685766073.57,-0.977,-19.043,58.594,0.488,626.477,267.5415054125651
707,1685766073.57,83.008,507.324,178.223,-36.133,626.481,268.68301800011255
708,1685766073.57,-3.418,370.117,60.547,-62.5,626.483,265.51231442237065
709,1685766073.58,-108.398,-196.777,-111.328,-32.715,626.487,269.0638842076707
710,1685766073.58,-41.504,-90.332,2.93,-8.789,626.491,276.7600714522529
711,1685766073.59,71.289,447.754,182.617,-31.738,626.495,265.5004759298994
712,1685766073.59,23.926,403.809,70.312,-58.594,626.499,276.4671504948807
713,1685766073.59,-102.539,-350.098,-176.758,-36.133,626.503,264.7019567601901
714,1685766073.6,-96.68,-541.016,-133.301,-5.371,626.507,274.5799833249052
715,1685766073.6,23.438,15.137,62.5,-32.227,626.511,279.6513338229575
716,1685766073.6,25.879,289.062,60.059,-71.777,626.515,267.21040870302784
717,1685766073.61,-101.562,-457.52,-317.383,-64.941,626.519,279.03320322797845
718,1685766073.61,-129.883,-676.758,-240.723,-21.973,626.522,285.8197720389921
719,1685766073.62,3.906,252.441,179.688,-23.438,626.526,288.557172234217
720,1685766073.63,48.34,336.426,61.035,-65.43,626.529,278.76951243238574
721,1685766073.64,-65.43,18.555,-74.707,-82.52,626.533,287.68962183979494
722,1685766073.64,-121.582,167.48,73.242,-45.898,626.537,289.4921635358588
723,1685766073.64,-24.902,338.379,96.191,-19.043,626.541,291.4428932369398
724,1685766073.65,35.645,14.648,-80.566,-37.598,626.545,285.8846104876445
725,1685766073.65,-41.016,-553.711,-294.434,-66.895,626.549,277.1827816267723
726,1685766073.66,-143.555,-269.043,-88.379,-47.363,626.553,286.38747888693973
727,1685766073.66,-76.172,422.363,187.5,-16.602,626.557,285.5973088144722
728,1685766073.66,47.363,25.391,-102.051,-28.32,626.56,284.21273474248005
729,1685766073.67,9.277,-400.879,-221.191,-60.059,626.564,289.4779912602675
730,1685766073.67,-105.469,210.449,135.254,-53.711,626.568,289.5940094275101
731,1685766073.68,-96.68,389.16,150.879,-14.16,626.572,280.30497252082114
732,1685766073.68,30.273,185.059,38.086,-15.625,626.574,282.87098770132565
733,1685766073.68,43.945,220.703,46.875,-52.734,626.578,292.03320455473795
734,1685766073.69,-79.102,347.168,86.426,-57.129,626.582,289.10426558393783
735,1685766073.69,-114.258,211.914,30.273,-14.16,626.586,291.196708828674
736,1685766073.69,1.465,113.281,29.785,-7.812,626.59,298.62436622063564
737,1685766073.7,59.082,15.137,-0.488,-18.555,626.593,289.62399711794615
738,1685766073.7,-27.344,-151.855,-88.379,-28.809,626.597,282.4391233709866
739,1685766073.7,-119.629,-137.695,-108.887,-29.785,626.601,293.21045610087833
740,1685766073.71,-39.551,-604.98,-310.059,-18.066,626.605,288.4834942773673
741,1685766073.71,60.547,-953.125,-341.309,-33.691,626.609,293.3123429350134
742,1685766073.72,5.371,-72.266,54.688,-54.199,626.613,287.44605361080943
743,1685766073.72,-102.539,179.199,30.273,-31.738,626.617,301.4620536581203
744,1685766073.72,-63.965,32.227,-12.207,-2.93,626.62,290.70661463523516
745,1685766073.73,58.594,448.73,129.395,-25.391,626.623,290.6901459839834
746,1685766073.73,35.645,580.566,136.23,-65.43,626.627,297.2508785038074
747,1685766073.74,-83.984,120.117,-32.715,-49.805,626.631,292.63752741938345
748,1685766073.74,-89.844,-64.453,-94.238,-16.113,626.635,280.0716463086277
749,1685766073.74,33.691,88.867,15.137,-27.344,626.639,293.26007194264145
750,1685766073.75,60.059,252.93,104.98,-52.246,626.643,293.1778430169139
751,1685766073.75,-57.617,-87.402,-138.184,-53.711,626.647,293.3402364150148
752,1685766073.75,-111.816,-690.918,-379.883,-15.625,626.651,304.86432285368875
753,1685766073.76,0.0,-140.137,25.391,-4.883,626.655,295.88615448722044
754,1685766073.76,70.801,461.914,176.758,-26.367,626.659,298.13304732784104
755,1685766073.77,-28.809,-68.848,-120.117,-50.293,626.663,307.90258823892185
756,1685766073.77,-125.0,-351.562,-131.836,-26.367,626.667,301.677923532803
757,1685766073.77,-36.621,342.773,136.23,-5.371,626.671,304.9283180616074
758,1685766073.78,65.918,513.672,125.488,-36.133,626.675,308.632790872068
759,1685766073.78,11.719,249.512,17.578,-62.5,626.679,322.46444233065336
760,1685766073.78,-104.004,98.145,-4.395,-31.738,626.683,312.37622391675427
761,1685766073.79,-71.777,-36.133,-19.531,7.324,626.686,320.48865017533876
762,1685766073.79,54.688,12.207,26.367,-18.066,626.69,315.14705871300845
763,1685766073.8,43.457,-458.008,-233.887,-45.898,626.694,312.377088806104
764,1685766073.8,-81.543,-834.473,-382.812,-40.527,626.698,306.0067299214657
765,1685766073.8,-100.098,66.895,52.246,-15.137,626.702,318.1211455413203
766,1685766073.81,27.832,373.047,102.539,-8.789,626.706,319.2550811100082
767,1685766073.81,63.477,40.527,-12.695,-43.945,626.71,320.9781035995636
768,1685766073.81,-48.828,17.09,-11.719,-62.988,626.71,317.16013231645695
769,1685766073.82,-112.793,274.414,94.238,-25.391,626.714,322.19686824114257
770,1685766073.82,-3.906,167.969,49.316,-11.23,626.718,319.5445533820163
771,1685766073.82,81.055,27.344,-33.691,-39.062,626.722,326.3087565906052
772,1685766073.83,-7.324,250.0,81.543,-65.43,626.726,324.583896448458
773,1685766073.83,-109.863,67.871,19.531,-37.109,626.73,326.7099864004559
774,1685766073.84,-43.945,-338.379,-220.215,-3.906,626.734,328.83096054803315
775,1685766073.84,56.152,-798.828,-322.266,-28.809,626.738,323.8239913352324
776,1685766073.84,3.906,-263.672,-11.23,-60.547,626.742,336.31522167975726
777,1685766073.85,-111.816,307.617,105.957,-44.922,626.745,336.3036511181283
778,1685766073.85,-84.961,36.133,16.113,-8.301,626.749,323.5773356098559
779,1685766073.86,45.41,187.012,68.359,-14.16,626.753,333.3212325763519
780,1685766073.86,43.457,500.488,121.582,-50.781,626.768,348.02280142149056
781,1685766073.86,-82.52,278.32,19.043,-61.523,626.772,344.59678543086466
782,1685766073.87,-112.305,-152.832,-84.473,-23.926,626.776,349.66839650419496
783,1685766073.87,11.719,125.977,74.219,-17.578,626.78,359.0470033543627
784,1685766073.88,64.941,478.516,125.488,-46.875,626.783,352.41118770682425
785,1685766073.88,-47.363,43.945,-74.707,-61.523,626.787,351.95360236070974
786,1685766073.88,-137.695,-726.562,-395.996,-35.645,626.791,348.4927239935458
787,1685766073.89,-40.527,-773.926,-331.543,-21.973,626.795,348.9166617198564
788,1685766073.89,50.781,249.023,155.273,-46.875,626.799,353.77182259246695
789,1685766073.89,-28.32,367.676,65.918,-70.801,626.803,355.108573973188
790,1685766073.9,-136.23,-99.121,-66.406,-52.734,626.807,360.1015855658898
791,1685766073.9,-75.684,167.969,127.441,-23.438,626.811,359.4412611101759
792,1685766073.9,53.711,587.402,208.496,-30.762,626.814,361.8804928021901
793,1685766073.91,30.273,361.328,17.578,-60.547,626.818,362.35440408819005
794,1685766073.91,-94.238,-12.695,-83.496,-63.965,626.822,369.4760013602379
795,1685766073.92,-94.727,204.59,79.102,-28.809,626.826,354.52999177279617
796,1685766073.92,36.621,381.348,114.746,-32.715,626.83,362.8737975528547
797,1685766073.92,45.898,-88.379,-164.062,-57.129,626.833,366.73688070573934
798,1685766073.93,-90.82,-802.734,-414.551,-56.152,626.837,372.8838138112485
799,1685766073.93,-132.324,-243.652,23.438,-30.273,626.841,361.56153406076476
800,1685766073.93,-0.977,482.91,199.219,-15.137,626.845,372.52086896268366
801,1685766073.94,62.988,183.594,28.32,-35.156,626.849,373.7135188157422
802,1685766073.94,-38.086,20.508,31.738,-57.129,626.853,375.5999635297773
803,1685766073.95,-122.559,266.113,99.609,-29.785,626.857,371.3688401897916
804,1685766073.96,-21.484,337.891,94.238,3.418,626.859,360.0266757868915
805,1685766073.97,89.355,190.43,11.719,-6.836,626.863,356.0978814900972
806,1685766073.97,1.465,141.602,-10.742,-57.129,626.867,365.5555053908589
807,1685766073.98,-132.324,218.75,80.566,-58.105,626.871,375.5251778781735
808,1685766073.98,-70.801,218.262,65.43,-12.207,626.875,365.7936109862242
809,1685766073.98,65.43,14.648,-48.34,-12.207,626.879,355.96997595291083
810,1685766073.99,44.922,-236.328,-145.508,-35.645,626.883,364.89589822526915
811,1685766073.99,-81.543,-320.801,-198.242,-33.691,626.887,358.00478559105136
812,1685766073.99,-97.656,-162.109,-117.676,-10.742,626.89,358.8457015099931
813,1685766074.0,26.855,-577.637,-267.09,-5.371,626.894,368.2055773023833
814,1685766074.0,62.988,-851.562,-331.543,-33.691,626.898,360.2103755665274
815,1685766074.01,-45.41,-12.207,49.805,-55.664,626.902,366.84420390107215
816,1685766074.02,-104.492,89.355,23.438,-17.578,626.919,357.33049765648417
817,1685766074.03,-1.465,32.715,2.93,-1.953,626.923,365.52374776783944
818,1685766074.03,71.289,431.152,157.227,-29.785,626.927,360.0240821224212
819,1685766074.04,-13.672,480.469,120.117,-47.363,626.931,355.95349052778045
820,1685766074.04,-109.375,58.594,-40.039,-21.484,626.935,353.3319989709559
821,1685766074.04,-34.668,-266.113,-129.395,12.695,626.939,361.5179538809736
822,1685766074.05,69.336,87.402,59.57,-14.16,626.943,359.11926734987765
823,1685766074.05,10.254,445.801,151.367,-58.594,626.947,347.6779243683198
824,1685766074.05,-80.566,-239.746,-124.512,-41.016,626.949,354.81952937452473
825,1685766074.05,-103.027,-160.156,-158.203,-36.133,626.95,352.9700890363919
826,1685766074.06,-102.539,-340.82,-86.914,-10.254,626.953,353.12029221529906
827,1685766074.06,-70.312,-697.266,-293.945,4.883,626.954,358.92332325095117
828,1685766074.06,38.086,364.258,159.668,-7.324,626.957,358.13543541838635
829,1685766074.06,35.156,-113.77,49.805,-5.859,626.958,350.7083050039911
830,1685766074.06,81.055,461.426,128.418,-34.668,626.961,351.06606717929986
831,1685766074.07,36.621,290.527,117.188,-39.551,626.962,354.7657872856644
832,1685766074.07,-31.25,69.336,-86.914,-44.434,626.965,356.29814326396735
833,1685766074.07,-102.051,-226.074,-182.617,-2.93,626.969,351.4033201522029
834,1685766074.08,6.348,-110.84,-32.227,12.207,626.972,358.0439346307095
835,1685766074.08,91.309,-28.32,5.371,-19.531,626.976,358.2926092024867
836,1685766074.08,1.465,-140.625,-83.984,-40.527,626.98,358.9953204403325
837,1685766074.09,-96.191,-15.625,-4.883,-8.301,626.984,366.14326500337665
838,1685766074.09,-16.602,342.285,125.488,27.832,626.988,355.5740682628015
839,1685766074.1,97.168,441.895,111.816,9.766,626.992,350.3683448240689
840,1685766074.1,41.992,-495.117,-320.312,-11.23,626.995,353.7224013996797
841,1685766074.1,-88.867,-968.75,-408.691,-9.277,626.999,348.18406962143735
842,1685766074.11,-72.754,19.043,113.281,-2.441,627.003,354.52274715027283
843,1685766074.11,57.129,345.215,95.703,-11.23,627.007,342.01067050917754
844,1685766074.11,62.988,154.785,0.977,-41.016,627.011,349.7624423573338
845,1685766074.12,-60.547,-12.695,-20.508,-49.316,627.015,347.93985553589175
846,1685766074.12,-103.516,-107.91,8.789,-14.16,627.019,344.03499878729644
847,1685766074.12,20.508,-241.699,-111.328,7.324,627.022,348.8400540255627
848,1685766074.13,83.496,-456.543,-167.969,-22.461,627.026,348.54611785695846
849,1685766074.13,-22.949,97.656,119.629,-48.828,627.03,341.01428623271477
850,1685766074.14,-114.258,313.965,111.816,-9.277,627.034,348.82374895520553
851,1685766074.14,-18.066,164.062,93.262,14.16,627.038,354.8630174446052
852,1685766074.14,76.66,320.312,112.793,-22.461,627.04,350.54252545400516
853,1685766074.15,2.441,458.008,103.027,-64.941,627.044,343.31235987467966
854,1685766074.15,-107.91,200.195,46.387,-48.828,627.047,345.6893000811915
855,1685766074.16,-68.359,-105.957,-22.949,-15.625,627.051,353.5626183391166
856,1685766074.16,51.27,110.84,36.621,-32.715,627.055,333.8349351614973
857,1685766074.16,28.809,97.656,-5.859,-61.035,627.059,335.9506142888133
858,1685766074.17,-102.051,-156.25,-100.098,-58.594,627.063,350.93970026119564
859,1685766074.17,-106.934,-656.738,-330.566,-25.879,627.067,340.60969871240457
860,1685766074.17,19.043,-880.859,-315.43,-19.531,627.071,349.2702710793436
861,1685766074.18,49.316,102.051,132.812,-40.527,627.075,353.04325223932307
862,1685766074.18,-59.57,286.621,36.621,-45.41,627.079,343.6512055001208
863,1685766074.19,-109.863,-39.551,-72.266,-14.16,627.083,332.31892631365736
864,1685766074.19,-1.465,295.898,130.859,1.953,627.084,337.0592655642036
865,1685766074.19,62.012,587.891,198.73,-28.32,627.088,340.51954961196515
866,1685766074.2,-31.25,185.547,-28.809,-56.152,627.092,333.41336813212894
867,1685766074.2,-120.117,-113.77,-90.332,-38.574,627.096,336.41911466902707
868,1685766074.2,-29.297,218.75,92.285,-16.602,627.1,329.0096844136946
869,1685766074.21,66.406,221.68,64.941,-41.016,627.104,330.8960435093027
870,1685766074.21,-5.859,-292.969,-227.539,-72.754,627.108,338.70048728318227
871,1685766074.22,-124.023,-910.156,-430.176,-46.875,627.112,321.28919100687847
872,1685766074.22,-75.195,-249.512,19.043,-13.672,627.115,317.34610651075366
873,1685766074.22,62.5,471.191,170.898,-26.367,627.119,321.06167085534526
874,1685766074.23,42.969,180.664,4.395,-56.641,627.123,311.71500896937874
875,1685766074.23,-89.844,57.617,24.902,-54.199,627.127,313.00190785810247
876,1685766074.23,-95.703,313.965,143.066,-18.066,627.142,308.2725240667598
877,1685766074.24,40.527,452.637,167.48,-11.719,627.146,318.599189076123
878,1685766074.24,59.57,218.75,14.16,-45.41,627.15,307.6421277019929
879,1685766074.24,-56.641,86.426,-10.742,-55.664,627.154,303.6048423576958
880,1685766074.25,-104.492,163.086,58.594,-6.348,627.158,299.6655951410397
881,1685766074.25,13.184,109.863,56.641,3.418,627.162,308.36911648591274
882,1685766074.26,83.496,-461.426,-210.938,-20.508,627.166,299.3327826088375
883,1685766074.26,-17.578,-847.656,-336.426,-38.574,627.17,295.01015057515605
884,1685766074.26,-107.422,-261.23,11.719,-17.578,627.174,283.81774933869553
885,1685766074.27,-27.344,139.16,71.289,11.23,627.178,292.2256902928386
886,1685766074.27,72.754,-332.52,-88.379,-14.648,627.182,280.40255535208354
887,1685766074.28,23.438,-269.043,-16.602,-47.363,627.185,278.9437400654463
888,1685766074.28,-92.285,336.914,124.023,-31.738,627.189,277.9922725291958
889,1685766074.28,-65.43,142.09,47.363,0.977,627.193,273.0445204152094
890,1685766074.29,69.336,121.582,57.617,-8.789,627.197,266.8981209850696
891,1685766074.29,56.641,428.223,145.02,-41.016,627.201,276.33573224633847
892,1685766074.29,-63.965,318.848,92.773,-31.25,627.205,254.74705805997914
893,1685766074.3,-83.008,-340.82,-187.988,14.648,627.209,264.2644150720529
894,1685766074.3,25.391,-521.973,-171.387,10.254,627.212,262.9869301779405
895,1685766074.3,67.871,222.168,149.414,-40.527,627.216,259.8535042018999
896,1685766074.31,-49.805,387.207,92.285,-47.852,627.22,256.27469408017316
897,1685766074.31,-103.027,-76.172,-23.926,5.371,627.224,264.74020307383864
898,1685766074.32,10.742,-149.414,-44.922,21.484,627.228,263.25981832279496
899,1685766074.32,82.52,179.199,84.961,-13.672,627.232,258.68761844296216
900,1685766074.35,14.16,303.223,79.102,-41.992,627.252,257.95487792084276
901,1685766074.36,-95.703,-303.711,-132.812,-20.508,627.256,252.39327567716572
902,1685766074.36,-43.457,-340.332,-33.203,11.719,627.26,261.2939172006913
903,1685766074.37,63.477,357.91,159.668,-6.348,627.264,261.55521348219315
904,1685766074.37,20.02,341.309,71.289,-36.621,627.268,258.11588679206824
905,1685766074.37,-91.309,-219.238,-160.645,-12.695,627.272,260.0324038708
906,1685766074.38,-78.613,-375.0,-111.816,24.414,627.275,258.57203349681544
907,1685766074.38,38.574,-75.684,33.691,7.324,627.279,265.8837463176553
908,1685766074.38,69.824,369.141,74.707,-28.32,627.294,260.2489397997911
909,1685766074.38,47.852,212.891,59.082,-39.062,627.283,265.84846870405073
910,1685766074.39,-47.363,-175.781,-93.75,-46.387,627.298,267.58401290082566
911,1685766074.39,-74.707,-479.492,-296.875,-44.434,627.287,262.16932637532096
912,1685766074.39,-138.672,-49.805,17.578,-16.602,627.302,269.558088586279
913,1685766074.39,-113.281,-736.816,-253.418,-2.441,627.291,270.5163062957646
914,1685766074.4,-41.504,425.293,202.637,2.441,627.305,267.87438973514065
915,1685766074.4,18.066,333.008,205.566,3.418,627.295,271.3196531525465
916,1685766074.4,57.129,234.863,31.25,-17.578,627.309,270.7299955862246
917,1685766074.4,-16.602,-396.484,-226.074,-50.293,627.313,274.2603096066325
918,1685766074.41,-125.0,-253.906,-27.344,-43.945,627.317,275.0483534261025
919,1685766074.41,-65.918,245.117,162.109,-10.254,627.321,277.36896226064636
920,1685766074.41,44.922,35.156,-31.25,-18.066,627.325,273.5350818403706
921,1685766074.42,14.16,-107.91,-92.773,-52.246,627.329,269.6202609930815
922,1685766074.42,-95.215,155.762,75.684,-40.527,627.333,263.88312404613055
923,1685766074.43,-95.215,311.523,156.738,0.488,627.337,270.6962801885619
924,1685766074.43,25.879,-154.297,-85.938,-3.906,627.324,265.1147979993457
925,1685766074.43,38.574,-782.227,-313.477,-40.527,627.328,268.3550170476344
926,1685766074.44,-64.941,-127.441,27.344,-49.805,627.332,269.96910770631575
927,1685766074.44,-107.422,156.738,76.66,-16.113,627.336,262.6141416740806
928,1685766074.44,-1.465,-129.883,-38.574,-5.859,627.34,265.6904290610644
929,1685766074.45,73.73,-142.578,-18.555,-23.926,627.344,263.20805324284703
930,1685766074.45,-21.484,-118.652,-17.09,-38.574,627.348,269.3363488813354
931,1685766074.46,-119.629,-142.578,-39.062,-10.254,627.352,264.89398689893875
932,1685766074.46,-41.016,-638.184,-204.59,7.324,627.356,268.2157198699272
933,1685766074.46,54.688,-424.805,-97.168,-25.391,627.359,266.3619958542737
934,1685766074.47,4.395,323.242,142.09,-61.523,627.363,262.75888701465266
935,1685766074.47,-94.238,76.66,47.852,-32.227,627.367,264.2068871983709
936,1685766074.47,-60.547,-709.961,-273.438,13.184,627.369,272.48025676407593
937,1685766074.48,55.664,-542.969,-154.297,-14.16,627.373,278.6539084170222
938,1685766074.48,46.875,483.398,261.23,-48.828,627.377,276.0800231911883
939,1685766074.48,-79.59,164.551,0.488,-43.457,627.381,272.99064275645105
940,1685766074.49,-101.562,-88.867,-31.25,-17.578,627.385,281.5926132755118
941,1685766074.49,29.785,88.379,114.746,-13.672,627.389,275.9452644397158
942,1685766074.5,57.129,104.98,88.867,-51.27,627.393,279.1343928745388
943,1685766074.5,-64.941,-234.375,-148.926,-70.801,627.397,283.40051098456763
944,1685766074.5,-125.977,-847.168,-335.938,-30.762,627.4,275.0626229859345
945,1685766074.51,-18.555,-92.285,118.652,-25.879,627.404,280.66747391197833
946,1685766074.51,54.199,596.68,223.145,-61.523,627.408,276.19345206946144
947,1685766074.52,-44.434,157.715,26.855,-92.773,627.412,284.1462680553881
948,1685766074.52,-153.32,63.965,70.312,-76.172,627.428,279.0877548952364
949,1685766074.52,-84.961,420.41,207.52,-53.223,627.432,283.32196303553593
950,1685766074.53,19.531,520.508,188.477,-82.031,627.436,290.75153979547525
951,1685766074.53,-37.598,198.242,52.246,-110.352,627.44,286.4430569868627
952,1685766074.53,-163.086,46.387,57.129,-102.051,627.444,285.05132491430004
953,1685766074.54,-145.996,4.395,72.266,-67.871,627.448,283.24453018170595
954,1685766074.54,-17.578,62.012,104.004,-78.125,627.451,285.0974401411008
955,1685766074.54,-9.277,-435.059,-200.684,-103.516,627.455,300.38695170435255
956,1685766074.55,-113.77,-871.094,-371.582,-88.867,627.459,292.2507559965351
957,1685766074.55,-134.277,-179.688,46.875,-44.434,627.463,295.81755388964143
958,1685766074.56,-13.672,227.051,128.906,-32.227,627.467,301.90727855270194
959,1685766074.56,38.574,60.059,82.52,-62.012,627.471,308.83857099388916
960,1685766074.56,-76.66,106.934,91.309,-76.172,627.459,309.39408235390596
961,1685766074.57,-141.602,303.223,116.211,-37.109,627.463,306.50896950262955
962,1685766074.57,-25.879,195.801,88.867,-20.508,627.467,303.0023165251284
963,1685766074.58,66.895,214.844,82.52,-41.016,627.471,304.87986105575465
964,1685766074.58,10.254,329.102,93.75,-53.223,627.475,305.49741071439627
965,1685766074.58,-86.914,40.527,34.668,-25.879,627.479,313.4221665018196
966,1685766074.59,-28.32,-357.91,-122.559,16.113,627.483,307.6107540880874
967,1685766074.59,90.332,-491.211,-117.676,12.207,627.487,316.0043726202258
968,1685766074.59,60.059,120.605,153.809,-19.043,627.491,306.6249353072772
969,1685766074.6,-53.711,336.914,110.84,-6.348,627.494,318.3364002194351
970,1685766074.6,-45.898,-44.922,13.184,28.809,627.498,301.8570863123396
971,1685766074.61,73.242,-120.117,22.461,18.066,627.502,307.6362091074012
972,1685766074.61,92.773,155.273,99.609,-11.23,627.508,303.2642620567718
973,1685766074.61,-18.555,276.855,97.656,-5.859,627.512,305.37665196097873
974,1685766074.62,-58.594,-289.551,-49.805,37.598,627.515,313.23861629481166
975,1685766074.62,59.57,-233.887,37.109,47.363,627.519,305.55384930333264
976,1685766074.62,118.164,367.676,180.176,18.555,627.523,312.26234137872916
977,1685766074.63,17.578,84.961,-0.488,-7.324,627.527,318.6153559502344
978,1685766074.63,-66.406,-695.801,-349.609,32.227,627.531,309.3031896807138
979,1685766074.64,27.832,-726.074,-212.891,62.012,627.535,325.3924248529276
980,1685766074.64,129.883,235.352,186.523,24.414,627.539,323.47217299582167
981,1685766074.64,66.895,300.781,58.105,2.93,627.543,319.17911506040116
982,1685766074.65,-44.922,-280.762,-111.816,31.738,627.547,316.8838559839501
983,1685766074.65,10.254,-63.965,87.891,69.336,627.551,317.09449388702274
984,1685766074.67,133.301,498.535,236.816,53.711,627.564,306.5521652904099
985,1685766074.67,98.633,261.23,41.016,14.16,627.568,312.69697279620624
986,1685766074.68,-35.156,-311.035,-111.816,21.484,627.572,312.98480880065756
987,1685766074.68,-47.852,-55.176,71.777,52.246,627.576,311.6552766908749
988,1685766074.68,77.637,427.734,197.266,49.805,627.58,305.26001735665903
989,1685766074.69,100.098,0.0,-45.41,19.531,627.584,309.8793517308649
990,1685766074.69,-18.555,-852.051,-360.84,2.93,627.588,310.9859264333541
991,1685766074.7,-64.453,-366.699,-32.227,34.668,627.592,309.46365755694444
992,1685766074.7,54.688,456.055,243.164,53.711,627.596,307.90847332899506
993,1685766074.7,117.188,240.723,97.168,27.832,627.6,318.01531891036143
994,1685766074.71,20.996,62.012,74.707,-0.977,627.604,306.7576810569262
995,1685766074.71,-76.172,217.773,147.949,9.277,627.607,314.2584377668075
996,1685766074.71,8.789,289.062,138.672,27.832,627.609,319.3445509296714
997,1685766074.72,112.793,171.387,116.699,2.441,627.613,304.4380992253309
998,1685766074.72,46.875,129.883,107.91,-28.809,627.617,327.8554455205027
999,1685766074.72,-50.781,167.969,106.445,-5.371,627.621,316.77640993054115
1000,1685766074.73,-9.766,80.566,50.293,20.996,627.625,319.6373427917758
1001,1685766074.73,91.797,-275.879,-67.383,14.648,627.629,320.85007940062087
1002,1685766074.74,74.707,-393.555,-50.293,-8.789,627.633,315.6993773581618
1003,1685766074.74,-38.574,-289.551,-37.598,-0.488,627.637,314.48995067510884
1004,1685766074.74,-61.035,-202.637,25.391,39.551,627.641,310.42261694046385
1005,1685766074.75,48.34,-624.023,-182.617,29.297,627.645,316.85857292213024
1006,1685766074.75,86.914,-744.141,-209.961,-10.742,627.648,307.5832506967311
1007,1685766074.76,-22.461,118.164,169.434,-29.297,627.652,312.25138514241127
1008,1685766074.76,-85.449,95.215,73.73,10.742,627.654,313.6159712718638
1009,1685766074.76,24.902,0.0,69.824,31.738,627.658,309.3102625068556
1010,1685766074.77,98.145,372.559,180.176,5.371,627.662,309.0716627395757
1011,1685766074.77,17.09,434.57,172.852,-14.16,627.666,306.4732741601558
1012,1685766074.77,-85.449,22.949,35.156,11.719,627.67,301.98828116681335
1013,1685766074.78,-27.344,-282.227,-24.902,33.691,627.674,309.640540415328
1014,1685766074.78,91.797,57.129,110.84,3.906,627.678,310.3696965857902
1015,1685766074.78,45.898,221.68,134.277,-38.086,627.681,312.52146006730294
1016,1685766074.79,-86.914,-366.211,-130.859,-22.461,627.685,304.5823233504173
1017,1685766074.79,-65.43,-884.277,-298.34,25.879,627.689,318.4734528414431
1018,1685766074.8,68.359,-51.27,143.066,20.02,627.693,313.1524268476613
1019,1685766074.8,69.824,475.586,210.449,-27.344,627.697,316.6091086039144
1020,1685766074.8,-55.664,-49.316,-9.766,-37.109,627.699,318.873899619984
1021,1685766074.81,-74.219,-19.043,92.285,2.93,627.703,318.2241761041002
1022,1685766074.81,50.293,385.742,225.586,3.906,627.707,310.96033144692717
1023,1685766074.82,78.125,413.086,165.527,-44.922,627.711,305.0625864769155
1024,1685766074.82,-56.152,9.766,49.805,-77.148,627.715,297.8148338309906
1025,1685766074.82,-142.09,-258.789,11.719,-45.898,627.719,302.10406429375143
1026,1685766074.83,-28.809,-172.852,61.035,-17.09,627.723,303.0295107100896
1027,1685766074.83,55.664,22.949,138.184,-57.129,627.727,306.5427930442543
1028,1685766074.83,-24.414,-509.277,-201.172,-89.844,627.73,293.94239805348025
1029,1685766074.84,-135.254,-869.141,-339.355,-57.129,627.734,297.29784554260954
1030,1685766074.84,-88.867,-116.699,114.746,-36.133,627.738,306.31376148556217
1031,1685766074.85,22.949,265.137,174.805,-64.941,627.742,303.3984625445915
1032,1685766074.85,-18.555,-45.898,75.195,-108.398,627.744,302.1522403307427
1033,1685766074.85,-130.371,43.945,166.504,-94.727,627.748,304.6695242715359
1034,1685766074.86,-124.512,367.676,217.285,-67.871,627.752,298.73395481575585
1035,1685766074.86,-12.207,249.512,152.832,-92.773,627.756,314.71811336165
1036,1685766074.86,6.348,111.328,77.148,-115.234,627.76,309.4448465589707
1037,1685766074.87,-125.488,-120.117,25.391,-127.93,627.764,306.0159933115071
1038,1685766074.87,-182.617,-51.27,128.906,-109.375,627.768,308.3050827923376
1039,1685766074.88,-94.727,-47.363,27.832,-122.559,627.772,301.31200868303125
1040,1685766074.88,-60.547,-447.266,-68.359,-173.828,627.776,314.9017739434922
1041,1685766074.88,-157.715,75.684,177.246,-194.336,627.779,312.0579281341887
1042,1685766074.89,-258.789,213.867,115.234,-187.5,627.783,314.82523363988656
1043,1685766074.89,-175.293,-37.598,104.98,-173.34,627.787,314.32764107051827
1044,1685766074.91,-62.5,37.109,155.273,-182.129,627.805,308.5844104460448
1045,1685766074.91,-109.375,150.391,148.926,-185.059,627.809,312.76212310255823
1046,1685766074.92,-217.285,187.012,155.273,-151.855,627.813,315.10206943481285
1047,1685766074.92,-178.711,-257.812,41.992,-124.512,627.817,302.9344569918852
1048,1685766074.92,-57.129,-138.184,108.887,-134.277,627.821,317.49843093092915
1049,1685766074.93,-78.613,85.938,109.375,-156.738,627.825,309.528245339343
1050,1685766074.93,-198.242,-190.918,73.73,-156.738,627.828,320.64087847745884
1051,1685766074.94,-190.43,-713.379,-154.297,-104.004,627.832,314.71064927973276
1052,1685766074.94,-17.578,237.305,214.844,-44.434,627.839,312.58432073771365
1053,1685766074.94,-53.223,-739.258,-91.309,-95.215,627.836,315.80333882661233
1054,1685766074.94,41.504,553.711,230.957,-78.125,627.843,325.72325557127584
1055,1685766074.94,-12.207,190.918,264.648,-125.0,627.84,329.6257435430147
1056,1685766074.95,-65.918,104.004,-4.395,-114.258,627.847,319.3058803118782
1057,1685766074.95,-112.793,166.992,94.238,-121.094,627.844,325.292463905092
1058,1685766074.95,-171.387,-393.066,-184.57,-87.891,627.851,326.8706872336314
1059,1685766074.95,-144.043,-115.723,103.027,-73.242,627.848,329.99536394318113
1060,1685766074.95,-87.891,16.113,30.273,-59.082,627.855,321.26366894414434
1061,1685766074.96,17.578,186.035,71.777,-77.637,627.859,320.76227008231587
1062,1685766074.96,-26.855,-315.43,-251.465,-90.332,627.863,319.06648260944695
1063,1685766074.96,-120.605,-595.703,-305.176,-53.711,627.867,320.95007955195047
1064,1685766074.97,-70.312,19.043,91.797,-12.695,627.871,315.54774701669544
1065,1685766074.97,62.012,547.852,187.5,-16.113,627.875,322.0218327522147
1066,1685766074.98,46.387,-47.852,-168.457,-31.25,627.879,320.96585414643135
1067,1685766074.98,-74.707,-786.133,-415.039,-25.391,627.882,323.72390038515476
1068,1685766074.98,-88.379,-115.723,-12.695,9.277,627.879,320.7237848675989
1069,1685766074.99,45.41,364.258,105.957,20.996,627.883,319.6894165037025
1070,1685766074.99,86.426,166.016,-52.246,-11.23,627.887,320.95161115205997
1071,1685766075.0,-20.02,110.352,-15.625,-24.414,627.891,316.4706012889775
1072,1685766075.0,-57.129,103.027,-0.977,15.137,627.895,307.1089026302927
1073,1685766075.0,51.27,-29.785,-112.305,30.273,627.899,324.7720785615349
1074,1685766075.01,122.559,-514.16,-326.66,17.09,627.902,316.943431028731
1075,1685766075.01,44.434,-861.328,-437.988,3.906,627.906,306.99547109536945
1076,1685766075.01,-66.895,-271.484,-125.977,26.855,627.91,311.8681837010466
1077,1685766075.02,6.836,117.188,-7.812,57.129,627.914,316.17311851003933
1078,1685766075.02,120.605,-419.434,-174.805,42.48,627.918,309.1181405420074
1079,1685766075.03,84.961,-328.613,-85.449,14.648,627.922,304.07732795425824
1080,1685766075.03,-11.23,281.25,98.145,37.598,627.939,305.0319332621372
1081,1685766075.03,2.93,68.848,-10.742,79.102,627.943,315.60264567121163
1082,1685766075.04,112.305,-15.137,-77.148,63.477,627.947,311.66830096808076
1083,1685766075.04,111.816,272.949,49.805,27.832,627.951,314.91263541518316
1084,1685766075.04,-3.418,231.934,10.742,25.391,627.955,304.38754323354914
1085,1685766075.05,-28.32,-368.164,-291.504,67.871,627.959,306.6917416644258
1086,1685766075.05,94.727,-675.781,-336.426,75.684,627.963,312.2750113853644
1087,1685766075.06,145.996,40.527,32.227,38.086,627.966,299.7522574999521
1088,1685766075.06,39.062,115.234,-55.176,21.484,627.97,308.36112362254636
1089,1685766075.06,-37.109,-570.801,-333.496,64.453,627.974,296.23045729793057
1090,1685766075.07,58.105,-399.414,-174.316,80.078,627.978,301.6629170298543
1091,1685766075.07,148.438,374.512,116.211,42.969,627.982,309.24019047831075
1092,1685766075.09,70.312,309.57,45.41,17.578,627.984,303.93664013408306
1093,1685766075.09,-43.457,-145.508,-97.168,36.133,627.988,298.8035320972199
1094,1685766075.1,18.555,-2.441,-1.465,73.73,627.992,298.0432908579942
1095,1685766075.1,139.16,426.27,157.227,50.293,627.996,296.0053952882713
1096,1685766075.1,106.445,336.426,4.395,2.93,628.0,294.2928231909415
1097,1685766075.11,-24.414,-319.336,-223.633,15.625,628.003,296.0726670043507
1098,1685766075.11,-22.949,-500.0,-218.262,53.223,628.007,293.6328955949391
1099,1685766075.12,105.957,-175.293,-113.77,50.781,628.011,292.8468281074622
1100,1685766075.12,106.934,-35.156,-69.824,15.625,628.015,296.91160489578925
1101,1685766075.12,-21.973,-569.824,-374.512,6.348,628.019,296.7453096653755
1102,1685766075.13,-74.707,-811.035,-364.746,40.527,628.023,300.989868465628
1103,1685766075.13,43.457,-37.598,82.52,46.875,628.027,294.8615587992767
1104,1685766075.13,112.793,181.152,54.199,10.742,628.029,296.2862286926893
1105,1685766075.14,13.184,-278.809,-182.617,-12.695,628.033,290.21056341686756
1106,1685766075.14,-83.496,-153.32,-35.156,24.902,628.037,301.37962283813306
1107,1685766075.14,0.488,322.754,146.484,47.363,628.041,287.7148492013467
1108,1685766075.15,97.168,143.066,-41.992,14.16,628.045,291.4693984219856
1109,1685766075.15,25.391,-464.355,-322.266,-22.461,628.049,294.6646249574047
1110,1685766075.16,-90.332,-324.219,-141.113,-6.348,628.052,299.3114067537476
1111,1685766075.16,-43.457,184.57,116.699,26.855,628.056,290.9795657773517
1112,1685766075.16,75.195,-104.492,-93.262,9.277,628.06,286.56597707416046
1113,1685766075.17,46.875,-604.004,-307.617,-34.668,628.064,299.6494675221377
1114,1685766075.17,-76.172,-91.797,31.25,-31.25,628.068,291.31245158501576
1115,1685766075.18,-75.195,207.031,137.695,4.395,628.072,294.06751270583953
1116,1685766075.18,50.293,62.012,18.066,1.953,628.079,298.2605218744142
1117,1685766075.18,65.43,-71.777,-62.012,-32.227,628.083,290.0951750881933
1118,1685766075.19,-53.711,0.488,3.906,-45.898,628.087,302.34666293534775
1119,1685766075.19,-98.145,174.805,102.539,3.418,628.09,287.5393271175964
1120,1685766075.2,12.695,-218.75,-67.383,22.461,628.094,297.91503124843354
1121,1685766075.2,72.266,-433.105,-113.281,-16.602,628.098,298.84997316007235
1122,1685766075.2,-8.789,-248.047,-46.875,-41.992,628.102,298.5165411476443
1123,1685766075.21,-107.422,-225.098,-89.844,-11.719,628.106,295.3780108431137
1124,1685766075.21,-36.133,-660.156,-291.016,21.973,628.11,302.4820098538802
1125,1685766075.21,74.219,-733.398,-188.965,0.977,628.114,304.41271030676126
1126,1685766075.22,18.066,140.625,145.996,-44.922,628.118,292.9303801153873
1127,1685766075.22,-92.773,106.934,31.25,-31.25,628.122,292.97381291872176
1128,1685766075.22,-65.918,-49.805,50.293,1.953,628.12,288.17660987625095
1129,1685766075.23,58.105,352.539,176.758,-13.672,628.123,298.4336690167342
1130,1685766075.23,58.594,501.953,135.254,-42.48,628.127,287.2918579649957
1131,1685766075.24,-64.941,41.016,-23.438,-35.156,628.131,303.5755797555621
1132,1685766075.24,-83.984,-298.828,-76.66,-1.465,628.135,289.1751375284223
1133,1685766075.24,31.25,-78.125,57.617,-7.324,628.139,300.3152439237675
1134,1685766075.25,66.895,71.289,102.051,-37.598,628.143,293.19638647657507
1135,1685766075.25,-39.062,-285.156,-147.461,-44.922,628.147,299.89865628877897
1136,1685766075.25,-112.305,-885.742,-354.98,-3.418,628.151,282.32013157983636
1137,1685766075.26,-13.184,-207.031,78.613,4.395,628.155,290.595422184282
1138,1685766075.26,69.336,488.77,215.332,-35.645,628.159,310.65893348072836
1139,1685766075.27,-13.672,96.191,17.578,-57.129,628.162,300.5672824044764
1140,1685766075.28,-119.629,-62.5,22.949,-25.391,628.18,297.7454323163121
1141,1685766075.29,-47.363,262.695,127.93,6.836,628.184,294.7301949479879
1142,1685766075.29,67.383,387.695,133.301,-19.531,628.187,297.5725994942776
1143,1685766075.3,21.973,126.465,39.551,-60.547,628.191,310.9498182176788
1144,1685766075.3,-95.703,-42.48,33.691,-48.828,628.195,306.9481721060909
1145,1685766075.3,-81.543,-155.762,22.461,0.0,628.199,301.1501285090472
1146,1685766075.31,43.945,-72.754,82.52,-10.254,628.203,303.45008487318853
1147,1685766075.31,42.48,-438.965,-182.617,-41.016,628.207,301.24597337392044
1148,1685766075.31,-52.734,251.953,118.164,-74.707,628.209,296.0973845998606
1149,1685766075.31,-97.656,-1000.0,-431.641,-48.34,628.211,300.5754824283686
1150,1685766075.32,-132.812,325.684,164.062,-40.527,628.213,298.3171346135449
1151,1685766075.32,-124.023,-237.305,63.477,-26.855,628.215,289.0102367641898
1152,1685766075.32,-43.457,169.922,107.91,-25.879,628.217,305.6864597628741
1153,1685766075.32,5.859,278.809,167.48,-20.02,628.219,301.43036637056434
1154,1685766075.32,41.016,71.289,55.664,-60.547,628.221,293.40373742654754
1155,1685766075.33,54.688,118.652,70.312,-54.199,628.223,295.9232232635417
1156,1685766075.33,-41.992,244.629,126.465,-109.375,628.225,293.1140279875201
1157,1685766075.33,-154.297,-43.457,41.992,-84.473,628.229,303.4217245605689
1158,1685766075.34,-117.188,-362.793,-38.086,-65.43,628.232,302.1877971375025
1159,1685766075.34,-2.93,-12.207,82.031,-101.562,628.236,300.260972814096
1160,1685766075.34,-27.344,246.094,106.445,-131.348,628.24,297.72206441846083
1161,1685766075.35,-181.152,-24.414,42.969,-157.227,628.244,300.17607561565535
1162,1685766075.35,-187.012,-472.656,-112.793,-127.93,628.248,303.2909629009969
1163,1685766075.36,-87.402,-820.312,-202.637,-162.109,628.252,309.54023277622923
1164,1685766075.36,-103.027,-39.062,152.344,-236.328,628.255,306.52397541623435
1165,1685766075.36,-218.262,305.664,194.824,-244.629,628.259,304.5028781232387
1166,1685766075.37,-255.371,-108.887,174.316,-191.406,628.263,305.4893323155861
1167,1685766075.37,-135.742,173.828,287.109,-171.387,628.267,307.3541329711314
1168,1685766075.37,-87.891,464.844,260.742,-208.008,628.271,297.73459693007817
1169,1685766075.38,-203.613,110.352,168.457,-234.863,628.275,303.69169800181703
1170,1685766075.38,-284.18,-664.551,-154.297,-204.102,628.279,297.9989207058805
1171,1685766075.38,-194.824,-721.68,-72.754,-190.43,628.282,306.09402417463855
1172,1685766075.39,-83.496,294.434,338.867,-211.914,628.286,293.5466968418095
1173,1685766075.39,-131.348,393.555,180.176,-218.75,628.29,298.6351587844567
1174,1685766075.4,-227.539,-164.062,108.398,-184.57,628.294,301.7324074076921
1175,1685766075.4,-168.457,-117.188,152.832,-144.531,628.298,299.628780400963
1176,1685766075.4,-47.852,249.023,228.027,-149.414,628.313,294.58488623079717
1177,1685766075.41,-56.641,194.824,146.484,-160.645,628.317,297.6102306822975
1178,1685766075.41,-165.527,-218.262,-9.766,-142.578,628.321,288.72642634913274
1179,1685766075.42,-173.34,-12.207,133.789,-117.188,628.324,298.81494268599016
1180,1685766075.42,-37.109,386.719,248.047,-104.98,628.328,303.6384318130428
1181,1685766075.42,10.742,21.973,-18.066,-107.91,628.332,309.0728310582731
1182,1685766075.43,-98.633,-790.527,-344.727,-103.516,628.336,302.7379232576537
1183,1685766075.43,-138.672,-364.746,11.23,-54.199,628.34,302.6270047027428
1184,1685766075.44,-5.371,270.996,126.953,-17.578,628.344,305.3419730690016
1185,1685766075.44,56.641,37.109,-39.062,-42.48,628.348,312.9966758895154
1186,1685766075.44,-38.574,-86.426,-42.969,-67.383,628.352,302.7634364305753
1187,1685766075.45,-109.863,100.586,36.133,-32.715,628.356,308.15271063347126
1188,1685766075.46,-34.18,186.523,51.758,-7.324,628.363,303.266353189591
1189,1685766075.47,63.965,49.316,-61.523,-31.738,628.366,304.45912857254115
1190,1685766075.47,18.066,-217.773,-221.68,-47.852,628.37,303.1000822960202
1191,1685766075.48,-92.773,-149.902,-226.074,-18.066,628.374,300.25980565471576
1192,1685766075.48,-52.734,161.133,-104.98,23.926,628.378,295.4414106925074
1193,1685766075.48,77.148,-415.039,-376.953,20.508,628.382,311.7660779184886
1194,1685766075.49,60.059,-886.23,-521.973,-19.043,628.386,305.9470616603692
1195,1685766075.49,-58.105,-404.785,-250.488,-21.484,628.39,305.02063230331515
1196,1685766075.5,-66.406,-37.598,-138.672,22.461,628.394,303.55469283059284
1197,1685766075.5,56.641,-453.125,-308.594,32.227,628.398,305.1973962049847
1198,1685766075.5,101.562,-335.938,-202.637,0.0,628.402,307.0035941891566
1199,1685766075.51,-5.371,291.016,-17.09,-23.926,628.405,306.4207866402076
1200,1685766075.51,-75.195,-2.93,-170.41,13.672,628.418,308.78546048788627
1201,1685766075.51,29.785,-33.203,-136.23,48.34,628.422,317.8429192049209
1202,1685766075.52,114.258,302.734,32.715,24.902,628.426,318.37851335816293
1203,1685766075.52,30.762,322.266,20.02,-6.348,628.43,302.7007923007481
1204,1685766075.52,-79.59,-91.797,-208.008,15.625,628.434,309.47421614508715
1205,1685766075.53,-16.113,-406.25,-353.027,42.48,628.438,297.9883921298953
1206,1685766075.53,99.121,-193.848,-212.891,25.391,628.442,308.38189334501806
1207,1685766075.54,53.711,-44.434,-178.223,-11.23,628.446,306.99435288330994
1208,1685766075.54,-60.059,-432.129,-397.461,10.254,628.45,306.71654708296427
1209,1685766075.54,-57.129,-913.086,-482.91,56.641,628.454,306.23387023484827
1210,1685766075.55,60.059,-104.492,20.508,29.297,628.458,301.50686981585363
1211,1685766075.55,83.496,512.695,120.605,-15.625,628.461,301.73884322104556
1212,1685766075.55,-31.738,41.504,-103.516,-10.742,628.449,301.6745489565812
1213,1685766075.56,-65.43,-56.641,-44.922,37.598,628.453,296.02014499275225
1214,1685766075.56,56.641,315.918,97.168,34.668,628.457,306.57662364315496
1215,1685766075.56,104.004,454.59,72.266,-10.742,628.461,311.2846238121111
1216,1685766075.57,-11.23,-120.605,-200.684,-20.996,628.465,301.21488832264146
1217,1685766075.57,-87.891,-504.883,-290.527,20.02,628.468,299.6466067734648
1218,1685766075.58,12.695,-210.449,-147.461,38.086,628.472,306.8088066888233
1219,1685766075.58,95.703,-69.824,-180.176,2.441,628.476,311.28573629524004
1220,1685766075.58,13.672,-421.387,-258.789,-26.855,628.48,304.22310336324244
1221,1685766075.59,-87.402,-324.219,-80.078,-1.953,628.484,300.2530216149135
1222,1685766075.59,-32.227,251.465,74.707,30.762,628.488,308.2839104585196
1223,1685766075.6,84.473,358.398,60.059,12.207,628.492,304.40492490734715
1224,1685766075.6,52.734,-517.578,-357.422,-14.16,628.495,315.68192767871466
1225,1685766075.6,-79.102,-875.488,-424.316,-15.625,628.499,307.28710531239403
1226,1685766075.61,-75.195,71.289,83.496,1.465,628.503,312.47432850890186
1227,1685766075.61,56.152,281.738,77.148,-1.465,628.507,307.3092488877692
1228,1685766075.61,74.707,58.105,-55.176,-30.762,628.511,310.0515362198777
1229,1685766075.62,-50.781,-70.801,-84.473,-41.016,628.514,305.47288159227463
1230,1685766075.62,-104.004,-134.277,-108.887,-12.695,628.518,310.53389146366936
1231,1685766075.62,15.137,-284.668,-195.801,-2.441,628.522,305.89151083808235
1232,1685766075.63,75.195,-484.863,-237.305,-25.391,628.526,315.096685790496
1233,1685766075.63,-15.625,-37.109,-1.953,-41.504,628.53,308.1655856044342
1234,1685766075.64,-104.98,24.902,28.32,-9.766,628.534,314.1393262491874
1235,1685766075.64,-42.48,-363.281,-125.0,7.324,628.538,304.8918664091656
1236,1685766075.64,55.664,-129.883,-45.898,-23.438,628.539,309.34012390353814
1237,1685766075.65,5.859,396.484,145.508,-60.059,628.543,312.6428564037478
1238,1685766075.65,-108.398,221.68,83.008,-48.828,628.547,306.82663737531504
1239,1685766075.66,-75.684,24.902,39.551,-15.137,628.551,313.20165881528123
1240,1685766075.66,38.086,241.211,81.543,-23.438,628.555,310.51318247513063
1241,1685766075.66,13.184,163.086,-5.859,-53.711,628.559,308.1420668773497
1242,1685766075.67,-105.957,-143.066,-141.602,-51.27,628.563,309.7613589861591
1243,1685766075.67,-107.91,-687.988,-323.242,-17.578,628.567,308.53953594917783
1244,1685766075.67,16.602,-770.996,-274.414,-20.02,628.57,308.1546743317222
1245,1685766075.68,54.199,201.172,116.699,-58.105,628.574,314.0943755820954
1246,1685766075.68,-56.152,243.164,5.859,-74.219,628.578,307.70770371381343
1247,1685766075.69,-128.418,-81.543,-70.801,-39.551,628.582,318.1824338752387
1248,1685766075.69,-29.785,62.988,66.406,-26.855,628.588,314.3994665351768
1249,1685766075.69,50.781,266.602,110.84,-55.664,628.592,315.64157310845457
1250,1685766075.7,-24.414,101.074,-24.414,-68.848,628.596,314.0956929455172
1251,1685766075.7,-125.488,-334.961,-123.535,-32.715,628.6,313.2657561822351
1252,1685766075.7,-61.035,31.25,83.984,-16.602,628.604,315.1549236919361
1253,1685766075.71,57.617,233.887,96.191,-44.922,628.607,308.10607947569036
1254,1685766075.71,13.672,-194.336,-125.977,-76.172,628.611,315.63494719369464
1255,1685766075.72,-114.258,-646.484,-271.484,-62.012,628.615,312.7309720541137
1256,1685766075.72,-88.867,-39.062,79.102,-22.949,628.619,311.54722545215344
1257,1685766075.72,36.621,502.441,188.965,-30.762,628.623,308.23906059676966
1258,1685766075.73,28.32,117.188,-18.555,-68.359,628.627,312.2833380356889
1259,1685766075.73,-93.262,-132.812,-65.43,-76.172,628.631,314.9783769557972
1260,1685766075.73,-116.699,193.848,99.121,-34.668,628.643,315.5479918979205
1261,1685766075.74,1.953,401.855,125.0,-27.832,628.647,329.354143771692
1262,1685766075.74,35.156,195.801,20.996,-66.406,628.651,311.04349447765276
1263,1685766075.74,-80.566,-154.785,-98.145,-88.379,628.654,316.38781074177933
1264,1685766075.75,-145.02,-135.254,-46.387,-58.105,628.658,323.2057106073475
1265,1685766075.75,-41.504,24.902,62.5,-33.203,628.662,321.9321545184919
1266,1685766075.76,33.203,-450.195,-225.098,-47.852,628.666,318.80412163826287
1267,1685766075.76,-51.27,-1000.0,-510.254,-73.242,628.67,318.4252972160372
1268,1685766075.76,-152.344,-366.211,-83.008,-54.688,628.674,313.1387429410201
1269,1685766075.77,-75.195,230.469,107.422,-23.438,628.678,317.53378747883664
1270,1685766075.77,39.551,193.848,49.316,-41.992,628.682,314.2036477060066
1271,1685766075.78,-0.977,336.914,109.375,-83.008,628.686,319.7244332978548
1272,1685766075.78,-114.746,321.777,90.82,-66.895,628.689,315.8498921789982
1273,1685766075.78,-99.609,109.863,56.152,-18.066,628.693,312.54273894141477
1274,1685766075.79,26.367,77.148,43.457,-36.133,628.697,310.6130283320159
1275,1685766075.79,37.109,348.633,116.211,-80.078,628.7,313.8374551695259
1276,1685766075.79,-72.266,228.516,45.898,-70.312,628.704,302.28152791476276
1277,1685766075.8,-109.863,-398.926,-266.602,-20.508,628.708,305.6062983480808
1278,1685766075.8,4.395,-682.129,-299.805,-7.812,628.712,317.5924253622846
1279,1685766075.8,55.664,-97.168,18.066,-42.48,628.716,310.06234841898464
1280,1685766075.81,-46.387,366.699,148.438,-57.617,628.72,318.319950290912
1281,1685766075.81,-125.488,-298.828,-162.598,-17.09,628.724,315.9014786312993
1282,1685766075.82,-40.527,-620.605,-239.258,-10.254,628.728,317.6483198073284
1283,1685766075.82,54.199,286.133,178.711,-41.016,628.732,318.4291538072115
1284,1685766075.84,-12.207,356.934,114.746,-49.805,628.734,321.1120490024651
1285,1685766075.84,-127.93,-137.207,-52.246,-27.344,628.738,320.22968991951774
1286,1685766075.85,-82.52,-54.199,25.391,1.465,628.742,320.8588356314604
1287,1685766075.85,37.109,343.75,155.762,-14.16,628.746,320.41326748222014
1288,1685766075.85,14.648,344.238,83.496,-49.805,628.75,309.41033163456484
1289,1685766075.86,-98.145,-236.328,-161.621,-37.598,628.754,309.1587607749439
1290,1685766075.86,-91.309,-490.234,-175.293,-0.488,628.757,320.0750528197074
1291,1685766075.86,32.715,-161.621,-0.977,-13.184,628.761,316.7998417898988
1292,1685766075.87,45.898,28.809,62.5,-51.758,628.765,315.02511592702206
1293,1685766075.87,-66.406,-582.031,-320.801,-58.105,628.769,310.8525865765124
1294,1685766075.88,-114.258,-947.754,-394.531,-14.648,628.773,324.826279081607
1295,1685766075.88,4.395,24.414,134.766,-8.789,628.777,307.72330375815943
