,timestamps,TP9,AF7,AF8,TP10,Secondary Timestamp,emg_signal
0,1686880004.863,-63.477,803.223,-29.785,-100.098,1232.761,378
1,1686880004.867,-64.941,375.488,-35.156,-82.031,1232.764,378
2,1686880004.871,-29.785,403.809,12.207,-15.137,1232.768,378
3,1686880004.875,-17.09,806.152,1.465,-9.766,1232.772,377
4,1686880004.879,-43.945,718.75,-41.992,-79.102,1232.776,377
5,1686880004.883,-60.059,36.133,-53.223,-86.426,1232.78,377
6,1686880004.887,-36.133,-174.805,3.906,-8.301,1232.784,377
7,1686880004.89,-13.184,420.898,20.02,21.973,1232.788,377
8,1686880004.894,-30.762,785.156,-20.02,-54.688,1232.792,377
9,1686880004.898,-66.406,-16.602,-82.031,-106.934,1232.796,377
10,1686880004.902,-53.711,-330.566,-11.719,-39.062,1232.8,378
11,1686880004.906,-22.949,676.758,26.367,19.531,1232.803,378
12,1686880004.907,-35.156,799.805,-40.039,-34.668,1232.804,378
13,1686880004.911,-59.57,214.844,-40.527,-108.398,1232.807,378
14,1686880004.915,-49.316,227.539,10.742,-62.988,1232.811,380
15,1686880004.919,-17.09,767.578,12.207,21.484,1232.815,380
16,1686880004.923,-14.648,710.449,-55.176,-1.465,1232.819,380
17,1686880004.927,-44.922,-155.762,-55.176,-83.496,1232.823,380
18,1686880004.931,-53.711,-152.344,24.902,-86.426,1232.827,380
19,1686880004.934,-19.531,686.523,13.672,-3.906,1232.831,380
20,1686880004.938,-19.043,683.594,-54.199,6.348,1232.835,380
21,1686880004.942,-67.383,-526.855,-93.75,-70.312,1232.839,379
22,1686880004.946,-85.449,-582.52,12.207,-113.77,1232.843,379
23,1686880004.95,-49.316,648.926,27.344,-49.805,1232.847,379
24,1686880004.952,-26.367,586.914,-29.785,9.277,1232.849,379
25,1686880004.956,-46.387,399.902,-26.367,-56.152,1232.853,378
26,1686880004.96,-68.848,588.379,-24.902,-128.418,1232.857,378
27,1686880004.964,-54.688,670.898,-13.184,-73.242,1232.86,378
28,1686880004.968,-29.785,493.652,-29.785,3.418,1232.864,378
29,1686880004.972,-46.387,209.961,-47.852,-44.922,1232.868,378
30,1686880004.976,-66.895,130.859,-16.113,-113.281,1232.872,378
31,1686880004.979,-55.176,479.98,-1.465,-78.125,1232.876,378
32,1686880004.983,-34.18,83.984,-55.176,6.836,1232.88,379
33,1686880004.987,-37.598,-218.262,-12.207,-11.23,1232.884,379
34,1686880004.991,-63.965,594.727,2.93,-95.215,1232.888,379
35,1686880004.995,-74.707,546.875,-49.805,-91.309,1232.892,379
36,1686880004.997,-44.434,334.473,-16.602,-12.207,1232.894,379
37,1686880005.001,-22.949,349.609,-11.719,5.859,1232.898,380
38,1686880005.005,-42.48,477.051,-23.926,-79.102,1232.902,380
39,1686880005.009,-60.547,583.496,-40.527,-117.188,1232.906,380
40,1686880005.013,-42.969,-152.344,-25.391,-40.039,1232.91,380
41,1686880005.017,-17.578,-236.328,30.273,17.578,1232.914,380
42,1686880005.021,-27.832,418.457,19.043,-45.898,1232.918,380
43,1686880005.024,-58.594,405.273,-37.598,-112.793,1232.922,378
44,1686880005.028,-56.152,-181.641,-37.598,-58.105,1232.925,378
45,1686880005.032,-26.855,230.957,42.969,12.695,1232.929,378
46,1686880005.036,-28.32,910.156,-13.672,-33.691,1232.933,378
47,1686880005.04,-59.082,502.441,-50.293,-98.145,1232.937,377
48,1686880005.042,-64.941,323.242,-6.348,-72.754,1232.939,377
49,1686880005.046,-34.18,683.594,11.23,8.301,1232.943,377
50,1686880005.05,-33.691,655.273,-34.18,16.113,1232.946,377
51,1686880005.054,-69.336,61.523,-56.152,-67.871,1232.95,378
52,1686880005.058,-81.055,-44.434,-11.719,-101.562,1232.954,378
53,1686880005.062,-40.039,324.219,-2.441,-20.02,1232.958,378
54,1686880005.066,-15.137,461.914,-10.254,17.09,1232.962,379
55,1686880005.069,-49.805,-89.355,-51.758,-59.082,1232.966,379
56,1686880005.073,-72.266,-367.188,-12.207,-96.68,1232.97,379
57,1686880005.077,-36.621,551.758,43.457,-29.785,1232.974,379
58,1686880005.081,-7.324,761.23,-12.207,31.25,1232.978,380
59,1686880005.085,-25.391,471.191,-20.508,-13.672,1232.982,380
60,1686880005.087,-55.664,444.824,-8.301,-83.008,1232.984,380
61,1686880005.091,-53.711,345.215,-26.367,-47.363,1232.988,380
62,1686880005.095,-22.949,271.484,-28.809,30.762,1232.992,379
63,1686880005.099,-20.02,24.414,-2.441,15.137,1232.996,379
64,1686880005.103,-46.875,107.91,16.113,-60.059,1233.0,379
65,1686880005.107,-55.664,315.918,-8.301,-49.805,1233.003,378
66,1686880005.111,-29.297,266.602,-14.16,35.645,1233.007,378
67,1686880005.114,-25.391,-416.016,-54.199,34.668,1233.011,378
68,1686880005.118,-53.223,-386.719,-3.418,-56.152,1233.015,378
69,1686880005.122,-56.641,603.027,9.277,-79.59,1233.019,377
70,1686880005.126,-25.391,459.473,-26.367,6.836,1233.023,377
71,1686880005.13,-5.371,423.828,-17.578,42.48,1233.027,377
72,1686880005.132,-33.691,739.746,-11.23,-44.434,1233.033,377
73,1686880005.136,-60.547,693.359,-39.062,-96.68,1233.037,378
74,1686880005.14,-45.41,347.656,-32.227,-28.809,1233.041,378
75,1686880005.144,-13.672,430.664,14.16,24.414,1233.045,378
76,1686880005.148,-25.391,665.527,-29.297,-27.832,1233.049,378
77,1686880005.152,-56.152,392.578,-51.27,-90.82,1233.053,379
78,1686880005.156,-46.875,-244.141,-55.664,-55.664,1233.057,379
79,1686880005.159,-17.09,-502.93,-24.902,26.367,1233.06,379
80,1686880005.163,-14.648,315.43,24.414,0.977,1233.064,380
81,1686880005.167,-53.223,687.5,-29.297,-85.938,1233.068,380
82,1686880005.171,-71.289,68.359,-38.574,-88.379,1233.072,380
83,1686880005.175,-41.504,90.82,10.254,-10.254,1233.076,379
84,1686880005.178,-21.973,746.094,-18.555,6.836,1233.075,379
85,1686880005.182,-48.828,499.023,-69.336,-68.359,1233.079,379
86,1686880005.186,-79.102,-194.824,-33.691,-95.703,1233.083,379
87,1686880005.19,-46.875,102.539,28.809,-27.832,1233.087,379
88,1686880005.194,-7.812,735.84,-10.254,23.926,1233.091,377
89,1686880005.198,-31.25,414.551,-69.336,-27.344,1233.094,377
90,1686880005.202,-60.547,-315.43,-35.645,-85.938,1233.098,377
91,1686880005.205,-42.48,10.742,37.109,-49.805,1233.102,377
92,1686880005.209,-13.672,831.543,14.16,19.043,1233.106,377
93,1686880005.213,-21.973,546.875,-40.039,-10.254,1233.11,377
94,1686880005.217,-44.434,123.535,-30.762,-83.984,1233.114,378
95,1686880005.221,-38.086,421.875,25.391,-61.035,1233.118,378
96,1686880005.224,-9.277,797.852,-1.953,5.859,1233.132,378
97,1686880005.228,-15.625,390.625,-42.48,-0.488,1233.135,378
98,1686880005.232,-44.434,73.73,-20.508,-71.777,1233.139,379
99,1686880005.236,-52.734,463.379,-3.418,-86.914,1233.143,379
100,1686880005.24,-34.18,699.219,-20.02,-14.648,1233.147,379
101,1686880005.244,-36.133,59.57,-78.613,0.977,1233.151,379
102,1686880005.248,-64.941,-728.027,-20.02,-71.289,1233.155,379
103,1686880005.251,-75.195,19.531,44.922,-120.605,1233.159,379
104,1686880005.255,-61.035,579.102,-16.602,-55.176,1233.163,379
105,1686880005.259,-31.25,473.145,-4.883,7.812,1233.167,378
106,1686880005.263,-39.551,556.152,-13.184,-51.27,1233.171,378
107,1686880005.267,-60.547,618.164,-41.016,-108.398,1233.175,378
108,1686880005.283,-46.875,462.891,-36.133,-54.688,1233.181,377
109,1686880005.287,-17.578,174.805,-38.086,5.859,1233.185,377
110,1686880005.291,-31.25,131.348,-14.16,-33.203,1233.189,377
111,1686880005.295,-70.312,402.832,-12.695,-112.305,1233.193,377
112,1686880005.299,-61.523,514.648,-44.922,-88.867,1233.196,377
113,1686880005.303,-26.855,-451.172,-70.312,15.625,1233.2,378
114,1686880005.307,-19.043,-619.141,-7.324,15.137,1233.204,378
115,1686880005.31,-39.551,523.438,5.859,-79.59,1233.208,378
116,1686880005.314,-44.434,393.555,-62.012,-87.402,1233.212,380
117,1686880005.318,-27.344,165.039,-28.32,-5.859,1233.216,380
118,1686880005.322,-14.648,608.887,8.301,26.367,1233.22,380
119,1686880005.326,-33.203,752.93,-23.926,-46.387,1233.224,380
120,1686880005.327,-62.012,316.406,-44.922,-102.051,1233.224,380
121,1686880005.331,-41.016,218.262,-8.789,-32.227,1233.227,380
122,1686880005.335,-7.812,639.648,-5.371,24.902,1233.231,380
123,1686880005.339,-23.926,480.469,-53.711,-31.25,1233.235,380
124,1686880005.343,-63.477,-97.656,-42.48,-102.051,1233.239,378
125,1686880005.347,-55.664,-243.652,2.93,-64.941,1233.243,378
126,1686880005.351,-20.02,186.035,13.184,21.484,1233.247,378
127,1686880005.354,-27.832,616.211,-11.719,-2.93,1233.251,378
128,1686880005.358,-58.594,-66.406,-78.613,-72.266,1233.255,378
129,1686880005.362,-58.594,-697.266,-15.625,-57.617,1233.259,378
130,1686880005.366,-24.414,300.293,48.34,9.277,1233.263,378
131,1686880005.37,-10.254,707.52,-20.02,11.23,1233.267,379
132,1686880005.372,-37.109,319.336,-45.898,-61.523,1233.268,379
133,1686880005.376,-57.129,71.777,-31.738,-90.332,1233.272,379
134,1686880005.38,-30.762,312.5,-6.836,-15.137,1233.276,379
135,1686880005.384,-8.301,636.23,-28.809,21.484,1233.28,380
136,1686880005.388,-29.297,34.18,-46.387,-44.434,1233.284,380
137,1686880005.392,-59.57,-262.207,-5.859,-91.309,1233.288,380
138,1686880005.396,-49.805,93.262,-0.488,-40.527,1233.292,381
139,1686880005.399,-14.16,245.605,-40.039,12.695,1233.296,381
140,1686880005.403,-20.996,-481.445,-71.289,-26.855,1233.3,381
141,1686880005.407,-41.504,-448.73,0.0,-83.008,1233.304,381
142,1686880005.411,-31.25,555.664,-4.883,-49.805,1233.307,380
143,1686880005.415,-25.391,472.656,-31.738,17.09,1233.311,380
144,1686880005.417,-34.18,390.137,-12.207,-6.836,1233.313,380
145,1686880005.421,-61.035,606.445,-12.695,-74.707,1233.317,380
146,1686880005.425,-63.477,585.938,-28.32,-66.406,1233.321,379
147,1686880005.429,-33.691,352.051,-14.16,4.395,1233.325,379
148,1686880005.433,-16.602,409.668,-11.719,26.367,1233.329,379
149,1686880005.437,-31.738,331.543,-48.828,-35.156,1233.333,378
150,1686880005.441,-50.781,167.48,-30.273,-57.129,1233.337,378
151,1686880005.444,-22.461,-228.516,-28.32,30.273,1233.341,378
152,1686880005.448,5.859,-506.348,9.277,78.613,1233.345,378
153,1686880005.452,-7.324,322.754,23.926,12.207,1233.348,379
154,1686880005.456,-26.855,555.176,-45.41,-39.062,1233.352,379
155,1686880005.46,-8.789,59.082,-15.137,21.484,1233.356,379
156,1686880005.477,24.414,229.98,32.715,89.355,1233.374,380
157,1686880005.481,16.602,449.219,-23.926,51.758,1233.377,380
158,1686880005.485,-9.766,177.734,-54.199,-14.648,1233.381,380
159,1686880005.489,-3.906,-177.246,-6.836,9.277,1233.385,380
160,1686880005.493,34.18,87.891,32.715,85.938,1233.389,379
161,1686880005.497,46.387,408.691,-19.043,78.125,1233.393,379
162,1686880005.501,6.348,158.691,-54.688,-3.418,1233.397,379
163,1686880005.504,-9.766,-332.031,-41.504,-17.578,1233.401,379
164,1686880005.508,29.785,18.555,27.344,54.199,1233.405,378
165,1686880005.508,-5.371,385.254,2.93,17.09,1233.405,378
166,1686880005.512,47.852,819.336,-9.766,74.707,1233.409,378
167,1686880005.512,14.648,785.645,-20.02,72.754,1233.409,378
168,1686880005.516,14.16,463.379,-74.707,-5.371,1233.413,378
169,1686880005.516,1.465,281.25,-77.637,22.949,1233.413,378
170,1686880005.52,-20.02,-142.578,-41.992,-50.781,1233.417,378
171,1686880005.52,-17.09,42.48,-45.898,-45.41,1233.416,378
172,1686880005.524,-12.695,417.48,-5.371,-11.23,1233.42,378
173,1686880005.528,14.16,424.316,-53.711,75.195,1233.424,378
174,1686880005.532,10.254,4.883,-25.391,44.922,1233.428,378
175,1686880005.535,-20.508,99.121,2.441,-40.039,1233.432,379
176,1686880005.539,-28.809,441.406,-20.02,-34.668,1233.436,379
177,1686880005.543,-2.93,673.828,-38.574,35.645,1233.44,379
178,1686880005.547,12.207,-23.926,-81.055,53.711,1233.444,379
179,1686880005.551,-15.625,-399.902,-26.855,-26.367,1233.448,379
180,1686880005.553,-30.273,377.441,-15.625,-58.594,1233.452,379
181,1686880005.557,-4.883,379.883,-67.871,17.578,1233.456,379
182,1686880005.561,17.09,-355.957,-48.34,41.992,1233.46,379
183,1686880005.565,-4.395,-245.605,3.906,-31.25,1233.464,379
184,1686880005.569,-26.367,456.543,-25.879,-69.824,1233.468,379
185,1686880005.573,-4.883,238.77,-73.242,-12.207,1233.472,379
186,1686880005.577,16.602,-499.512,-52.734,53.223,1233.476,377
187,1686880005.58,-3.906,-259.766,1.465,1.953,1233.48,377
188,1686880005.584,-34.668,590.332,-39.062,-82.031,1233.483,377
189,1686880005.588,-27.344,366.699,-66.895,-47.852,1233.487,377
190,1686880005.592,5.371,221.68,-45.41,27.344,1233.491,377
191,1686880005.596,5.371,455.566,-40.039,-3.418,1233.495,377
192,1686880005.598,-28.32,570.801,-53.711,-86.426,1233.508,377
193,1686880005.602,-39.551,247.07,-44.922,-78.125,1233.512,376
194,1686880005.606,-8.789,260.254,-16.602,5.371,1233.516,376
195,1686880005.61,-1.465,589.844,-46.387,21.484,1233.52,376
196,1686880005.614,-29.785,391.602,-77.637,-60.547,1233.524,376
197,1686880005.618,-45.41,-349.121,-103.027,-82.52,1233.528,377
198,1686880005.622,-21.484,-793.945,-27.832,-7.324,1233.532,377
199,1686880005.625,0.977,169.434,25.879,26.855,1233.536,377
200,1686880005.629,-25.391,581.543,-64.941,-37.598,1233.54,378
201,1686880005.633,-46.875,200.684,-56.641,-94.727,1233.544,378
202,1686880005.637,-32.715,340.82,-16.113,-33.203,1233.547,378
203,1686880005.641,-11.23,685.059,-40.039,34.18,1233.551,378
204,1686880005.658,-17.578,575.195,-72.266,-20.996,1233.554,375
205,1686880005.662,-43.945,-60.547,-65.918,-97.656,1233.558,375
206,1686880005.666,-37.598,-1.953,-27.344,-64.453,1233.561,375
207,1686880005.67,0.0,553.711,-22.949,22.949,1233.565,375
208,1686880005.674,-4.883,501.465,-75.684,5.371,1233.569,375
209,1686880005.678,-48.828,-250.488,-73.73,-84.961,1233.573,375
210,1686880005.682,-51.27,-439.453,-32.715,-81.055,1233.577,375
211,1686880005.685,-15.625,190.43,-25.391,2.441,1233.581,375
212,1686880005.689,-5.371,366.211,-80.566,34.668,1233.585,375
213,1686880005.693,-30.762,-452.148,-86.914,-37.598,1233.589,375
214,1686880005.697,-44.922,-286.133,2.93,-82.031,1233.593,375
215,1686880005.701,-18.555,513.672,-42.969,-9.766,1233.597,377
216,1686880005.703,1.465,360.84,-61.523,47.852,1233.599,377
217,1686880005.707,-17.09,240.234,-53.711,-16.602,1233.603,377
218,1686880005.711,-41.992,440.918,-54.199,-87.891,1233.606,378
219,1686880005.715,-37.109,464.355,-64.453,-34.668,1233.61,378
220,1686880005.719,-3.418,202.148,-71.289,50.781,1233.614,378
221,1686880005.723,-8.301,-36.133,-60.547,21.973,1233.618,378
222,1686880005.727,-47.852,70.801,-54.688,-70.801,1233.622,378
223,1686880005.73,-49.316,426.27,-61.035,-62.012,1233.626,378
224,1686880005.734,-22.949,-135.742,-91.797,30.762,1233.63,378
225,1686880005.738,-20.508,-649.414,-45.41,28.32,1233.634,378
226,1686880005.742,-32.227,139.648,-17.578,-63.477,1233.638,377
227,1686880005.746,-35.156,381.836,-73.242,-79.102,1233.642,377
228,1686880005.747,-19.043,7.812,-58.594,3.906,1233.644,377
229,1686880005.751,-5.859,-118.164,-38.086,44.922,1233.648,377
230,1686880005.755,-25.879,182.617,-52.734,-32.227,1233.651,378
231,1686880005.759,-54.688,309.57,-81.543,-79.59,1233.655,378
232,1686880005.763,-38.574,-198.242,-57.617,-11.23,1233.659,378
233,1686880005.767,-5.859,-261.23,-20.02,46.875,1233.663,378
234,1686880005.771,-23.926,158.203,-38.086,-10.742,1233.667,380
235,1686880005.774,-54.688,162.109,-82.52,-88.867,1233.671,380
236,1686880005.778,-46.387,-462.891,-64.453,-47.363,1233.675,380
237,1686880005.782,-18.066,-100.586,23.926,28.32,1233.679,382
238,1686880005.786,-15.137,632.324,-36.133,5.371,1233.683,382
239,1686880005.79,-38.574,160.156,-96.191,-65.43,1233.687,382
240,1686880005.792,-50.293,-158.203,-61.035,-63.477,1233.689,382
241,1686880005.796,-21.484,301.758,-17.09,9.766,1233.693,383
242,1686880005.8,-1.465,603.516,-47.852,29.785,1233.696,383
243,1686880005.804,-28.32,-12.207,-78.125,-49.805,1233.7,383
244,1686880005.808,-40.527,-421.875,-41.504,-82.52,1233.704,383
245,1686880005.812,-6.836,-43.457,-30.762,0.488,1233.708,383
246,1686880005.816,8.301,112.793,-44.922,38.574,1233.712,383
247,1686880005.819,-20.508,-374.512,-76.172,-29.297,1233.716,383
248,1686880005.823,-51.758,-653.32,-41.992,-79.102,1233.72,382
249,1686880005.827,-36.133,207.52,3.906,-30.273,1233.724,382
250,1686880005.831,-6.836,459.473,-48.34,32.227,1233.728,382
251,1686880005.835,-13.184,220.215,-58.594,-18.066,1233.732,382
252,1686880005.838,-33.691,192.383,-43.457,-96.68,1233.734,383
253,1686880005.842,-38.086,31.25,-68.359,-62.012,1233.738,383
254,1686880005.846,-17.578,-13.672,-62.988,20.02,1233.742,383
255,1686880005.85,-17.09,-509.277,-73.242,6.836,1233.746,383
256,1686880005.854,-46.387,-623.047,-43.457,-83.496,1233.75,385
257,1686880005.858,-38.574,-4.883,-29.297,-85.938,1233.754,385
258,1686880005.862,-6.348,-64.453,-63.477,2.441,1233.758,385
259,1686880005.865,0.488,-470.703,-44.922,17.09,1233.762,386
260,1686880005.869,-21.484,-161.621,2.441,-62.012,1233.766,386
261,1686880005.873,-44.434,420.41,-32.227,-93.75,1233.769,386
262,1686880005.877,-23.926,207.52,-55.176,-13.672,1233.773,386
263,1686880005.881,8.789,130.371,-40.527,36.133,1233.777,386
264,1686880005.883,-10.742,375.488,-29.297,-27.832,1233.792,386
265,1686880005.887,-38.086,394.531,-53.223,-92.773,1233.796,386
266,1686880005.891,-29.785,105.957,-41.992,-45.898,1233.8,386
267,1686880005.895,-6.348,181.641,0.488,22.461,1233.804,386
268,1686880005.899,-18.555,364.746,-34.668,-13.184,1233.808,386
269,1686880005.903,-49.316,115.234,-65.43,-87.891,1233.812,386
270,1686880005.907,-45.41,-496.094,-90.332,-67.383,1233.816,385
271,1686880005.91,-13.184,-850.586,-15.137,14.16,1233.82,385
272,1686880005.914,-7.324,59.57,43.457,-8.301,1233.824,385
273,1686880005.918,-45.898,335.938,-58.105,-105.957,1233.828,385
274,1686880005.922,-64.941,-31.738,-54.688,-104.98,1233.831,385
275,1686880005.926,-32.227,174.316,-19.043,-14.648,1233.835,385
276,1686880005.927,-6.348,493.164,-23.926,19.531,1233.838,385
277,1686880005.931,-26.855,226.562,-74.707,-47.363,1233.842,385
278,1686880005.935,-44.434,-507.812,-42.48,-90.82,1233.846,386
279,1686880005.939,-25.879,-205.566,39.551,-24.414,1233.85,386
280,1686880005.943,1.465,445.312,-23.438,33.203,1233.854,386
281,1686880005.947,-13.184,112.305,-77.637,-23.926,1233.857,387
282,1686880005.951,-52.734,-542.969,-41.992,-87.891,1233.861,387
283,1686880005.954,-42.48,-423.828,7.812,-46.387,1233.865,387
284,1686880005.958,-0.488,208.008,0.488,24.414,1233.869,387
285,1686880005.962,-1.953,173.828,-62.5,-6.836,1233.873,387
286,1686880005.966,-37.109,-361.328,-72.754,-84.961,1233.877,387
287,1686880005.97,-42.48,-17.09,2.93,-69.824,1233.881,387
288,1686880005.99,-13.184,464.355,-20.02,16.113,1233.89,384
289,1686880005.994,-7.812,241.211,-39.551,23.438,1233.894,384
290,1686880005.998,-35.645,84.961,-27.832,-54.688,1233.898,384
291,1686880006.002,-46.387,315.43,-21.973,-81.543,1233.902,386
292,1686880006.006,-20.508,409.18,-39.551,-8.301,1233.906,386
293,1686880006.01,-1.953,10.742,-56.641,34.18,1233.91,386
294,1686880006.014,-27.344,-237.305,-20.508,-46.387,1233.914,386
295,1686880006.017,-53.711,105.469,-16.602,-100.586,1233.918,387
296,1686880006.021,-40.039,388.184,-55.176,-35.645,1233.922,387
297,1686880006.025,-20.02,-178.711,-55.176,24.414,1233.925,387
298,1686880006.029,-26.367,-547.852,-13.672,-22.461,1233.929,387
299,1686880006.033,-44.434,2.441,-13.184,-97.656,1233.933,387
300,1686880006.033,-51.27,253.418,-36.133,-72.754,1233.929,387
301,1686880006.037,-21.484,-65.918,-51.27,13.184,1233.933,387
302,1686880006.041,-15.137,-115.234,-19.531,0.488,1233.937,387
303,1686880006.045,-52.734,299.805,-18.555,-79.59,1233.941,386
304,1686880006.049,-54.199,239.746,-71.289,-73.73,1233.944,386
305,1686880006.053,-14.648,-171.875,-57.129,16.113,1233.948,386
306,1686880006.057,2.441,10.742,0.0,40.527,1233.952,386
307,1686880006.06,-29.297,386.23,-13.672,-40.527,1233.956,386
308,1686880006.064,-51.27,225.098,-55.664,-78.125,1233.96,386
309,1686880006.068,-25.879,-683.105,-98.633,1.465,1233.964,386
310,1686880006.072,-13.184,-835.938,0.488,37.109,1233.968,386
311,1686880006.076,-31.738,207.52,21.484,-37.598,1233.972,386
312,1686880006.077,-45.898,135.254,-71.289,-84.961,1233.973,386
313,1686880006.081,-24.414,-112.793,-35.156,-27.832,1233.977,386
314,1686880006.085,0.488,395.508,-3.418,40.039,1233.981,387
315,1686880006.089,-12.695,589.844,-44.434,-9.766,1233.985,387
316,1686880006.093,-34.18,18.066,-58.594,-79.102,1233.989,387
317,1686880006.097,-26.367,-425.293,-16.602,-43.945,1233.993,389
318,1686880006.101,5.371,53.223,6.348,19.043,1233.997,389
319,1686880006.104,6.836,543.945,-25.391,3.906,1234.001,389
320,1686880006.108,-32.227,-222.656,-88.867,-73.73,1234.005,389
321,1686880006.112,-48.34,-684.082,-26.855,-73.242,1234.009,389
322,1686880006.116,-18.066,306.641,18.066,12.695,1234.013,389
323,1686880006.12,-3.418,481.934,-55.664,29.785,1234.016,389
324,1686880006.123,-26.855,168.945,-68.848,-56.152,1234.019,389
325,1686880006.127,-43.945,-36.621,-48.828,-93.262,1234.023,389
326,1686880006.131,-24.414,38.086,-28.32,-17.09,1234.027,389
327,1686880006.135,-2.441,262.207,-36.621,36.133,1234.03,389
328,1686880006.139,-20.02,-476.562,-75.195,-21.484,1234.034,389
329,1686880006.143,-43.457,-811.035,-31.25,-83.984,1234.038,389
330,1686880006.147,-39.551,17.578,1.465,-44.922,1234.042,389
331,1686880006.15,-16.602,273.926,-57.617,25.879,1234.046,389
332,1686880006.154,-18.066,-357.422,-47.852,0.977,1234.05,389
333,1686880006.158,-45.898,-127.441,27.344,-85.938,1234.054,389
334,1686880006.162,-46.875,524.414,-6.836,-61.035,1234.058,389
335,1686880006.166,-14.648,325.684,-41.016,28.809,1234.062,390
336,1686880006.167,-7.324,191.895,-28.32,16.113,1234.078,390
337,1686880006.171,-35.156,378.418,-24.414,-73.73,1234.082,390
338,1686880006.175,-45.41,392.578,-53.223,-80.078,1234.086,390
339,1686880006.179,-14.648,195.312,-27.832,11.23,1234.09,390
340,1686880006.183,-4.395,202.148,-8.301,30.273,1234.094,392
341,1686880006.187,-34.668,123.535,-41.992,-45.41,1234.098,392
342,1686880006.191,-48.828,-26.367,-33.203,-83.984,1234.102,392
343,1686880006.194,-28.32,-436.523,-77.637,-18.555,1234.106,391
344,1686880006.198,-16.113,-759.277,-27.344,29.297,1234.11,391
345,1686880006.202,-36.621,82.52,25.391,-37.598,1234.113,391
346,1686880006.206,-54.688,342.773,-51.27,-96.68,1234.117,389
347,1686880006.21,-37.598,56.641,-32.227,-49.316,1234.121,389
348,1686880006.212,-9.277,277.344,-8.301,19.043,1234.109,389
349,1686880006.216,-17.578,248.535,-51.758,-13.672,1234.113,389
350,1686880006.22,-42.969,-65.918,-69.336,-95.215,1234.117,389
351,1686880006.224,-40.039,-435.547,-20.996,-75.684,1234.12,388
352,1686880006.228,-6.348,-174.316,18.066,15.137,1234.124,388
353,1686880006.232,6.836,177.734,-29.785,24.414,1234.128,388
354,1686880006.236,-33.203,-132.324,-59.082,-64.941,1234.132,388
355,1686880006.239,-58.105,-218.75,-44.434,-99.609,1234.136,388
356,1686880006.243,-10.742,-25.879,-6.348,-5.859,1234.14,388
357,1686880006.247,24.414,239.746,3.418,38.574,1234.144,388
358,1686880006.251,-17.578,146.973,-65.43,-52.246,1234.148,388
359,1686880006.255,-51.27,-628.418,-59.57,-98.145,1234.152,388
360,1686880006.258,-40.039,-269.531,36.133,-36.621,1234.167,388
361,1686880006.262,-20.02,460.449,-17.09,23.438,1234.171,388
362,1686880006.266,-36.621,186.035,-38.574,-19.531,1234.175,387
363,1686880006.27,-71.289,13.672,-10.254,-90.82,1234.179,387
364,1686880006.274,-56.641,236.816,-25.391,-59.57,1234.183,387
365,1686880006.278,-17.578,170.898,-36.621,26.367,1234.187,386
366,1686880006.282,-21.973,-443.359,-70.801,5.371,1234.191,386
367,1686880006.285,-53.223,-657.715,-52.246,-91.797,1234.195,386
368,1686880006.289,-51.27,117.676,12.695,-83.496,1234.199,383
369,1686880006.293,-17.578,360.352,-26.367,18.066,1234.202,383
370,1686880006.297,-6.348,118.652,-41.016,38.086,1234.206,383
371,1686880006.301,-33.691,-80.566,-15.137,-46.875,1234.21,383
372,1686880006.303,-49.805,72.266,-3.418,-74.219,1234.202,383
373,1686880006.307,-24.414,166.504,-30.273,4.883,1234.206,380
374,1686880006.311,-12.207,-558.594,-69.336,46.387,1234.21,380
375,1686880006.315,-33.691,-660.645,-19.531,-22.461,1234.214,380
376,1686880006.319,-49.316,165.527,7.812,-84.473,1234.217,377
377,1686880006.323,-25.879,80.566,-56.152,-17.09,1234.221,377
378,1686880006.327,5.859,-508.301,-29.785,62.5,1234.225,377
379,1686880006.33,-31.738,-211.914,26.367,-8.789,1234.229,377
380,1686880006.334,-67.383,376.953,-11.23,-85.449,1234.233,374
381,1686880006.338,-58.105,76.66,-44.434,-50.781,1234.237,374
382,1686880006.342,-31.738,-53.223,-27.344,27.344,1234.241,374
383,1686880006.346,-23.438,321.777,-12.695,21.973,1234.245,371
384,1686880006.349,-55.664,338.867,-42.48,-65.43,1234.257,371
385,1686880006.353,-68.359,-124.512,-52.246,-72.266,1234.261,371
386,1686880006.357,-38.574,-214.844,-15.625,-2.441,1234.265,371
387,1686880006.361,-13.184,246.582,-6.348,24.414,1234.269,366
388,1686880006.365,-36.133,315.918,-39.551,-45.41,1234.273,366
389,1686880006.369,-59.082,-423.34,-92.773,-94.727,1234.277,366
390,1686880006.373,-36.621,-939.453,-2.93,-22.949,1234.281,366
391,1686880006.376,-7.812,-70.312,69.824,30.273,1234.285,363
392,1686880006.38,-20.02,342.773,-41.992,-32.715,1234.289,363
393,1686880006.384,-43.457,-50.293,-44.922,-92.285,1234.293,363
394,1686880006.388,-31.25,-14.16,-11.719,-39.551,1234.296,361
395,1686880006.392,-4.395,279.297,-21.484,38.086,1234.3,361
396,1686880006.411,-14.16,260.254,-47.363,2.441,1234.306,360
397,1686880006.415,-46.387,-286.621,-61.523,-81.055,1234.31,361
398,1686880006.419,-45.41,-249.023,-0.488,-65.43,1234.314,361
399,1686880006.423,-16.602,194.336,-7.812,13.184,1234.318,361
400,1686880006.427,-16.602,75.195,-44.922,12.695,1234.322,361
401,1686880006.431,-50.293,-672.852,-66.406,-58.105,1234.326,361
402,1686880006.435,-61.035,-807.617,5.371,-77.148,1234.329,361
403,1686880006.438,-27.832,144.043,46.387,-10.742,1234.333,361
404,1686880006.442,-8.301,152.344,-42.969,29.785,1234.337,360
405,1686880006.446,-34.668,-300.781,-49.316,-40.039,1234.341,360
406,1686880006.45,-55.176,-87.402,-18.066,-87.891,1234.345,360
407,1686880006.452,-11.23,42.48,-32.227,42.969,1234.348,360
408,1686880006.454,-34.668,124.512,-25.391,-17.09,1234.349,360
409,1686880006.456,-33.691,-86.426,-41.016,-16.602,1234.352,360
410,1686880006.46,-60.547,61.523,-22.461,-94.727,1234.356,360
411,1686880006.464,-40.527,143.066,-34.668,-63.965,1234.36,360
412,1686880006.468,-11.719,-90.332,-45.898,19.043,1234.364,360
413,1686880006.472,-16.113,-396.484,-42.48,0.977,1234.368,362
414,1686880006.476,-49.805,-412.109,-43.945,-89.844,1234.372,362
415,1686880006.479,-52.734,-281.738,-31.738,-83.008,1234.376,362
416,1686880006.483,-20.02,-621.094,-59.57,7.324,1234.38,362
417,1686880006.487,-14.16,-696.289,-20.508,17.09,1234.383,364
418,1686880006.491,-46.875,25.391,4.883,-63.965,1234.387,364
419,1686880006.495,-66.895,79.102,-60.059,-70.312,1234.391,364
420,1686880006.497,-34.18,-373.047,-37.109,8.789,1234.394,367
421,1686880006.501,-5.859,-479.004,-14.16,43.457,1234.398,367
422,1686880006.505,-24.414,-84.473,-22.461,-21.973,1234.402,367
423,1686880006.509,-51.758,-27.344,-44.434,-70.312,1234.406,367
424,1686880006.513,-47.363,-558.594,-31.738,-10.254,1234.409,367
425,1686880006.517,-20.508,-596.68,15.625,45.41,1234.413,367
426,1686880006.521,-17.09,-105.469,8.301,-0.488,1234.417,367
427,1686880006.524,-36.133,-85.449,-61.035,-61.523,1234.421,367
428,1686880006.528,-44.922,-618.652,-53.711,-48.828,1234.425,367
429,1686880006.532,-31.25,-483.398,21.973,1.953,1234.429,367
430,1686880006.536,-23.438,79.102,-10.254,-13.184,1234.433,367
431,1686880006.54,-49.316,-157.227,-72.266,-75.684,1234.437,367
432,1686880006.545,-67.383,-530.273,-49.316,-81.055,1234.447,367
433,1686880006.549,-36.621,-14.16,3.418,-1.465,1234.451,367
434,1686880006.553,-17.578,213.379,-48.34,22.949,1234.455,368
435,1686880006.557,-41.016,-142.578,-43.945,-64.453,1234.459,368
436,1686880006.561,-55.176,-280.762,-21.484,-101.074,1234.463,368
437,1686880006.565,-34.668,-264.16,-37.109,-24.902,1234.467,368
438,1686880006.569,-10.254,-231.934,-29.297,27.344,1234.471,370
439,1686880006.572,-31.25,-570.312,-72.754,-34.18,1234.475,370
440,1686880006.576,-62.988,-745.117,-36.621,-100.586,1234.479,370
441,1686880006.58,-41.992,-39.551,6.836,-50.293,1234.482,371
442,1686880006.584,-7.812,160.645,-39.062,30.762,1234.486,371
443,1686880006.588,-46.875,-321.289,-52.246,-90.332,1234.485,371
444,1686880006.588,-17.09,-123.047,-61.523,-9.766,1234.49,371
445,1686880006.592,-37.598,-300.781,-32.715,-57.617,1234.489,371
446,1686880006.596,-11.23,-287.109,-40.039,22.949,1234.493,371
447,1686880006.6,-12.695,-283.203,-20.02,11.23,1234.497,371
448,1686880006.604,-36.621,-156.738,-21.484,-77.637,1234.501,371
449,1686880006.608,-50.293,-253.418,-49.316,-83.496,1234.505,370
450,1686880006.612,-26.367,-320.312,-38.086,9.277,1234.508,370
451,1686880006.615,-14.648,-695.801,-85.938,35.156,1234.512,370
452,1686880006.619,-44.922,-991.211,-28.32,-54.199,1234.516,370
453,1686880006.623,-56.641,-288.086,20.508,-103.027,1234.52,370
454,1686880006.627,-28.809,-89.355,-42.969,-25.879,1234.524,370
455,1686880006.631,-6.348,-139.16,-39.062,23.438,1234.528,370
456,1686880006.634,-24.414,156.738,-29.785,-41.504,1234.532,372
457,1686880006.638,-57.617,159.18,-65.918,-108.398,1234.536,372
458,1686880006.642,-52.734,-331.055,-71.777,-60.059,1234.54,372
459,1686880006.646,-18.066,-402.344,-11.23,13.184,1234.543,372
460,1686880006.65,-15.137,115.723,-24.902,-18.555,1234.547,375
461,1686880006.654,-44.922,-77.148,-73.242,-88.379,1234.551,375
462,1686880006.658,-43.945,-706.543,-87.891,-64.453,1234.555,375
463,1686880006.661,-13.672,-768.555,-20.996,22.461,1234.559,376
464,1686880006.665,-10.254,-16.113,15.137,14.16,1234.563,376
465,1686880006.669,-41.016,87.402,-60.547,-75.195,1234.567,376
466,1686880006.673,-54.688,-228.516,-45.898,-90.82,1234.571,376
467,1686880006.677,-23.438,-119.629,-15.625,-10.742,1234.575,376
468,1686880006.677,-0.488,178.711,-40.039,25.879,1234.587,376
469,1686880006.681,-20.508,-72.754,-70.801,-47.363,1234.591,377
470,1686880006.685,-46.387,-545.41,-40.527,-102.539,1234.595,377
471,1686880006.689,-35.156,-218.262,-9.277,-52.734,1234.599,377
472,1686880006.693,-14.16,76.172,-49.316,1.953,1234.603,377
473,1686880006.697,-24.902,-209.961,-69.824,-38.086,1234.607,377
474,1686880006.701,-46.387,-764.16,-110.352,-83.984,1234.611,377
475,1686880006.704,-41.016,-1000.0,-34.18,-42.48,1234.615,380
476,1686880006.708,-4.395,-190.918,49.316,29.297,1234.619,380
477,1686880006.712,-0.977,36.133,-57.617,-2.441,1234.623,380
478,1686880006.716,-38.086,-268.555,-77.637,-93.262,1234.627,380
479,1686880006.72,-43.457,-2.441,-36.133,-88.867,1234.63,384
480,1686880006.723,-9.766,171.875,-51.27,-1.465,1234.632,384
481,1686880006.727,-1.953,-85.449,-60.547,10.742,1234.636,384
482,1686880006.731,-25.879,-298.34,-42.969,-72.266,1234.64,389
483,1686880006.735,-40.039,-91.797,-32.227,-95.215,1234.644,389
484,1686880006.739,-22.461,105.469,-55.664,-20.508,1234.648,389
485,1686880006.743,-5.859,-426.758,-78.613,23.438,1234.652,392
486,1686880006.747,-22.461,-704.59,-29.785,-45.41,1234.656,392
487,1686880006.75,-46.387,-263.184,-48.34,-112.305,1234.66,392
488,1686880006.754,-34.668,-259.277,-68.359,-48.828,1234.664,392
489,1686880006.758,-10.742,-660.645,-72.266,32.227,1234.667,392
490,1686880006.762,-24.902,-743.652,-44.434,-20.02,1234.671,394
491,1686880006.766,-58.105,-153.809,-40.527,-108.398,1234.675,394
492,1686880006.782,-53.223,-85.449,-79.102,-73.73,1234.679,395
493,1686880006.786,-22.949,-413.574,-59.082,13.184,1234.683,396
494,1686880006.79,-17.09,-350.586,-33.203,4.883,1234.686,396
495,1686880006.794,-42.969,16.602,-34.668,-79.59,1234.69,396
496,1686880006.798,-47.852,-139.648,-72.266,-85.938,1234.694,396
497,1686880006.802,-16.113,-726.074,-55.176,13.184,1234.698,398
498,1686880006.806,-5.371,-583.008,0.488,28.809,1234.702,398
499,1686880006.809,-36.621,28.32,-31.25,-61.523,1234.706,398
500,1686880006.813,-58.105,-248.535,-87.402,-86.914,1234.71,398
501,1686880006.817,-27.832,-541.504,-57.617,-12.207,1234.714,398
502,1686880006.821,-1.465,-346.191,-19.531,35.156,1234.718,398
503,1686880006.825,-21.484,-114.258,-40.527,-26.367,1234.722,398
504,1686880006.827,-44.434,-359.863,-100.586,-83.496,1234.724,398
505,1686880006.831,-30.273,-671.875,-77.148,-30.762,1234.727,398
506,1686880006.835,0.977,-139.16,-21.973,37.109,1234.731,398
507,1686880006.839,-10.254,62.988,-79.102,-6.348,1234.735,398
508,1686880006.843,-43.945,-304.688,-69.336,-88.379,1234.739,394
509,1686880006.847,-43.945,-656.25,-38.574,-69.336,1234.743,394
510,1686880006.851,-12.207,-364.746,-26.855,11.23,1234.747,394
511,1686880006.854,-1.953,57.129,-44.922,4.395,1234.751,389
512,1686880006.858,-34.668,-503.418,-109.863,-72.266,1234.755,389
513,1686880006.862,-42.969,-785.645,-41.504,-81.055,1234.759,389
514,1686880006.866,-8.301,-100.586,-20.508,-10.742,1234.763,389
515,1686880006.87,2.93,-135.742,-84.961,25.879,1234.767,386
516,1686880006.873,-25.879,-394.531,-67.383,-44.434,1234.77,386
517,1686880006.877,-51.27,-506.348,-71.777,-87.891,1234.773,386
518,1686880006.881,-30.273,-487.793,-45.41,-16.602,1234.777,386
519,1686880006.885,-0.977,-160.645,-35.645,35.645,1234.781,383
520,1686880006.889,-16.113,-549.805,-94.727,-17.578,1234.785,383
521,1686880006.893,-38.086,-974.121,-52.734,-87.891,1234.789,383
522,1686880006.897,-25.879,-394.043,-1.953,-52.734,1234.793,378
523,1686880006.9,0.0,-81.055,-73.242,16.602,1234.797,378
524,1686880006.904,-9.766,-588.379,-68.848,-2.93,1234.801,378
525,1686880006.908,-40.039,-444.824,1.465,-75.195,1234.805,378
526,1686880006.912,-33.691,40.527,-43.945,-43.457,1234.809,372
527,1686880006.916,-15.625,-113.281,-62.5,39.551,1234.813,372
528,1686880006.917,-26.367,-183.105,-55.176,20.02,1234.814,372
529,1686880006.921,-49.805,-26.367,-54.199,-62.012,1234.818,372
530,1686880006.925,-59.57,-45.41,-74.219,-76.172,1234.822,365
531,1686880006.929,-23.438,-432.129,-62.5,16.113,1234.826,365
532,1686880006.933,2.441,-446.777,-34.18,51.27,1234.83,365
533,1686880006.937,-27.832,-284.18,-77.637,-33.691,1234.834,364
534,1686880006.941,-44.922,-476.562,-77.148,-85.938,1234.838,364
535,1686880006.944,-22.949,-750.977,-92.285,-15.625,1234.841,364
536,1686880006.948,-0.488,-896.973,-29.785,56.152,1234.845,364
537,1686880006.952,-5.371,-222.168,16.602,7.812,1234.849,364
538,1686880006.956,-29.785,-34.668,-68.848,-63.965,1234.853,364
539,1686880006.96,-26.367,-335.938,-56.641,-29.297,1234.857,364
540,1686880006.963,8.789,-148.438,-29.297,53.223,1234.859,364
541,1686880006.967,13.184,-160.156,-49.805,33.691,1234.863,369
542,1686880006.971,-27.832,-457.52,-72.754,-57.617,1234.867,369
543,1686880006.975,-36.621,-671.387,-39.551,-54.688,1234.87,369
544,1686880006.979,-2.93,-396.484,-3.418,37.598,1234.874,375
545,1686880006.983,12.207,-259.766,-44.434,51.758,1234.878,375
546,1686880006.987,-8.789,-498.535,-73.73,-30.273,1234.882,375
547,1686880006.99,-35.156,-894.043,-92.285,-55.664,1234.886,375
548,1686880006.994,-11.23,-716.309,3.906,21.484,1234.89,384
549,1686880006.998,13.672,122.07,8.789,59.57,1234.894,384
550,1686880007.002,-6.836,-93.75,-65.43,-1.465,1234.898,384
551,1686880007.006,-30.273,-408.203,-49.805,-69.336,1234.902,392
552,1686880007.008,-21.973,-97.656,-9.277,-31.25,1234.904,392
553,1686880007.012,2.93,123.047,-29.297,44.434,1234.907,392
554,1686880007.016,-2.93,-157.715,-48.34,9.766,1234.911,392
555,1686880007.02,-27.832,-369.141,-20.508,-65.43,1234.915,392
556,1686880007.024,-23.438,-161.133,-49.805,-46.387,1234.919,401
557,1686880007.028,9.277,-286.133,-64.941,36.621,1234.923,401
558,1686880007.032,16.113,-717.285,-76.172,31.25,1234.927,401
559,1686880007.035,-19.043,-780.762,-48.34,-57.129,1234.931,413
560,1686880007.039,-36.133,-379.883,-20.508,-74.219,1234.935,413
561,1686880007.043,-7.324,-345.215,-58.105,7.812,1234.939,413
562,1686880007.047,1.953,-559.57,-33.691,30.273,1234.943,424
563,1686880007.051,-29.297,-424.316,-7.812,-51.758,1234.947,424
564,1686880007.053,-50.781,-123.535,-48.828,-99.121,1234.962,424
565,1686880007.057,-27.344,-348.633,-76.172,-24.902,1234.966,424
566,1686880007.061,2.441,-665.527,-31.25,42.969,1234.97,424
567,1686880007.065,-18.555,-416.992,2.441,-26.367,1234.974,432
568,1686880007.069,-54.199,-57.129,-41.992,-101.074,1234.978,432
569,1686880007.073,-45.41,-401.367,-85.938,-56.152,1234.982,432
570,1686880007.077,-11.23,-812.988,-39.551,27.344,1234.986,435
571,1686880007.08,-15.625,-466.309,21.973,-4.395,1234.99,435
572,1686880007.084,-43.457,-27.832,-24.414,-89.844,1234.993,435
573,1686880007.088,-49.316,-313.965,-58.105,-77.637,1234.997,439
574,1686880007.092,-19.043,-398.926,-41.504,8.301,1235.001,439
575,1686880007.096,-6.348,-288.086,-27.832,19.531,1235.005,439
576,1686880007.099,-39.551,-240.723,-32.715,-68.848,1235.0,439
577,1686880007.103,-56.152,-501.953,-87.402,-93.262,1235.004,439
578,1686880007.107,-32.715,-729.492,-70.312,-16.113,1235.008,442
579,1686880007.111,-7.324,-162.598,-11.719,19.043,1235.012,442
580,1686880007.115,-23.926,-58.594,-62.012,-50.293,1235.016,442
581,1686880007.119,-50.293,-678.223,-96.68,-91.309,1235.02,442
582,1686880007.123,-39.551,-787.109,-20.02,-28.32,1235.024,442
583,1686880007.126,-14.648,-81.055,1.465,18.066,1235.028,442
584,1686880007.13,-25.879,-34.18,-76.66,-37.598,1235.031,442
585,1686880007.134,-54.688,-509.277,-57.129,-99.609,1235.035,442
586,1686880007.138,-49.316,-443.848,-9.277,-61.523,1235.039,442
587,1686880007.142,-16.113,-10.254,-37.598,21.973,1235.043,442
588,1686880007.158,-22.949,-99.121,-66.406,-0.488,1235.055,431
589,1686880007.162,-57.617,-672.363,-73.73,-82.031,1235.059,431
590,1686880007.166,-62.988,-855.957,-42.48,-75.195,1235.063,431
591,1686880007.17,-36.621,-347.168,-12.207,0.977,1235.066,431
592,1686880007.174,-24.414,-96.68,-57.129,14.16,1235.07,424
593,1686880007.178,-54.199,-734.375,-114.746,-54.688,1235.074,424
594,1686880007.182,-66.406,-964.844,-10.254,-77.148,1235.078,424
595,1686880007.185,-34.668,-270.508,40.039,-11.23,1235.082,424
596,1686880007.189,-14.648,-123.535,-48.828,33.691,1235.086,418
597,1686880007.193,-39.062,-336.426,-56.152,-33.691,1235.09,418
598,1686880007.197,-62.012,-247.07,-40.527,-90.332,1235.094,418
599,1686880007.201,-47.852,-144.531,-40.527,-44.922,1235.098,412
600,1686880007.203,-29.785,-299.805,-50.293,10.254,1235.099,412
601,1686880007.207,-38.574,-411.133,-54.688,-30.762,1235.102,412
602,1686880007.211,-55.176,-228.027,-44.434,-94.727,1235.106,412
603,1686880007.215,-45.41,-192.383,-46.387,-52.246,1235.11,405
604,1686880007.219,-32.227,-474.121,-35.645,16.602,1235.114,405
605,1686880007.223,-39.062,-783.203,-17.578,-8.301,1235.118,405
606,1686880007.227,-48.828,-690.43,-20.508,-77.148,1235.122,397
607,1686880007.23,-50.293,-357.91,-9.277,-82.52,1235.126,397
608,1686880007.234,-20.02,-616.699,-63.477,7.812,1235.13,397
609,1686880007.238,-6.348,-852.539,-23.438,27.832,1235.134,397
610,1686880007.242,-33.203,-291.504,7.324,-70.312,1235.138,388
611,1686880007.246,-52.734,-262.207,-50.781,-102.539,1235.142,388
612,1686880007.247,-30.762,-437.5,-35.156,-19.531,1235.144,388
613,1686880007.251,-7.812,-580.566,-30.273,29.297,1235.148,388
614,1686880007.255,-28.32,-468.75,-26.367,-41.016,1235.152,383
615,1686880007.259,-50.781,-330.566,-43.945,-97.656,1235.155,383
616,1686880007.263,-33.203,-736.328,-41.504,-41.992,1235.159,383
617,1686880007.267,-1.953,-763.672,1.953,29.785,1235.163,377
618,1686880007.271,-14.16,-454.102,-22.949,-10.254,1235.167,377
619,1686880007.274,-48.34,-485.84,-69.336,-101.074,1235.171,377
620,1686880007.278,-44.434,-948.73,-84.473,-70.801,1235.175,377
621,1686880007.282,-14.16,-688.477,11.719,17.578,1235.179,373
622,1686880007.286,-15.625,-29.297,-13.672,-0.488,1235.183,373
623,1686880007.29,-43.457,-442.871,-91.797,-76.66,1235.187,373
624,1686880007.292,-45.898,-567.871,-41.016,-84.961,1235.189,373
625,1686880007.296,-13.672,-114.258,-20.02,-10.254,1235.192,370
626,1686880007.3,8.301,40.527,-51.27,12.695,1235.196,370
627,1686880007.304,-18.555,-337.891,-54.688,-60.059,1235.2,370
628,1686880007.308,-41.504,-590.332,-41.992,-102.051,1235.204,370
629,1686880007.312,-20.02,-509.766,-51.27,-21.484,1235.208,367
630,1686880007.316,10.254,-454.59,-34.18,44.434,1235.212,367
631,1686880007.319,-7.324,-712.402,-76.172,-16.602,1235.216,367
632,1686880007.323,-39.551,-808.594,-51.758,-87.402,1235.22,367
633,1686880007.327,-27.832,-417.48,-4.395,-45.898,1235.224,363
634,1686880007.331,1.953,-424.805,-48.828,36.621,1235.228,363
635,1686880007.335,0.0,-626.465,-36.621,-0.977,1235.231,363
636,1686880007.338,-32.227,-462.891,-7.324,-83.984,1235.247,363
637,1686880007.342,-35.645,-389.16,-44.434,-67.871,1235.251,363
638,1686880007.346,-7.324,-569.824,-50.293,12.695,1235.255,363
639,1686880007.35,-7.812,-626.465,-7.812,14.16,1235.259,366
640,1686880007.354,-42.48,-528.809,-5.859,-70.312,1235.263,366
641,1686880007.358,-50.781,-471.68,-47.363,-83.008,1235.267,366
642,1686880007.362,-23.438,-591.309,-40.527,-2.441,1235.271,366
643,1686880007.365,-7.324,-731.445,-28.32,27.832,1235.275,366
644,1686880007.369,-22.949,-452.637,11.23,-48.828,1235.279,367
645,1686880007.373,-47.852,-71.777,-34.668,-95.215,1235.283,367
646,1686880007.377,-40.039,-314.941,-64.941,-28.32,1235.286,367
647,1686880007.381,-12.695,-399.414,-52.246,28.32,1235.29,367
648,1686880007.383,-20.996,-352.539,-38.086,-25.391,1235.282,367
649,1686880007.387,-48.34,-215.332,-26.855,-97.168,1235.286,367
650,1686880007.391,-46.387,-491.211,-79.102,-58.594,1235.29,368
651,1686880007.395,-14.648,-711.914,-45.898,19.043,1235.294,368
652,1686880007.399,-11.23,-187.012,-20.02,-7.324,1235.297,368
653,1686880007.403,-42.969,-380.371,-71.289,-92.285,1235.301,368
654,1686880007.407,-44.922,-894.531,-74.707,-80.566,1235.305,368
655,1686880007.41,-9.766,-740.234,-19.043,8.789,1235.309,368
656,1686880007.414,3.418,-135.254,1.465,12.207,1235.313,368
657,1686880007.418,-22.949,-154.785,-57.617,-67.871,1235.317,368
658,1686880007.422,-41.504,-592.773,-33.691,-96.191,1235.321,369
659,1686880007.426,-24.414,-492.188,12.695,-28.809,1235.325,369
660,1686880007.428,-4.883,-76.66,-28.32,18.555,1235.353,369
661,1686880007.432,-24.902,-350.098,-83.496,-46.387,1235.357,372
662,1686880007.436,-51.758,-885.742,-50.781,-106.934,1235.361,372
663,1686880007.44,-38.086,-719.238,30.273,-50.293,1235.365,372
664,1686880007.444,-3.906,-254.883,-9.277,20.02,1235.369,372
665,1686880007.448,-9.766,-441.406,-64.453,-23.926,1235.373,373
666,1686880007.452,-45.41,-929.199,-59.082,-85.449,1235.377,373
667,1686880007.455,-36.621,-808.594,14.648,-49.805,1235.381,373
668,1686880007.459,-9.277,-146.973,27.344,16.113,1235.385,373
669,1686880007.463,-12.207,-208.984,-60.059,2.441,1235.388,372
670,1686880007.467,-36.621,-493.652,-66.406,-75.684,1235.392,372
671,1686880007.471,-46.387,-341.797,-25.879,-78.613,1235.396,372
672,1686880007.472,-19.531,-133.789,-27.344,10.742,1235.398,371
673,1686880007.476,-8.789,-289.551,-40.039,30.273,1235.402,371
674,1686880007.48,-38.574,-471.191,-36.133,-53.223,1235.406,371
675,1686880007.484,-56.152,-254.395,-28.32,-84.961,1235.409,371
676,1686880007.488,-41.016,-245.605,-46.387,-13.672,1235.413,371
677,1686880007.492,-23.438,-621.094,-49.805,47.363,1235.417,370
678,1686880007.496,-34.668,-851.562,-19.531,-16.113,1235.421,370
679,1686880007.499,-50.781,-716.797,-17.578,-93.75,1235.425,370
680,1686880007.503,-35.645,-436.035,-32.715,-42.969,1235.429,370
681,1686880007.507,-10.742,-540.039,-39.551,43.457,1235.433,370
682,1686880007.511,-19.531,-541.992,-13.672,1.465,1235.437,370
683,1686880007.515,-49.316,-254.883,-31.738,-81.055,1235.441,370
684,1686880007.532,-47.852,-268.555,-44.434,-59.082,1235.429,368
685,1686880007.536,-17.578,-702.637,-89.844,37.109,1235.433,368
686,1686880007.54,-5.859,-946.289,-29.785,44.922,1235.436,368
687,1686880007.544,-11.719,-379.395,18.066,-37.598,1235.44,366
688,1686880007.548,-36.621,-264.16,-64.941,-63.965,1235.444,366
689,1686880007.552,-47.363,-691.406,-54.688,-6.836,1235.448,366
690,1686880007.556,-31.738,-502.441,-5.371,20.996,1235.452,366
691,1686880007.559,-56.152,-175.293,-35.645,-54.688,1235.456,362
692,1686880007.563,-88.867,-587.402,-86.426,-94.238,1235.46,362
693,1686880007.567,-69.824,-764.648,-37.598,-34.18,1235.464,362
694,1686880007.571,-43.945,-300.781,5.371,12.207,1235.468,358
695,1686880007.575,-58.105,-79.59,-39.551,-40.527,1235.472,358
696,1686880007.577,-84.961,-524.414,-105.469,-107.91,1235.474,358
697,1686880007.581,-78.125,-892.09,-58.105,-65.43,1235.478,358
698,1686880007.585,-46.875,-394.043,25.879,13.184,1235.482,355
699,1686880007.589,-40.039,-33.203,-35.645,-11.719,1235.485,355
700,1686880007.593,-60.059,-417.48,-58.594,-87.402,1235.489,355
701,1686880007.597,-62.5,-829.102,-41.016,-69.824,1235.493,355
702,1686880007.601,-30.273,-519.531,-16.602,12.695,1235.497,352
703,1686880007.604,-19.043,-92.773,-37.109,12.695,1235.501,352
704,1686880007.608,-37.598,-574.219,-103.027,-62.5,1235.505,352
705,1686880007.612,-48.34,-844.238,-47.363,-76.66,1235.509,348
706,1686880007.616,-28.32,-412.598,-13.672,-3.906,1235.513,348
707,1686880007.62,-15.137,-436.523,-53.223,29.785,1235.517,348
708,1686880007.623,-36.133,-621.582,-34.18,-42.48,1235.519,348
709,1686880007.627,-48.828,-763.672,-28.32,-96.68,1235.523,343
710,1686880007.631,-30.762,-508.301,-22.949,-33.691,1235.527,343
711,1686880007.635,-4.395,-173.828,-33.691,44.434,1235.53,343
712,1686880007.639,-17.578,-577.637,-54.688,14.648,1235.534,343
713,1686880007.643,-49.805,-886.719,-23.926,-65.918,1235.538,338
714,1686880007.647,-52.246,-473.633,-6.836,-52.246,1235.542,338
715,1686880007.65,-22.949,-267.578,-49.805,30.762,1235.546,338
716,1686880007.654,-14.16,-693.359,-46.387,23.926,1235.55,336
717,1686880007.658,-37.598,-518.555,15.137,-64.453,1235.554,336
718,1686880007.662,-45.898,-102.539,-33.691,-65.918,1235.558,336
719,1686880007.666,-20.508,-305.176,-55.664,26.367,1235.562,336
720,1686880007.668,-6.836,-411.133,-52.734,41.016,1235.567,336
721,1686880007.672,-31.25,-435.547,-41.016,-49.316,1235.571,333
722,1686880007.676,-46.875,-307.617,-25.879,-88.867,1235.575,333
723,1686880007.68,-18.066,-493.164,-71.289,-1.953,1235.579,333
724,1686880007.684,2.441,-753.418,-55.664,38.086,1235.583,331
725,1686880007.688,-16.602,-563.477,-37.598,-41.504,1235.587,331
726,1686880007.692,-37.598,-584.961,-45.898,-84.473,1235.591,331
727,1686880007.695,-33.691,-812.012,-71.777,-23.926,1235.595,329
728,1686880007.699,-4.395,-749.023,-31.738,40.527,1235.599,329
729,1686880007.703,-6.348,-142.09,-2.441,-10.742,1235.603,329
730,1686880007.707,-45.898,-199.219,-64.941,-80.566,1235.606,329
731,1686880007.711,-42.969,-482.91,-34.18,-45.898,1235.61,327
732,1686880007.713,-4.395,-260.254,-9.277,39.062,1235.609,327
733,1686880007.717,1.953,-269.531,-57.617,36.133,1235.613,327
734,1686880007.721,-29.297,-570.312,-70.801,-52.246,1235.617,327
735,1686880007.725,-39.062,-817.871,-45.898,-66.406,1235.621,326
736,1686880007.729,-3.906,-566.406,1.953,16.602,1235.625,326
737,1686880007.733,9.277,-284.18,-20.02,33.691,1235.629,326
738,1686880007.737,-23.926,-480.957,-57.129,-48.34,1235.633,327
739,1686880007.74,-39.062,-876.465,-89.355,-72.754,1235.636,327
740,1686880007.744,-15.625,-766.602,-1.953,4.883,1235.64,327
741,1686880007.748,9.766,-0.977,19.531,48.828,1235.644,327
742,1686880007.752,-3.906,-165.039,-66.406,-14.16,1235.648,330
743,1686880007.756,-35.645,-479.004,-51.758,-78.613,1235.652,330
744,1686880007.758,-25.391,-237.793,-18.066,-29.297,1235.653,330
745,1686880007.762,15.625,-20.02,-24.902,45.41,1235.657,330
746,1686880007.766,-1.465,-264.16,-36.133,8.789,1235.661,333
747,1686880007.77,-50.293,-456.055,-20.508,-72.754,1235.665,333
748,1686880007.774,-43.457,-260.742,-38.086,-59.082,1235.669,333
749,1686880007.778,-7.324,-407.715,-40.527,25.391,1235.673,334
750,1686880007.782,-1.465,-743.164,-68.848,32.715,1235.677,334
751,1686880007.785,-34.668,-957.031,-23.926,-52.734,1235.681,334
752,1686880007.789,-49.805,-475.098,38.574,-81.543,1235.685,334
753,1686880007.793,-15.137,-83.984,-36.621,6.836,1235.689,336
754,1686880007.797,4.883,-270.508,-28.809,43.945,1235.692,336
755,1686880007.801,-21.484,-277.344,-20.508,-45.41,1235.696,336
756,1686880007.802,-50.293,-181.641,-47.363,-101.562,1235.712,336
757,1686880007.806,-33.203,-409.18,-62.5,-32.227,1235.716,338
758,1686880007.81,-5.859,-723.145,-30.762,32.227,1235.72,338
759,1686880007.814,-26.855,-515.137,19.531,-26.855,1235.724,338
760,1686880007.818,-57.129,-171.387,-31.25,-96.68,1235.728,342
761,1686880007.822,-43.457,-446.777,-73.73,-50.781,1235.732,342
762,1686880007.826,-7.812,-815.918,-17.578,40.527,1235.735,342
763,1686880007.829,-7.324,-498.535,27.832,10.254,1235.739,342
764,1686880007.833,-40.527,-246.094,-36.621,-83.496,1235.743,347
765,1686880007.837,-48.828,-653.809,-72.266,-73.242,1235.747,347
766,1686880007.841,-17.578,-652.832,-30.762,9.277,1235.751,347
767,1686880007.845,-11.23,-131.348,6.836,14.648,1235.755,351
768,1686880007.847,-42.969,2.93,-44.922,-72.754,1235.758,351
769,1686880007.851,-58.594,-383.301,-56.152,-101.074,1235.762,351
770,1686880007.855,-24.414,-437.012,-19.531,-19.531,1235.766,351
771,1686880007.859,-0.488,-50.781,-10.254,17.578,1235.77,351
772,1686880007.863,-23.438,-69.824,-51.758,-54.688,1235.774,353
773,1686880007.867,-47.363,-692.871,-89.844,-88.379,1235.777,353
774,1686880007.871,-34.668,-808.594,-12.695,-26.855,1235.781,353
775,1686880007.874,-1.465,-143.066,20.996,37.598,1235.785,356
776,1686880007.878,-11.719,-22.949,-54.688,-0.977,1235.789,356
777,1686880007.882,-40.527,-486.816,-54.688,-77.637,1235.793,356
778,1686880007.886,-33.691,-500.977,-17.578,-41.992,1235.797,358
779,1686880007.89,-5.371,-295.41,-37.598,26.367,1235.801,358
780,1686880007.908,-13.672,-406.25,-51.27,-16.113,1235.804,362
781,1686880007.912,-51.27,-774.902,-72.266,-102.051,1235.808,362
782,1686880007.916,-57.129,-799.316,-22.461,-96.68,1235.812,364
783,1686880007.92,-31.25,-171.875,14.648,-5.859,1235.815,364
784,1686880007.924,-18.066,-98.633,-56.641,24.414,1235.819,364
785,1686880007.928,-41.504,-598.145,-77.148,-56.152,1235.823,366
786,1686880007.932,-62.012,-757.812,-25.391,-100.586,1235.827,366
787,1686880007.935,-36.621,-250.0,-4.883,-30.273,1235.831,366
788,1686880007.939,-3.906,-209.473,-58.105,30.762,1235.835,366
789,1686880007.943,-22.461,-700.195,-49.316,-33.691,1235.839,367
790,1686880007.947,-49.805,-486.816,7.324,-108.398,1235.843,367
791,1686880007.951,-36.621,-119.141,-24.414,-57.617,1235.847,367
792,1686880007.953,-12.207,-271.973,-47.363,30.273,1235.85,367
793,1686880007.957,-13.672,-431.641,-59.082,0.977,1235.854,368
794,1686880007.961,-49.805,-462.402,-41.016,-75.684,1235.858,368
795,1686880007.965,-50.293,-238.77,-14.648,-59.082,1235.861,368
796,1686880007.969,-10.742,-415.527,-58.105,23.926,1235.865,372
797,1686880007.973,-5.859,-888.184,-51.27,21.484,1235.869,372
798,1686880007.977,-35.156,-557.617,-15.625,-65.43,1235.873,372
799,1686880007.98,-42.969,-154.297,-25.879,-75.195,1235.877,372
800,1686880007.984,-20.996,-583.496,-76.172,11.719,1235.881,371
801,1686880007.988,-11.23,-757.812,-27.832,28.809,1235.885,371
802,1686880007.992,-22.949,-135.254,-10.742,-64.453,1235.889,371
803,1686880007.996,-47.363,-231.934,-74.707,-110.352,1235.893,372
804,1686880007.997,-28.809,-395.996,-39.062,-36.621,1235.894,372
805,1686880008.001,-0.977,-421.387,-28.809,29.297,1235.898,372
806,1686880008.005,-17.09,-365.234,-38.086,-31.25,1235.902,372
807,1686880008.009,-46.875,-288.086,-58.594,-103.027,1235.906,372
808,1686880008.013,-38.574,-765.137,-62.988,-47.363,1235.909,371
809,1686880008.017,-12.207,-784.668,-4.883,31.738,1235.913,371
810,1686880008.021,-20.02,-415.527,-14.16,-16.602,1235.917,371
811,1686880008.024,-47.363,-365.234,-62.5,-104.98,1235.921,371
812,1686880008.028,-46.387,-823.73,-76.172,-85.938,1235.925,375
813,1686880008.032,-9.766,-645.996,20.508,5.859,1235.929,375
814,1686880008.036,2.93,49.316,-7.812,11.719,1235.933,375
815,1686880008.04,-25.879,-261.719,-77.637,-70.312,1235.937,379
816,1686880008.042,-45.41,-508.301,-48.828,-95.703,1235.939,379
817,1686880008.046,-12.695,-169.922,-5.859,-7.324,1235.943,379
818,1686880008.05,1.465,7.324,-35.156,33.691,1235.947,379
819,1686880008.054,-36.133,-277.832,-43.945,-45.41,1235.951,383
820,1686880008.058,-53.223,-484.375,-27.344,-96.68,1235.955,383
821,1686880008.062,-28.809,-468.262,-47.363,-40.039,1235.958,383
822,1686880008.066,-7.324,-512.695,-33.691,10.742,1235.962,390
823,1686880008.069,-25.391,-713.867,-83.496,-28.32,1235.966,390
824,1686880008.073,-45.41,-975.586,-39.551,-93.75,1235.97,390
825,1686880008.077,-41.016,-444.336,29.297,-69.824,1235.974,390
826,1686880008.081,-4.883,-46.387,-42.969,20.508,1235.978,399
827,1686880008.085,-0.488,-298.828,-51.27,4.883,1235.982,399
828,1686880008.088,-37.109,-318.359,-37.598,-80.566,1235.998,399
829,1686880008.092,-40.039,-357.422,-45.898,-66.895,1236.002,399
830,1686880008.096,-6.348,-479.98,-38.086,13.184,1236.006,400
831,1686880008.1,0.977,-607.422,-11.23,37.109,1236.01,400
832,1686880008.104,-35.645,-537.598,-2.441,-27.832,1236.014,400
833,1686880008.108,-56.152,-470.215,-34.18,-69.824,1236.018,404
834,1686880008.112,-24.414,-583.496,-41.992,-0.977,1236.022,404
835,1686880008.115,1.465,-722.656,-26.367,58.105,1236.025,404
836,1686880008.119,-27.344,-489.258,3.906,-7.324,1236.029,404
837,1686880008.123,-54.688,-226.074,-36.621,-77.148,1236.033,407
838,1686880008.127,-37.598,-622.559,-70.312,-14.16,1236.037,407
839,1686880008.131,-9.277,-624.512,-29.297,59.082,1236.041,407
840,1686880008.132,-20.02,-133.789,7.812,12.695,1236.03,407
841,1686880008.136,-53.223,-53.223,-47.363,-76.66,1236.033,409
842,1686880008.14,-49.805,-442.871,-53.223,-40.039,1236.037,409
843,1686880008.144,-12.207,-373.047,-3.906,47.852,1236.041,409
844,1686880008.148,-12.207,0.488,-30.762,26.367,1236.045,412
845,1686880008.152,-45.41,-312.5,-81.055,-51.27,1236.049,412
846,1686880008.156,-56.641,-799.316,-49.805,-59.57,1236.053,412
847,1686880008.159,-29.297,-545.41,15.625,16.113,1236.057,412
848,1686880008.163,-14.648,-16.113,0.977,31.738,1236.061,412
849,1686880008.167,-37.598,-16.602,-57.129,-41.504,1236.065,420
850,1686880008.171,-63.965,-613.281,-62.988,-64.941,1236.069,420
851,1686880008.175,-52.246,-700.195,4.883,0.0,1236.073,420
852,1686880008.178,-22.949,-323.242,-6.836,41.016,1236.077,419
853,1686880008.182,-33.203,-451.172,-45.41,-21.484,1236.081,419
854,1686880008.186,-59.57,-836.426,-75.195,-83.984,1236.085,419
855,1686880008.19,-42.969,-749.023,-3.418,-36.133,1236.089,419
856,1686880008.194,-7.812,-144.531,9.766,38.574,1236.093,419
857,1686880008.198,-9.766,-302.734,-70.801,19.043,1236.097,419
858,1686880008.202,-45.41,-777.832,-35.156,-60.547,1236.1,419
859,1686880008.205,-47.363,-538.574,22.949,-60.059,1236.104,418
860,1686880008.209,-0.977,55.664,-1.465,33.203,1236.108,418
861,1686880008.213,5.859,-138.184,-56.152,40.039,1236.112,418
862,1686880008.217,-34.668,-433.105,-54.199,-66.406,1236.116,416
863,1686880008.221,-55.176,-238.77,-18.555,-90.82,1236.12,416
864,1686880008.223,-26.367,-43.945,-25.879,4.395,1236.132,416
865,1686880008.227,12.207,-216.797,-43.945,63.477,1236.136,416
866,1686880008.231,-8.789,-514.648,-58.594,-8.301,1236.14,419
867,1686880008.235,-42.969,-444.824,-28.809,-71.289,1236.144,419
868,1686880008.239,-17.578,-209.961,-19.531,-12.695,1236.148,419
869,1686880008.243,3.906,-571.289,-85.449,57.617,1236.152,419
870,1686880008.247,-17.09,-993.652,-35.156,9.766,1236.156,418
871,1686880008.25,-49.805,-522.949,31.738,-82.031,1236.16,418
872,1686880008.254,-42.969,-199.219,-35.156,-44.434,1236.164,418
873,1686880008.258,-3.906,-347.656,-38.574,43.945,1236.168,418
874,1686880008.262,-3.906,-249.023,-13.184,15.625,1236.172,415
875,1686880008.266,-43.945,-131.348,-50.293,-81.055,1236.175,415
876,1686880008.298,-55.664,-252.93,-71.777,-75.684,1236.194,404
877,1686880008.302,-20.508,-572.754,-51.758,17.578,1236.198,407
878,1686880008.306,-4.883,-496.582,-20.508,24.414,1236.202,407
879,1686880008.31,-30.273,-110.352,-33.203,-61.523,1236.205,407
880,1686880008.314,-43.457,-297.363,-72.266,-86.426,1236.209,409
881,1686880008.318,-20.02,-778.32,-49.805,-3.418,1236.213,409
882,1686880008.322,-6.836,-806.641,5.859,31.25,1236.217,409
883,1686880008.325,-30.762,-378.906,-5.859,-47.363,1236.221,409
884,1686880008.327,-35.645,-389.648,-60.059,-89.844,1236.238,409
885,1686880008.329,-49.805,-339.844,-62.988,-94.727,1236.225,409
886,1686880008.331,-35.156,-522.461,-32.227,-58.105,1236.242,409
887,1686880008.333,-36.133,-806.152,-47.852,-42.969,1236.229,409
888,1686880008.335,-1.953,-146.973,-10.254,21.484,1236.246,409
889,1686880008.337,-7.812,-467.773,34.668,23.926,1236.233,409
890,1686880008.339,5.859,-51.758,-38.086,2.93,1236.249,409
891,1686880008.341,-8.301,9.766,-18.555,-12.695,1236.237,410
892,1686880008.343,-33.203,-402.832,-50.781,-76.66,1236.253,410
893,1686880008.347,-46.875,-811.035,-35.156,-71.777,1236.257,410
894,1686880008.351,-8.301,-602.539,1.465,11.719,1236.261,410
895,1686880008.354,4.395,-260.742,-14.16,24.902,1236.265,410
896,1686880008.358,-33.691,-532.715,-49.316,-58.594,1236.269,411
897,1686880008.362,-52.246,-597.168,-3.418,-87.891,1236.273,411
898,1686880008.366,-28.32,-188.965,-11.719,-8.301,1236.277,411
899,1686880008.37,-6.348,-76.172,-37.598,38.574,1236.281,419
900,1686880008.373,-22.949,-583.008,-98.633,-18.555,1236.283,419
901,1686880008.377,-49.805,-1000.0,-32.715,-70.801,1236.287,419
902,1686880008.381,-41.016,-523.438,47.363,-24.902,1236.291,419
903,1686880008.385,-7.324,-104.492,-37.598,45.41,1236.295,420
904,1686880008.389,-4.395,-517.578,-47.852,9.766,1236.299,420
905,1686880008.393,-41.992,-758.301,-24.902,-76.172,1236.303,420
906,1686880008.397,-41.016,-551.27,-15.137,-58.594,1236.307,420
907,1686880008.4,-3.906,-363.281,-41.504,28.32,1236.311,425
908,1686880008.404,-5.859,-654.785,-38.086,33.203,1236.314,425
909,1686880008.408,-35.645,-538.086,5.371,-47.852,1236.318,425
910,1686880008.412,-44.434,-298.34,-42.48,-65.43,1236.322,426
911,1686880008.416,-13.184,-606.934,-77.637,12.207,1236.326,426
912,1686880008.417,4.395,-818.848,-35.645,33.203,1236.314,426
913,1686880008.421,-13.184,-429.688,24.414,-52.246,1236.318,426
914,1686880008.425,-38.574,-143.555,-41.504,-91.309,1236.321,428
915,1686880008.429,-23.926,-403.32,-38.086,-13.184,1236.325,428
916,1686880008.433,6.836,-400.879,-20.02,41.016,1236.329,428
917,1686880008.437,-13.672,-387.207,-50.781,-23.926,1236.333,428
918,1686880008.441,-43.457,-552.734,-50.781,-90.332,1236.337,429
919,1686880008.444,-35.645,-803.223,-55.176,-39.551,1236.341,429
920,1686880008.448,-4.395,-633.789,4.395,38.574,1236.345,429
921,1686880008.452,-4.883,-40.039,0.977,0.488,1236.349,430
922,1686880008.456,-39.551,-109.375,-63.965,-82.52,1236.353,430
923,1686880008.46,-47.852,-688.477,-66.895,-62.5,1236.357,430
924,1686880008.463,-16.602,-677.246,-1.953,16.113,1236.362,429
925,1686880008.467,-3.418,-362.793,-24.414,15.625,1236.366,429
926,1686880008.471,-35.645,-586.426,-66.406,-65.43,1236.37,429
927,1686880008.475,-47.363,-907.715,-72.266,-85.449,1236.374,429
928,1686880008.479,-16.602,-748.535,-19.043,-2.93,1236.378,429
929,1686880008.483,-0.488,-340.332,-13.672,31.738,1236.382,428
930,1686880008.487,-24.414,-491.211,-63.477,-37.598,1236.386,428
931,1686880008.49,-42.969,-798.828,-33.691,-85.449,1236.39,428
932,1686880008.494,-24.414,-488.281,33.691,-30.273,1236.394,423
933,1686880008.498,3.906,72.266,-2.93,28.32,1236.397,423
934,1686880008.502,-14.16,-220.703,-72.754,-21.973,1236.401,423
935,1686880008.506,-33.203,-496.582,-56.641,-81.055,1236.405,423
936,1686880008.507,-6.836,-205.078,-11.23,-23.926,1236.404,423
937,1686880008.511,3.418,-5.371,-24.902,39.062,1236.408,417
938,1686880008.515,-12.695,-291.504,-39.062,16.602,1236.411,417
939,1686880008.519,-37.598,-602.051,-39.551,-58.594,1236.415,417
940,1686880008.523,-54.199,-590.332,-38.086,-78.125,1236.419,411
941,1686880008.527,-25.391,-557.617,-18.555,7.324,1236.423,411
942,1686880008.531,-6.348,-712.891,-48.34,37.598,1236.427,411
943,1686880008.534,-36.133,-976.562,-17.578,-41.504,1236.431,404
944,1686880008.538,-62.5,-563.965,35.645,-84.961,1236.435,404
945,1686880008.542,-39.551,-162.598,-17.09,-15.625,1236.439,404
946,1686880008.546,-20.996,-372.559,-42.969,25.391,1236.443,404
947,1686880008.55,-39.551,-439.453,-22.949,-42.969,1236.447,396
948,1686880008.552,-59.57,-275.391,-27.832,-88.379,1236.462,396
949,1686880008.556,-45.898,-513.672,-68.359,-32.715,1236.466,396
950,1686880008.56,-18.555,-795.41,-25.879,28.809,1236.47,396
951,1686880008.564,-26.367,-495.605,16.113,-18.555,1236.474,385
952,1686880008.568,-55.664,-216.309,-41.016,-93.75,1236.478,385
953,1686880008.572,-57.617,-593.75,-72.266,-57.617,1236.482,385
954,1686880008.576,-31.738,-898.438,-26.367,33.203,1236.486,371
955,1686880008.579,-32.227,-604.492,23.926,21.973,1236.49,371
956,1686880008.583,-61.523,-124.023,-9.766,-66.895,1236.494,371
957,1686880008.587,-77.637,-366.699,-72.266,-78.125,1236.498,371
958,1686880008.591,-52.246,-664.551,-46.875,0.0,1236.501,357
959,1686880008.595,-26.855,-241.211,8.301,20.996,1236.505,357
960,1686880008.598,-48.34,-50.293,-44.922,-64.453,1236.507,357
961,1686880008.602,-63.965,-475.098,-72.754,-103.516,1236.511,357
962,1686880008.606,-34.18,-570.801,-36.133,-28.809,1236.515,343
963,1686880008.61,-9.766,-192.871,-14.16,15.137,1236.519,343
964,1686880008.614,-34.18,-187.012,-48.34,-61.035,1236.523,343
965,1686880008.618,-61.523,-729.98,-94.238,-114.746,1236.527,333
966,1686880008.622,-49.805,-819.824,-23.926,-61.035,1236.531,333
967,1686880008.625,-22.949,-197.754,15.625,1.953,1236.535,333
968,1686880008.629,-28.809,-135.254,-54.199,-35.645,1236.539,333
969,1686880008.633,-62.012,-730.469,-87.402,-110.84,1236.543,328
970,1686880008.637,-59.082,-791.992,-7.324,-82.031,1236.546,328
971,1686880008.641,-20.508,-143.555,13.672,3.906,1236.55,328
972,1686880008.657,-17.578,-118.164,-45.41,-3.906,1236.554,319
973,1686880008.661,-52.246,-757.324,-51.27,-98.633,1236.558,319
974,1686880008.665,-55.176,-725.586,-22.461,-101.562,1236.562,319
975,1686880008.669,-23.926,-197.266,-15.137,-7.324,1236.565,319
976,1686880008.673,-10.742,-187.5,-60.547,10.254,1236.569,320
977,1686880008.677,-33.203,-768.066,-82.031,-70.312,1236.573,320
978,1686880008.681,-50.781,-879.395,-6.836,-112.305,1236.577,320
979,1686880008.684,-36.621,-253.418,8.789,-47.852,1236.581,320
980,1686880008.688,-16.113,-268.555,-60.059,12.207,1236.585,327
981,1686880008.692,-26.367,-646.973,-67.871,-43.945,1236.589,327
982,1686880008.696,-69.336,-476.562,-26.855,-114.746,1236.593,327
983,1686880008.7,-62.988,-404.297,-41.992,-62.012,1236.597,327
984,1686880008.702,-25.879,-736.328,-67.871,20.02,1236.599,332
985,1686880008.706,-28.32,-740.723,-56.152,-13.672,1236.603,332
986,1686880008.71,-52.246,-367.188,-22.461,-97.656,1236.607,332
987,1686880008.714,-47.852,-308.594,-51.27,-79.102,1236.611,339
988,1686880008.718,-17.578,-543.945,-46.387,16.113,1236.615,339
989,1686880008.722,-11.719,-784.18,-34.668,27.344,1236.619,339
990,1686880008.726,-32.715,-610.352,-35.156,-55.176,1236.622,346
991,1686880008.729,-44.434,-298.34,-36.133,-76.172,1236.626,346
992,1686880008.733,-33.203,-677.246,-72.754,7.812,1236.63,346
993,1686880008.737,-19.043,-809.082,-23.438,49.316,1236.634,346
994,1686880008.741,-30.273,-238.77,0.488,-27.344,1236.638,346
995,1686880008.745,-49.316,-308.105,-57.617,-80.566,1236.642,352
996,1686880008.748,-35.156,-525.879,-27.832,-15.625,1236.647,352
997,1686880008.752,-3.418,-542.969,-13.672,57.129,1236.651,352
998,1686880008.756,-10.254,-630.371,-39.551,18.555,1236.655,359
999,1686880008.76,-53.223,-703.125,-47.852,-73.73,1236.659,359
1000,1686880008.764,-60.059,-886.719,-60.059,-46.875,1236.663,359
1001,1686880008.768,-27.832,-903.32,-18.555,34.18,1236.667,365
1002,1686880008.772,-24.414,-569.824,10.254,4.395,1236.671,365
1003,1686880008.775,-56.152,-471.191,-62.5,-80.078,1236.674,365
1004,1686880008.779,-73.242,-776.367,-52.734,-77.148,1236.678,365
1005,1686880008.783,-34.18,-481.934,38.086,12.207,1236.682,369
1006,1686880008.787,-9.766,16.602,-12.207,27.832,1236.686,369
1007,1686880008.791,-38.086,-363.281,-69.336,-47.852,1236.69,369
1008,1686880008.793,-57.129,-593.262,-41.504,-71.777,1236.692,369
1009,1686880008.797,-33.203,-180.664,-5.859,1.953,1236.696,371
1010,1686880008.801,-5.859,1.465,-30.273,38.086,1236.699,371
1011,1686880008.805,-24.414,-358.398,-47.852,-30.762,1236.703,371
1012,1686880008.809,-52.246,-697.754,-37.598,-87.402,1236.707,371
1013,1686880008.813,-41.016,-639.648,-36.133,-32.227,1236.711,371
1014,1686880008.817,-10.742,-522.949,-22.949,35.156,1236.715,371
1015,1686880008.82,-16.602,-704.102,-71.777,6.836,1236.719,371
1016,1686880008.824,-47.363,-992.188,-37.598,-75.195,1236.723,371
1017,1686880008.828,-45.898,-518.066,39.062,-67.871,1236.727,371
1018,1686880008.832,-8.789,-125.488,-29.297,23.926,1236.731,371
1019,1686880008.836,-7.812,-331.543,-37.598,19.531,1236.735,371
1020,1686880008.837,-46.875,-283.203,-20.02,-65.918,1236.748,370
1021,1686880008.841,-60.059,-441.895,-51.27,-70.801,1236.752,370
1022,1686880008.845,-29.785,-675.293,-59.082,13.184,1236.756,370
1023,1686880008.849,-12.695,-677.734,-26.855,33.203,1236.76,370
1024,1686880008.853,-41.016,-545.898,-8.789,-52.734,1236.764,370
1025,1686880008.857,-56.641,-553.711,-56.641,-91.797,1236.768,370
1026,1686880008.861,-39.062,-633.301,-36.133,-18.066,1236.772,370
1027,1686880008.864,-22.461,-833.008,-45.898,36.621,1236.776,370
1028,1686880008.868,-39.062,-802.734,-14.16,-32.227,1236.78,369
1029,1686880008.872,-58.105,-158.691,-11.719,-105.469,1236.783,369
1030,1686880008.876,-41.504,-280.273,-63.965,-57.129,1236.787,369
1031,1686880008.88,-10.742,-446.289,-41.016,19.531,1236.791,366
1032,1686880008.882,-19.531,-138.672,-16.602,-6.836,1236.779,366
1033,1686880008.886,-54.199,-108.398,-44.434,-89.844,1236.783,366
1034,1686880008.89,-54.688,-471.191,-57.129,-74.707,1236.787,366
1035,1686880008.894,-25.391,-476.562,-22.461,10.254,1236.791,363
1036,1686880008.898,-19.043,-168.457,-30.273,-1.953,1236.794,363
1037,1686880008.902,-42.48,-474.609,-67.871,-84.961,1236.798,363
1038,1686880008.906,-62.5,-925.781,-69.824,-102.051,1236.802,359
1039,1686880008.909,-37.598,-730.469,-3.418,-20.996,1236.806,359
1040,1686880008.913,-12.695,-214.355,-2.93,4.883,1236.81,359
1041,1686880008.917,-41.504,-304.199,-55.664,-70.801,1236.814,359
1042,1686880008.921,-68.359,-810.059,-83.008,-98.633,1236.818,355
1043,1686880008.925,-49.805,-839.355,-25.391,-34.668,1236.822,355
1044,1686880008.931,-12.695,-203.125,24.414,18.555,1236.837,355
1045,1686880008.935,-24.902,-294.922,-64.453,-43.457,1236.841,354
1046,1686880008.939,-54.199,-834.961,-52.246,-114.746,1236.845,354
1047,1686880008.943,-39.062,-539.062,31.738,-71.289,1236.849,354
1048,1686880008.947,-8.301,-75.195,-16.113,11.719,1236.853,352
1049,1686880008.951,-11.23,-359.375,-76.172,-8.301,1236.857,352
1050,1686880008.955,-45.41,-841.797,-38.086,-87.402,1236.861,352
1051,1686880008.958,-50.293,-645.508,23.926,-86.914,1236.865,352
1052,1686880008.962,-16.602,-81.543,-2.93,-0.977,1236.868,348
1053,1686880008.966,-1.953,-188.477,-53.711,26.855,1236.872,348
1054,1686880008.97,-17.578,-512.695,-68.848,-54.199,1236.876,348
1055,1686880008.974,-50.781,-436.523,-42.48,-104.492,1236.88,348
1056,1686880008.974,-51.27,-364.258,-32.227,-39.551,1236.875,348
1057,1686880008.978,-19.043,-669.434,-82.031,14.16,1236.879,345
1058,1686880008.982,-33.691,-756.836,-66.406,-58.594,1236.883,345
1059,1686880008.986,-67.383,-344.727,-7.812,-122.07,1236.887,345
1060,1686880008.99,-43.457,-181.641,-41.992,-50.781,1236.891,343
1061,1686880008.994,-17.578,-634.766,-71.289,25.879,1236.894,343
1062,1686880008.998,-39.551,-814.453,-20.02,-24.902,1236.898,343
1063,1686880009.001,-65.43,-328.613,-15.137,-108.398,1236.902,343
1064,1686880009.005,-51.758,-205.566,-51.758,-73.242,1236.906,342
1065,1686880009.009,-20.996,-613.281,-35.156,8.789,1236.91,342
1066,1686880009.013,-15.625,-589.844,0.0,-14.16,1236.914,342
1067,1686880009.017,-41.504,-197.266,-24.902,-90.82,1236.918,343
1068,1686880009.032,-55.176,-327.637,-54.688,-82.031,1236.929,344
1069,1686880009.036,-26.367,-674.316,-39.062,0.488,1236.933,344
1070,1686880009.04,-9.277,-675.293,-35.645,14.16,1236.936,344
1071,1686880009.044,-36.621,-529.297,-38.086,-64.941,1236.94,344
1072,1686880009.048,-52.734,-487.305,-37.109,-100.586,1236.944,343
1073,1686880009.052,-35.156,-778.809,-92.285,-12.207,1236.948,343
1074,1686880009.056,-18.066,-976.074,-19.043,37.598,1236.952,343
1075,1686880009.059,-34.668,-415.039,20.508,-46.875,1236.956,343
1076,1686880009.063,-58.594,-365.723,-59.082,-104.004,1236.96,343
1077,1686880009.067,-39.062,-537.598,-47.363,-49.805,1236.964,343
1078,1686880009.071,-2.93,-186.523,-6.348,20.508,1236.968,344
1079,1686880009.075,-6.836,-60.547,-36.133,-12.695,1236.972,344
1080,1686880009.092,-40.527,-504.883,-78.613,-91.309,1236.989,347
1081,1686880009.096,-39.062,-669.922,-41.504,-73.73,1236.993,347
1082,1686880009.1,-5.371,-252.441,-8.789,10.254,1236.997,351
1083,1686880009.104,-4.883,-114.258,-46.875,-3.418,1237.001,351
1084,1686880009.108,-39.551,-541.992,-62.012,-89.355,1237.005,351
1085,1686880009.112,-54.199,-929.199,-33.691,-89.844,1237.009,353
1086,1686880009.116,-26.367,-740.234,-23.926,-9.766,1237.013,353
1087,1686880009.119,-16.602,-585.938,-26.855,18.555,1237.017,353
1088,1686880009.122,-19.043,-497.559,-46.387,-37.109,1237.019,353
1089,1686880009.123,-38.574,-779.297,-87.402,-52.246,1237.02,353
1090,1686880009.126,-53.223,-854.98,-34.18,-112.305,1237.023,353
1091,1686880009.127,-50.781,-993.652,-38.086,-97.656,1237.024,355
1092,1686880009.13,-38.574,-617.676,-24.414,-52.734,1237.026,355
1093,1686880009.131,-28.32,-521.484,38.574,-34.668,1237.028,355
1094,1686880009.134,-14.16,-305.176,-38.574,25.879,1237.03,355
1095,1686880009.135,2.441,-125.977,-35.645,31.25,1237.032,355
1096,1686880009.138,-24.414,-609.375,-44.434,-3.906,1237.034,355
1097,1686880009.142,-50.781,-885.254,-26.855,-83.984,1237.038,356
1098,1686880009.146,-44.434,-651.367,-25.879,-74.707,1237.042,356
1099,1686880009.149,-7.324,-497.07,-41.016,6.836,1237.046,356
1100,1686880009.153,3.906,-662.598,-48.34,18.066,1237.05,359
1101,1686880009.157,-28.809,-482.91,-19.531,-66.406,1237.054,359
1102,1686880009.161,-47.363,-217.773,-29.297,-98.145,1237.058,359
1103,1686880009.165,-19.531,-373.535,-73.73,-19.531,1237.062,359
1104,1686880009.167,-2.441,-925.293,-90.332,30.762,1237.064,359
1105,1686880009.171,-26.855,-732.422,12.695,-44.434,1237.068,362
1106,1686880009.175,-49.805,-242.676,-27.344,-105.957,1237.072,362
1107,1686880009.179,-34.668,-459.473,-49.805,-43.457,1237.076,362
1108,1686880009.183,-16.113,-534.668,-24.414,17.09,1237.079,366
1109,1686880009.187,-25.391,-537.109,-54.199,-25.391,1237.083,366
1110,1686880009.191,-52.734,-684.082,-47.852,-87.891,1237.087,366
1111,1686880009.194,-51.758,-895.996,-73.73,-55.176,1237.091,366
1112,1686880009.198,-12.207,-796.875,-39.062,29.785,1237.095,367
1113,1686880009.202,-11.23,-252.93,7.812,2.441,1237.099,367
1114,1686880009.206,-44.922,-352.539,-76.66,-83.984,1237.103,367
1115,1686880009.21,-44.922,-771.484,-39.551,-73.242,1237.107,368
1116,1686880009.212,-9.766,-546.387,24.902,7.812,1237.122,368
1117,1686880009.216,-8.301,-362.793,-32.715,16.602,1237.126,368
1118,1686880009.22,-37.598,-636.23,-62.5,-58.594,1237.13,368
1119,1686880009.224,-42.48,-850.098,-29.297,-76.66,1237.134,369
1120,1686880009.228,-26.855,-560.059,17.09,-4.883,1237.138,369
1121,1686880009.232,-7.812,-385.254,-29.297,29.785,1237.142,369
1122,1686880009.236,-23.438,-630.371,-61.035,-36.621,1237.146,369
1123,1686880009.239,-52.734,-853.027,-32.227,-83.008,1237.149,371
1124,1686880009.243,-38.574,-618.164,39.551,-28.32,1237.153,371
1125,1686880009.247,-9.766,-96.191,1.953,32.227,1237.157,371
1126,1686880009.251,-17.09,-314.453,-58.594,0.977,1237.161,374
1127,1686880009.255,-43.945,-602.539,-50.293,-83.496,1237.165,374
1128,1686880009.273,-45.41,-380.371,-22.949,-67.871,1237.172,377
1129,1686880009.277,-20.996,-381.348,-31.25,22.949,1237.176,377
1130,1686880009.281,-20.996,-722.168,-74.707,12.695,1237.18,376
1131,1686880009.285,-44.922,-802.734,-58.105,-77.637,1237.184,376
1132,1686880009.289,-45.898,-461.426,-20.508,-79.102,1237.188,376
1133,1686880009.293,-20.508,-575.195,-44.922,13.672,1237.192,376
1134,1686880009.297,-12.695,-893.066,-57.617,37.109,1237.196,376
1135,1686880009.3,-36.621,-852.539,-34.18,-38.574,1237.199,376
1136,1686880009.302,-50.781,-310.059,-48.828,-95.215,1237.213,376
1137,1686880009.304,-50.293,-447.266,8.301,-82.52,1237.203,377
1138,1686880009.306,-47.363,-591.309,-67.871,-41.016,1237.217,377
1139,1686880009.308,-25.879,-251.465,-29.785,-3.906,1237.207,377
1140,1686880009.31,-19.043,-799.316,-35.645,38.574,1237.22,377
1141,1686880009.312,-10.254,-529.297,-36.621,52.246,1237.211,377
1142,1686880009.314,-17.578,-658.203,-17.09,3.418,1237.224,377
1143,1686880009.316,-27.344,-519.531,-15.625,-26.855,1237.215,377
1144,1686880009.318,-45.41,-550.781,-42.48,-74.707,1237.228,377
1145,1686880009.322,-54.688,-716.797,-51.758,-55.664,1237.232,378
1146,1686880009.326,-27.344,-677.734,-14.16,29.297,1237.236,378
1147,1686880009.329,-12.207,-319.824,-15.137,33.203,1237.24,378
1148,1686880009.333,-37.598,-242.188,-47.363,-54.199,1237.244,380
1149,1686880009.337,-50.781,-466.797,-70.312,-71.289,1237.248,380
1150,1686880009.341,-22.949,-950.684,-84.961,25.879,1237.252,380
1151,1686880009.345,-0.488,-771.973,5.859,52.734,1237.256,380
1152,1686880009.353,-15.137,-239.258,-20.508,-32.227,1237.257,381
1153,1686880009.357,-42.969,-562.012,-78.125,-75.195,1237.261,381
1154,1686880009.361,-30.273,-667.48,-39.062,-10.742,1237.265,380
1155,1686880009.365,-2.441,-222.656,-15.625,49.805,1237.269,380
1156,1686880009.369,-24.414,-219.727,-57.617,-6.348,1237.273,380
1157,1686880009.373,-59.082,-719.238,-105.469,-74.219,1237.277,379
1158,1686880009.377,-53.223,-974.609,-47.363,-38.574,1237.281,379
1159,1686880009.38,-21.973,-608.887,0.488,26.855,1237.285,379
1160,1686880009.384,-13.184,-257.812,-35.645,5.371,1237.289,379
1161,1686880009.388,-41.016,-645.508,-83.496,-64.453,1237.293,379
1162,1686880009.392,-54.199,-941.406,-41.504,-56.152,1237.296,380
1163,1686880009.396,-26.367,-481.934,-4.395,24.414,1237.3,380
1164,1686880009.407,-14.648,-216.309,-44.922,23.926,1237.304,381
1165,1686880009.411,-44.434,-681.641,-61.035,-64.941,1237.308,381
1166,1686880009.415,-63.965,-727.051,-19.043,-85.449,1237.311,382
1167,1686880009.419,-38.086,-294.922,-12.695,-1.953,1237.315,382
1168,1686880009.423,-20.996,-285.645,-41.992,36.621,1237.319,382
1169,1686880009.427,-46.387,-789.551,-85.938,-27.344,1237.323,382
1170,1686880009.431,-62.5,-895.508,-16.113,-81.543,1237.327,382
1171,1686880009.434,-33.691,-347.168,15.137,-38.086,1237.331,382
1172,1686880009.438,-8.301,-379.883,-58.105,30.762,1237.335,382
1173,1686880009.442,-18.555,-736.816,-56.641,-14.648,1237.339,381
1174,1686880009.446,-34.18,-603.027,-20.996,-83.984,1237.343,381
1175,1686880009.45,-36.621,-328.125,-24.902,-48.34,1237.347,381
1176,1686880009.452,-12.695,-550.781,-67.871,27.832,1237.349,381
1177,1686880009.456,-14.16,-778.809,-61.523,7.324,1237.353,380
1178,1686880009.46,-47.852,-441.406,-13.184,-78.125,1237.357,380
1179,1686880009.464,-55.176,-318.359,-42.48,-79.59,1237.361,380
1180,1686880009.468,-21.973,-533.691,-39.062,7.812,1237.365,380
1181,1686880009.472,-8.789,-837.891,-32.227,26.367,1237.368,381
1182,1686880009.476,-39.551,-754.883,-28.809,-57.129,1237.372,381
1183,1686880009.479,-56.152,-445.801,-20.996,-96.68,1237.376,381
1184,1686880009.483,-29.785,-734.863,-75.684,-14.648,1237.38,382
1185,1686880009.487,-1.465,-841.797,-34.668,44.434,1237.384,382
1186,1686880009.491,-21.484,-355.957,-1.953,-39.062,1237.388,382
1187,1686880009.495,-55.176,-521.484,-68.848,-97.656,1237.392,382
1188,1686880009.497,-47.363,-795.898,-33.691,-36.133,1237.394,382
1189,1686880009.501,-20.508,-741.699,-4.395,24.902,1237.398,383
1190,1686880009.505,-27.832,-558.105,-27.344,-26.367,1237.402,383
1191,1686880009.509,-60.547,-487.305,-57.129,-105.957,1237.406,383
1192,1686880009.513,-62.012,-832.031,-59.57,-80.078,1237.409,383
1193,1686880009.517,-29.785,-927.246,-3.418,-1.465,1237.413,383
1194,1686880009.521,-19.043,-542.48,-0.977,-12.695,1237.417,383
1195,1686880009.524,-50.293,-440.43,-69.824,-92.773,1237.421,381
1196,1686880009.528,-67.383,-853.516,-57.129,-97.656,1237.425,381
1197,1686880009.532,-37.109,-619.141,34.18,-21.973,1237.429,381
1198,1686880009.536,-15.137,-123.535,-15.137,1.953,1237.433,381
1199,1686880009.54,-39.551,-430.664,-73.242,-67.871,1237.437,381
1200,1686880009.545,-64.453,-718.75,-52.246,-108.887,1237.445,380
1201,1686880009.549,-41.992,-416.016,-24.414,-33.691,1237.449,380
1202,1686880009.553,-14.16,-466.309,-48.828,22.461,1237.453,381
1203,1686880009.557,-35.156,-823.73,-94.727,-41.992,1237.457,381
1204,1686880009.561,-60.059,-847.656,-69.336,-101.562,1237.461,381
1205,1686880009.565,-45.898,-699.219,-18.066,-43.945,1237.464,382
1206,1686880009.569,-9.766,-656.25,-24.414,37.598,1237.468,382
1207,1686880009.572,-19.531,-796.387,-65.918,-2.93,1237.472,382
1208,1686880009.576,-51.27,-871.582,-42.969,-94.727,1237.476,382
1209,1686880009.58,-47.363,-439.941,11.719,-90.332,1237.48,382
1210,1686880009.584,-17.578,-250.977,-46.387,-8.789,1237.484,383
1211,1686880009.587,-46.875,-460.449,-28.32,-80.078,1237.484,383
1212,1686880009.588,-9.766,-483.398,-44.922,1.465,1237.488,383
1213,1686880009.591,-57.617,-518.555,-51.758,-99.609,1237.488,383
1214,1686880009.595,-27.832,-739.258,-41.992,-3.418,1237.491,382
1215,1686880009.599,-9.766,-707.031,-20.508,30.762,1237.495,382
1216,1686880009.603,-32.715,-645.996,-32.715,-56.152,1237.499,382
1217,1686880009.607,-55.664,-734.863,-50.293,-106.445,1237.503,381
1218,1686880009.611,-34.668,-789.062,-33.203,-40.527,1237.507,381
1219,1686880009.614,-5.371,-900.391,-62.988,30.273,1237.511,381
1220,1686880009.618,-22.949,-963.867,-16.113,-19.531,1237.515,381
1221,1686880009.622,-54.199,-481.934,10.254,-98.145,1237.519,380
1222,1686880009.626,-44.434,-437.988,-55.664,-58.594,1237.523,380
1223,1686880009.63,-14.648,-535.156,-49.316,23.438,1237.527,380
1224,1686880009.632,-20.508,-204.102,-31.25,0.977,1237.529,380
1225,1686880009.636,-48.34,-238.281,-55.664,-81.055,1237.533,381
1226,1686880009.64,-52.246,-614.258,-72.754,-74.219,1237.537,381
1227,1686880009.644,-24.902,-575.195,-27.832,9.766,1237.541,381
1228,1686880009.648,-7.812,-221.191,-35.156,21.484,1237.545,382
1229,1686880009.652,-34.18,-523.438,-83.496,-61.035,1237.549,382
1230,1686880009.656,-50.293,-936.523,-96.68,-89.844,1237.552,382
1231,1686880009.659,-28.809,-949.707,-22.461,2.441,1237.556,382
1232,1686880009.663,-13.672,-483.398,32.715,43.945,1237.56,382
1233,1686880009.667,-29.785,-250.977,-55.664,-28.809,1237.564,382
1234,1686880009.671,-55.664,-704.59,-56.641,-78.613,1237.568,382
1235,1686880009.675,-41.992,-719.727,16.602,-22.461,1237.572,381
1236,1686880009.677,-14.648,-239.258,-8.789,34.668,1237.587,381
1237,1686880009.681,-19.531,-425.781,-68.848,-16.602,1237.591,381
1238,1686880009.685,-51.27,-902.832,-43.457,-92.773,1237.595,381
1239,1686880009.689,-48.34,-698.242,24.902,-71.777,1237.599,381
1240,1686880009.693,-12.207,-305.664,-19.043,12.695,1237.603,380
1241,1686880009.697,-10.254,-515.137,-84.961,8.301,1237.607,380
1242,1686880009.701,-44.434,-902.344,-54.688,-73.73,1237.611,380
1243,1686880009.704,-50.293,-688.477,22.949,-76.66,1237.615,380
1244,1686880009.708,-19.531,-152.832,0.488,6.836,1237.618,380
1245,1686880009.712,-13.672,-321.777,-68.848,22.949,1237.622,380
1246,1686880009.716,-41.016,-693.359,-73.242,-59.57,1237.626,380
1247,1686880009.72,-60.059,-463.867,-26.855,-101.562,1237.63,381
1248,1686880009.723,-33.691,-180.176,-33.691,-27.832,1237.633,381
1249,1686880009.727,-5.371,-422.852,-73.73,29.297,1237.637,381
1250,1686880009.731,-26.367,-698.73,-75.684,-41.504,1237.641,381
1251,1686880009.735,-53.711,-412.598,-30.762,-106.445,1237.645,382
1252,1686880009.739,-39.551,-313.477,-41.504,-42.48,1237.648,382
1253,1686880009.743,-9.277,-706.543,-89.355,43.457,1237.652,382
1254,1686880009.747,-9.277,-845.215,-51.27,0.977,1237.656,382
1255,1686880009.75,-40.527,-436.035,-3.906,-92.773,1237.66,382
1256,1686880009.754,-41.504,-316.895,-40.039,-74.219,1237.664,382
1257,1686880009.758,-6.348,-573.242,-40.039,18.066,1237.668,381
1258,1686880009.762,-2.441,-510.254,-20.02,20.02,1237.672,381
1259,1686880009.766,-29.297,-297.852,-36.133,-61.035,1237.676,381
1260,1686880009.782,-30.762,-548.828,-43.457,-66.895,1237.679,379
1261,1686880009.786,-3.906,-892.578,-47.852,16.113,1237.683,380
1262,1686880009.79,8.301,-790.039,0.0,38.086,1237.687,380
1263,1686880009.794,-15.625,-374.512,-8.789,-40.527,1237.69,380
1264,1686880009.798,-48.828,-459.961,-69.336,-83.984,1237.694,380
1265,1686880009.802,-39.551,-900.391,-71.289,-15.137,1237.698,381
1266,1686880009.806,-10.742,-767.09,6.836,35.645,1237.702,381
1267,1686880009.809,-21.484,-264.648,-6.348,-28.32,1237.706,381
1268,1686880009.813,-42.969,-448.242,-81.543,-92.773,1237.71,381
1269,1686880009.817,-33.691,-754.395,-40.039,-53.223,1237.714,382
1270,1686880009.821,-8.301,-521.973,-4.883,25.391,1237.718,382
1271,1686880009.825,-7.812,-305.664,-54.199,-1.465,1237.722,382
1272,1686880009.827,-49.805,-565.43,-73.242,-91.309,1237.724,381
1273,1686880009.831,-61.035,-708.984,-38.086,-76.66,1237.728,381
1274,1686880009.835,-23.438,-377.441,-16.602,4.883,1237.732,381
1275,1686880009.839,-15.137,-564.941,-58.105,-1.465,1237.736,381
1276,1686880009.843,-44.434,-847.656,-74.707,-74.707,1237.739,381
1277,1686880009.847,-60.547,-987.793,-52.734,-89.844,1237.743,380
1278,1686880009.851,-30.273,-725.586,10.742,-8.789,1237.747,380
1279,1686880009.854,-9.277,-277.832,-6.836,27.832,1237.751,380
1280,1686880009.858,-23.926,-644.531,-80.566,-38.086,1237.755,380
1281,1686880009.862,-41.016,-941.895,-26.367,-79.59,1237.759,380
1282,1686880009.866,-26.855,-442.871,35.645,-19.043,1237.763,380
1283,1686880009.87,-8.301,-228.027,-31.25,42.969,1237.767,381
1284,1686880009.872,-26.855,-473.145,-46.875,-10.254,1237.769,381
1285,1686880009.876,-56.152,-776.855,-42.969,-83.008,1237.773,381
1286,1686880009.88,-53.223,-655.273,-22.461,-55.664,1237.776,381
1287,1686880009.884,-18.555,-342.285,-38.574,25.391,1237.78,381
1288,1686880009.888,-13.672,-677.734,-47.363,17.09,1237.784,382
1289,1686880009.892,-42.969,-932.617,-5.371,-67.871,1237.788,382
1290,1686880009.896,-45.898,-832.52,-25.391,-75.195,1237.792,382
1291,1686880009.899,-11.719,-684.57,-33.203,10.742,1237.796,383
1292,1686880009.903,-1.465,-853.516,-59.57,39.551,1237.8,383
1293,1686880009.907,-25.879,-873.047,-21.484,-42.969,1237.804,383
1294,1686880009.911,-35.645,-348.145,2.441,-83.984,1237.808,382
1295,1686880009.915,-15.625,-385.254,-47.363,-2.93,1237.812,382
