,timestamps,TP9,AF7,AF8,TP10,Secondary Timestamp,emg_signal
0,1686105510.41,1.953,267.09,85.449,-21.484,396.306,350.53447047578624
1,1686105510.41,-52.734,-369.141,26.367,-50.293,396.31,338.89919766739166
2,1686105510.41,-20.996,-375.0,202.637,-23.926,396.314,337.4836135037879
3,1686105510.42,65.918,250.488,233.398,14.648,396.318,336.69341486961986
4,1686105510.42,58.594,333.496,119.629,1.953,396.322,337.0437477218001
5,1686105510.43,-18.066,-420.898,-62.5,-41.992,396.326,343.22083168029656
6,1686105510.43,-9.277,-601.562,115.723,-40.527,396.33,335.3100561959758
7,1686105510.43,67.383,199.707,271.973,-0.488,396.334,350.9986132939834
8,1686105510.44,72.266,373.047,118.164,10.742,396.338,335.51127432870436
9,1686105510.44,3.418,-423.828,-93.262,-15.625,396.342,338.07879576898426
10,1686105510.44,-15.137,-401.855,119.629,-24.414,396.346,339.70554395060435
11,1686105510.45,35.156,223.633,250.977,6.836,396.349,338.7637611149356
12,1686105510.45,11.719,-113.281,113.281,-12.207,396.348,325.19015749424324
13,1686105510.46,-41.504,-70.312,161.133,-49.805,396.352,325.63848921375296
14,1686105510.46,0.0,-51.27,129.395,-16.113,396.356,331.8888780731066
15,1686105510.46,46.875,-208.496,133.301,31.738,396.36,326.4715761773275
16,1686105510.47,-6.348,-478.516,126.465,14.16,396.363,337.2219980079846
17,1686105510.47,-83.496,-562.988,150.391,-12.695,396.367,335.4099631310187
18,1686105510.48,-60.059,-268.555,203.613,0.0,396.371,339.16461847633866
19,1686105510.48,13.184,-45.898,134.766,26.367,396.375,334.081272396528
20,1686105510.48,6.836,-830.078,-58.594,12.207,396.379,334.5096716872373
21,1686105510.49,-47.363,-839.844,106.934,-41.504,396.383,335.60343872374773
22,1686105510.49,-35.156,-11.719,213.867,-49.805,396.387,336.46510789312623
23,1686105510.5,24.902,0.488,98.633,5.371,396.39,323.41862666403546
24,1686105510.5,29.785,73.73,156.25,20.996,396.394,336.06392309604905
25,1686105510.5,-10.254,244.629,154.785,-20.02,396.398,339.8262421510718
26,1686105510.51,-8.301,142.09,110.352,-30.273,396.402,338.5944904986734
27,1686105510.51,47.852,-134.766,51.27,12.695,396.406,346.3696993659751
28,1686105510.52,73.242,-268.555,115.723,35.645,396.41,332.4872292699809
29,1686105510.52,15.137,-253.906,96.191,-1.953,396.414,340.64718345340185
30,1686105510.52,-52.734,-291.016,57.129,-34.18,396.418,322.32238765116296
31,1686105510.53,-15.137,-655.762,18.066,7.324,396.422,335.4539248366308
32,1686105510.53,41.992,-730.469,95.215,45.41,396.425,329.53793107840823
33,1686105510.53,-0.977,104.004,216.797,15.625,396.429,322.7251246699959
34,1686105510.54,-57.129,145.996,97.656,-25.391,396.433,339.0569484224452
35,1686105510.54,-30.273,-155.273,128.418,-11.23,396.433,342.6229620314319
36,1686105510.54,21.484,240.234,225.586,36.621,396.437,329.89244528558663
37,1686105510.55,6.836,418.457,153.32,30.762,396.441,324.9110014509866
38,1686105510.55,-53.223,85.938,12.207,-3.906,396.445,332.02400621352496
39,1686105510.55,-61.035,-215.332,78.125,-0.977,396.449,327.57580646669425
40,1686105510.56,16.113,-185.547,190.43,34.18,396.453,330.999883386861
41,1686105510.56,54.688,-80.566,167.48,47.852,396.456,332.1440411887537
42,1686105510.56,9.277,-244.629,82.031,17.09,396.46,328.2209607014105
43,1686105510.57,-24.414,-933.105,-30.273,-1.465,396.464,320.31726239597407
44,1686105510.57,31.25,-809.57,183.105,28.809,396.468,325.65862006013367
45,1686105510.58,74.707,176.27,236.328,43.945,396.472,326.99951129140936
46,1686105510.58,17.578,150.879,37.109,3.418,396.476,330.66060037313036
47,1686105510.58,-36.133,-73.73,116.211,-33.691,396.48,334.54925200077423
48,1686105510.59,9.766,207.52,235.84,-6.836,396.484,325.7400281972424
49,1686105510.59,86.914,391.113,153.809,36.133,396.488,320.62138078572156
50,1686105510.6,65.43,121.582,4.395,17.09,396.492,325.89376051353526
51,1686105510.6,9.766,-29.785,85.938,-29.785,396.496,321.99068093025346
52,1686105510.6,35.156,-195.312,77.637,-13.184,396.5,341.07092338520744
53,1686105510.61,96.191,-141.602,117.188,32.227,396.503,320.44612692436107
54,1686105510.61,76.172,-375.488,73.242,31.738,396.507,337.9829543855541
55,1686105510.62,-8.789,-564.453,179.688,-11.719,396.511,326.9801170476015
56,1686105510.62,-35.645,79.102,257.812,-19.531,396.515,318.8430661584741
57,1686105510.62,10.254,161.133,131.348,20.996,396.519,340.46956284959
58,1686105510.63,-17.09,-10.254,137.695,-1.465,396.523,321.349294312549
59,1686105510.63,26.367,-216.797,95.703,36.621,396.523,324.86720238596826
60,1686105510.63,-34.668,193.359,160.645,-31.25,396.527,334.9067620556194
61,1686105510.64,34.668,21.484,145.996,11.23,396.531,326.57736104754366
62,1686105510.64,97.656,-131.836,156.738,45.898,396.535,324.1188439187822
63,1686105510.64,56.641,-0.488,121.094,5.371,396.539,321.96062758722957
64,1686105510.65,0.977,-228.027,54.688,-28.32,396.543,333.87792160822056
65,1686105510.65,39.551,-396.484,116.699,2.441,396.546,332.70867733268597
66,1686105510.66,97.168,-865.234,77.148,42.48,396.55,330.3924486137125
67,1686105510.66,63.477,-585.938,253.418,25.879,396.554,318.0091814491697
68,1686105510.66,-7.812,155.762,203.125,-15.137,396.558,329.9955229968093
69,1686105510.67,-9.766,-6.348,82.52,-1.465,396.562,328.9172573791083
70,1686105510.67,57.617,58.105,182.129,42.969,396.566,329.3982795320554
71,1686105510.68,62.988,364.746,194.336,47.852,396.582,313.4489267948706
72,1686105510.68,-19.043,162.109,51.758,3.906,396.586,337.270730115002
73,1686105510.68,-54.199,-397.461,-3.418,-18.555,396.59,334.12044338934686
74,1686105510.69,15.625,-246.582,222.168,26.855,396.594,331.9152859752231
75,1686105510.69,66.895,293.945,213.867,50.781,396.597,331.9120618910611
76,1686105510.7,5.371,-25.879,-39.062,10.254,396.601,327.4726155073691
77,1686105510.7,-52.734,-726.074,-57.617,-22.461,396.605,328.8964346422017
78,1686105510.7,5.371,-588.867,243.164,5.859,396.609,330.8982764166526
79,1686105510.71,74.219,236.816,257.324,42.969,396.613,339.7834373053307
80,1686105510.71,40.039,265.625,116.699,16.602,396.617,337.18917385596416
81,1686105510.72,-28.809,-227.539,71.777,-17.09,396.621,324.767721895201
82,1686105510.72,73.73,332.52,214.355,60.059,396.627,335.893044259478
83,1686105510.72,4.883,-78.125,170.41,18.066,396.625,323.3178368652298
84,1686105510.72,54.688,178.711,102.051,35.156,396.631,332.3350613600879
85,1686105510.73,0.977,-204.102,102.539,-9.277,396.635,333.7901085343529
86,1686105510.73,19.043,-103.516,161.621,1.465,396.639,327.84537488508505
87,1686105510.73,77.637,-71.289,160.645,53.711,396.643,318.9116835996913
88,1686105510.74,78.125,-243.164,143.555,57.129,396.647,327.9869809654382
89,1686105510.74,17.578,-854.492,-16.602,18.066,396.651,325.5060075781349
90,1686105510.74,-8.301,-853.027,161.133,-3.906,396.655,325.3460974541161
91,1686105510.75,43.457,6.836,249.023,21.484,396.659,339.2870510290738
92,1686105510.75,71.777,115.234,82.52,46.875,396.663,323.1718489472048
93,1686105510.76,21.484,-261.719,81.543,6.348,396.666,323.836674998836
94,1686105510.76,-18.555,-95.703,141.113,-28.809,396.67,324.4655591506874
95,1686105510.78,21.484,145.508,165.527,5.371,396.679,330.41836915566165
96,1686105510.78,62.012,26.855,115.723,53.223,396.683,335.11125071391183
97,1686105510.79,23.438,55.176,129.883,41.504,396.687,322.5904252605271
98,1686105510.79,-45.898,156.25,154.297,0.0,396.691,323.485737625377
99,1686105510.8,-34.668,135.254,155.762,18.555,396.695,322.654470686717
100,1686105510.8,17.09,-168.457,57.129,62.012,396.699,331.40143128152425
101,1686105510.8,-7.324,-404.297,86.914,41.016,396.702,329.54314064855464
102,1686105510.81,-63.965,-273.926,175.781,-5.371,396.706,343.453700037028
103,1686105510.81,-41.992,19.531,159.18,-5.859,396.71,335.00790774733827
104,1686105510.81,24.414,-479.98,-1.953,43.945,396.714,322.66334901053955
105,1686105510.82,32.227,-625.488,132.324,53.223,396.718,328.4737536976558
106,1686105510.82,-28.809,78.613,207.031,-3.418,396.722,335.9666082724593
107,1686105510.82,-51.758,-4.395,127.93,-20.508,396.718,332.9712584517517
108,1686105510.83,13.184,-189.941,160.156,16.113,396.722,328.59632235684285
109,1686105510.83,61.523,170.41,183.105,41.504,396.726,339.00375459200995
110,1686105510.84,51.758,289.062,122.559,43.457,396.73,327.45525384669253
111,1686105510.84,27.344,-107.91,-15.625,32.227,396.734,332.45872735729614
112,1686105510.84,39.062,-469.238,71.289,31.738,396.737,332.69144520412857
113,1686105510.85,82.52,-322.754,198.73,51.27,396.741,319.02483468595585
114,1686105510.85,55.664,-89.844,199.219,36.621,396.745,329.5050985305056
115,1686105510.85,2.93,-196.777,30.273,7.324,396.749,327.3860828341266
116,1686105510.86,15.625,-933.105,-42.969,26.855,396.753,327.4064802304124
117,1686105510.86,79.102,-619.629,293.945,76.172,396.757,339.06968109121055
118,1686105510.87,99.609,257.812,229.98,88.379,396.761,324.2082309443432
119,1686105510.87,29.297,22.949,23.926,54.199,396.765,325.82919951652303
120,1686105510.87,2.93,-133.301,134.277,53.223,396.769,331.5102441993749
121,1686105510.88,61.035,225.586,225.098,101.562,396.773,330.9355518013611
122,1686105510.88,84.473,363.281,164.062,131.836,396.777,326.1585075152374
123,1686105510.89,20.996,-29.297,-34.668,101.074,396.781,324.0369541231764
124,1686105510.89,-13.184,-376.465,33.203,76.66,396.785,329.0788158500926
125,1686105510.89,56.152,-270.02,235.84,106.445,396.789,314.643893852405
126,1686105510.9,102.051,136.719,167.969,125.977,396.793,332.2532438554462
127,1686105510.9,42.48,-358.887,-73.73,104.98,396.797,316.8678665247779
128,1686105510.9,-15.137,-609.863,151.855,73.73,396.8,329.70414194472556
129,1686105510.91,29.785,124.512,252.93,100.098,396.804,317.52075947772175
130,1686105510.91,92.773,184.082,111.328,150.391,396.808,331.041443576394
131,1686105510.91,54.199,-258.301,95.703,120.117,396.822,333.3958628650954
132,1686105510.92,-11.23,-84.961,144.531,63.965,396.826,331.0372532485466
133,1686105510.92,16.113,198.73,192.871,72.266,396.83,321.4683389350926
134,1686105510.92,82.031,94.238,148.926,112.793,396.834,335.17690624349285
135,1686105510.93,82.031,-257.812,99.609,114.258,396.838,331.1757014030495
136,1686105510.93,20.02,-379.395,93.75,73.242,396.842,316.5074339832159
137,1686105510.94,-11.23,-331.543,153.809,57.129,396.846,330.86032127562834
138,1686105510.94,45.41,-335.938,155.762,86.914,396.849,325.2847795658206
139,1686105510.94,66.895,-863.77,23.926,116.211,396.853,338.6633326560862
140,1686105510.95,2.441,-619.141,231.934,83.496,396.857,328.40614572106915
141,1686105510.95,-47.363,63.477,235.84,51.758,396.861,327.1127820366326
142,1686105510.96,7.324,5.859,96.68,88.867,396.865,332.4181444439964
143,1686105510.96,83.984,129.395,181.641,120.117,396.856,333.82106329362864
144,1686105510.96,61.035,315.43,168.457,80.078,396.859,330.63918468833526
145,1686105510.97,2.441,29.785,-26.855,37.598,396.863,324.43194758516944
146,1686105510.97,25.879,-406.738,-9.766,62.988,396.867,328.0336229776607
147,1686105510.98,98.145,-219.727,203.613,99.609,396.871,326.2657726053448
148,1686105510.98,83.496,-19.043,86.426,92.773,396.875,321.5954183447676
149,1686105510.98,22.949,-270.996,-35.156,51.758,396.879,331.46559907472056
150,1686105510.99,28.32,-695.312,29.785,50.781,396.883,321.62035509242264
151,1686105510.99,92.773,-566.406,194.824,101.074,396.887,327.6795670089747
152,1686105511.0,109.863,277.344,233.398,104.492,396.891,333.81882417307224
153,1686105511.0,46.387,245.117,97.168,61.035,396.895,325.88473469316193
154,1686105511.0,20.996,-506.836,-46.387,42.969,396.898,327.7320879740724
155,1686105511.0,88.379,-187.012,154.297,80.078,396.899,325.98249987861874
156,1686105511.01,121.094,419.922,225.586,105.957,396.902,333.04521841067464
157,1686105511.01,67.871,137.695,41.016,70.801,396.906,327.99067832415545
158,1686105511.02,11.23,-175.293,87.891,40.039,396.91,325.32636823550735
159,1686105511.02,29.297,-23.926,173.828,70.312,396.914,329.4103130067945
160,1686105511.02,73.242,-38.574,147.461,104.98,396.918,321.39653952057466
161,1686105511.03,56.152,-226.562,95.703,82.031,396.922,333.27990217090496
162,1686105511.03,-0.488,-881.836,-30.762,53.223,396.926,318.4107458531234
163,1686105511.03,21.484,-898.926,118.164,60.547,396.93,328.39600947590947
164,1686105511.04,91.309,39.062,233.887,90.82,396.934,331.90295632365576
165,1686105511.04,84.961,209.961,94.727,90.332,396.938,334.9458597738554
166,1686105511.05,15.625,-9.766,111.328,45.41,396.942,326.85572838069817
167,1686105511.05,8.301,145.02,179.199,36.621,396.957,331.5076542293956
168,1686105511.05,84.473,298.34,174.805,76.172,396.961,327.23512723071525
169,1686105511.06,106.934,62.012,58.594,92.285,396.965,323.37628454918513
170,1686105511.06,45.898,5.371,111.328,46.875,396.969,317.1108443735226
171,1686105511.07,11.23,112.305,179.688,25.391,396.973,324.3551530377695
172,1686105511.07,65.43,-40.527,121.582,64.941,396.977,324.0160809754812
173,1686105511.07,98.633,-409.668,58.594,91.797,396.981,336.105913733872
174,1686105511.08,34.668,-634.277,120.605,56.641,396.985,319.41670827417283
175,1686105511.08,-19.531,-209.473,208.496,14.648,396.989,325.2782534185215
176,1686105511.08,12.207,83.496,147.949,48.828,396.993,313.5193207713172
177,1686105511.09,65.43,-317.383,13.672,101.562,396.996,324.5038108824337
178,1686105511.09,44.434,-127.441,98.633,81.055,397.0,336.80252947517005
179,1686105511.09,-8.789,187.5,146.973,34.668,397.003,325.66065937989316
180,1686105511.1,12.695,20.02,122.07,38.574,397.007,310.0274088056387
181,1686105511.1,73.242,-73.242,142.09,76.172,397.011,317.41688726122607
182,1686105511.1,69.824,208.984,177.734,78.613,397.015,324.7238794678749
183,1686105511.11,9.277,175.293,87.402,27.344,397.019,325.22831209122165
184,1686105511.11,5.371,-360.352,-7.812,19.531,397.022,324.1404699579129
185,1686105511.12,74.707,-869.141,44.434,78.125,397.026,314.6430643282734
186,1686105511.12,107.91,-381.348,195.312,90.332,397.03,306.5901698406522
187,1686105511.12,48.34,278.32,170.898,44.922,397.034,321.6168791902
188,1686105511.13,6.836,-134.277,13.184,25.879,397.038,318.21258632285634
189,1686105511.13,49.805,-583.496,78.613,57.129,397.042,316.001432570415
190,1686105511.14,91.309,21.973,230.957,80.078,397.046,317.88063701400046
191,1686105511.15,51.27,378.906,130.859,53.711,397.049,316.57538755894836
192,1686105511.16,-15.137,-159.18,-15.625,24.414,397.053,325.6364912202506
193,1686105511.16,19.531,-352.051,166.016,52.734,397.057,321.95857339224153
194,1686105511.17,101.074,247.559,250.977,101.074,397.061,321.62414736155984
195,1686105511.17,87.402,412.109,104.004,83.496,397.065,314.0749559537679
196,1686105511.17,18.066,-257.812,-69.824,36.621,397.069,324.9304635591422
197,1686105511.18,20.996,-522.461,78.613,32.715,397.073,330.41181698930455
198,1686105511.18,78.613,73.73,250.0,71.777,397.077,318.3751821996103
199,1686105511.18,90.82,281.25,128.906,90.332,397.081,329.18941382491664
200,1686105511.19,43.945,-439.453,-120.117,55.176,397.085,319.4072037519831
201,1686105511.19,35.645,-461.914,107.91,44.434,397.089,326.2418108165187
202,1686105511.2,92.773,152.344,270.02,81.055,397.092,320.1927976653815
203,1686105511.2,103.027,163.574,93.75,90.332,397.094,320.6277534271139
204,1686105511.2,39.062,-250.977,86.426,46.875,397.098,319.3539895253071
205,1686105511.21,-1.953,-75.684,179.199,13.184,397.101,319.40967124995643
206,1686105511.21,47.363,316.406,207.52,52.246,397.105,314.5851748297707
207,1686105511.21,89.355,144.531,64.453,96.191,397.109,318.5868956332589
208,1686105511.22,26.855,-659.668,-2.93,79.102,397.113,324.77826270492193
209,1686105511.22,-54.688,-668.945,158.203,38.086,397.117,316.29839519257973
210,1686105511.22,-33.203,-199.219,197.754,54.688,397.121,302.56469794955086
211,1686105511.23,41.992,-70.801,103.027,101.074,397.125,315.4029275037702
212,1686105511.23,22.949,-744.141,-30.762,96.68,397.129,329.31000508064716
213,1686105511.24,-48.34,-412.109,159.18,45.41,397.133,308.1832469256293
214,1686105511.24,-46.875,187.5,189.453,39.062,397.137,326.74022126742346
215,1686105511.24,10.254,17.578,94.238,92.285,397.141,324.79394312038505
216,1686105511.25,24.902,121.582,163.086,109.375,397.144,323.73314918905527
217,1686105511.25,-20.02,245.605,123.535,60.547,397.148,317.8042885736488
218,1686105511.26,-48.828,1.465,-20.508,33.203,397.152,322.1812678526436
219,1686105511.26,-1.953,-355.469,18.555,80.566,397.156,310.77806709694187
220,1686105511.26,36.133,-453.613,146.484,110.352,397.16,314.0432647783899
221,1686105511.27,1.465,-148.926,193.359,72.754,397.164,326.92836175910656
222,1686105511.27,-41.016,66.895,110.84,45.898,397.168,326.33736753888934
223,1686105511.28,-0.977,-494.629,-45.898,77.637,397.172,319.6732440741727
224,1686105511.28,62.012,-467.773,206.055,104.004,397.176,322.6590714941307
225,1686105511.28,38.086,263.672,244.629,73.242,397.18,321.09640459476554
226,1686105511.29,-10.254,116.211,19.531,34.18,397.184,320.58133481935056
227,1686105511.29,24.902,-256.836,77.148,42.48,397.184,315.3766610797936
228,1686105511.29,95.703,101.074,201.172,84.473,397.188,319.3721466212353
229,1686105511.3,83.984,369.141,170.898,84.961,397.191,317.839055401155
230,1686105511.3,11.719,80.078,36.133,44.434,397.195,321.49221025913846
231,1686105511.3,4.883,-272.949,49.805,27.344,397.199,322.84254742811487
232,1686105511.31,54.688,-291.016,168.457,66.406,397.203,316.13318608697284
233,1686105511.31,68.848,-149.902,169.922,83.984,397.207,308.3915837896841
234,1686105511.32,14.648,-259.277,54.199,38.086,397.211,320.6806944378077
235,1686105511.32,-19.531,-923.34,-67.871,14.16,397.215,328.13864369361966
236,1686105511.32,43.945,-841.309,161.133,49.316,397.219,321.4599708874207
237,1686105511.33,99.609,109.863,214.355,81.543,397.223,322.6742265660306
238,1686105511.33,47.852,132.324,51.758,53.711,397.227,318.31747148175566
239,1686105511.34,-14.648,-81.055,122.559,15.137,397.231,316.63621519749734
240,1686105511.34,28.32,215.82,216.309,36.133,397.234,320.31448324491396
241,1686105511.34,97.168,371.094,146.973,75.684,397.238,315.90032385551416
242,1686105511.35,65.43,57.129,2.441,64.941,397.242,298.22491296990074
243,1686105511.35,-16.113,-37.598,79.59,22.461,397.246,326.13180341562594
244,1686105511.36,-19.043,-122.07,90.82,20.996,397.25,324.69257191716855
245,1686105511.36,57.129,-132.324,150.391,66.406,397.254,309.7062409991724
246,1686105511.36,72.266,-348.633,41.016,69.336,397.258,316.0443516211953
247,1686105511.37,9.277,-701.66,77.637,9.766,397.262,326.4399103812281
248,1686105511.37,-18.066,-201.66,256.348,-9.277,397.266,311.315294744377
249,1686105511.37,45.898,178.711,137.695,40.039,397.27,325.5246315691067
250,1686105511.38,74.219,-262.207,-29.297,63.477,397.273,318.463024747003
251,1686105511.39,14.16,-109.375,94.727,19.043,397.289,324.275686049879
252,1686105511.4,-20.02,218.75,152.832,1.953,397.293,330.90805750826485
253,1686105511.4,33.691,87.891,107.91,52.734,397.297,322.06902373794054
254,1686105511.4,80.566,57.617,149.902,77.637,397.301,324.5085628523843
255,1686105511.41,29.785,123.047,115.723,50.293,397.305,317.13543419316403
256,1686105511.41,-40.527,-230.957,26.855,15.137,397.308,329.2848064162566
257,1686105511.42,-12.695,-423.34,83.008,27.344,397.312,327.135779016978
258,1686105511.42,62.988,-866.211,39.062,78.125,397.316,324.634274706215
259,1686105511.42,53.711,-581.543,233.887,58.105,397.32,325.7089682871433
260,1686105511.43,109.863,203.125,211.426,56.641,397.332,318.6524265435488
261,1686105511.43,-2.441,168.945,193.359,-0.488,397.324,332.3002712088334
262,1686105511.43,40.527,334.473,82.031,4.395,397.335,318.625097529503
263,1686105511.43,17.09,-26.367,40.039,16.113,397.328,318.7322598900478
264,1686105511.43,11.23,-161.621,-31.25,-16.113,397.339,331.83683339513834
265,1686105511.44,103.027,-184.57,142.578,66.406,397.332,311.7840872178624
266,1686105511.44,45.41,-219.727,179.688,29.297,397.343,331.62926616164617
267,1686105511.44,65.43,298.34,198.242,56.641,397.347,321.15246832899055
268,1686105511.45,18.066,29.785,-32.715,15.625,397.351,327.6579129608884
269,1686105511.45,-24.414,-544.434,-67.383,-10.742,397.355,338.7004390799782
270,1686105511.45,18.555,-222.168,132.324,27.832,397.359,323.92413709967286
271,1686105511.46,68.359,295.41,212.402,64.941,397.363,316.9575250858926
272,1686105511.46,35.645,254.883,92.285,39.551,397.367,320.4372043571315
273,1686105511.46,-16.113,-547.852,-114.258,2.93,397.371,330.27007238763497
274,1686105511.47,-1.465,-514.648,157.227,10.742,397.375,333.4710283352321
275,1686105511.47,43.457,306.152,245.117,61.523,397.377,335.32923053291853
276,1686105511.47,20.508,166.504,18.066,68.848,397.381,326.28580118393074
277,1686105511.48,-48.828,-340.82,74.219,22.461,397.385,325.9436181656139
278,1686105511.48,-37.598,-45.41,208.008,14.16,397.389,322.8141022199777
279,1686105511.48,31.738,229.492,133.301,48.828,397.393,319.2606184369981
280,1686105511.49,37.598,-128.906,-31.738,52.246,397.397,332.59930171087547
281,1686105511.49,-27.344,-879.883,-62.988,4.883,397.401,326.7499898803267
282,1686105511.5,-51.758,-687.988,184.57,-17.578,397.404,331.9299804866528
283,1686105511.5,12.207,180.176,236.816,22.461,397.408,320.64119204735505
284,1686105511.5,52.734,202.148,48.34,50.781,397.412,338.2438503640169
285,1686105511.51,5.859,-33.203,35.645,18.066,397.416,335.80443552415693
286,1686105511.51,-35.645,99.609,157.715,-15.137,397.42,337.8036445620252
287,1686105511.53,18.555,252.93,162.598,12.207,397.425,330.7814185860876
288,1686105511.53,76.66,100.586,79.102,44.434,397.429,333.2023587355614
289,1686105511.54,59.082,82.031,156.738,26.367,397.433,333.05309000412393
290,1686105511.54,18.066,73.242,93.75,0.488,397.436,320.92405398416673
291,1686105511.54,27.832,-101.074,44.434,11.23,397.44,319.815775507454
292,1686105511.55,68.359,-489.258,60.547,39.551,397.444,346.7951847574881
293,1686105511.55,47.852,-668.457,87.402,41.016,397.448,328.06029387042514
294,1686105511.56,-12.207,-3.906,191.895,12.207,397.452,319.31985647667284
295,1686105511.56,-35.645,79.102,77.148,-3.418,397.456,340.26239044459845
296,1686105511.56,14.648,-411.133,-67.871,34.668,397.46,357.862358843952
297,1686105511.57,47.363,-60.059,118.164,55.176,397.464,336.6553011968083
298,1686105511.57,-4.883,324.707,164.062,15.137,397.468,337.6718505787829
299,1686105511.57,-36.621,35.645,66.406,-1.953,397.469,346.55639159899096
300,1686105511.58,10.742,-166.504,134.277,31.738,397.473,343.5107079374766
301,1686105511.58,45.898,166.992,185.059,65.918,397.477,331.43613820825635
302,1686105511.58,-6.836,334.961,145.996,36.133,397.481,334.46180131205745
303,1686105511.59,-60.547,-47.852,16.113,-12.695,397.484,338.1420577318141
304,1686105511.59,-17.09,-503.418,60.059,14.648,397.488,340.9383483514266
305,1686105511.6,42.48,-341.309,173.828,51.27,397.492,334.94860166712726
306,1686105511.6,11.719,-160.645,140.137,26.367,397.496,337.18588592451727
307,1686105511.6,-56.641,-333.008,77.148,-6.348,397.5,326.78246125505217
308,1686105511.61,-32.227,-913.086,-17.578,11.23,397.504,320.48978815812717
309,1686105511.61,39.062,-714.355,216.797,52.246,397.508,335.9678994475823
310,1686105511.62,29.785,106.445,246.094,45.41,397.512,342.36968585637555
311,1686105511.62,-52.734,-49.805,44.434,3.418,397.516,345.7343460449702
312,1686105511.62,-66.406,-325.684,167.48,3.906,397.52,334.84927952534514
313,1686105511.63,12.207,185.059,234.375,47.363,397.524,334.02448745742123
314,1686105511.63,40.039,407.227,136.23,63.477,397.527,338.0294338093802
315,1686105511.64,-17.578,-27.832,-33.203,20.02,397.531,337.8998440963434
316,1686105511.64,-65.918,-386.719,41.504,-14.648,397.535,342.64578337173197
317,1686105511.64,-17.578,-146.484,229.492,24.902,397.539,336.8000227233823
318,1686105511.65,42.48,355.957,161.133,70.312,397.543,331.41792614871173
319,1686105511.65,5.859,-221.68,-99.609,50.293,397.547,337.74107553607644
320,1686105511.66,-54.199,-749.023,97.168,-0.977,397.551,339.19182532673364
321,1686105511.66,-13.672,-77.637,298.828,2.93,397.555,343.8750009361186
322,1686105511.66,9.766,-296.875,-51.758,42.48,397.559,333.9097731138023
323,1686105511.66,49.805,276.367,125.977,47.852,397.559,338.91398652153293
324,1686105511.67,-66.406,-167.969,100.098,-14.648,397.563,338.39145712574077
325,1686105511.67,-58.594,223.633,200.195,-14.648,397.566,342.14697363456816
326,1686105511.68,7.324,222.168,125.488,37.109,397.57,344.36977506502427
327,1686105511.68,22.949,-6.348,95.215,42.48,397.574,344.3153881192651
328,1686105511.68,-25.879,-254.883,62.5,-0.488,397.578,347.91648454111265
329,1686105511.69,-36.133,-301.27,89.844,-17.09,397.582,345.720677797378
330,1686105511.69,20.508,-261.719,138.672,27.344,397.586,352.394196503711
331,1686105511.69,55.664,-818.359,25.879,62.012,397.59,337.8293345651527
332,1686105511.7,25.879,-587.891,226.074,18.066,397.594,358.9603902055246
333,1686105511.7,2.441,165.527,213.867,-19.531,397.598,349.6699885474232
334,1686105511.71,41.504,-10.254,57.129,3.418,397.602,347.0190747168923
335,1686105511.71,81.055,-164.062,147.461,41.504,397.608,355.9007638308588
336,1686105511.72,43.457,200.684,196.289,25.879,397.612,354.3460887959246
337,1686105511.72,-11.719,283.203,98.145,-27.832,397.616,363.7748515182425
338,1686105511.72,16.113,-137.695,27.344,-6.836,397.62,362.82123608978037
339,1686105511.73,65.918,-171.387,164.062,50.293,397.623,356.0641265426495
340,1686105511.73,44.922,-29.297,126.953,43.457,397.627,359.6237276134949
341,1686105511.74,-22.949,-195.801,-47.852,-0.977,397.631,363.9530396897507
342,1686105511.74,-29.297,-588.867,-68.848,-4.883,397.635,374.636199471926
343,1686105511.74,44.922,-504.395,224.121,26.855,397.639,368.2030783572679
344,1686105511.75,66.895,269.531,247.07,30.273,397.643,370.26551935829997
345,1686105511.75,-2.93,239.258,55.176,-6.836,397.647,384.1525046268833
346,1686105511.75,23.926,47.363,191.895,14.648,397.649,378.2256731054148
347,1686105511.75,-43.945,-204.102,73.73,-22.949,397.651,368.3593294430725
348,1686105511.76,74.219,393.555,183.594,44.434,397.652,376.09223782229134
349,1686105511.76,8.301,106.445,34.668,25.879,397.656,369.7109902878666
350,1686105511.76,-38.086,-259.766,56.641,3.906,397.66,382.0821849323365
351,1686105511.77,13.672,-63.965,186.035,24.902,397.664,386.0820585573835
352,1686105511.77,66.895,-41.992,163.574,55.664,397.668,385.9444776842193
353,1686105511.78,51.27,-244.141,73.73,39.062,397.672,392.63831954995595
354,1686105511.78,9.277,-889.648,-68.359,0.0,397.676,391.08317517201493
355,1686105511.78,20.508,-919.922,107.91,1.465,397.68,382.311322757124
356,1686105511.79,83.496,77.637,237.305,47.852,397.684,385.0893700831351
357,1686105511.79,75.684,249.512,53.223,47.852,397.688,398.2261204510978
358,1686105511.8,7.324,-36.133,89.844,-4.395,397.692,402.17357813095015
359,1686105511.8,4.395,124.512,198.73,-2.93,397.706,396.81427382422623
360,1686105511.8,63.965,320.312,171.875,46.387,397.71,394.0467179686896
361,1686105511.81,67.383,135.254,53.711,62.5,397.714,395.21606798992497
362,1686105511.81,-0.977,62.988,117.188,19.043,397.718,396.5928586667354
363,1686105511.82,-28.32,101.074,133.789,3.906,397.722,392.7053822858407
364,1686105511.82,28.32,-18.066,87.891,48.34,397.726,396.0359039296647
365,1686105511.82,70.801,-416.504,45.898,75.684,397.73,397.5261911448117
366,1686105511.83,41.504,-721.191,98.145,41.016,397.734,391.92989761795724
367,1686105511.83,-8.789,-80.078,213.379,-6.348,397.737,395.28398007977216
368,1686105511.84,12.695,153.809,120.117,9.277,397.741,400.55922243026777
369,1686105511.84,66.406,-321.289,-3.906,47.852,397.745,396.81277863649655
370,1686105511.84,50.293,-75.684,115.723,37.598,397.749,387.3860000935322
371,1686105511.84,-15.625,248.047,137.695,-9.277,397.753,405.9287555891859
372,1686105511.85,-11.719,36.133,83.496,-8.301,397.757,392.6998003265341
373,1686105511.85,43.457,-83.984,131.348,36.133,397.761,396.7889840796168
374,1686105511.86,27.832,216.797,170.41,32.227,397.765,406.04565144535167
375,1686105511.86,-47.852,179.688,69.824,-17.09,397.769,397.5172189651793
376,1686105511.86,-60.547,-325.195,-34.18,-30.762,397.773,394.01229264254755
377,1686105511.87,4.883,-861.328,26.367,16.602,397.776,402.07766756078047
378,1686105511.87,40.039,-553.711,207.031,35.645,397.78,397.72175379218027
379,1686105511.87,-12.207,-3.906,166.504,-6.348,397.784,394.1615313008051
380,1686105511.88,-55.664,-198.73,17.09,-24.902,397.788,404.592274700429
381,1686105511.88,0.977,-511.23,113.77,20.508,397.792,401.51141258744525
382,1686105511.89,61.035,114.746,219.238,51.27,397.796,397.3637459740976
383,1686105511.9,33.691,345.703,100.586,23.438,397.813,396.4376145779948
384,1686105511.91,-34.668,-81.055,20.02,-4.883,397.817,387.14944594475224
385,1686105511.91,-24.902,-58.594,126.465,8.789,397.821,390.05121100376823
386,1686105511.92,37.109,309.082,216.797,40.039,397.825,388.9085785776031
387,1686105511.92,24.414,340.82,111.328,28.32,397.829,392.372104883412
388,1686105511.92,-41.016,-288.086,-58.105,-11.719,397.832,396.1696016712424
389,1686105511.93,-30.762,-469.727,104.004,-7.324,397.836,391.1184062477337
390,1686105511.93,49.805,159.18,237.793,44.434,397.84,398.2490642405506
391,1686105511.94,66.895,352.051,107.422,62.012,397.844,399.9133232388165
392,1686105511.94,4.395,-395.02,-125.977,23.926,397.848,388.12618914581026
393,1686105511.94,-20.996,-675.293,69.824,3.418,397.852,394.54716637048745
394,1686105511.95,37.109,42.48,271.484,35.645,397.856,381.9622428194657
395,1686105511.95,62.012,229.004,91.797,60.547,397.844,387.8245795565363
396,1686105511.95,-0.977,-469.727,-12.207,28.32,397.848,395.34797338294555
397,1686105511.96,-54.199,-329.102,116.699,-7.812,397.852,387.5922231800203
398,1686105511.96,0.488,166.992,183.594,25.879,397.856,381.4826532895138
399,1686105511.96,52.734,70.801,87.402,63.965,397.86,387.8853981463359
400,1686105511.97,4.883,-355.957,33.691,39.551,397.864,388.2547236108839
401,1686105511.97,-58.594,-541.504,91.309,-5.371,397.868,390.4533764748192
402,1686105511.98,-37.109,-263.184,185.547,8.301,397.872,394.4765626808963
403,1686105511.98,32.715,-31.738,106.934,67.383,397.876,383.82686654946326
404,1686105511.98,11.23,-746.094,-43.945,67.383,397.879,391.0882873636271
405,1686105511.99,-59.082,-454.102,181.641,2.441,397.883,385.49462765160496
406,1686105511.99,-51.758,200.195,187.988,-10.742,397.887,387.00666401167257
407,1686105512.0,17.09,-50.781,62.012,36.621,397.891,384.88378587420215
408,1686105512.0,42.969,-210.449,141.602,42.969,397.895,381.9000326403861
409,1686105512.0,-14.648,72.754,170.898,-13.672,397.899,375.26043367578876
410,1686105512.01,-62.012,177.734,111.328,-32.227,397.903,402.3182212446453
411,1686105512.01,-5.859,-190.918,37.598,20.508,397.907,382.9759449272976
412,1686105512.02,35.645,-480.957,112.793,41.504,397.911,376.63977772223296
413,1686105512.02,-22.461,-156.738,190.43,4.883,397.915,389.8838723437874
414,1686105512.02,-76.172,124.512,146.973,-19.043,397.919,385.10353355925366
415,1686105512.03,-37.109,-430.176,0.488,20.508,397.923,375.8735606546864
416,1686105512.03,30.762,-449.707,216.797,73.73,397.926,392.4433599090014
417,1686105512.03,1.953,229.004,216.309,41.992,397.93,393.89170551937303
418,1686105512.04,-66.895,-98.633,-48.34,-7.324,397.934,389.6331045037139
419,1686105512.04,-43.457,-343.262,94.238,13.672,397.934,385.96152257234985
420,1686105512.04,30.762,154.785,218.75,62.012,397.938,390.5665366223156
421,1686105512.05,36.621,461.914,154.297,63.965,397.942,384.868236996701
422,1686105512.05,-36.133,-7.324,-50.781,20.508,397.946,385.22949537142426
423,1686105512.05,-55.176,-715.82,15.625,12.207,397.95,387.61922127896105
424,1686105512.06,19.531,-445.801,228.027,37.598,397.953,383.3322926277708
425,1686105512.06,58.105,-73.73,167.48,45.898,397.957,383.3122852968724
426,1686105512.06,15.137,-262.695,38.086,10.742,397.961,394.28410049619026
427,1686105512.07,-30.762,-909.18,4.395,-13.184,397.965,387.34728149030667
428,1686105512.07,11.23,-560.059,278.32,15.625,397.969,383.40804551091946
429,1686105512.08,68.359,332.52,218.75,41.504,397.973,399.51645125688003
430,1686105512.08,27.832,142.09,28.809,13.672,397.977,392.8805682214609
431,1686105512.08,-38.086,-89.844,109.863,-22.949,397.981,374.9701671561729
432,1686105512.09,-20.508,217.285,189.941,6.348,397.985,380.1973494273738
433,1686105512.09,30.762,392.578,161.133,54.688,397.989,392.81805470082276
434,1686105512.1,2.441,121.582,52.734,41.992,397.993,378.6113063081818
435,1686105512.1,-57.617,-18.066,72.266,-0.488,397.997,390.6299612818494
436,1686105512.1,-36.133,-187.5,96.68,7.324,398.001,378.949016406025
437,1686105512.11,20.508,-109.863,153.809,48.34,398.004,395.1429760937136
438,1686105512.11,14.16,-403.32,0.0,62.012,398.008,389.36830361162515
439,1686105512.12,-41.504,-850.098,26.855,17.09,398.012,382.2219141109509
440,1686105512.12,-51.27,-81.543,229.98,-13.672,398.016,387.11852758074923
441,1686105512.12,8.301,231.934,141.113,18.066,398.02,390.8350977533344
442,1686105512.13,-20.02,160.645,127.93,-2.93,398.024,386.9687849550818
443,1686105512.13,39.551,13.672,108.398,32.227,398.024,390.211274773955
444,1686105512.13,-61.523,236.816,117.676,-29.785,398.028,385.24992525924114
445,1686105512.14,0.977,134.277,114.258,6.836,398.032,390.85028148789775
446,1686105512.14,48.828,33.203,136.719,45.898,398.036,385.50118832586446
447,1686105512.14,3.418,66.406,78.613,21.484,398.04,391.3605086713505
448,1686105512.15,-57.129,-195.312,-15.137,-21.484,398.044,383.15262590691833
449,1686105512.15,-25.879,-386.23,28.809,-2.441,398.048,371.07670439852217
450,1686105512.16,39.551,-848.145,16.113,53.223,398.052,370.9655163640394
451,1686105512.16,15.625,-711.426,185.059,34.18,398.056,382.39054545612277
452,1686105512.16,-46.387,-122.559,189.453,-16.113,398.06,376.1745026242196
453,1686105512.17,-30.273,-148.438,66.406,-10.254,398.063,383.1141088784647
454,1686105512.17,40.039,-169.922,124.512,26.855,398.067,379.7727516023591
455,1686105512.18,47.852,297.363,198.242,23.926,398.082,370.7517168211127
456,1686105512.18,-26.855,291.992,39.551,-13.672,398.086,368.5357213369161
457,1686105512.18,-59.57,-125.0,-47.852,-27.344,398.09,372.6089820149473
458,1686105512.19,0.488,14.648,159.668,15.137,398.094,372.0683684582004
459,1686105512.19,26.367,314.453,169.434,43.457,398.098,380.1838234636584
460,1686105512.2,-26.367,-1.465,-27.832,6.348,398.102,365.9630957315048
461,1686105512.2,-65.43,-620.117,-81.543,-20.508,398.106,370.1058776414275
462,1686105512.2,-7.812,-561.523,157.227,15.137,398.11,370.19382811562036
463,1686105512.21,57.129,262.207,233.887,44.922,398.114,364.87269904150986
464,1686105512.21,10.254,338.867,85.449,2.93,398.118,367.39507405550506
465,1686105512.21,-49.316,-174.805,-29.297,-38.574,398.121,366.06482463989056
466,1686105512.22,-11.719,-272.949,75.684,-15.625,398.125,370.3125753088218
467,1686105512.22,68.848,209.473,230.957,36.133,398.117,368.28547760222926
468,1686105512.22,59.082,268.066,66.895,42.969,398.121,368.26959640690256
469,1686105512.23,-22.949,-480.469,-5.859,-4.883,398.125,360.39307272725705
470,1686105512.23,-26.855,-210.938,166.992,-6.836,398.129,353.97575367114047
471,1686105512.24,52.246,238.77,155.273,60.059,398.133,349.9954275473223
472,1686105512.24,62.5,-81.055,42.969,56.641,398.136,354.7338025493715
473,1686105512.24,-26.367,-833.008,-30.762,-4.395,398.14,350.333153855813
474,1686105512.25,-58.594,-678.223,196.777,-18.555,398.144,359.4664713204608
475,1686105512.25,12.695,150.391,226.562,16.602,398.148,357.9907028960894
476,1686105512.26,48.34,187.988,46.387,44.922,398.152,355.54639186184687
477,1686105512.26,-9.277,19.531,63.477,15.625,398.156,346.95820048788863
478,1686105512.26,-57.617,163.574,179.199,-19.531,398.16,348.37820037072635
479,1686105512.28,-17.09,303.223,177.246,4.883,398.177,346.42553364234584
480,1686105512.28,37.109,64.941,67.871,46.875,398.18,352.75485730281156
481,1686105512.29,-3.906,-131.348,101.074,20.02,398.184,339.448047016391
482,1686105512.29,-68.848,95.215,166.016,-33.203,398.188,328.8605769248306
483,1686105512.3,-32.227,280.273,162.598,-22.461,398.192,336.6402941703463
484,1686105512.3,43.457,-231.445,-44.434,34.18,398.196,330.2048218160703
485,1686105512.3,27.344,-865.723,4.395,41.016,398.2,327.35228158204626
486,1686105512.31,-35.156,-127.93,210.449,-12.695,398.204,322.6590380327679
487,1686105512.31,-38.086,185.059,128.418,-7.812,398.208,331.7105207250713
488,1686105512.32,14.648,-115.234,84.961,33.691,398.212,328.08984275406
489,1686105512.32,28.32,150.391,131.348,32.227,398.216,319.5434106143421
490,1686105512.32,-72.754,44.434,83.496,-33.203,398.219,328.620640010887
491,1686105512.32,-36.133,290.039,138.184,-10.742,398.22,329.3111586723557
492,1686105512.33,-12.207,-158.203,103.027,-3.418,398.223,322.7619630934639
493,1686105512.33,37.109,181.152,189.941,23.926,398.227,309.9904327434177
494,1686105512.34,-4.883,323.242,86.426,0.977,398.23,322.6464608610282
495,1686105512.34,-56.641,-104.004,-69.336,-24.902,398.234,323.8074658001502
496,1686105512.34,-30.273,-513.184,50.293,0.977,398.238,323.4897837511771
497,1686105512.35,23.438,-291.992,181.152,40.039,398.242,322.4575094765136
498,1686105512.35,-7.812,-140.625,130.859,33.203,398.246,324.01167601602845
499,1686105512.35,-73.242,-314.453,57.129,-5.371,398.25,314.35426125442575
500,1686105512.36,-63.965,-924.316,-20.02,2.441,398.254,317.94259061797203
501,1686105512.36,-1.953,-615.723,231.445,47.852,398.258,304.92419487133975
502,1686105512.37,3.418,282.715,193.848,45.41,398.262,311.5305752389291
503,1686105512.37,-62.988,45.898,-12.207,-1.465,398.266,322.0531470415752
504,1686105512.37,-79.59,-166.504,110.84,-9.277,398.27,316.711999310245
505,1686105512.38,-1.465,181.152,194.824,40.527,398.274,308.90229540103
506,1686105512.38,24.902,363.281,143.555,54.688,398.278,313.2042862719334
507,1686105512.39,-50.293,-41.504,-37.598,16.602,398.282,314.98147365447505
508,1686105512.39,-108.887,-433.105,-19.531,-7.812,398.286,307.59344750217053
509,1686105512.39,-60.547,-290.527,171.387,29.297,398.289,311.7846654868916
510,1686105512.4,-7.812,-25.391,172.852,56.641,398.293,320.5102187249712
511,1686105512.4,-57.129,-449.219,-39.062,27.344,398.297,317.87978503436295
512,1686105512.4,-96.68,-829.59,33.691,-13.672,398.301,311.90698104514087
513,1686105512.41,-38.574,-18.555,238.77,-4.395,398.305,324.03762161879956
514,1686105512.41,18.555,23.438,93.262,22.949,398.309,325.791773726328
515,1686105512.41,34.668,303.223,136.719,38.086,398.309,329.1228092756708
516,1686105512.42,-34.668,97.168,112.305,-25.879,398.313,329.9120601902032
517,1686105512.42,-6.836,225.098,171.875,-20.02,398.317,329.3624936151259
518,1686105512.42,69.336,186.523,136.23,38.086,398.321,326.16400946607894
519,1686105512.43,75.195,-112.793,53.711,43.457,398.325,333.43996192558996
520,1686105512.43,-2.93,-292.969,77.148,-13.672,398.329,326.22852159355966
521,1686105512.44,-50.293,-284.668,128.418,-33.203,398.333,334.1777598946756
522,1686105512.44,0.977,-233.398,144.043,17.09,398.337,333.3282630122465
523,1686105512.44,28.809,-781.25,-3.418,55.176,398.341,334.60093770308384
524,1686105512.45,-22.949,-729.492,150.879,27.344,398.344,339.21419112183474
525,1686105512.45,-65.918,-65.918,230.469,0.0,398.348,335.9372828499234
526,1686105512.46,-22.949,-72.754,109.375,39.551,398.352,343.46898682332113
527,1686105512.46,23.926,-85.938,172.852,72.266,398.356,340.5529335410696
528,1686105512.46,-11.23,308.594,153.809,42.48,398.36,327.62250454743037
529,1686105512.47,-71.777,250.0,39.551,1.953,398.364,340.55230085359244
530,1686105512.47,-52.246,-24.414,52.246,12.695,398.368,333.6957694214491
531,1686105512.48,15.625,148.438,133.789,51.758,398.372,333.45524356207574
532,1686105512.48,3.418,91.797,36.133,46.875,398.376,338.74783477281574
533,1686105512.48,-71.289,-132.324,5.371,-8.301,398.38,338.5936285605109
534,1686105512.49,-78.125,-510.254,23.926,-17.09,398.384,354.4060530281097
535,1686105512.49,-11.23,-478.516,184.57,41.992,398.387,340.5535410440372
536,1686105512.5,11.719,303.223,218.75,57.129,398.391,354.47850476365966
537,1686105512.5,-39.062,273.438,62.988,10.742,398.395,353.50558798232436
538,1686105512.5,-73.242,-209.961,41.504,-15.137,398.399,339.72814351908227
539,1686105512.51,-6.836,-177.246,136.23,13.184,398.406,343.86733148006186
540,1686105512.52,51.27,313.477,201.172,41.504,398.41,349.3084171495025
541,1686105512.52,-2.441,235.84,70.312,6.348,398.414,346.19352248627047
542,1686105512.52,-56.152,-495.605,9.277,-30.762,398.418,353.7575873453983
543,1686105512.53,-22.461,-239.746,149.414,-2.93,398.422,353.7602589152713
544,1686105512.53,21.973,31.738,151.855,41.016,398.426,351.68159934257574
545,1686105512.54,0.488,-194.336,65.918,27.344,398.429,359.95289065080425
546,1686105512.54,-40.527,-857.91,-12.695,-2.93,398.433,352.5175478569328
547,1686105512.54,-4.883,-639.648,238.77,16.113,398.437,347.1379707163574
548,1686105512.55,61.035,252.441,224.609,57.617,398.441,360.5918170057919
549,1686105512.55,-39.062,180.176,179.688,-5.859,398.487,355.8890637484794
550,1686105512.55,47.363,237.305,51.27,47.363,398.445,362.59006607112957
551,1686105512.55,33.203,343.262,170.898,38.574,398.491,352.6662851997439
552,1686105512.56,-26.367,41.992,116.211,-1.953,398.449,342.0745792992336
553,1686105512.56,65.43,77.637,46.875,51.758,398.495,351.64879363199526
554,1686105512.56,15.137,-136.719,108.398,14.648,398.499,357.46842406449815
555,1686105512.57,-16.602,58.594,157.715,-7.812,398.503,356.2396167536807
556,1686105512.57,32.715,30.273,49.316,30.273,398.507,353.957556095714
557,1686105512.57,82.031,-385.742,-18.555,68.359,398.511,354.4163591762131
558,1686105512.58,40.527,-834.961,38.086,40.527,398.515,352.79694601738225
559,1686105512.58,-8.301,-117.188,228.027,-4.883,398.519,344.74156030744507
560,1686105512.58,36.621,253.906,162.109,22.949,398.523,361.1939104337256
561,1686105512.59,91.797,-21.973,88.867,70.801,398.526,355.32846733156094
562,1686105512.59,70.801,140.625,123.535,59.57,398.53,366.00265630879636
563,1686105512.6,2.441,198.242,132.812,16.113,398.494,345.46302145346664
564,1686105512.6,6.348,39.551,149.414,17.09,398.498,352.6804222821764
565,1686105512.6,85.938,-61.035,159.18,58.105,398.502,359.44511574923905
566,1686105512.61,106.445,228.516,168.945,74.219,398.505,355.66806758658214
567,1686105512.61,48.34,140.137,57.129,39.551,398.509,360.7044968360777
568,1686105512.62,36.621,-358.887,-4.395,32.715,398.513,350.6245277344583
569,1686105512.62,104.004,-790.527,35.156,79.59,398.517,343.5681109745912
570,1686105512.62,135.742,-528.32,162.109,93.75,398.521,351.8316262401352
571,1686105512.63,81.055,27.344,191.406,52.734,398.525,346.32729119943684
572,1686105512.63,32.715,-148.438,17.09,36.133,398.529,336.91813268440626
573,1686105512.64,78.125,-636.719,54.688,74.219,398.533,341.2318146845255
574,1686105512.64,121.582,105.469,243.164,92.285,398.537,358.390914492731
575,1686105512.65,74.707,500.488,146.484,62.988,398.55,349.2838677712809
576,1686105512.66,21.484,-51.27,15.137,30.762,398.554,347.1182618548957
577,1686105512.66,54.199,-198.242,143.555,58.594,398.558,349.9440240830039
578,1686105512.67,124.023,267.578,221.191,115.234,398.562,342.59401441174214
579,1686105512.67,117.188,452.637,127.93,104.98,398.566,331.05231610810364
580,1686105512.67,58.105,-270.996,-104.004,65.43,398.57,348.9613708571452
581,1686105512.68,62.988,-988.77,-67.871,76.66,398.573,340.2213956673873
582,1686105512.68,140.625,-278.809,239.258,114.258,398.577,343.21724476331485
583,1686105512.68,153.32,127.93,151.855,120.117,398.581,336.7027627464689
584,1686105512.69,66.895,-403.809,-57.129,82.52,398.585,357.5649560466759
585,1686105512.69,41.504,-183.594,117.676,65.43,398.589,335.93866680577213
586,1686105512.7,117.676,389.648,233.398,98.145,398.593,348.1214424418529
587,1686105512.7,155.273,355.957,108.887,116.699,398.594,346.09169828862423
588,1686105512.7,101.562,19.531,90.82,90.332,398.598,349.4624402495751
589,1686105512.71,61.035,88.867,162.598,65.918,398.602,350.9108330727521
590,1686105512.71,102.539,342.773,187.5,97.656,398.605,337.7284716427497
591,1686105512.71,161.133,224.121,96.191,149.414,398.609,351.90262922655364
592,1686105512.72,131.348,-250.977,85.449,133.301,398.613,333.86016891218276
593,1686105512.72,68.359,-362.305,132.812,97.656,398.617,347.9855462090214
594,1686105512.72,88.379,-156.25,156.25,113.281,398.621,343.3643734812561
595,1686105512.73,140.625,15.625,109.863,146.484,398.625,350.9070652989003
596,1686105512.73,124.023,-683.594,-37.109,139.648,398.629,341.6173437780492
597,1686105512.74,68.359,-564.941,156.738,97.656,398.633,333.27984050019836
598,1686105512.74,64.941,41.016,216.309,88.867,398.637,344.1355366651718
599,1686105512.74,125.977,29.297,80.078,142.09,398.641,335.09564026905343
600,1686105512.75,134.766,-17.09,120.605,161.621,398.645,335.5116773009081
601,1686105512.75,76.66,252.93,147.949,122.559,398.649,342.67243884892054
602,1686105512.76,53.711,248.535,92.773,107.91,398.653,350.33401729473854
603,1686105512.76,118.164,6.836,48.34,148.438,398.657,352.8403667923445
604,1686105512.76,153.809,-120.117,84.961,175.781,398.661,341.3881516132672
605,1686105512.77,101.074,28.809,185.059,141.602,398.665,339.9043568846276
606,1686105512.77,47.363,200.195,80.566,101.074,398.669,342.17055034744067
607,1686105512.78,92.285,-373.535,-78.613,129.883,398.672,348.82711922765503
608,1686105512.78,169.922,-417.969,184.57,170.898,398.676,351.61038844794564
609,1686105512.78,152.832,314.941,177.246,148.926,398.68,342.8485578272425
610,1686105512.79,97.656,208.984,19.043,112.305,398.684,337.2768412542899
611,1686105512.79,110.352,-204.102,77.148,128.418,398.686,344.7901116528654
612,1686105512.79,169.922,-129.395,152.832,170.898,398.689,345.7930369268133
613,1686105512.8,172.363,280.762,168.457,179.199,398.693,347.29693325291765
614,1686105512.8,94.727,140.137,8.789,138.184,398.697,352.78822302065413
615,1686105512.8,74.707,-563.477,3.906,123.535,398.701,355.9437381916962
616,1686105512.81,151.855,-387.695,169.922,160.156,398.705,355.34765173179744
617,1686105512.81,190.918,9.277,143.555,172.363,398.709,354.8133174694999
618,1686105512.82,154.297,-170.41,-20.996,143.555,398.713,346.03963933547
619,1686105512.82,135.254,-877.441,-73.242,137.695,398.717,360.68142688209184
620,1686105512.82,182.617,-563.477,250.0,166.504,398.721,363.9168283212026
621,1686105512.83,213.379,362.305,205.078,193.359,398.725,360.7456334219766
622,1686105512.83,166.992,250.488,-8.301,168.457,398.729,362.98207511300393
623,1686105512.84,113.281,52.734,95.215,124.023,398.731,352.9755180083953
624,1686105512.84,145.02,265.137,187.012,147.949,398.735,361.13690979049625
625,1686105512.84,210.938,393.555,113.281,187.988,398.739,358.2347885937917
626,1686105512.85,171.875,88.867,-23.926,171.387,398.742,360.41515026864687
627,1686105512.85,96.68,-163.086,43.945,132.812,398.746,359.12342209032187
628,1686105512.86,106.445,-230.469,63.965,142.578,398.75,364.3832856644406
629,1686105512.86,181.152,-48.34,118.164,190.918,398.754,360.85417478070593
630,1686105512.86,194.824,-286.133,-15.625,203.613,398.758,360.9512077780197
631,1686105512.87,139.16,-842.285,-4.883,166.016,398.762,353.6238685260367
632,1686105512.87,128.906,-77.637,221.68,157.227,398.766,360.0407152336289
633,1686105512.87,188.965,347.168,119.629,213.379,398.77,361.9705558329064
634,1686105512.88,151.367,191.895,44.922,169.922,398.774,349.7413620734795
635,1686105512.88,217.773,76.66,42.48,233.887,398.774,349.9842425726778
636,1686105512.88,114.746,251.465,-2.441,137.695,398.778,350.0253057091103
637,1686105512.89,180.664,149.414,32.227,182.129,398.782,355.35007393073937
638,1686105512.89,228.027,88.867,119.629,223.633,398.786,358.88807586736806
639,1686105512.89,183.105,132.324,49.805,195.312,398.79,347.5226908713264
640,1686105512.9,119.141,-183.105,-83.496,145.508,398.793,351.0247663063953
641,1686105512.9,138.184,-329.102,13.184,156.25,398.797,348.140786271265
642,1686105512.9,195.312,-847.656,-51.27,215.82,398.801,361.96113280461253
643,1686105512.91,173.34,-933.594,48.828,216.797,398.805,357.38840385143817
644,1686105512.91,126.465,-35.156,153.32,163.086,398.809,357.41208923989467
645,1686105512.92,144.043,44.922,-12.695,173.828,398.813,354.2601133250804
646,1686105512.92,208.496,77.148,112.793,228.027,398.817,343.34532039197666
647,1686105512.92,212.891,463.867,142.09,229.98,398.834,356.9537158501125
648,1686105512.93,152.832,357.422,-53.711,172.363,398.837,346.8778094485027
649,1686105512.93,137.695,-40.039,-86.914,159.668,398.841,353.04577397468233
650,1686105512.94,206.543,27.344,100.586,208.008,398.845,348.83517853826453
651,1686105512.94,242.676,342.773,125.488,219.727,398.849,341.9549205512843
652,1686105512.94,187.012,74.219,-57.617,173.828,398.853,341.64461995988546
653,1686105512.95,151.855,-549.805,-108.398,142.578,398.857,346.71053014369187
654,1686105512.95,209.961,-553.223,109.375,181.641,398.861,336.65454281483136
655,1686105512.96,275.879,171.875,165.039,223.633,398.865,339.289325037205
656,1686105512.96,245.605,85.449,-62.012,205.078,398.869,346.58520651693146
657,1686105512.96,186.035,-542.969,-180.664,171.387,398.873,329.9915025520246
658,1686105512.97,215.332,-249.023,94.238,188.477,398.876,340.0201873730462
659,1686105512.97,278.809,463.867,180.664,234.375,398.892,340.25974657276583
660,1686105512.97,254.883,337.402,-49.805,231.445,398.896,331.8463635946166
661,1686105512.98,180.176,-382.812,-117.676,191.895,398.9,330.6125570967602
662,1686105512.98,181.152,-106.445,95.215,185.547,398.903,323.228174991947
663,1686105512.98,253.418,402.832,105.469,232.422,398.907,343.3934170384558
664,1686105512.99,279.785,14.16,-94.238,249.023,398.911,339.06861168595236
665,1686105512.99,216.309,-791.504,-131.836,209.961,398.915,328.97360432088306
666,1686105513.0,177.734,-563.477,111.816,195.312,398.919,335.7421202800899
667,1686105513.0,241.211,312.5,196.777,237.793,398.923,336.9549907256836
668,1686105513.0,283.203,212.891,-36.621,263.672,398.927,322.7300262382448
669,1686105513.01,229.492,-429.199,-4.395,232.422,398.931,331.374456990445
670,1686105513.01,176.758,-221.191,96.191,198.242,398.935,323.40207432835757
671,1686105513.06,208.496,208.984,90.332,209.961,398.954,315.4216769293348
672,1686105513.06,248.535,108.887,1.465,242.676,398.958,322.1309304915432
673,1686105513.06,107.91,103.027,-120.605,181.152,398.968,321.474929516819
674,1686105513.07,215.332,-94.238,3.906,231.934,398.962,330.44823996350385
675,1686105513.07,164.062,-267.09,-6.348,214.355,398.972,318.67321236517563
676,1686105513.07,172.363,100.098,5.859,186.035,398.966,321.2314850648022
677,1686105513.07,226.562,-145.02,6.836,258.301,398.976,324.20076959546606
678,1686105513.07,203.613,209.961,-66.895,195.312,398.97,326.96153962227635
679,1686105513.07,188.965,237.305,-45.41,225.098,398.98,324.661782341863
680,1686105513.08,137.695,55.664,-124.512,191.895,398.984,325.17926521685973
681,1686105513.08,280.762,-177.734,-83.496,250.488,398.974,328.07337355754987
682,1686105513.08,280.273,-296.387,74.219,252.441,398.978,337.6438887262525
683,1686105513.08,176.27,-777.344,-152.344,228.516,398.988,322.1273001299799
684,1686105513.08,206.055,166.504,60.059,206.055,398.981,326.20168744812696
685,1686105513.09,235.84,-543.457,91.309,266.602,398.992,318.06779160126877
686,1686105513.09,178.711,141.113,-107.91,200.195,398.985,322.86901008385223
687,1686105513.09,214.355,-17.578,37.109,250.0,398.996,333.0455827542807
688,1686105513.09,147.461,-272.461,-144.531,208.008,398.999,321.9521690857289
689,1686105513.09,224.609,-232.91,-118.164,251.465,398.989,328.0831081103872
690,1686105513.1,235.352,70.801,61.523,270.02,398.993,326.39307627670416
691,1686105513.1,157.227,-505.371,55.664,217.285,399.003,321.441536888153
692,1686105513.1,218.75,100.586,151.855,257.324,399.007,330.3509669566709
693,1686105513.1,160.156,391.602,-23.438,225.098,398.997,330.59606758740216
694,1686105513.1,223.633,448.73,-38.574,255.859,399.011,331.8429622302602
695,1686105513.12,156.738,36.621,-126.465,206.543,399.016,336.8187428570911
696,1686105513.12,127.93,-186.523,-10.742,188.477,399.02,333.37314749194064
697,1686105513.13,207.52,216.309,31.738,229.492,399.024,332.3924559578972
698,1686105513.13,252.441,470.215,-68.848,246.094,399.028,335.12691038805445
699,1686105513.14,194.336,-118.652,-189.941,213.379,399.031,332.36206424079023
700,1686105513.14,152.344,-956.543,-132.324,197.266,399.035,332.1556384781247
701,1686105513.14,214.355,-465.332,176.758,219.238,399.039,341.99195222803604
702,1686105513.15,263.672,358.398,125.0,244.629,399.043,339.16632472996065
703,1686105513.15,210.938,-149.902,-189.941,220.703,399.047,342.26031346110557
704,1686105513.16,148.438,-387.695,42.969,169.922,399.051,333.9707726542886
705,1686105513.16,192.383,276.367,56.641,173.828,399.055,331.2675147223071
706,1686105513.16,263.184,398.926,-98.145,210.449,399.059,337.064742348805
707,1686105513.16,237.793,124.023,-70.801,193.359,399.059,328.26255105956056
708,1686105513.17,173.828,129.883,-111.328,140.625,399.063,330.86770721184035
709,1686105513.17,172.852,231.445,-75.195,148.438,399.067,342.50379734983545
710,1686105513.18,222.168,218.262,-57.617,195.312,399.071,340.53383106894637
711,1686105513.18,220.703,5.371,-39.551,187.5,399.075,340.1309866564434
712,1686105513.18,164.062,-219.238,-90.332,140.625,399.079,338.44216338902334
713,1686105513.19,133.301,-308.594,-83.984,125.0,399.082,337.9696957051754
714,1686105513.19,176.27,-264.16,-65.918,155.762,399.086,339.19103017645455
715,1686105513.19,190.918,-848.633,-182.129,181.152,399.09,346.18646855452334
716,1686105513.2,130.859,-926.27,-1.953,147.949,399.094,351.744785328263
717,1686105513.2,98.145,-64.453,92.773,102.539,399.098,349.8443828526561
718,1686105513.21,138.672,57.129,-69.824,125.0,399.102,352.3419703738602
719,1686105513.21,180.664,148.438,31.25,166.992,399.107,342.52174614019935
720,1686105513.22,173.34,444.336,-21.973,165.039,399.111,335.0191653204269
721,1686105513.22,88.867,311.035,-138.184,113.77,399.115,352.67179849884786
722,1686105513.22,63.477,5.859,-95.703,91.309,399.118,346.29593263221597
723,1686105513.23,133.301,78.125,30.273,129.883,399.122,346.69712639292527
724,1686105513.23,114.258,50.293,-63.965,115.723,399.126,345.42898207088086
725,1686105513.24,29.297,-113.281,-126.465,48.34,399.13,351.85780987162394
726,1686105513.24,29.297,-470.703,-159.18,49.316,399.134,340.5710148219615
727,1686105513.24,94.238,-451.172,69.336,99.609,399.138,345.1477802078895
728,1686105513.25,102.539,253.418,62.012,109.375,399.142,340.8185225956283
729,1686105513.25,34.18,5.859,-180.176,68.848,399.146,344.64356305151557
730,1686105513.25,84.473,9.766,51.27,94.727,399.149,335.09594165438835
731,1686105513.25,15.137,-449.707,-159.18,48.828,399.15,327.5863511318126
732,1686105513.26,103.027,520.996,19.043,123.047,399.153,334.4011755197354
733,1686105513.26,40.527,237.305,-165.039,94.238,399.157,349.3014728142789
734,1686105513.26,-14.16,-459.961,-79.59,64.453,399.161,331.65006162231884
735,1686105513.27,14.648,-166.992,55.664,81.055,399.165,333.09897014830574
736,1686105513.27,71.289,93.262,-50.293,117.188,399.168,339.35697071611753
737,1686105513.28,41.504,-193.848,-117.188,92.773,399.172,340.6399724544001
738,1686105513.28,-27.344,-889.648,-162.598,47.852,399.176,330.93934316173073
739,1686105513.28,-4.395,-735.84,90.332,55.664,399.18,341.947082519507
740,1686105513.29,70.801,315.43,164.551,90.82,399.184,335.5013089099676
741,1686105513.29,56.152,323.73,-119.629,88.379,399.188,349.0799108554586
742,1686105513.3,-22.461,27.832,-110.352,38.574,399.192,352.2215091574153
743,1686105513.3,-28.32,45.898,-87.402,21.484,399.198,347.46090410998187
744,1686105513.3,56.641,258.789,-7.324,57.617,399.202,334.99473644950643
745,1686105513.31,97.168,211.426,-57.129,71.777,399.206,346.54922160488223
746,1686105513.31,40.039,-26.855,-44.434,25.391,399.209,359.1006432855598
747,1686105513.32,3.906,143.555,-25.879,3.418,399.213,347.9146689758473
748,1686105513.32,57.129,118.164,-78.125,48.828,399.217,348.87154802359015
749,1686105513.32,101.562,-266.602,-123.535,83.008,399.221,342.76121488211743
750,1686105513.33,53.711,-459.473,44.434,66.406,399.225,341.235139847911
751,1686105513.33,4.395,130.371,87.891,34.668,399.229,359.7238095356712
752,1686105513.34,43.457,218.75,-90.82,61.523,399.233,354.60697871652536
753,1686105513.34,101.074,24.414,-21.484,95.215,399.237,345.06755544310226
754,1686105513.34,13.184,338.379,-50.293,24.902,399.253,364.3314472720149
755,1686105513.34,79.102,265.625,48.34,63.965,399.241,359.51849677171293
756,1686105513.35,7.324,138.184,-56.641,39.551,399.257,368.15943418411473
757,1686105513.35,49.805,-141.113,44.922,82.52,399.261,360.92741512388
758,1686105513.36,43.945,7.324,51.758,78.613,399.265,368.8179278105181
759,1686105513.36,-19.043,185.059,-19.043,19.531,399.269,372.5980174954128
760,1686105513.36,-33.203,-176.758,-61.035,-4.395,399.273,366.95230942591854
761,1686105513.37,37.598,-885.254,-132.324,34.668,399.277,367.4340631103523
762,1686105513.37,79.102,-945.801,24.414,48.828,399.281,372.35922088342465
763,1686105513.37,40.039,29.785,155.762,-6.348,399.285,384.96570229483507
764,1686105513.38,17.09,198.242,-72.266,-32.227,399.289,380.47494295021033
765,1686105513.38,79.102,71.289,18.066,7.812,399.292,372.65367694810567
766,1686105513.39,116.211,430.664,119.141,27.832,399.296,388.2762105089055
767,1686105513.4,63.965,418.945,-51.27,-1.953,399.3,396.91972329544956
768,1686105513.41,0.488,34.668,-98.633,-37.598,399.304,382.09795467312347
769,1686105513.41,28.809,13.672,93.75,-18.066,399.308,385.64421492404006
770,1686105513.42,105.469,393.066,161.621,33.203,399.312,392.82162348757083
771,1686105513.42,103.027,422.852,-9.277,29.785,399.316,390.8088589386406
772,1686105513.42,25.879,-204.102,-127.93,-2.93,399.32,391.36968554241804
773,1686105513.43,13.184,-486.328,51.27,3.906,399.324,397.8114601472145
774,1686105513.43,54.688,-34.668,197.266,46.387,399.327,399.686010706264
775,1686105513.44,48.828,390.625,114.746,50.293,399.331,398.06798956901855
776,1686105513.44,-21.484,-286.621,-175.293,23.438,399.335,401.6678325399357
777,1686105513.44,-53.223,-664.551,51.758,9.766,399.339,408.2531334857323
778,1686105513.45,56.641,425.293,77.637,51.758,399.344,410.61588527285966
779,1686105513.45,16.113,222.168,252.93,31.738,399.343,407.6514002816411
780,1686105513.45,19.043,39.551,48.34,15.137,399.348,397.00088708215674
781,1686105513.46,-15.137,61.523,68.848,-15.625,399.352,419.02329576107945
782,1686105513.46,26.855,323.242,121.094,8.301,399.356,418.5234636967801
783,1686105513.46,69.336,288.574,78.125,40.527,399.359,407.1861599149728
784,1686105513.47,34.668,-198.73,37.109,21.973,399.363,405.0324868830317
785,1686105513.47,-22.461,-379.883,53.223,-6.836,399.367,405.35684068585715
786,1686105513.48,-2.441,-205.566,80.566,23.926,399.371,405.33721286663354
787,1686105513.48,59.57,-69.824,108.887,70.801,399.375,400.11623992517605
788,1686105513.48,52.734,-810.547,-63.965,73.73,399.379,416.131369651638
789,1686105513.49,-9.277,-704.102,127.93,31.738,399.383,423.6113640245652
790,1686105513.49,-20.996,188.477,202.148,16.113,399.387,408.6181794359891
791,1686105513.5,24.902,183.594,35.156,41.504,399.391,401.85512006597486
792,1686105513.5,30.762,232.422,115.234,48.34,399.395,412.5262896959732
793,1686105513.5,-34.18,389.16,98.145,5.371,399.399,420.805280320195
794,1686105513.51,-69.824,306.152,-16.113,-24.414,399.403,413.1422545806203
795,1686105513.51,-22.949,92.285,-54.688,11.23,399.407,412.4095060948497
796,1686105513.52,3.418,-64.453,54.688,35.156,399.411,414.0920736750817
797,1686105513.52,-57.129,-70.312,67.383,5.371,399.415,417.80985372820453
798,1686105513.52,-107.91,60.059,17.578,-28.32,399.419,417.0886612408546
799,1686105513.53,-63.965,-288.086,-39.062,-1.465,399.422,422.1470216251971
800,1686105513.53,1.465,-315.43,178.223,40.039,399.426,429.0365774083736
801,1686105513.53,-20.996,242.676,120.605,25.391,399.43,425.56401030374474
802,1686105513.54,-77.637,-43.457,-94.727,-18.066,399.434,424.2868063318276
803,1686105513.54,-40.527,-444.824,-67.871,-4.883,399.434,423.8668167188854
804,1686105513.54,44.922,98.145,130.371,39.062,399.438,417.78866455287783
805,1686105513.55,54.688,599.609,138.184,38.574,399.442,417.82139532533466
806,1686105513.55,-3.418,331.055,-41.992,1.465,399.446,423.46140365344746
807,1686105513.55,-26.855,-29.785,60.547,-9.766,399.449,432.5711954371005
808,1686105513.56,11.719,-44.434,160.156,21.973,399.453,414.19526936815504
809,1686105513.56,16.602,108.887,114.258,30.762,399.457,413.8902131787375
810,1686105513.56,-38.574,-57.617,-53.223,-7.324,399.461,419.47399943676794
811,1686105513.57,-65.918,-853.516,-76.172,-19.043,399.465,424.8687188937146
812,1686105513.57,-2.441,-562.5,255.371,20.02,399.469,418.82207186196416
813,1686105513.58,54.199,474.121,216.309,49.316,399.473,415.55701401688924
814,1686105513.58,10.742,361.328,-15.625,32.715,399.477,413.78848061409354
815,1686105513.59,-49.316,-15.625,52.246,0.0,399.483,427.1214179237649
816,1686105513.59,-9.766,84.473,165.039,20.02,399.487,418.38213442638045
817,1686105513.59,66.406,456.055,145.996,62.988,399.491,416.8565403764002
818,1686105513.6,52.246,304.688,53.711,53.223,399.495,418.03744174071744
819,1686105513.6,-2.441,-11.23,144.531,18.066,399.499,413.4186647495081
820,1686105513.61,2.93,6.836,129.883,16.113,399.503,410.3182643910088
821,1686105513.61,60.059,165.039,124.512,57.617,399.507,424.5637348594744
822,1686105513.61,74.707,-48.34,44.434,87.402,399.511,429.80122769722084
823,1686105513.62,22.949,-317.383,106.445,43.945,399.514,419.1053431980428
824,1686105513.62,-13.672,292.969,221.68,2.441,399.518,412.90881294835305
825,1686105513.62,32.227,469.238,138.184,42.48,399.522,413.4410569007642
826,1686105513.63,16.602,341.309,143.555,12.695,399.524,417.0983223093645
827,1686105513.63,68.359,252.441,102.051,65.43,399.526,417.67567350258366
828,1686105513.63,-20.508,452.637,166.992,-19.531,399.528,420.4957074843865
829,1686105513.64,28.32,401.855,145.02,19.043,399.531,406.2188514720849
830,1686105513.64,63.965,157.227,128.418,42.969,399.535,403.7317396396699
831,1686105513.64,21.484,1.953,115.234,13.672,399.539,402.7310808712699
832,1686105513.65,-28.809,-69.824,120.605,-13.672,399.543,412.75184257198634
833,1686105513.65,-7.324,-57.129,164.062,3.418,399.547,397.85262588480634
834,1686105513.66,44.434,-694.336,-10.254,47.852,399.551,404.82084146423125
835,1686105513.66,32.715,-888.672,64.941,33.203,399.555,402.03136493662294
836,1686105513.66,-34.18,133.789,215.82,-33.691,399.559,398.35026981933066
837,1686105513.67,-34.668,313.965,121.094,-31.25,399.563,407.83823899763615
838,1686105513.67,37.109,309.082,177.734,30.762,399.567,393.574312259852
839,1686105513.68,33.691,664.551,187.012,37.109,399.584,396.4431424428465
840,1686105513.68,-24.902,562.012,129.395,-3.906,399.588,392.7260258279514
841,1686105513.68,-32.227,191.406,60.547,-21.484,399.592,394.88080664830255
842,1686105513.69,21.484,301.758,165.039,3.906,399.596,383.9217680177463
843,1686105513.69,43.457,607.422,175.781,32.715,399.599,397.3535563051543
844,1686105513.7,-16.113,350.098,6.836,0.488,399.603,388.584888764408
845,1686105513.7,-62.012,-320.312,-96.68,-34.18,399.607,382.9383713036823
846,1686105513.7,-21.973,-799.805,48.34,4.395,399.611,394.02271199722315
847,1686105513.71,45.41,186.035,251.465,40.039,399.615,379.7920781501223
848,1686105513.71,27.344,649.902,119.629,14.648,399.619,379.15002111088546
849,1686105513.71,-31.25,50.293,1.465,-28.32,399.623,372.80178853652245
850,1686105513.72,0.0,146.484,187.012,-15.625,399.627,379.01306610998654
851,1686105513.72,70.801,657.715,241.211,23.438,399.628,371.4408809681477
852,1686105513.72,50.293,604.004,113.77,21.973,399.632,373.4215417995341
853,1686105513.73,-18.066,147.461,104.98,-23.926,399.636,383.4339463907227
854,1686105513.73,-3.906,227.539,185.547,-36.621,399.64,369.9014094915538
855,1686105513.73,69.824,505.859,214.844,18.555,399.644,363.1099294719997
856,1686105513.74,78.125,241.211,92.285,46.875,399.648,379.72752596611053
857,1686105513.74,-1.953,-690.43,-21.973,12.695,399.652,373.00347190809333
858,1686105513.74,-37.598,-507.324,231.445,-13.184,399.656,369.97620971148996
859,1686105513.75,17.09,473.633,251.953,14.648,399.66,372.6325625388234
860,1686105513.75,70.312,280.273,110.352,49.316,399.663,377.6809414515158
861,1686105513.76,42.969,-265.137,105.957,27.344,399.667,377.29967119603793
862,1686105513.76,-0.977,228.516,201.172,-13.672,399.671,373.54488062517026
863,1686105513.78,38.574,579.59,187.988,12.695,399.676,380.60731088439917
864,1686105513.78,98.633,375.977,122.07,60.547,399.68,378.82700572035833
865,1686105513.79,69.336,427.734,159.668,40.527,399.683,387.4957873601332
866,1686105513.79,-19.043,525.391,166.992,-13.672,399.687,382.65748520628904
867,1686105513.8,-18.555,527.344,193.359,-2.93,399.691,389.74489499737206
868,1686105513.8,46.387,232.91,115.234,45.41,399.695,399.96823506857095
869,1686105513.8,36.621,33.691,127.441,37.598,399.699,392.2493131070862
870,1686105513.81,-22.461,420.898,207.52,-9.277,399.703,382.07465867349583
871,1686105513.81,-15.625,535.156,173.828,-18.555,399.707,412.23942233332923
872,1686105513.81,49.316,-7.324,65.918,26.855,399.711,393.12846073863767
873,1686105513.82,71.289,57.129,161.621,37.598,399.715,391.0657890376078
874,1686105513.82,8.789,419.434,166.504,-9.277,399.719,383.0834004293592
875,1686105513.82,-38.574,73.73,78.613,-33.203,399.719,392.64933488105214
876,1686105513.83,7.812,-224.609,91.797,5.859,399.723,403.22786157029606
877,1686105513.83,58.105,321.777,188.477,41.016,399.727,395.9803158032284
878,1686105513.84,23.926,698.242,189.941,9.277,399.731,393.69677070346955
879,1686105513.84,-30.762,332.52,116.699,-30.762,399.735,393.53788121284583
880,1686105513.84,0.977,-63.965,129.395,2.93,399.739,399.3551859352741
881,1686105513.85,78.125,46.387,191.406,52.246,399.743,411.41797392125045
882,1686105513.85,44.434,384.766,203.613,33.203,399.746,402.12829754775265
883,1686105513.85,-45.898,269.531,50.781,-11.719,399.75,407.78472552100413
884,1686105513.86,-37.598,-673.828,-7.812,-1.465,399.754,408.63756379377935
885,1686105513.86,53.223,-124.512,274.414,42.48,399.758,417.96287062836967
886,1686105513.87,55.664,791.504,208.008,38.086,399.762,401.8570938735425
887,1686105513.87,-28.32,451.66,36.621,-8.789,399.768,415.2815768286524
888,1686105513.88,-33.691,209.961,134.277,-22.949,399.772,416.02827171227113
889,1686105513.88,30.762,314.453,219.727,13.672,399.776,407.4890435406927
890,1686105513.88,63.477,628.418,193.359,28.32,399.78,410.49449913458864
891,1686105513.89,19.043,329.59,62.5,-7.812,399.784,413.5566957398439
892,1686105513.89,-20.02,-229.98,131.348,-30.762,399.788,413.3308798427352
893,1686105513.9,46.387,89.355,253.418,7.324,399.792,417.21970617747786
894,1686105513.9,106.934,704.102,184.57,47.363,399.796,409.2676372099053
895,1686105513.9,45.898,164.551,-4.395,14.648,399.8,408.76832815735673
896,1686105513.91,-26.367,-263.672,129.883,-31.738,399.804,415.54777396922935
897,1686105513.91,21.973,496.582,257.812,2.441,399.807,423.1190187435134
898,1686105513.91,87.891,679.199,163.574,62.5,399.811,427.4274569163653
899,1686105513.91,71.289,378.906,118.652,50.293,399.816,421.25234815738315
900,1686105513.92,15.625,459.473,172.363,-6.836,399.82,421.7814630243815
901,1686105513.92,30.762,620.117,207.031,-2.441,399.824,427.1839038969008
902,1686105513.93,98.145,600.098,173.828,55.664,399.828,422.3582039460952
903,1686105513.93,105.469,317.383,143.066,62.5,399.832,418.54228444154245
904,1686105513.93,35.645,115.234,150.391,16.113,399.835,424.8410789901968
905,1686105513.94,-2.93,56.152,168.945,0.977,399.839,417.33420854893404
906,1686105513.94,63.477,151.855,198.242,48.828,399.843,420.93432166764444
907,1686105513.94,107.422,-558.105,29.297,86.426,399.847,422.4543853630546
908,1686105513.95,54.688,-842.773,99.121,40.039,399.851,430.21429942465403
909,1686105513.95,14.648,258.301,245.605,-16.602,399.855,417.6326217889358
910,1686105513.96,60.059,534.668,164.551,20.02,399.859,421.64684406052487
911,1686105513.96,111.328,578.125,202.637,66.406,399.856,418.6216578391853
912,1686105513.96,90.82,803.223,182.129,39.062,399.86,420.4841628021848
913,1686105513.97,34.18,656.738,166.992,-3.906,399.864,414.6244117950291
914,1686105513.97,37.598,410.156,152.832,0.977,399.868,412.9443161885518
915,1686105513.98,88.867,555.664,191.406,39.551,399.872,415.40836292161896
916,1686105513.98,59.082,515.137,159.18,40.527,399.876,429.28448108598525
917,1686105513.98,-23.438,297.363,152.344,5.371,399.879,418.60318852220166
918,1686105513.99,-28.32,-174.316,98.145,10.742,399.883,423.7832903683384
919,1686105513.99,39.062,-632.324,146.973,57.129,399.887,417.15229215809944
920,1686105514.0,54.688,460.449,270.996,66.895,399.891,416.5801348991963
921,1686105514.0,1.953,805.176,146.973,38.574,399.895,416.72230133509123
922,1686105514.0,-22.461,192.383,65.918,14.648,399.899,414.0247678270988
923,1686105514.0,48.34,488.77,204.59,49.316,399.899,430.5613809629711
924,1686105514.01,115.723,931.152,218.75,82.52,399.903,420.52625698155765
925,1686105514.01,69.824,710.449,123.047,38.574,399.906,421.3390332621774
926,1686105514.02,7.324,311.523,138.184,-8.301,399.91,421.903279006519
927,1686105514.02,48.828,362.793,183.594,13.672,399.914,415.3113061668368
928,1686105514.02,105.957,440.43,198.242,48.828,399.918,415.36801537019414
929,1686105514.03,79.59,303.711,139.16,34.18,399.922,406.81608905576957
930,1686105514.03,7.324,-649.414,12.207,-2.93,399.926,416.17666453505865
931,1686105514.03,14.16,-511.719,251.953,2.93,399.93,410.30291002998825
932,1686105514.04,79.102,601.562,272.461,50.781,399.934,413.30222481769226
933,1686105514.04,80.078,447.754,120.605,49.316,399.938,426.68377934005565
934,1686105514.05,11.719,127.93,142.09,0.488,399.942,426.3024053070496
935,1686105514.06,-18.555,556.152,218.262,-7.812,399.959,422.22078032874026
936,1686105514.07,40.039,853.027,206.055,32.227,399.963,427.1563176822289
937,1686105514.07,69.824,613.281,140.625,46.387,399.967,430.7447182060725
938,1686105514.08,11.719,562.988,192.383,8.301,399.971,419.1068312965861
939,1686105514.08,-30.762,643.555,189.453,-12.695,399.974,416.7202080836325
940,1686105514.08,11.23,480.469,174.805,24.414,399.978,418.64403426872326
941,1686105514.09,49.316,77.637,127.93,55.664,399.982,423.59678622528645
942,1686105514.09,6.836,-150.879,146.973,28.809,399.986,429.20690712959055
943,1686105514.09,-47.852,503.906,240.234,-7.324,399.99,429.5010595176543
944,1686105514.09,-23.438,590.332,148.438,3.906,400.002,434.0727817455002
945,1686105514.1,-13.672,731.934,190.918,14.16,399.994,428.6898909467703
946,1686105514.1,-3.906,218.262,132.812,5.859,400.006,425.74178850901995
947,1686105514.1,58.594,498.535,159.668,58.594,399.998,430.21893359676255
948,1686105514.1,68.359,-15.137,137.695,62.012,400.01,422.37335613276747
949,1686105514.11,93.75,435.547,206.055,70.801,400.014,429.811503491663
950,1686105514.11,38.086,667.969,172.363,49.316,400.002,431.6907764004717
951,1686105514.11,42.969,636.719,139.16,26.367,400.018,422.36815349284393
952,1686105514.11,17.09,115.723,84.961,7.324,400.022,423.4577809623763
953,1686105514.12,80.078,-461.426,97.656,49.316,400.026,427.05801743126096
954,1686105514.12,106.934,34.18,230.469,65.918,400.029,419.7144023025549
955,1686105514.12,47.852,771.973,231.445,16.602,400.033,431.34198714642946
956,1686105514.13,-0.977,416.504,103.516,-4.883,400.037,419.58736185389387
957,1686105514.13,40.527,-337.891,95.703,32.227,400.041,420.424720588317
958,1686105514.14,107.422,306.152,282.715,58.594,400.045,430.74624216131616
959,1686105514.15,61.035,916.992,213.379,29.785,400.057,420.81916329777977
960,1686105514.16,-18.555,541.016,100.098,-10.742,400.061,433.6864323460976
961,1686105514.16,13.184,405.762,173.34,-5.371,400.065,428.4514943856516
962,1686105514.17,73.242,487.793,225.586,31.25,400.069,431.098823164027
963,1686105514.17,53.223,824.707,204.59,23.926,400.073,438.6132760051141
964,1686105514.17,-20.508,224.121,-17.09,-23.438,400.077,430.19912972996303
965,1686105514.18,-21.973,-562.5,73.242,-17.578,400.081,420.8089867028574
966,1686105514.18,61.035,483.887,297.363,32.227,400.085,414.95800607851277
967,1686105514.18,81.543,976.562,178.223,43.945,400.088,421.0356140907379
968,1686105514.19,1.953,379.883,-24.902,4.883,400.092,413.8827082742983
969,1686105514.19,-38.574,423.828,139.16,-9.766,400.096,418.1571702076894
970,1686105514.2,25.391,825.195,259.766,32.715,400.1,426.10383673672493
971,1686105514.2,63.965,800.293,158.203,59.57,400.094,412.3195630062653
972,1686105514.2,7.812,475.098,119.629,17.09,400.098,428.9424427218839
973,1686105514.21,-44.922,505.371,202.148,-26.855,400.102,418.31302480039534
974,1686105514.21,4.883,740.723,216.309,-2.441,400.106,409.33436879978444
975,1686105514.21,69.824,671.387,150.879,36.621,400.11,407.7671392937916
976,1686105514.22,40.039,237.305,131.348,14.16,400.114,402.75884452654367
977,1686105514.22,-12.695,91.309,163.574,-28.32,400.118,405.5852542132121
978,1686105514.22,17.578,204.102,224.121,-18.555,400.121,407.6979104191009
979,1686105514.23,95.215,341.309,185.547,24.414,400.125,393.24207836772933
980,1686105514.23,75.195,-448.73,23.438,25.391,400.129,398.3142963206389
981,1686105514.24,-13.672,-526.367,213.867,-30.762,400.133,391.90643167206605
982,1686105514.24,-21.973,541.504,256.348,-44.434,400.137,409.1897736194448
983,1686105514.25,47.852,671.387,147.461,7.812,400.142,397.55155963828935
984,1686105514.25,66.406,716.797,205.566,22.461,400.146,391.7488026571701
985,1686105514.25,7.324,852.051,188.965,-17.09,400.15,390.83705996199484
986,1686105514.26,-18.066,768.066,184.082,-21.484,400.154,381.41222639294165
987,1686105514.26,24.414,602.051,143.066,15.625,400.158,374.1387833157511
988,1686105514.27,42.48,437.012,151.367,38.086,400.162,380.4369080572906
989,1686105514.27,-15.625,468.262,201.66,-2.93,400.165,372.55191172879006
990,1686105514.27,-72.754,707.52,189.941,-48.34,400.169,367.8487255203464
991,1686105514.28,-34.18,122.07,69.336,-12.695,400.173,361.4625438382373
992,1686105514.28,24.902,-453.613,136.719,23.926,400.177,362.03954994484843
993,1686105514.28,6.348,552.246,255.371,5.371,400.181,354.97698131655045
994,1686105514.29,-54.688,315.43,132.324,-28.809,400.184,350.8519480692903
995,1686105514.29,-62.5,788.086,148.926,-41.016,400.185,351.7571642529092
996,1686105514.29,35.156,702.637,225.098,25.879,400.188,351.4500023656956
997,1686105514.3,49.316,-997.07,214.355,19.043,400.191,344.76393372940487
998,1686105514.3,-20.996,726.562,151.855,-28.32,400.195,350.4824220016143
999,1686105514.3,-35.645,291.016,150.391,-28.32,400.199,341.8955537449897
1000,1686105514.31,42.969,255.859,211.914,19.531,400.203,341.2947038030211
1001,1686105514.31,67.383,479.004,230.957,27.344,400.207,329.6292929357762
1002,1686105514.32,-0.488,425.293,156.738,-18.066,400.211,331.368066519716
1003,1686105514.32,-52.734,-532.715,29.297,-37.598,400.215,326.92118328026663
1004,1686105514.32,-6.836,-465.82,250.977,-8.301,400.219,332.51235502349545
1005,1686105514.33,51.27,715.82,277.344,13.184,400.223,329.30047497205504
1006,1686105514.33,6.348,517.09,122.559,-9.277,400.227,327.8781004001409
1007,1686105514.34,-56.152,202.637,167.969,-46.387,400.231,325.540381258912
1008,1686105514.34,-21.973,710.449,236.816,-31.738,400.235,320.5613569930788
1009,1686105514.34,36.133,951.172,226.074,13.184,400.239,325.82210842416447
1010,1686105514.35,2.441,674.316,142.09,4.395,400.243,316.11539606913067
1011,1686105514.35,-62.012,569.336,149.414,-45.41,400.247,312.71266568755965
1012,1686105514.36,-54.199,425.293,174.805,-38.574,400.251,317.13213463021066
1013,1686105514.36,18.066,447.266,215.332,19.531,400.255,314.95802694304274
1014,1686105514.36,23.926,236.328,121.582,27.344,400.259,315.7203227257333
1015,1686105514.37,-47.852,-40.039,171.387,-27.344,400.263,310.02201344407405
1016,1686105514.37,-57.617,648.926,262.695,-44.434,400.267,296.43081060168714
1017,1686105514.37,4.395,882.812,201.172,10.254,400.27,317.90886188784253
1018,1686105514.38,32.715,652.832,155.273,31.738,400.274,307.102818834513
1019,1686105514.38,-14.648,670.898,155.273,-10.254,400.276,300.94569336646214
1020,1686105514.38,-46.875,551.758,175.781,-37.109,400.28,304.1936652560299
1021,1686105514.39,11.719,512.207,181.152,-11.719,400.284,300.5505498981207
1022,1686105514.39,63.965,270.508,130.859,28.809,400.287,312.63848609110835
1023,1686105514.4,37.109,446.289,178.711,4.395,400.291,307.9221923818558
1024,1686105514.4,-15.625,444.336,191.406,-37.109,400.295,305.8931329494006
1025,1686105514.4,9.766,290.527,178.711,-8.789,400.299,297.285228302842
1026,1686105514.41,72.266,-337.402,113.281,41.992,400.303,311.62834259913336
1027,1686105514.41,68.359,-210.449,291.992,27.832,400.307,309.11239568710033
1028,1686105514.41,20.508,734.375,237.793,-13.184,400.311,307.4088649443589
1029,1686105514.42,28.809,646.484,159.18,-12.207,400.315,322.5450358429469
1030,1686105514.42,85.938,674.805,258.301,19.043,400.319,328.61369415101854
1031,1686105514.48,91.797,969.238,233.398,19.043,400.379,362.44535090572845
1032,1686105514.49,13.672,900.879,162.598,-27.344,400.383,363.30624315837815
1033,1686105514.49,54.199,977.539,249.512,21.973,400.386,361.37091397231126
1034,1686105514.49,-43.945,549.805,110.352,-45.898,400.387,357.1111859758777
1035,1686105514.49,50.781,838.379,170.41,14.16,400.39,366.00763195729695
1036,1686105514.5,-2.93,471.191,188.965,-4.395,400.391,372.6187153825285
1037,1686105514.5,-27.344,426.758,134.766,-42.969,400.394,359.1805188032664
1038,1686105514.5,31.738,564.453,197.266,17.578,400.395,364.66680517060087
1039,1686105514.5,-33.203,565.43,217.285,-62.988,400.397,372.9401310006646
1040,1686105514.5,-14.16,562.988,179.199,-24.902,400.399,370.27473384507573
1041,1686105514.5,41.504,737.793,211.426,-23.926,400.401,372.7593236578691
1042,1686105514.51,-60.547,55.664,80.078,-55.664,400.403,349.33396518134333
1043,1686105514.51,51.27,416.016,163.574,-10.254,400.405,367.715949343795
1044,1686105514.51,-11.719,-568.359,70.801,-25.391,400.407,360.76280345445775
1045,1686105514.51,-23.926,186.035,153.809,-52.734,400.409,352.84126571048904
1046,1686105514.52,55.664,464.355,275.391,11.719,400.411,362.9754529152406
1047,1686105514.52,-60.059,125.488,198.73,-76.66,400.413,354.53744568328653
1048,1686105514.52,1.953,483.398,284.668,-44.434,400.417,355.56973976517014
1049,1686105514.52,33.203,997.07,167.48,5.859,400.414,363.08164517755455
1050,1686105514.52,45.898,655.762,141.113,-3.906,400.421,353.5044737464671
1051,1686105514.52,-28.32,441.895,57.129,-32.227,400.418,358.48813604151087
1052,1686105514.53,-14.648,610.84,205.566,-24.414,400.422,371.6694345734158
1053,1686105514.53,-10.742,-256.836,-8.301,-23.926,400.425,364.1410289421495
1054,1686105514.53,-23.438,808.594,230.469,-38.086,400.426,345.3435118741275
1055,1686105514.53,-63.477,119.141,211.426,-62.5,400.429,345.68627699319705
1056,1686105514.53,32.715,598.145,138.672,1.953,400.43,350.49471562209817
1057,1686105514.54,11.719,507.812,221.68,-19.043,400.433,359.90839671027624
1058,1686105514.54,-36.621,666.992,192.383,-67.383,400.437,361.3435375157468
1059,1686105514.54,-24.414,706.055,187.012,-64.941,400.441,353.6169783237951
1060,1686105514.55,40.527,359.863,164.062,-18.555,400.445,355.5566212367482
1061,1686105514.55,40.039,266.113,183.594,-14.648,400.449,348.9016516083223
1062,1686105514.56,-38.086,584.473,199.707,-62.5,400.453,342.81936030057085
1063,1686105514.56,-42.48,610.84,181.152,-73.242,400.457,328.81416662143516
1064,1686105514.56,40.527,136.719,64.941,-22.461,400.461,351.4020397012946
1065,1686105514.57,66.406,-776.855,10.254,5.859,400.465,348.40586378753767
1066,1686105514.57,10.254,-888.672,198.73,-22.949,400.469,337.0871241665082
1067,1686105514.57,-28.32,42.969,242.676,-51.758,400.469,330.2565815172307
1068,1686105514.58,20.508,483.398,169.434,-25.879,400.472,334.0396840109166
1069,1686105514.58,67.383,779.297,211.426,9.277,400.476,340.3670360086317
1070,1686105514.58,24.414,-965.332,219.238,-10.742,400.48,337.6804160338421
1071,1686105514.59,-28.32,748.047,94.727,-44.434,400.484,322.7611162762265
1072,1686105514.59,5.859,262.207,113.281,-28.809,400.488,344.3476477676656
1073,1686105514.6,60.059,333.496,228.027,7.812,400.492,317.9769724206168
1074,1686105514.6,32.227,670.41,217.773,-12.695,400.496,318.6010928457031
1075,1686105514.6,-41.992,630.859,108.398,-53.223,400.5,326.0287991842725
1076,1686105514.61,-49.316,-327.148,1.465,-37.598,400.504,323.8846242051273
1077,1686105514.61,34.18,112.793,252.441,9.277,400.508,311.7595743711416
1078,1686105514.62,52.246,937.988,227.051,18.066,400.512,309.03174884064
1079,1686105514.62,-30.762,478.516,124.023,-32.715,400.516,314.45258894641506
1080,1686105514.62,-48.828,283.691,191.406,-55.176,400.52,318.401017744782
1081,1686105514.63,38.574,778.809,254.395,-17.09,400.524,308.518148310933
1082,1686105514.63,67.871,986.816,184.082,-5.371,400.528,309.56389692720205
1083,1686105514.64,2.441,620.117,26.367,-43.457,400.531,307.05958750926624
1084,1686105514.64,-25.879,252.441,130.371,-57.617,400.535,309.01288453222617
1085,1686105514.64,35.645,449.707,272.461,-29.785,400.539,306.919079889962
1086,1686105514.65,73.73,962.402,204.102,-15.137,400.543,302.6784239851695
1087,1686105514.65,26.367,401.367,7.324,-25.879,400.547,304.0938636895231
1088,1686105514.66,-30.273,-45.898,160.156,-53.711,400.551,306.628921549442
1089,1686105514.66,2.441,708.496,277.344,-40.039,400.555,291.10118057021594
1090,1686105514.66,58.594,898.438,173.34,10.742,400.559,293.7317375513121
1091,1686105514.66,35.156,586.426,137.695,-2.93,400.561,296.74575427454624
1092,1686105514.67,-37.598,569.336,152.832,-53.223,400.565,289.37985763943055
1093,1686105514.67,-41.504,535.156,187.5,-49.316,400.569,304.92671036915954
1094,1686105514.68,21.973,566.895,177.246,-0.488,400.573,289.9807309496208
1095,1686105514.68,31.738,165.527,100.098,15.137,400.577,284.85833351727655
1096,1686105514.68,-36.621,62.988,181.152,-33.691,400.581,299.66196183640284
1097,1686105514.69,-67.383,204.102,220.703,-55.176,400.585,282.4921913822747
1098,1686105514.69,2.93,312.5,194.824,-5.371,400.589,280.9009010222093
1099,1686105514.7,42.969,-254.883,46.875,37.109,400.593,289.9579569428764
1100,1686105514.7,-19.531,-166.992,193.359,0.488,400.597,286.0434639781782
1101,1686105514.7,-71.289,707.031,232.422,-34.18,400.6,285.21639958097524
1102,1686105514.71,-36.621,661.133,159.18,-8.789,400.604,283.5826323165262
1103,1686105514.71,22.949,715.82,237.305,27.344,400.606,268.1906573810822
1104,1686105514.71,0.488,936.523,190.43,9.277,400.61,271.0971568551888
1105,1686105514.72,-60.059,826.172,174.316,-38.086,400.614,278.2810174900361
1106,1686105514.72,-51.27,557.617,150.391,-26.855,400.618,266.2679677414957
1107,1686105514.73,7.324,572.754,196.777,20.996,400.622,275.70172294827785
1108,1686105514.73,8.301,482.422,187.5,18.066,400.625,278.8707725959838
1109,1686105514.73,-60.547,375.977,165.039,-34.18,400.629,265.9550390678304
1110,1686105514.74,-81.543,-14.648,76.66,-44.922,400.633,278.3470601535017
1111,1686105514.74,-4.395,-560.059,86.914,1.953,400.637,274.54374199325093
1112,1686105514.74,60.059,480.957,259.766,9.766,400.641,282.72601525351575
1113,1686105514.75,16.602,901.855,146.973,-35.156,400.645,270.49685789378856
1114,1686105514.75,-24.414,366.211,34.18,-54.199,400.649,272.1514358164825
1115,1686105514.75,44.434,631.348,178.711,-11.23,400.649,278.4041348388311
1116,1686105514.76,107.422,-999.512,234.375,19.531,400.652,284.97677631045457
1117,1686105514.76,63.965,739.258,128.418,-14.648,400.656,264.8856938027177
1118,1686105514.76,0.488,165.527,97.656,-55.176,400.66,262.90141318862743
1119,1686105514.77,30.762,331.055,188.965,-29.297,400.664,265.21810882183263
1120,1686105514.77,100.098,494.629,229.492,18.555,400.668,264.0637274865952
1121,1686105514.78,65.43,384.277,155.273,0.488,400.672,257.16137819016245
1122,1686105514.78,-40.039,-564.941,-55.664,-42.969,400.676,277.128372918777
1123,1686105514.78,-36.133,-697.754,108.398,-42.969,400.68,270.3460406803041
1124,1686105514.79,54.688,641.113,284.18,-9.766,400.684,267.4711775079032
1125,1686105514.79,51.758,820.312,80.078,-8.301,400.688,260.1848034786167
1126,1686105514.8,-20.508,438.965,54.688,-55.176,400.692,264.0293344808711
1127,1686105514.8,-28.32,656.738,208.008,-62.012,400.708,271.15684940811195
1128,1686105514.8,42.48,881.836,206.055,-8.789,400.712,266.4127384348518
1129,1686105514.81,63.965,704.59,117.676,14.648,400.716,251.77810554528764
1130,1686105514.81,10.254,617.188,155.762,-27.344,400.72,273.2338503911048
1131,1686105514.82,-34.18,618.652,143.555,-54.688,400.723,270.4193175602711
1132,1686105514.82,11.719,476.562,61.523,-31.25,400.727,279.6365640222761
1133,1686105514.82,79.102,140.137,43.457,4.395,400.731,267.3191761402568
1134,1686105514.83,46.875,-56.641,133.301,-15.137,400.735,261.3110265896008
1135,1686105514.83,-7.324,544.434,200.684,-54.688,400.739,276.0440583955786
1136,1686105514.84,9.277,673.828,156.738,-39.062,400.743,267.30676043535243
1137,1686105514.84,54.688,312.988,84.473,0.0,400.747,269.6320283123066
1138,1686105514.84,35.645,530.273,135.742,3.418,400.751,266.57883322270675
1139,1686105514.84,-39.551,775.879,192.871,-39.551,400.753,264.36158639153405
1140,1686105514.85,-40.039,536.133,125.0,-43.457,400.757,270.36788677434964
1141,1686105514.85,35.156,232.91,105.957,12.695,400.761,268.240984671607
1142,1686105514.86,49.316,651.367,194.336,27.344,400.765,261.32894202699174
1143,1686105514.86,-3.418,704.102,96.68,-21.484,400.768,268.87750035922164
1144,1686105514.86,-26.367,199.707,-47.363,-38.086,400.772,260.64501357379237
1145,1686105514.87,16.113,-529.297,0.0,12.207,400.776,267.3381841440579
1146,1686105514.87,39.551,-207.52,273.438,29.785,400.78,273.269275299476
1147,1686105514.87,-20.02,712.891,226.562,-1.953,400.784,279.34780379815464
1148,1686105514.88,-62.988,486.328,46.387,-16.602,400.788,289.5044405641467
1149,1686105514.88,-17.09,344.727,130.859,6.348,400.792,274.28738360729534
1150,1686105514.89,43.945,761.719,210.449,31.738,400.796,271.79418895706465
1151,1686105514.89,18.066,676.758,70.312,7.812,400.798,277.80610595319985
1152,1686105514.9,-45.898,196.289,0.0,-28.32,400.802,276.534166157086
1153,1686105514.9,-25.391,158.203,174.316,-21.484,400.806,269.5665713334348
1154,1686105514.9,51.758,722.656,259.766,16.602,400.81,281.7127733821786
1155,1686105514.91,40.527,856.445,125.0,16.602,400.814,282.2648429814225
1156,1686105514.91,-53.223,144.043,5.371,-30.762,400.818,282.6815476036631
1157,1686105514.92,-54.199,-87.891,168.457,-36.621,400.821,280.6895209057061
1158,1686105514.92,23.926,604.492,269.531,6.348,400.825,277.82027459979884
1159,1686105514.92,24.902,833.984,157.227,12.207,400.829,274.1500827259169
1160,1686105514.93,-56.641,170.41,-42.48,-24.902,400.833,278.216864121193
1161,1686105514.93,-93.75,94.727,125.977,-36.133,400.837,276.46795607425474
1162,1686105514.94,-25.879,691.895,267.578,-4.395,400.841,291.109596929734
1163,1686105514.95,28.809,698.73,137.695,12.695,400.844,281.58615827670883
1164,1686105514.95,-14.16,329.102,101.074,-20.996,400.848,279.35359519832537
1165,1686105514.96,-67.871,285.156,154.785,-47.363,400.852,292.41279184018515
1166,1686105514.96,-29.297,306.641,192.871,-24.414,400.856,280.7073818992358
1167,1686105514.96,28.32,428.711,168.945,26.367,400.86,284.5589934295302
1168,1686105514.97,-28.809,-372.559,-20.996,20.996,400.864,286.03904200027523
1169,1686105514.97,-106.934,-752.441,171.387,-28.32,400.868,296.67588803709816
1170,1686105514.98,-65.43,215.332,312.988,-21.973,400.871,287.2578606000671
1171,1686105514.98,38.574,530.273,145.02,31.738,400.875,285.15105430221206
1172,1686105514.98,36.621,-44.922,99.609,36.133,400.879,292.983217965679
1173,1686105514.99,-48.828,306.641,180.176,-21.484,400.883,290.9641471406786
1174,1686105514.99,-64.941,572.754,133.789,-30.762,400.887,294.41671869926654
1175,1686105515.0,1.953,456.543,165.527,21.973,400.893,276.29462298360465
1176,1686105515.0,20.508,607.91,210.938,36.133,400.897,295.6154498285193
1177,1686105515.0,-24.902,713.867,181.152,0.0,400.901,308.6740038994909
1178,1686105515.01,-50.293,638.672,150.391,-7.812,400.905,303.9519276267563
1179,1686105515.01,10.254,400.879,119.141,37.598,400.909,293.69447656670496
1180,1686105515.02,65.918,251.953,164.062,66.895,400.913,298.2266196344536
1181,1686105515.02,12.695,261.719,167.48,37.109,400.917,298.30793241148154
1182,1686105515.02,-38.086,319.824,153.32,-3.906,400.921,292.7151738207351
1183,1686105515.03,9.766,-26.367,82.52,20.508,400.925,301.8549678872462
1184,1686105515.03,71.289,-518.066,110.84,61.523,400.928,313.55288579269757
1185,1686105515.03,56.152,410.156,268.555,45.898,400.932,304.4204513098983
1186,1686105515.04,-0.488,742.188,140.137,-2.93,400.936,300.886406137044
1187,1686105515.04,9.766,310.547,80.566,-6.348,400.934,306.7680031621898
1188,1686105515.04,89.355,612.793,215.82,42.969,400.938,301.464730660038
1189,1686105515.05,83.496,829.102,207.52,49.316,400.941,293.3630679722123
1190,1686105515.05,-1.953,586.426,132.324,0.0,400.945,297.58705885286173
1191,1686105515.05,-24.902,229.004,140.137,0.977,400.949,309.994962204848
1192,1686105515.06,35.156,233.887,199.707,54.199,400.953,305.0230539586295
1193,1686105515.06,51.758,404.785,196.289,57.617,400.957,299.1953717032577
1194,1686105515.06,-2.441,279.785,135.742,10.254,400.961,302.9390004735967
1195,1686105515.07,-46.875,-680.176,10.254,3.906,400.965,307.27117848732127
1196,1686105515.07,-6.348,-845.215,175.781,42.48,400.969,302.605021885153
1197,1686105515.08,36.621,502.441,268.555,60.547,400.973,311.7282975978771
1198,1686105515.08,-11.719,736.328,98.145,43.457,400.977,305.6445228499307
1199,1686105515.08,-72.754,421.875,141.602,15.137,400.982,308.8356608272874
1200,1686105515.09,-33.691,694.824,251.465,32.227,400.986,317.94961315258234
1201,1686105515.09,60.059,872.07,201.66,74.219,400.99,309.5207744714971
1202,1686105515.1,57.129,618.164,121.582,62.012,400.994,306.7321923883627
1203,1686105515.1,-3.906,431.641,153.809,20.508,400.997,314.8595757562926
1204,1686105515.1,7.324,262.207,135.254,31.738,401.001,307.15231926149016
1205,1686105515.11,78.613,341.309,202.148,73.242,401.005,305.2666757557334
1206,1686105515.11,106.445,133.301,137.695,81.055,401.009,309.35152790156894
1207,1686105515.12,48.34,-168.457,150.879,52.246,401.013,313.346975341631
1208,1686105515.12,19.531,500.977,257.324,35.156,401.017,318.3815674019148
1209,1686105515.12,92.285,675.781,208.496,81.543,401.021,315.1589341004472
1210,1686105515.13,145.02,164.062,78.613,124.512,401.025,313.0626467353104
1211,1686105515.13,93.75,360.352,135.254,89.355,401.024,319.6619208981956
1212,1686105515.13,20.02,734.863,232.422,56.152,401.028,316.289627376651
1213,1686105515.14,44.922,561.035,179.199,88.379,401.032,317.8700351725988
1214,1686105515.14,96.68,419.434,203.613,124.512,401.036,320.57823408771543
1215,1686105515.14,52.734,528.809,188.965,89.355,401.04,310.49074320280886
1216,1686105515.15,-0.977,287.109,161.621,40.527,401.044,313.02013233130504
1217,1686105515.15,44.922,149.414,178.223,58.105,401.048,307.6157424283687
1218,1686105515.16,133.789,-503.906,58.105,104.492,401.052,308.4687394531389
1219,1686105515.16,132.812,-430.176,240.234,92.773,401.055,314.590548879633
1220,1686105515.16,72.266,555.176,250.0,41.016,401.059,314.28421316851643
1221,1686105515.17,67.383,512.207,133.301,41.016,401.063,327.9657291674321
1222,1686105515.17,120.117,468.75,241.211,82.031,401.067,316.94850226734644
1223,1686105515.18,132.812,725.098,206.543,89.355,401.075,315.9826265821788
1224,1686105515.18,78.613,488.77,62.988,60.059,401.079,310.5827646316346
1225,1686105515.18,48.828,72.266,120.117,42.969,401.083,310.88796499864657
1226,1686105515.19,103.516,206.543,310.547,75.684,401.087,309.07519336146356
1227,1686105515.19,124.023,662.109,233.398,103.027,401.09,314.36883806401755
1228,1686105515.2,57.617,468.262,34.18,66.406,401.094,311.74252184922346
1229,1686105515.2,13.184,-157.227,6.836,30.762,401.098,309.7603925500458
1230,1686105515.2,58.105,-303.711,179.199,65.43,401.102,309.65193819437684
1231,1686105515.21,139.16,613.77,280.273,106.934,401.106,315.073239123888
1232,1686105515.21,125.488,805.176,160.645,74.707,401.11,315.64260401809486
1233,1686105515.22,69.336,170.41,3.906,22.949,401.114,313.63210332092774
1234,1686105515.22,155.273,808.105,264.16,86.914,401.127,327.85528356625986
1235,1686105515.22,94.727,315.918,154.785,38.086,401.118,313.3536044331104
1236,1686105515.22,155.762,721.191,158.691,87.891,401.131,321.8724062165211
1237,1686105515.23,98.633,273.438,123.047,54.199,401.135,309.9027468501699
1238,1686105515.23,96.191,305.664,194.336,54.199,401.139,316.78965953458624
1239,1686105515.23,157.715,343.262,214.355,104.492,401.143,309.4707575325755
1240,1686105515.24,168.457,276.367,196.777,127.441,401.147,307.4471302380816
1241,1686105515.24,97.168,-519.043,-34.18,99.121,401.151,315.3817991088254
1242,1686105515.24,53.711,-983.398,64.941,70.312,401.155,311.9580154877691
1243,1686105515.25,122.07,208.496,296.387,85.449,401.159,307.8614512643534
1244,1686105515.25,181.152,753.418,157.227,107.91,401.163,308.6426416927685
1245,1686105515.26,131.836,535.156,127.441,87.402,401.166,315.2440015940454
1246,1686105515.26,65.43,627.93,213.379,51.27,401.17,307.38970946768063
1247,1686105515.28,100.098,692.871,206.055,79.102,401.176,317.0499799538332
1248,1686105515.28,164.551,539.551,173.34,140.137,401.18,310.41120088833594
1249,1686105515.29,123.535,498.047,193.359,120.117,401.183,317.3187562700114
1250,1686105515.29,44.922,536.621,193.359,66.895,401.187,322.6803936936823
1251,1686105515.3,50.293,526.367,187.012,73.242,401.191,323.245740546701
1252,1686105515.3,98.633,171.387,102.051,122.559,401.195,311.7654677035114
1253,1686105515.3,91.797,-111.328,160.156,122.559,401.199,317.9753081589971
1254,1686105515.31,29.297,207.031,250.488,71.289,401.203,314.3725099377456
1255,1686105515.31,21.484,534.18,187.012,59.082,401.207,311.2812542266224
1256,1686105515.31,94.727,70.312,15.625,111.328,401.211,313.51091621453736
1257,1686105515.32,141.602,-96.191,213.867,128.418,401.215,314.83285267931603
1258,1686105515.32,112.793,562.012,279.785,81.055,401.219,319.41833198685885
1259,1686105515.32,82.031,523.926,158.691,56.641,401.222,311.48386787908987
1260,1686105515.33,142.578,259.277,166.016,90.82,401.226,319.613283838801
1261,1686105515.33,206.055,563.965,216.797,121.094,401.23,315.9320735647373
1262,1686105515.34,150.879,739.258,177.734,92.285,401.234,304.2921148695743
1263,1686105515.34,82.031,391.602,71.777,58.105,401.238,322.0533927514657
1264,1686105515.34,105.469,-88.379,123.535,89.355,401.242,315.44741449820174
1265,1686105515.35,168.457,31.738,242.188,138.184,401.245,313.07649723545586
1266,1686105515.35,147.461,303.223,226.074,120.605,401.249,321.4506677217015
1267,1686105515.35,70.312,265.137,79.102,73.73,401.253,327.98648722452
1268,1686105515.36,58.594,-751.953,-17.09,88.867,401.257,310.9778510852101
1269,1686105515.36,125.0,-596.68,253.906,136.719,401.261,320.0976249910895
1270,1686105515.37,161.133,649.414,252.441,140.625,401.265,333.1432664750779
1271,1686105515.37,97.656,551.27,54.688,104.492,401.266,325.4342047968721
1272,1686105515.37,58.594,292.48,145.508,88.867,401.27,326.23865354597234
1273,1686105515.38,121.094,640.137,251.465,126.953,401.274,322.8132578640195
1274,1686105515.38,159.668,823.242,174.805,155.273,401.277,324.3821206348418
1275,1686105515.39,101.562,414.062,3.906,125.0,401.281,320.1801981512584
1276,1686105515.39,55.176,-28.809,77.148,89.844,401.285,311.34673501181135
1277,1686105515.39,101.562,163.574,256.348,104.004,401.289,319.6428978414892
1278,1686105515.4,162.598,712.891,204.102,128.418,401.293,307.21888061638356
1279,1686105515.4,125.977,159.18,-50.293,114.258,401.297,312.9987255817702
1280,1686105515.4,52.734,-318.848,136.23,86.426,401.301,311.009172685151
1281,1686105515.41,82.031,415.527,273.438,99.609,401.305,326.0339224715186
1282,1686105515.41,144.531,401.855,42.969,135.254,401.309,321.03033892510945
1283,1686105515.41,121.094,-59.082,-60.059,132.324,401.309,321.2850096305755
1284,1686105515.42,78.125,212.402,129.395,87.402,401.313,319.1548199971059
1285,1686105515.42,95.703,597.168,243.164,78.125,401.317,326.340761881348
1286,1686105515.42,166.504,558.594,172.363,120.117,401.321,324.7221079836352
1287,1686105515.43,190.918,348.145,151.855,124.512,401.325,321.9436004495665
1288,1686105515.43,145.996,179.199,116.211,79.59,401.328,326.4280451425377
1289,1686105515.44,122.07,93.75,130.371,63.477,401.332,322.59834640040987
1290,1686105515.44,174.316,163.574,180.176,103.027,401.336,316.09420114924194
1291,1686105515.44,206.543,-480.957,14.16,136.719,401.34,326.12531394885644
1292,1686105515.45,149.414,-436.035,156.738,104.98,401.344,323.7677576798396
1293,1686105515.45,95.703,486.328,242.188,73.242,401.348,321.0823571637812
1294,1686105515.46,121.094,455.078,99.121,114.258,401.352,320.7507789876334
