,timestamps,TP9,AF7,AF8,TP10,Secondary Timestamp,emg_signal
0,1686015334.31,-97.656,658.691,72.754,-34.18,117098.742,333.97839425419977
1,1686015334.31,-95.703,393.066,55.664,-24.414,117098.746,327.2210913243264
2,1686015334.32,-92.285,221.191,107.91,-10.742,117098.75,329.6453432760849
3,1686015334.32,-95.215,541.016,111.816,-12.695,117098.754,339.9593395655354
4,1686015334.32,-101.074,597.168,68.359,-18.555,117098.757,335.6448649976015
5,1686015334.33,-106.934,131.348,63.965,-21.484,117098.761,339.98572798032575
6,1686015334.33,-95.215,-14.16,100.586,-20.02,117098.765,330.44545559041586
7,1686015334.33,-88.867,97.168,106.445,-9.766,117098.769,334.8000024702479
8,1686015334.34,-90.332,317.871,119.141,-7.324,117098.773,327.3788267081767
9,1686015334.34,-90.332,308.594,55.664,-14.16,117098.777,333.947356459588
10,1686015334.35,-92.285,-774.414,27.832,-6.836,117098.781,328.883199977656
11,1686015334.35,-83.984,-577.148,188.477,-5.859,117098.785,336.5490955456176
12,1686015334.38,-77.148,576.172,147.949,-12.207,117098.817,328.68187405881656
13,1686015334.39,-92.285,480.957,38.086,-24.414,117098.821,322.4716385866211
14,1686015334.39,-95.703,422.852,96.68,-30.273,117098.825,323.10806743367704
15,1686015334.39,-85.938,726.074,133.789,-20.02,117098.828,332.02604537572853
16,1686015334.4,-82.52,807.617,87.402,-9.277,117098.832,324.17653030030124
17,1686015334.4,-81.543,698.73,76.172,25.391,117098.831,328.9957884145631
18,1686015334.4,-85.938,253.906,12.695,-20.996,117098.836,321.74849214870756
19,1686015334.4,-83.984,425.293,99.609,11.23,117098.835,326.94338379095524
20,1686015334.41,-95.215,145.996,88.379,-19.043,117098.84,323.6187133533081
21,1686015334.41,-89.355,611.328,105.469,-3.418,117098.839,331.2517686794345
22,1686015334.41,-87.891,634.277,125.977,3.418,117098.844,329.17093332986684
23,1686015334.41,-88.379,818.848,78.125,-3.418,117098.843,325.1007400394189
24,1686015334.41,-83.496,634.277,52.734,8.301,117098.848,329.33227468582993
25,1686015334.42,-76.66,653.32,61.523,-3.906,117098.847,325.83728711842804
26,1686015334.42,-87.402,-91.309,12.207,8.301,117098.852,324.3558602161923
27,1686015334.42,-80.566,226.074,77.148,0.0,117098.851,326.8770786330602
28,1686015334.42,-93.262,-200.195,144.531,8.301,117098.856,325.4665551266126
29,1686015334.42,-92.285,266.602,85.938,-7.324,117098.855,320.4798475794767
30,1686015334.42,-90.332,637.207,160.645,16.113,117098.86,323.2288203760566
31,1686015334.43,-92.773,357.422,60.547,-14.648,117098.859,326.81464163933697
32,1686015334.43,-83.008,326.172,93.75,-11.23,117098.862,323.9826456667861
33,1686015334.44,-69.336,467.773,140.137,-8.789,117098.866,313.70980331360255
34,1686015334.44,-75.195,638.672,94.238,-5.859,117098.87,320.09277377262094
35,1686015334.44,-79.102,502.441,71.289,-7.324,117098.874,319.8530763661526
36,1686015334.46,-83.496,287.109,106.445,-0.488,117098.88,321.9515902532215
37,1686015334.46,-78.125,347.656,168.945,19.043,117098.884,313.2068127451033
38,1686015334.47,-72.266,789.062,130.371,21.484,117098.888,304.527235965422
39,1686015334.47,-78.613,934.082,82.031,17.09,117098.892,308.83653178340506
40,1686015334.48,-78.125,320.312,34.668,31.25,117098.896,311.2355984283981
41,1686015334.48,-76.66,-582.52,80.078,52.246,117098.9,305.9793522333277
42,1686015334.48,-80.566,213.379,182.617,47.363,117098.904,312.3096122362065
43,1686015334.49,-90.82,886.719,92.285,29.785,117098.908,306.6170249997963
44,1686015334.49,-90.82,232.422,28.809,32.715,117098.912,312.46527168455464
45,1686015334.49,-79.59,501.465,143.066,37.109,117098.916,304.71557967341954
46,1686015334.5,-70.801,-992.676,127.93,34.18,117098.919,307.2538303052895
47,1686015334.5,-74.219,642.578,54.199,30.273,117098.923,307.64628275565997
48,1686015334.5,-80.078,479.98,105.469,23.438,117098.925,303.50991091958673
49,1686015334.51,-82.52,621.094,113.77,20.508,117098.929,306.8121307374494
50,1686015334.51,-95.215,886.23,120.605,23.438,117098.933,303.92942358395396
51,1686015334.52,-95.703,837.402,73.242,21.484,117098.937,297.21812955450537
52,1686015334.52,-90.332,202.637,97.656,21.973,117098.941,304.0345140017771
53,1686015334.52,-83.008,273.438,140.137,23.438,117098.945,298.479550204644
54,1686015334.53,-76.172,621.582,129.883,20.508,117098.948,303.48472880670505
55,1686015334.53,-82.52,503.906,90.332,17.578,117098.952,299.1070961556194
56,1686015334.53,-84.473,-347.168,63.965,13.672,117098.956,291.8469844990528
57,1686015334.54,-75.195,31.25,187.012,9.277,117098.96,292.0394301254034
58,1686015334.54,-73.242,958.008,149.902,14.16,117098.964,294.6044295448422
59,1686015334.55,-82.031,817.383,72.266,22.461,117098.968,299.1199324044068
60,1686015334.55,-87.891,815.918,104.98,24.414,117098.969,295.5406901251275
61,1686015334.55,-91.309,973.633,120.117,20.996,117098.973,292.5284834303232
62,1686015334.56,-85.449,964.355,115.234,32.715,117098.977,283.81162325530937
63,1686015334.56,-79.59,747.559,60.547,41.992,117098.981,294.8691829020025
64,1686015334.56,-81.543,589.844,65.43,33.203,117098.985,285.7845185813824
65,1686015334.57,-87.891,534.668,106.934,18.555,117098.989,286.25551348847205
66,1686015334.57,-84.473,684.57,104.004,20.02,117098.993,276.4971030875647
67,1686015334.58,-79.59,253.418,28.32,37.598,117098.997,284.80607395982963
68,1686015334.58,-78.613,-206.055,125.0,39.551,117099.001,292.79050480055395
69,1686015334.58,-87.402,723.633,183.594,21.484,117099.005,284.1640641196109
70,1686015334.59,-97.168,977.539,104.004,18.555,117099.008,283.60793229206024
71,1686015334.59,-90.332,750.0,144.043,39.062,117099.012,283.4607284923606
72,1686015334.59,-88.379,920.898,146.973,44.434,117099.013,281.9180691585873
73,1686015334.6,-86.426,989.258,100.098,32.227,117099.017,290.1503463651094
74,1686015334.6,-83.496,886.719,87.402,33.203,117099.021,281.5171959720223
75,1686015334.6,-85.938,817.383,124.512,40.039,117099.025,273.30743159617634
76,1686015334.61,-79.102,901.367,95.215,40.039,117099.028,278.1958453174874
77,1686015334.61,-65.43,711.426,58.105,38.574,117099.032,271.8831409291947
78,1686015334.62,-62.5,512.207,80.566,36.621,117099.036,278.8375351470164
79,1686015334.62,-58.594,-277.344,58.105,53.711,117099.04,273.9069728853376
80,1686015334.62,-61.035,-310.059,161.133,51.758,117099.044,275.6842718510775
81,1686015334.63,-67.383,817.383,154.785,29.785,117099.048,281.13233099320627
82,1686015334.63,-71.777,836.914,61.035,22.949,117099.052,273.4684370819758
83,1686015334.64,-66.406,763.672,126.465,22.461,117099.056,271.03437378515315
84,1686015334.64,-59.082,999.023,137.207,25.391,117099.071,269.7680151820399
85,1686015334.64,-63.477,970.703,79.59,30.762,117099.075,276.7122512958876
86,1686015334.65,-60.059,788.086,47.363,26.855,117099.078,270.60742165999085
87,1686015334.65,-58.594,838.379,93.262,23.926,117099.082,275.4633317652562
88,1686015334.66,-53.711,975.586,108.887,32.227,117099.086,270.80651503970955
89,1686015334.66,-53.223,840.332,48.34,21.973,117099.09,267.80461645005664
90,1686015334.66,-67.871,277.832,15.137,10.742,117099.094,272.76953816454125
91,1686015334.67,-68.848,232.91,131.836,5.859,117099.098,269.6724942853008
92,1686015334.67,-51.27,940.918,119.629,20.996,117099.102,262.56512422333526
93,1686015334.67,-47.363,888.672,19.531,31.738,117099.106,272.8671445267375
94,1686015334.68,-64.941,403.809,26.367,19.531,117099.11,273.75387689286947
95,1686015334.68,-74.219,723.145,92.773,16.602,117099.114,271.9545234113452
96,1686015334.68,-76.172,-946.777,67.383,20.508,117099.117,266.88205259660265
97,1686015334.69,-83.984,886.719,16.602,16.602,117099.12,268.36075324037716
98,1686015334.69,-96.191,802.246,64.941,14.648,117099.124,261.0487603652939
99,1686015334.69,-120.605,916.016,84.473,19.531,117099.128,266.6169684373562
100,1686015334.7,-141.602,966.309,63.477,22.461,117099.132,263.0144886123673
101,1686015334.7,-136.23,696.289,53.223,23.926,117099.136,275.15182659690953
102,1686015334.71,-140.137,-210.938,41.504,23.926,117099.14,267.9888578425056
103,1686015334.71,-167.48,35.645,119.629,3.418,117099.144,269.38634819323005
104,1686015334.71,-155.762,942.383,112.793,2.93,117099.148,269.71762041733774
105,1686015334.72,-139.648,904.785,53.223,17.578,117099.152,265.1070585838805
106,1686015334.72,-136.23,882.812,84.473,11.719,117099.156,267.3053617224047
107,1686015334.72,-129.395,946.777,50.781,5.859,117099.16,266.0753371689718
108,1686015334.74,-136.23,822.266,20.508,1.953,117099.177,267.75090182282645
109,1686015334.75,-144.043,658.691,39.551,3.906,117099.181,271.4647537670985
110,1686015334.75,-137.695,740.723,80.566,0.0,117099.185,259.79330465239747
111,1686015334.75,-137.207,985.84,50.293,-10.254,117099.189,269.26152031897334
112,1686015334.76,-147.949,965.82,17.09,-12.207,117099.193,276.7517430096838
113,1686015334.76,-139.648,608.887,-0.977,-5.859,117099.197,269.64691904921034
114,1686015334.77,-136.719,631.348,45.898,-5.859,117099.2,266.05149117809094
115,1686015334.77,-144.531,-993.164,62.012,-19.043,117099.204,259.662780757989
116,1686015334.77,-134.277,949.707,1.465,-15.137,117099.208,268.61458219246276
117,1686015334.78,-115.234,374.512,-19.531,-9.766,117099.212,267.9637951347119
118,1686015334.78,-105.957,600.586,86.914,-13.672,117099.216,266.7607922858343
119,1686015334.78,-106.934,-932.617,67.383,-17.578,117099.22,273.93546124668296
120,1686015334.79,-116.699,885.742,1.953,-29.297,117099.221,268.2537575120117
121,1686015334.79,-113.281,744.141,54.688,62.012,117099.225,266.1520715613829
122,1686015334.8,-101.074,799.805,69.824,181.641,117099.229,273.449634535185
123,1686015334.8,-92.285,-998.047,56.641,198.242,117099.233,272.48981746056654
124,1686015334.8,-94.727,893.555,2.93,188.477,117099.236,267.41851355153705
125,1686015334.81,-94.238,60.059,16.113,184.082,117099.24,272.9090678742822
126,1686015334.81,-83.496,237.793,91.797,173.34,117099.244,272.0125785398335
127,1686015334.82,-80.078,959.961,60.547,155.762,117099.248,272.4299047741993
128,1686015334.82,-83.496,794.922,-4.883,134.766,117099.252,277.50891591212564
129,1686015334.82,-84.473,274.414,83.496,118.164,117099.256,272.8604822790904
130,1686015334.83,-72.754,759.766,134.766,112.305,117099.26,277.3797089320174
131,1686015334.83,-66.406,-903.32,49.805,104.492,117099.264,272.22604468226507
132,1686015334.83,-88.867,721.68,16.113,90.82,117099.266,283.0902948152405
133,1686015334.84,-93.75,486.816,103.516,83.496,117099.269,277.8869502480273
134,1686015334.84,-75.684,906.738,111.328,74.219,117099.273,265.28061807136834
135,1686015334.84,-66.406,-993.164,39.062,73.73,117099.277,278.78628836933854
136,1686015334.85,-57.617,761.23,9.277,74.707,117099.281,286.2930156371122
137,1686015334.85,-55.664,664.062,16.113,59.082,117099.285,281.785542770617
138,1686015334.86,-58.594,694.336,41.504,45.898,117099.289,271.8693968079457
139,1686015334.86,-60.059,908.203,49.805,51.27,117099.293,285.6973280707614
140,1686015334.86,-64.453,485.84,-11.719,43.457,117099.297,290.256305417092
141,1686015334.87,-71.289,156.738,87.402,15.137,117099.301,276.27888584015733
142,1686015334.87,-63.965,908.203,99.121,0.488,117099.305,282.9691624489838
143,1686015334.88,-56.152,969.238,19.043,7.812,117099.308,291.60810217910546
144,1686015334.88,-60.059,786.133,85.449,14.16,117099.297,280.56845960650253
145,1686015334.88,-67.871,944.824,80.566,9.766,117099.301,283.9051270071022
146,1686015334.88,-73.242,987.305,32.715,-1.465,117099.305,285.0914368952903
147,1686015334.89,-76.66,930.176,40.527,4.883,117099.309,287.5853860263805
148,1686015334.89,-68.359,910.156,64.941,10.742,117099.313,290.257406938447
149,1686015334.9,-70.312,890.137,38.086,2.93,117099.317,295.0763397449601
150,1686015334.9,-87.402,834.961,28.32,-16.602,117099.32,287.599255481261
151,1686015334.9,-98.145,722.168,12.695,-31.738,117099.324,290.7646129832039
152,1686015334.91,-94.238,-24.414,9.766,-30.762,117099.328,295.8531852311565
153,1686015334.91,-86.914,255.371,120.605,-24.414,117099.332,296.13379532411346
154,1686015334.92,-90.332,-948.242,55.664,-29.297,117099.336,295.21397010720915
155,1686015334.92,-91.797,799.316,0.0,-21.973,117099.34,284.0693991340742
156,1686015334.92,-74.707,717.285,111.816,-18.555,117099.344,288.2552542594068
157,1686015334.93,-68.359,974.121,70.801,-59.082,117099.348,295.5204321009656
158,1686015334.93,-71.777,-998.535,-4.883,-99.121,117099.352,291.2759863208277
159,1686015334.94,-77.148,790.527,-15.137,-114.258,117099.356,293.51139680154427
160,1686015334.94,-83.496,792.969,70.312,-114.258,117099.36,300.05486179533915
161,1686015334.94,-83.496,985.352,76.172,-121.094,117099.364,299.24097563084655
162,1686015334.95,-87.891,990.723,4.395,-141.602,117099.368,297.12284111520717
163,1686015334.95,-87.891,561.523,-11.23,-139.16,117099.372,298.05857163555464
164,1686015334.95,-73.73,554.199,104.98,-119.141,117099.375,306.5776458635383
165,1686015334.96,-63.477,-965.82,89.844,-109.375,117099.379,301.6270814666713
166,1686015334.96,-70.312,916.016,2.441,-110.352,117099.383,302.45947251663586
167,1686015334.97,-79.59,648.926,42.48,-122.07,117099.387,297.9901226643363
168,1686015334.97,-78.125,841.309,91.797,-123.047,117099.387,299.0975530265222
169,1686015334.97,-74.219,-950.684,65.918,-107.422,117099.391,302.1552961643989
170,1686015334.98,-76.172,875.488,1.953,-100.098,117099.395,296.6606175563905
171,1686015334.98,-78.613,594.727,60.547,-111.816,117099.399,304.58454591886834
172,1686015334.98,-71.777,816.406,83.496,-120.117,117099.403,299.40979541769315
173,1686015334.99,-70.801,962.402,36.133,-114.258,117099.407,303.34587029535754
174,1686015334.99,-77.637,834.961,19.531,-107.91,117099.41,299.29523403852863
175,1686015334.99,-69.336,8.301,21.484,-96.191,117099.414,303.76357950185223
176,1686015335.0,-72.266,285.645,125.0,-99.121,117099.418,298.8076183118327
177,1686015335.0,-71.289,-964.355,87.402,-99.121,117099.422,305.71138535273366
178,1686015335.01,-67.871,916.992,24.414,-90.332,117099.426,312.5637456386615
179,1686015335.01,-82.52,939.453,48.828,-97.168,117099.43,306.92287337116954
180,1686015335.02,-92.285,949.707,35.645,-105.957,117099.436,293.4472345463638
181,1686015335.02,-83.984,942.871,53.223,-97.168,117099.44,300.2253236819924
182,1686015335.02,-72.266,874.023,42.48,-89.355,117099.444,291.7922639491991
183,1686015335.03,-72.754,872.559,61.523,-92.773,117099.448,302.8089739821391
184,1686015335.03,-71.289,962.891,52.246,-98.145,117099.452,305.13411787090064
185,1686015335.04,-75.195,912.109,5.859,-90.332,117099.456,310.2674033127907
186,1686015335.04,-80.078,580.566,8.789,-82.52,117099.46,298.3295429510038
187,1686015335.04,-84.473,615.234,102.539,-80.566,117099.464,301.1179297156566
188,1686015335.05,-88.379,-984.863,86.426,-83.984,117099.468,314.7960775564457
189,1686015335.05,-89.355,929.688,14.16,-90.82,117099.472,308.10549190445397
190,1686015335.06,-86.426,854.98,77.148,-88.379,117099.476,315.35663012770505
191,1686015335.06,-88.379,992.188,21.973,-80.078,117099.492,309.2008504486007
192,1686015335.06,-82.031,948.73,81.543,-83.496,117099.479,307.75262026527906
193,1686015335.06,-95.703,919.434,20.02,-81.055,117099.496,311.97769991313857
194,1686015335.06,-89.355,846.68,47.852,-80.078,117099.5,314.46085306194595
195,1686015335.07,-90.82,910.645,62.5,-84.961,117099.504,309.9489383900159
196,1686015335.07,-96.68,942.383,35.156,-97.656,117099.508,313.79860477096054
197,1686015335.08,-98.633,813.965,14.648,-103.516,117099.512,310.7813220665102
198,1686015335.08,-89.844,-93.75,2.93,-87.402,117099.516,305.47826275397904
199,1686015335.08,-80.566,-411.133,75.195,-77.637,117099.52,304.63064328573034
200,1686015335.09,-77.148,717.285,108.398,-79.102,117099.523,320.8581132919169
201,1686015335.09,-81.055,-998.047,21.484,-73.73,117099.527,312.00465281233363
202,1686015335.1,-90.82,864.746,48.828,-71.289,117099.531,305.87805552222073
203,1686015335.1,-88.867,984.375,62.012,-68.848,117099.535,312.0820617406563
204,1686015335.12,-80.566,974.121,22.949,-82.031,117099.54,323.6412652648418
205,1686015335.12,-81.055,893.555,2.93,-94.727,117099.544,317.2064959222173
206,1686015335.13,-82.52,899.902,37.109,-99.609,117099.548,325.050524253171
207,1686015335.13,-74.707,980.957,61.035,-90.82,117099.551,313.5548807949593
208,1686015335.13,-65.918,976.074,34.18,-78.613,117099.555,316.419792070384
209,1686015335.14,-69.336,708.496,-21.484,-80.566,117099.559,333.2826821753697
210,1686015335.14,-77.637,592.285,13.184,-84.473,117099.563,313.0743324293678
211,1686015335.14,-73.73,763.184,75.684,-74.707,117099.567,322.39087066002276
212,1686015335.15,-63.965,988.77,64.453,-72.754,117099.571,321.6577800101245
213,1686015335.15,-61.035,462.402,-18.555,-79.102,117099.575,314.59707561648554
214,1686015335.16,-64.453,266.113,82.52,-77.148,117099.579,323.4358349865862
215,1686015335.16,-68.848,954.102,91.309,-76.66,117099.583,317.7735984533365
216,1686015335.16,-69.336,958.984,24.414,-64.941,117099.583,320.51357971370965
217,1686015335.17,-73.73,877.441,53.711,-57.617,117099.587,315.1174270297533
218,1686015335.17,-84.473,954.59,36.133,-62.988,117099.591,323.8517709311405
219,1686015335.17,-88.379,987.793,35.156,-63.965,117099.595,322.6326932562941
220,1686015335.18,-86.914,919.434,40.527,-60.059,117099.599,323.73385378610345
221,1686015335.18,-80.078,699.707,33.691,-61.523,117099.603,327.6898937047266
222,1686015335.19,-82.031,645.996,29.297,-73.242,117099.607,327.18815696954914
223,1686015335.19,-81.543,831.543,43.945,-78.613,117099.611,317.2837029345887
224,1686015335.19,-72.754,864.258,20.02,-74.707,117099.614,319.50539141115644
225,1686015335.2,-77.148,-38.574,12.207,-62.012,117099.618,316.23320832813965
226,1686015335.2,-89.355,136.719,126.953,-68.848,117099.622,323.0351290261654
227,1686015335.2,-87.402,988.281,67.871,-77.148,117099.626,319.7089070544824
228,1686015335.21,-83.496,864.258,4.883,-72.266,117099.631,316.1108789287896
229,1686015335.21,-86.914,870.117,67.383,-69.336,117099.635,322.83761713191694
230,1686015335.22,-79.102,988.281,32.227,-72.266,117099.638,327.90227179141533
231,1686015335.22,-81.543,967.285,2.441,-79.59,117099.642,330.7323291308929
232,1686015335.22,-92.285,791.992,0.0,-70.801,117099.646,321.54852019108995
233,1686015335.23,-75.684,670.898,17.578,-57.617,117099.65,318.5476487879802
234,1686015335.23,-73.73,843.75,55.176,-70.801,117099.654,322.07473512876265
235,1686015335.24,-88.379,-999.512,28.809,-83.008,117099.658,320.3983704966063
236,1686015335.24,-93.75,453.125,-29.297,-70.801,117099.662,324.13246570013797
237,1686015335.24,-88.867,444.824,85.449,-64.453,117099.666,326.4477958339091
238,1686015335.25,-90.82,-975.098,64.453,-73.242,117099.67,323.76823846875703
239,1686015335.25,-102.539,793.945,-20.996,-83.984,117099.674,326.58802768110934
240,1686015335.25,-97.656,401.855,32.715,-88.379,117099.673,324.0957353031772
241,1686015335.26,-92.285,793.457,80.078,-93.75,117099.677,315.2298106249474
242,1686015335.26,-97.656,-961.914,30.762,-93.75,117099.681,320.1844985100926
243,1686015335.26,-104.492,899.414,-3.418,-91.797,117099.685,334.96689979302744
244,1686015335.27,-116.699,740.723,14.16,-91.309,117099.689,321.9710268326951
245,1686015335.27,-110.352,638.184,20.508,-76.172,117099.693,328.2774305919014
246,1686015335.28,-104.492,766.602,32.715,-69.824,117099.697,316.3790222978721
247,1686015335.28,-110.352,734.863,1.465,-84.473,117099.7,321.4133894745886
248,1686015335.28,-102.051,-106.445,9.277,-75.684,117099.704,329.3767669797503
249,1686015335.29,-93.75,222.656,131.348,-66.895,117099.708,324.6885246651584
250,1686015335.29,-90.332,-976.074,78.613,-72.754,117099.712,327.5463098522604
251,1686015335.3,-84.961,882.812,19.043,-71.777,117099.716,323.9960591087315
252,1686015335.3,-92.773,920.41,51.27,-82.031,117099.722,322.2972797667699
253,1686015335.3,-118.164,919.434,21.973,-103.516,117099.725,327.0184940771074
254,1686015335.31,-130.371,896.484,41.504,-117.676,117099.729,330.3781030905685
255,1686015335.31,-125.488,813.965,20.02,-111.816,117099.733,325.1970420960185
256,1686015335.31,-124.512,776.855,35.645,-114.746,117099.737,329.4113387819497
257,1686015335.32,-125.0,738.77,31.738,-104.98,117099.741,322.58282475233676
258,1686015335.32,-119.141,707.52,20.508,-87.891,117099.745,325.0728834806868
259,1686015335.32,-117.188,517.09,16.113,-91.797,117099.749,328.8730320854564
260,1686015335.33,-121.094,500.977,83.984,-101.074,117099.753,331.24678433154884
261,1686015335.33,-116.211,993.652,60.059,-108.887,117099.757,326.3938480773742
262,1686015335.34,-110.84,916.016,14.16,-102.539,117099.761,331.4400947477555
263,1686015335.34,-98.633,754.395,87.891,-87.891,117099.765,319.5425945497192
264,1686015335.34,-98.145,926.27,78.125,-90.332,117099.764,324.4238172372898
265,1686015335.35,-104.004,998.047,20.02,-93.262,117099.767,316.3065907173668
266,1686015335.35,-99.609,910.156,8.789,-83.008,117099.771,331.6537686784414
267,1686015335.36,-99.609,831.543,40.039,-82.52,117099.775,325.883670862529
268,1686015335.36,-100.098,798.828,33.203,-86.426,117099.779,319.70283832363793
269,1686015335.36,-98.145,686.035,15.625,-82.52,117099.783,332.1003661654238
270,1686015335.37,-102.051,563.477,32.227,-77.637,117099.787,325.3072469201392
271,1686015335.37,-100.098,-266.602,13.184,-67.383,117099.791,328.07331067869995
272,1686015335.37,-92.773,-368.164,100.586,-49.316,117099.795,329.05930939154507
273,1686015335.38,-107.422,800.293,97.168,-54.199,117099.799,326.96357201821655
274,1686015335.38,-118.164,926.27,15.137,-67.871,117099.803,333.73653715311605
275,1686015335.39,-105.469,817.871,83.496,-62.5,117099.807,318.9959756014027
276,1686015335.39,-96.68,991.699,73.73,-58.594,117099.822,324.638486232714
277,1686015335.39,-98.633,974.121,10.742,-80.078,117099.826,323.0284762036208
278,1686015335.4,-97.168,780.273,-8.789,-94.238,117099.83,316.6234546170603
279,1686015335.4,-84.473,832.52,55.176,-87.402,117099.834,327.6930400427025
280,1686015335.4,-80.566,948.73,52.246,-77.637,117099.838,324.74576659667537
281,1686015335.41,-78.613,846.68,13.672,-83.496,117099.842,327.3198241741442
282,1686015335.41,-82.52,208.008,-25.391,-82.52,117099.846,325.53118396286754
283,1686015335.42,-85.938,-264.648,73.73,-68.359,117099.85,328.5782305252669
284,1686015335.42,-74.707,741.699,141.602,-72.266,117099.853,325.6652517896976
285,1686015335.42,-78.125,-979.004,41.504,22.949,117099.857,330.216256874587
286,1686015335.43,-84.473,697.266,42.48,147.461,117099.861,323.16014873374235
287,1686015335.43,-71.777,875.488,63.965,159.18,117099.865,328.3254000142112
288,1686015335.43,-57.617,-991.211,50.293,141.113,117099.867,323.8537995325423
289,1686015335.44,-62.988,909.668,28.32,126.953,117099.871,331.1958569119734
290,1686015335.44,-93.75,775.879,35.645,97.168,117099.875,324.6263359378035
291,1686015335.44,-102.539,862.305,28.809,70.801,117099.878,330.12606216861127
292,1686015335.45,-86.426,940.918,35.156,68.848,117099.882,330.44633786669635
293,1686015335.45,-82.031,677.246,25.391,67.383,117099.886,324.64184664980877
294,1686015335.46,-97.656,-171.875,0.0,50.293,117099.89,333.90758268568993
295,1686015335.46,-105.469,108.398,84.473,37.598,117099.894,333.7494285613078
296,1686015335.46,-100.586,959.961,61.523,36.621,117099.898,334.27897110619045
297,1686015335.47,-95.703,649.902,-15.625,52.246,117099.902,322.8852024776204
298,1686015335.47,-96.191,26.855,56.152,61.523,117099.906,331.9916711751722
299,1686015335.48,-98.633,645.02,84.961,42.969,117099.91,333.5762177372697
300,1686015335.49,-93.75,-984.863,7.812,24.902,117099.916,321.1592907239775
301,1686015335.5,-83.496,722.656,19.531,24.902,117099.919,328.77995243225666
302,1686015335.5,-76.66,826.66,62.5,22.461,117099.923,328.74983424389944
303,1686015335.5,-75.684,981.445,42.48,13.184,117099.927,326.29904883903913
304,1686015335.51,-74.707,974.609,16.113,10.254,117099.931,328.45861634169444
305,1686015335.51,-66.406,474.121,-4.395,20.02,117099.935,335.02328749499526
306,1686015335.52,-90.82,334.473,78.613,-13.672,117099.939,327.1133610259682
307,1686015335.52,-115.234,929.688,85.938,-52.734,117099.943,323.7435747798637
308,1686015335.52,-103.516,945.312,2.441,-48.34,117099.947,330.79088991889745
309,1686015335.53,-106.445,344.238,-17.09,-48.828,117099.951,324.9680950700359
310,1686015335.53,-100.098,605.957,59.082,-54.688,117099.955,329.87748573127755
311,1686015335.54,-95.703,992.188,28.32,-61.035,117099.959,337.89742956259397
312,1686015335.54,-99.609,549.805,-5.371,-76.66,117099.959,329.3844413023682
313,1686015335.54,-88.867,111.816,53.711,-64.941,117099.963,332.601313301239
314,1686015335.54,-78.613,471.68,94.727,-51.27,117099.967,333.1199950191934
315,1686015335.55,-73.242,-979.492,42.48,-60.059,117099.971,331.7707086930954
316,1686015335.55,-78.125,775.879,-5.859,-72.754,117099.974,344.97176504019467
317,1686015335.56,-82.031,126.953,65.43,-82.52,117099.978,331.1056488207713
318,1686015335.56,-76.172,305.176,83.984,-80.078,117099.982,333.507466037824
319,1686015335.56,-77.637,693.359,31.738,-72.266,117099.986,332.86589213651973
320,1686015335.57,-87.402,558.594,-10.254,-84.961,117099.99,322.8833680363595
321,1686015335.57,-94.727,-303.223,-0.488,-82.52,117099.994,321.14362920654605
322,1686015335.58,-86.914,240.723,110.352,-72.266,117099.998,329.81232539936855
323,1686015335.58,-86.426,-948.242,66.895,-75.195,117100.002,331.2713862046398
324,1686015335.58,-96.191,778.32,11.719,-86.426,117100.005,322.36649854895757
325,1686015335.59,-103.516,787.598,41.504,-91.309,117100.009,331.22785900049365
326,1686015335.59,-100.586,785.645,23.926,-84.961,117100.013,326.1212680902128
327,1686015335.6,-85.449,836.426,47.852,-83.984,117100.017,325.34924516776107
328,1686015335.6,-87.402,643.555,5.859,-81.055,117100.021,335.63220876196726
329,1686015335.6,-88.867,250.977,4.883,-106.445,117100.025,330.4646431470117
330,1686015335.61,-91.797,558.105,53.711,-147.949,117100.029,334.6699460972487
331,1686015335.61,-97.168,944.824,33.691,-165.527,117100.033,330.9570301273702
332,1686015335.62,-100.586,397.461,-32.227,-176.27,117100.036,329.8382296499179
333,1686015335.62,-115.723,259.766,62.988,-195.312,117100.04,332.75331701022594
334,1686015335.62,-120.605,915.527,54.688,-194.824,117100.044,331.22178564634197
335,1686015335.63,-115.234,885.742,-10.254,-183.105,117100.048,328.2636443578522
336,1686015335.63,-108.398,672.363,66.895,-185.547,117100.048,332.6239213943928
337,1686015335.63,-101.562,877.93,59.082,-186.035,117100.052,329.93861189480236
338,1686015335.64,-99.609,981.934,13.184,-185.059,117100.056,329.0583066220962
339,1686015335.64,-100.098,806.641,23.926,-183.105,117100.06,325.31037645245914
340,1686015335.64,-108.887,597.656,48.34,-185.059,117100.064,321.6588365742821
341,1686015335.65,-118.652,503.906,25.391,-193.848,117100.068,317.8451340439088
342,1686015335.65,-109.863,434.082,20.508,-191.895,117100.072,324.12127733698856
343,1686015335.65,-126.953,379.883,20.996,-192.871,117100.076,323.78377443685105
344,1686015335.66,-133.789,-419.922,-6.348,-183.594,117100.08,316.6034676538739
345,1686015335.66,-129.883,-495.605,94.727,-178.711,117100.083,324.43056546650854
346,1686015335.67,-135.742,668.945,83.496,-191.406,117100.087,321.63977110007704
347,1686015335.67,-130.859,766.602,7.812,-193.359,117100.091,333.28249851682574
348,1686015335.67,-125.0,714.844,77.637,-179.688,117100.095,316.02785910886183
349,1686015335.68,-119.629,992.188,56.152,-168.457,117100.099,326.890401663102
350,1686015335.68,-121.094,927.246,11.23,-170.898,117100.103,329.25341365224057
351,1686015335.69,-111.816,575.684,6.836,-173.34,117100.107,325.3783232972392
352,1686015335.69,-107.422,669.922,40.039,-180.664,117100.111,325.68549748907856
353,1686015335.69,-106.934,715.332,38.086,-171.875,117100.115,321.240090730879
354,1686015335.7,-115.234,595.703,2.441,-167.969,117100.119,332.6502870955268
355,1686015335.7,-129.395,45.898,-52.246,-174.805,117100.123,344.27225842183435
356,1686015335.7,-126.953,-383.301,69.824,-166.016,117100.126,328.6858591669081
357,1686015335.71,-119.629,704.102,102.539,-157.715,117100.13,323.90308559145166
358,1686015335.71,-115.723,-998.535,-6.836,-152.832,117100.134,331.38778053099276
359,1686015335.72,-110.352,591.797,32.715,-157.715,117100.138,327.6949232502719
360,1686015335.72,-105.957,767.09,61.523,-163.086,117100.151,327.4561114193099
361,1686015335.72,-105.957,-999.512,23.438,-151.855,117100.155,332.67435628324387
362,1686015335.72,-112.305,879.395,-1.953,-145.02,117100.159,328.7145151604271
363,1686015335.73,-115.234,685.059,28.32,-145.508,117100.163,327.89286740279556
364,1686015335.73,-113.281,648.438,5.859,-138.672,117100.167,322.61029397748047
365,1686015335.74,-111.816,549.316,8.789,-125.977,117100.171,334.1163122816475
366,1686015335.74,-103.516,469.727,6.348,-116.211,117100.175,324.86760943206747
367,1686015335.74,-105.957,-340.82,1.953,-106.445,117100.178,332.7295781649592
368,1686015335.75,-122.559,-127.441,102.539,-116.699,117100.182,328.23295620800684
369,1686015335.75,-116.699,846.68,43.457,-123.535,117100.186,326.02571654995097
370,1686015335.76,-108.887,622.559,-2.93,-113.281,117100.19,322.5583803267713
371,1686015335.76,-117.676,360.352,74.707,-118.652,117100.194,329.6602509857844
372,1686015335.76,-117.188,809.57,52.246,-129.883,117100.197,326.84061875995815
373,1686015335.77,-105.469,954.102,13.184,-124.512,117100.201,331.4830240653903
374,1686015335.77,-94.727,619.141,10.742,-110.352,117100.205,329.80501746513244
375,1686015335.78,-88.379,738.281,32.715,-104.492,117100.209,336.5118931013381
376,1686015335.78,-84.473,945.312,19.043,-110.352,117100.213,332.31686554719846
377,1686015335.78,-89.355,626.953,-7.812,-110.352,117100.216,324.648957855419
378,1686015335.79,-92.773,144.531,-20.02,-101.074,117100.22,341.19665703081466
379,1686015335.79,-95.703,228.516,50.293,-105.469,117100.224,324.69266566567927
380,1686015335.8,-178.223,844.727,40.527,-113.281,117100.228,330.0313545093703
381,1686015335.8,-293.457,791.992,-7.812,-111.816,117100.232,330.04402343266077
382,1686015335.8,-334.473,421.387,35.645,-104.492,117100.236,334.67748277705414
383,1686015335.81,-342.285,742.188,44.434,-105.957,117100.24,321.47997960364165
384,1686015335.81,-353.516,870.117,11.23,-109.863,117100.242,316.9109905687315
385,1686015335.81,-359.863,376.465,5.859,-115.723,117100.246,332.6441962924679
386,1686015335.82,-349.121,43.945,44.434,-113.77,117100.25,330.9660175606295
387,1686015335.82,-335.449,611.328,69.824,-101.562,117100.254,336.0865249141015
388,1686015335.82,-326.172,919.922,11.719,-96.68,117100.258,340.4311553674296
389,1686015335.83,-324.707,375.977,-17.09,-101.074,117100.262,329.833549070274
390,1686015335.83,-307.129,-389.16,8.789,-79.59,117100.266,335.2099960652323
391,1686015335.84,-280.762,108.887,107.91,-68.848,117100.269,329.3660472198626
392,1686015335.84,-278.32,-992.188,43.945,-102.539,117100.273,331.7227621870652
393,1686015335.84,-270.508,707.031,-32.227,-124.512,117100.277,331.58547615119573
394,1686015335.85,-250.977,361.328,62.988,-120.605,117100.281,327.63201451735614
395,1686015335.85,-229.004,819.824,64.941,-106.445,117100.285,326.67429079779106
396,1686015335.88,-217.773,996.094,0.488,-106.934,117100.303,331.6687758909431
397,1686015335.89,-200.684,676.27,-9.766,-102.539,117100.307,321.68955543252474
398,1686015335.89,-191.895,592.773,-1.465,-104.492,117100.311,324.725637208011
399,1686015335.89,-189.941,601.562,20.508,-109.375,117100.315,324.38489600511883
400,1686015335.9,-175.293,841.309,32.227,-104.98,117100.319,330.4152462531113
401,1686015335.9,-166.992,322.266,-38.574,-104.98,117100.323,327.519046684606
402,1686015335.91,-169.434,-304.688,73.73,-109.375,117100.327,328.3249663186762
403,1686015335.91,-168.457,604.492,81.055,-117.676,117100.331,333.420791067537
404,1686015335.91,-157.227,826.172,0.488,-103.027,117100.333,329.91284991034615
405,1686015335.91,-150.879,951.172,-10.254,-112.305,117100.334,332.29950865308484
406,1686015335.92,-158.691,639.16,44.434,-98.145,117100.337,333.3019237665322
407,1686015335.92,-143.555,523.926,-13.184,-109.375,117100.338,337.2066103992338
408,1686015335.92,-166.504,749.023,23.438,-116.699,117100.341,336.05397782519674
409,1686015335.92,-156.738,662.598,6.348,-115.723,117100.342,334.57014773162996
410,1686015335.92,-155.762,899.414,-0.977,-124.512,117100.345,328.3795885564954
411,1686015335.92,-165.039,929.199,10.742,-118.164,117100.346,333.53847603063736
412,1686015335.93,-144.531,750.488,1.465,-115.723,117100.349,330.51997026770755
413,1686015335.93,-148.438,367.188,11.23,-111.816,117100.352,329.8960515630821
414,1686015335.94,-157.227,374.512,17.09,-127.441,117100.356,336.56541786209374
415,1686015335.94,-159.18,452.637,10.742,-138.672,117100.36,336.8076254094155
416,1686015335.94,-147.461,340.332,4.395,-119.629,117100.364,333.5263740941604
417,1686015335.95,-138.672,-152.344,24.414,-103.516,117100.368,325.2215480611871
418,1686015335.95,-136.719,356.445,55.664,-116.699,117100.372,330.77569034090175
419,1686015335.96,-134.277,-990.723,11.719,-124.512,117100.376,343.7698272013141
420,1686015335.96,-135.742,547.852,-30.273,-120.117,117100.381,331.55449852781413
421,1686015335.96,-136.23,-305.664,8.301,-106.445,117100.384,334.3226954242931
422,1686015335.97,-143.066,353.516,51.758,-109.375,117100.388,332.34087202194286
423,1686015335.97,-143.555,916.992,7.812,-117.188,117100.392,329.3801762623149
424,1686015335.98,-137.695,543.945,-20.02,-119.629,117100.396,334.8332074942678
425,1686015335.98,-138.184,413.086,1.465,-124.023,117100.4,337.4885887321078
426,1686015335.98,-140.625,535.156,29.297,-124.023,117100.404,330.71330957551936
427,1686015335.99,-146.973,872.559,7.324,-132.812,117100.408,332.0164254679986
428,1686015335.99,-152.344,182.129,-67.871,-130.371,117100.412,339.49988683803963
429,1686015335.99,-147.461,-289.551,59.082,-121.582,117100.416,340.24750937887677
430,1686015336.0,-139.16,815.43,92.285,-131.348,117100.42,337.50965953466374
431,1686015336.0,-132.812,968.262,-21.484,-139.648,117100.424,341.8690669924464
432,1686015336.0,-123.047,479.492,48.34,-130.859,117100.423,344.60084252160806
433,1686015336.01,-108.887,785.156,66.895,-116.699,117100.427,337.47665243558924
434,1686015336.01,-113.281,-974.121,17.578,-121.582,117100.431,338.088187716755
435,1686015336.01,-133.301,887.695,-8.301,-130.859,117100.435,336.3137248730963
436,1686015336.02,-148.926,654.297,2.93,-139.648,117100.439,346.86778066098213
437,1686015336.02,-149.414,458.984,0.0,-144.043,117100.443,352.80700997411935
438,1686015336.03,-138.184,556.641,14.648,-123.047,117100.447,342.3518377642637
439,1686015336.03,-129.883,586.426,-5.371,-114.746,117100.451,341.43516995730715
440,1686015336.03,-125.488,-227.051,-12.695,-112.305,117100.455,343.685478530334
441,1686015336.04,-126.953,30.273,109.375,-112.305,117100.459,340.1422924219484
442,1686015336.04,-121.094,979.492,55.176,-117.188,117100.463,339.59149767034074
443,1686015336.04,-116.699,765.137,0.488,-112.305,117100.466,341.04312833422165
444,1686015336.05,-126.465,574.219,49.805,-121.094,117100.47,347.3504886988882
445,1686015336.05,-128.418,924.805,20.996,-119.141,117100.474,337.8421916736697
446,1686015336.06,-116.699,979.004,5.859,-102.051,117100.478,342.67797792133325
447,1686015336.06,-120.117,760.742,-4.883,-104.004,117100.482,336.29206883202454
448,1686015336.06,-125.0,803.711,-11.719,-108.887,117100.486,337.006791389884
449,1686015336.07,-129.395,660.156,-11.23,-104.98,117100.49,331.4055421832426
450,1686015336.07,-129.395,568.848,-1.953,-109.375,117100.494,336.10660386213226
451,1686015336.08,-119.141,280.762,-28.809,-29.297,117100.498,343.1749831104662
452,1686015336.08,-116.211,217.773,55.176,109.863,117100.502,347.11856219756316
453,1686015336.08,-107.422,890.137,32.715,150.391,117100.506,342.2264436592776
454,1686015336.09,-100.098,911.133,-12.695,139.16,117100.509,340.03405851878813
455,1686015336.09,-99.121,684.082,59.57,117.676,117100.513,344.00219529726246
456,1686015336.09,-92.285,893.066,26.855,95.703,117100.515,339.9943847510644
457,1686015336.1,-86.426,859.375,-36.133,70.801,117100.519,339.0736229397629
458,1686015336.1,-80.078,407.715,-28.809,52.734,117100.523,348.16744752175737
459,1686015336.1,-68.359,194.824,49.805,36.133,117100.527,336.9473285638951
460,1686015336.11,-72.754,672.852,21.484,11.719,117100.531,332.39646887609655
461,1686015336.11,-79.59,675.293,-31.25,-6.348,117100.535,337.0360403521861
462,1686015336.12,-71.289,313.477,-23.926,-24.902,117100.539,330.98273530033606
463,1686015336.12,-70.801,-371.582,-8.301,-29.297,117100.543,338.44884522448535
464,1686015336.12,-66.406,-4.883,92.285,-27.832,117100.547,334.2292313038355
465,1686015336.13,-60.059,939.453,21.973,-38.086,117100.55,337.1271365423834
466,1686015336.13,-67.383,723.145,-33.691,-51.27,117100.554,338.5499800244592
467,1686015336.14,-73.242,625.977,19.531,-52.734,117100.558,337.31808758639835
468,1686015336.14,-67.871,936.035,-4.395,-36.133,117100.572,336.46506513350187
469,1686015336.14,-59.57,956.055,-35.156,-43.945,117100.576,338.51158129410607
470,1686015336.15,-67.383,608.887,-47.852,-69.824,117100.58,342.77423080405816
471,1686015336.15,-70.801,544.434,-23.438,-81.543,117100.584,337.9246759582994
472,1686015336.16,-55.664,543.457,-6.348,-70.801,117100.587,339.2899004023896
473,1686015336.16,-43.457,562.988,-16.602,-60.547,117100.591,337.44376519193827
474,1686015336.16,-72.754,89.355,-67.383,-75.684,117100.595,339.3250086525396
475,1686015336.17,-93.75,-486.816,24.414,-83.984,117100.599,338.9700530012886
476,1686015336.17,-66.895,510.254,51.27,-68.359,117100.603,343.243709001988
477,1686015336.17,-45.898,970.215,-31.25,-63.477,117100.607,340.4781363141984
478,1686015336.18,-48.34,518.066,-24.902,-82.52,117100.611,346.0671877763279
479,1686015336.18,-50.293,574.219,-5.859,-92.773,117100.615,343.6385386137585
480,1686015336.18,-52.734,897.949,-1.465,-81.055,117100.617,340.90995937232884
481,1686015336.19,-57.617,812.012,-20.508,-77.148,117100.621,337.0213270997293
482,1686015336.19,-70.312,589.355,11.23,-80.566,117100.625,337.6568985398596
483,1686015336.19,-79.102,743.652,-2.93,-76.66,117100.629,338.8583141167907
484,1686015336.2,-66.895,785.645,-18.555,-78.613,117100.633,335.33811796055835
485,1686015336.2,-52.734,453.125,-8.789,-80.566,117100.637,333.6333120033931
486,1686015336.21,-51.27,-345.215,1.953,-78.613,117100.641,341.9998490749301
487,1686015336.21,-54.688,-177.246,41.992,-93.75,117100.645,342.0437349797537
488,1686015336.21,-61.523,614.258,31.738,-109.375,117100.649,339.11656343786785
489,1686015336.22,-56.641,604.98,-14.16,-100.586,117100.652,334.46997057745546
490,1686015336.22,-47.852,14.648,23.926,-91.797,117100.656,326.5074115445781
491,1686015336.22,-47.363,541.504,43.457,-96.191,117100.66,334.65998162415855
492,1686015336.24,-49.805,954.59,-4.395,-100.098,117100.664,335.4051131870534
493,1686015336.25,-44.922,668.945,-10.742,-96.191,117100.668,330.5411743951615
494,1686015336.25,-46.387,749.512,16.602,-100.098,117100.672,331.55066899883303
495,1686015336.26,-55.176,897.949,-0.488,-114.746,117100.676,327.88025512293945
496,1686015336.26,-50.293,813.477,-9.766,-108.887,117100.68,332.16673001707204
497,1686015336.26,-49.316,406.738,-13.184,-102.051,117100.684,330.4376418699461
498,1686015336.27,-51.758,323.242,5.371,-103.516,117100.688,327.1340903684335
499,1686015336.27,-50.293,785.156,25.391,-107.422,117100.692,330.0808352597876
500,1686015336.27,-43.457,825.195,-32.227,-113.281,117100.695,315.7078821194604
501,1686015336.28,-33.203,5.859,-59.082,-112.793,117100.699,327.32206436450355
502,1686015336.28,-36.133,-125.0,80.078,-119.141,117100.703,325.5221124412855
503,1686015336.29,-43.945,815.43,53.711,-118.652,117100.707,328.43190391406574
504,1686015336.29,-47.363,824.707,-28.809,-108.887,117100.722,331.33899077482585
505,1686015336.29,-43.457,418.457,35.156,-106.934,117100.726,330.8319848624754
506,1686015336.3,-36.133,665.527,41.992,-99.609,117100.73,336.344451793313
507,1686015336.3,-28.809,960.938,2.441,-85.938,117100.734,329.59120575168254
508,1686015336.3,-25.391,733.887,-15.137,-78.125,117100.738,334.9375202774218
509,1686015336.31,-32.227,223.633,3.906,-79.102,117100.742,326.279085693714
510,1686015336.31,-31.738,161.621,12.695,-78.613,117100.746,324.283940751169
511,1686015336.31,-24.902,532.227,31.738,-83.008,117100.75,334.85042294622355
512,1686015336.32,-26.855,583.008,-12.695,-90.332,117100.754,329.85634441884923
513,1686015336.32,-28.32,-369.141,-24.414,-96.191,117100.758,325.3008424143415
514,1686015336.33,-18.066,71.289,70.312,-86.914,117100.762,328.0843560438124
515,1686015336.33,-5.371,881.348,22.461,-71.777,117100.765,325.401843464695
516,1686015336.33,-11.23,488.281,-9.277,-79.102,117100.756,325.11836745491297
517,1686015336.34,-31.25,343.262,44.922,-80.566,117100.76,332.5837377296037
518,1686015336.34,-30.762,734.375,23.926,-71.777,117100.763,321.31516964178627
519,1686015336.35,-26.367,904.785,5.371,-68.359,117100.767,327.4443298617338
520,1686015336.35,-32.715,580.078,-8.789,-70.801,117100.771,321.8398287463895
521,1686015336.35,-15.625,304.199,-13.672,-61.035,117100.775,325.184330047764
522,1686015336.36,-3.418,448.242,27.832,-62.988,117100.779,326.8097243428844
523,1686015336.36,-35.156,769.531,15.625,-98.145,117100.783,318.4971972728093
524,1686015336.36,-47.852,444.336,-50.293,-106.934,117100.787,326.111714654761
525,1686015336.37,-57.129,445.312,0.0,-122.07,117100.791,329.86335080150036
526,1686015336.37,-66.406,836.426,25.879,-140.625,117100.795,324.17944846983863
527,1686015336.38,-49.316,753.418,-21.973,-126.953,117100.799,323.2909848988081
528,1686015336.38,-36.621,125.488,-24.902,-111.816,117100.798,324.5375191360474
529,1686015336.38,-43.457,339.844,30.273,-118.652,117100.802,317.7790907150738
530,1686015336.38,-62.5,669.922,-3.418,-134.277,117100.806,326.5188823467007
531,1686015336.39,-57.129,320.312,-12.695,-123.535,117100.81,318.42158943130033
532,1686015336.39,-36.133,86.914,37.598,-94.238,117100.814,322.33228392847724
533,1686015336.4,-41.504,313.477,21.973,-98.145,117100.818,326.0688405250648
534,1686015336.4,-41.016,448.73,-1.953,-106.934,117100.822,328.3537826090109
535,1686015336.4,-35.645,312.5,0.488,-98.145,117100.826,323.0234391989656
536,1686015336.41,-38.086,-321.777,-1.465,-91.309,117100.829,328.61976806051433
537,1686015336.41,-41.504,32.227,85.449,-95.703,117100.833,325.54754734571287
538,1686015336.42,-47.363,893.066,16.113,-93.262,117100.837,322.3725487715945
539,1686015336.42,-49.316,641.602,-24.902,-82.52,117100.841,328.7045003073932
540,1686015336.42,-35.645,618.164,43.457,-71.777,117100.846,319.89633381970503
541,1686015336.43,-29.785,939.453,29.785,-73.73,117100.849,316.6262233779523
542,1686015336.43,-42.969,914.062,-7.324,-96.68,117100.853,325.76512641641597
543,1686015336.44,-46.387,557.129,-20.02,-112.793,117100.857,322.9234975513742
544,1686015336.44,-40.527,568.359,28.809,-99.609,117100.861,312.8301331246604
545,1686015336.44,-36.133,569.336,24.902,-80.566,117100.865,319.5438356798587
546,1686015336.45,-31.738,516.602,-6.836,-85.938,117100.869,320.4726288321169
547,1686015336.45,-38.086,23.926,-59.57,-115.234,117100.873,320.60877672492546
548,1686015336.46,-38.086,-470.215,54.199,-141.113,117100.877,321.5590437303969
549,1686015336.46,-25.391,551.758,87.891,-146.973,117100.881,318.38809029429217
550,1686015336.46,-32.227,943.848,-14.648,-151.367,117100.885,322.94712715588884
551,1686015336.47,-43.457,501.465,26.367,-159.668,117100.889,322.34064870406036
552,1686015336.47,-43.457,654.297,45.898,-152.344,117100.889,319.4336539087962
553,1686015336.47,-44.434,911.133,9.766,-144.531,117100.892,321.7622164385692
554,1686015336.48,-39.062,748.047,0.488,-153.809,117100.896,317.90258862004237
555,1686015336.48,-40.039,545.41,28.809,-168.457,117100.9,327.93436254460755
556,1686015336.48,-47.363,567.871,8.301,-164.062,117100.904,315.708005549158
557,1686015336.49,-44.434,432.129,4.883,-150.879,117100.908,322.9387755180086
558,1686015336.49,-34.668,380.859,4.883,-149.902,117100.912,326.75615113041
559,1686015336.49,-31.738,-489.258,-32.715,-147.461,117100.916,321.76899141533846
560,1686015336.5,-33.691,-757.812,61.035,-140.625,117100.92,318.80890342952716
561,1686015336.5,-32.227,475.098,84.961,-138.672,117100.924,315.00093641253966
562,1686015336.51,-34.668,774.414,-4.395,-139.648,117100.928,309.9836222819904
563,1686015336.51,-49.805,657.715,18.555,-146.973,117100.932,310.7429891430984
564,1686015336.53,-63.965,811.523,20.02,-156.25,117100.95,320.13233833650673
565,1686015336.53,-51.758,827.637,-4.395,-139.648,117100.954,320.0249638674693
566,1686015336.54,-43.457,615.723,-3.906,-122.559,117100.957,306.97551068305904
567,1686015336.54,-46.875,656.25,28.32,-129.395,117100.961,306.04178215575007
568,1686015336.54,-38.574,761.23,15.625,-133.789,117100.965,312.00537214665553
569,1686015336.55,-39.551,494.629,-3.418,-134.766,117100.969,309.3235028107115
570,1686015336.55,-50.293,46.875,-11.23,-127.93,117100.973,314.3793150078662
571,1686015336.56,-44.922,12.695,77.637,-129.395,117100.977,305.7146086817982
572,1686015336.56,-45.41,837.891,13.184,-132.812,117100.992,308.91802620645853
573,1686015336.56,-43.457,681.152,51.758,-146.973,117100.981,314.92740725773643
574,1686015336.56,-39.062,573.242,-26.855,-136.23,117100.996,309.17451224821855
575,1686015336.56,-51.27,666.504,-29.297,-145.02,117100.985,318.2306502332876
576,1686015336.56,-39.062,-26.855,40.527,-121.094,117101.0,318.4216148652008
577,1686015336.57,-48.828,143.555,2.93,-132.324,117100.989,315.2709261771552
578,1686015336.57,-45.898,382.812,80.566,-106.934,117101.004,317.9433221820337
579,1686015336.57,-41.992,435.547,44.434,-128.906,117100.993,314.61733207537867
580,1686015336.57,-53.711,774.414,0.0,-113.77,117101.007,319.02227865191486
581,1686015336.58,-65.918,226.074,-28.32,-123.047,117101.011,326.18804680748747
582,1686015336.58,-61.035,-340.332,37.598,-123.535,117101.015,317.6546557074909
583,1686015336.58,-56.152,54.688,52.246,-120.605,117101.019,319.1265990330928
584,1686015336.59,-56.152,739.258,13.184,-115.234,117101.023,314.1142115606643
585,1686015336.59,-60.547,494.141,-41.016,-117.676,117101.027,323.36086910923785
586,1686015336.6,-65.918,-593.75,-10.742,-118.652,117101.031,315.03356524457
587,1686015336.6,-62.988,-111.816,100.098,-111.328,117101.035,312.85607263732794
588,1686015336.63,-55.176,708.984,28.32,-99.609,117101.053,310.4544644740255
589,1686015336.64,-52.734,230.469,-9.766,-98.145,117101.057,311.06670397378997
590,1686015336.64,-57.129,127.441,60.059,-104.98,117101.061,316.18089547068666
591,1686015336.64,-48.828,594.238,45.41,-94.727,117101.065,309.9192384245484
592,1686015336.65,-41.016,742.188,5.859,-75.684,117101.069,315.0561314669538
593,1686015336.65,-49.805,154.297,-22.949,-73.242,117101.072,303.43109582389485
594,1686015336.66,-56.152,-50.293,43.945,-87.402,117101.076,308.0555543124687
595,1686015336.66,-52.246,555.176,53.711,-91.309,117101.08,309.59459397606963
596,1686015336.66,-50.781,562.988,2.93,-83.496,117101.083,321.3343350906498
597,1686015336.66,-43.945,712.402,-7.324,-83.008,117101.084,310.25933981734465
598,1686015336.67,-55.176,355.957,57.617,-82.031,117101.087,307.2613206524515
599,1686015336.67,-39.551,123.047,-54.688,-91.797,117101.088,309.0606669109547
600,1686015336.67,-55.664,499.512,33.691,-91.797,117101.09,317.32273405015843
601,1686015336.67,-45.41,162.598,11.23,-101.562,117101.092,309.0776889707729
602,1686015336.67,-52.734,434.57,-14.648,-90.332,117101.094,308.327288431764
603,1686015336.68,-47.852,659.668,32.227,-96.68,117101.096,316.0024289673071
604,1686015336.68,-50.293,211.914,-9.277,-82.52,117101.098,315.62157453132465
605,1686015336.68,-53.223,-481.934,-6.836,-82.52,117101.102,303.20436781893744
606,1686015336.69,-57.129,-522.949,38.574,-89.355,117101.106,321.8328199800363
607,1686015336.69,-54.199,213.867,23.926,-98.145,117101.11,309.4376685498822
608,1686015336.69,-42.48,347.168,1.465,-95.703,117101.114,315.58714990647496
609,1686015336.7,-39.551,307.129,47.852,-91.309,117101.118,302.7436582395287
610,1686015336.7,-32.715,580.566,32.227,-72.754,117101.122,306.9424457623626
611,1686015336.7,-5.859,719.727,-0.488,-50.781,117101.126,309.4490946505439
612,1686015336.71,-11.719,194.824,-21.484,-65.918,117101.141,312.76538205750944
613,1686015336.71,-33.203,-360.352,52.246,-86.426,117101.145,318.54345736530274
614,1686015336.72,-38.086,377.441,61.523,-101.074,117101.149,311.3416747207658
615,1686015336.72,-19.043,678.223,-15.625,-91.309,117101.153,306.7811747534286
616,1686015336.72,-5.371,231.445,-18.066,-76.172,117101.157,309.35183905510786
617,1686015336.73,-6.836,101.074,2.441,-78.613,117101.161,311.1674786321432
618,1686015336.73,-17.578,161.133,11.719,-82.031,117101.165,310.833661243316
619,1686015336.74,-30.273,213.379,-12.207,-109.375,117101.169,309.5870542043711
620,1686015336.74,-34.18,-251.953,-61.523,-73.73,117101.173,318.5673379031678
621,1686015336.74,-30.762,-668.945,50.781,81.055,117101.176,309.5692429684313
622,1686015336.75,-20.996,315.43,73.242,142.578,117101.18,311.3288332392448
623,1686015336.75,-22.461,628.418,-22.949,119.141,117101.184,316.83200016177636
624,1686015336.75,-15.137,197.754,36.621,114.258,117101.173,310.1659722184138
625,1686015336.76,-8.789,431.641,41.992,120.117,117101.177,313.8127256341175
626,1686015336.76,-0.488,683.594,9.277,122.07,117101.181,310.7609893896414
627,1686015336.76,5.859,518.555,0.977,103.516,117101.184,309.9107389707515
628,1686015336.77,6.836,228.027,10.742,81.055,117101.188,301.5240726336954
629,1686015336.77,3.906,97.168,2.93,75.195,117101.192,314.149771913
630,1686015336.78,-11.719,191.406,10.742,76.172,117101.196,314.61759080208753
631,1686015336.78,-25.879,118.164,-1.953,71.289,117101.2,305.00722644126165
632,1686015336.78,-29.297,-646.484,-13.672,66.406,117101.204,308.7354692777282
633,1686015336.79,-33.203,-242.676,68.848,51.758,117101.208,310.59520512964656
634,1686015336.79,-30.273,703.125,27.832,41.992,117101.212,309.3007024491034
635,1686015336.8,-15.625,368.652,-40.039,46.875,117101.216,303.3442879273948
636,1686015336.8,-8.789,-412.598,30.762,35.645,117101.231,304.4179475851808
637,1686015336.8,-14.648,163.574,56.152,5.371,117101.235,302.8535226951905
638,1686015336.81,-10.742,638.672,-0.977,-0.488,117101.239,313.9361936297641
639,1686015336.81,-19.531,372.559,-17.578,13.672,117101.242,306.81644999055897
640,1686015336.82,-47.852,416.016,-7.324,14.648,117101.246,314.9064591608296
641,1686015336.82,-47.363,240.723,-1.953,12.207,117101.25,308.69691849893206
642,1686015336.82,-27.832,106.934,-3.418,10.254,117101.254,308.1830884887169
643,1686015336.83,-20.996,-113.281,-24.902,10.742,117101.258,309.0923648324303
644,1686015336.83,-23.438,-124.512,56.641,-4.395,117101.262,304.2439610160229
645,1686015336.83,-23.438,544.434,36.621,-32.227,117101.266,319.75601462585837
646,1686015336.84,-12.695,508.301,-33.203,-30.273,117101.27,310.4964496639266
647,1686015336.84,-20.508,265.625,31.25,-40.527,117101.263,317.90593654934275
648,1686015336.84,-13.184,-44.922,3.906,-23.926,117101.274,317.0196705843535
649,1686015336.85,-25.391,677.734,2.441,-54.199,117101.267,313.6340369269158
650,1686015336.85,-17.09,375.0,-17.578,-46.875,117101.271,328.76814507763964
651,1686015336.85,-12.207,-121.094,42.48,-34.18,117101.275,316.8686826025204
652,1686015336.86,-16.602,232.91,46.387,-37.109,117101.279,317.938869681138
653,1686015336.86,-18.555,312.5,-10.742,-50.781,117101.283,321.40373824070434
654,1686015336.87,-24.902,-14.16,-19.531,-52.734,117101.287,318.97273037316506
655,1686015336.87,-24.414,-731.934,-2.441,-36.133,117101.291,330.7916839712052
656,1686015336.87,-25.879,-458.496,96.191,-43.457,117101.294,328.05425031901694
657,1686015336.88,-28.32,554.688,31.25,-60.547,117101.298,324.73898278304574
658,1686015336.88,-31.738,366.699,-30.762,-63.477,117101.302,326.94872867628675
659,1686015336.88,-28.32,188.477,33.203,-59.57,117101.306,327.55036477992377
660,1686015336.89,-27.344,561.523,23.438,-58.594,117101.322,333.08246878273985
661,1686015336.89,-26.367,559.082,-16.113,-65.43,117101.326,327.3580707033005
662,1686015336.9,-26.367,56.152,-6.836,-71.289,117101.33,339.8541319437615
663,1686015336.9,-33.203,55.176,52.734,-64.941,117101.334,338.53891899578474
664,1686015336.91,-25.391,524.902,30.762,-61.035,117101.338,344.8114328006247
665,1686015336.91,-23.926,429.688,-30.762,-71.289,117101.341,332.76415568337546
666,1686015336.91,-31.738,-176.758,-38.574,-74.219,117101.345,346.34490852954247
667,1686015336.92,-29.785,-280.762,67.871,-74.707,117101.349,341.2135067915959
668,1686015336.92,-28.32,484.863,47.363,-73.242,117101.353,342.16001559590063
669,1686015336.92,-34.18,642.09,-16.113,-68.359,117101.357,332.80170702212973
670,1686015336.93,-34.18,246.094,0.0,-69.336,117101.361,336.7642696942442
671,1686015336.93,-35.645,317.383,9.277,-75.195,117101.365,338.2683125602637
672,1686015336.94,-33.203,572.754,7.812,-71.289,117101.369,342.36721962029975
673,1686015336.94,-31.25,505.859,2.93,-54.688,117101.373,344.15029368715807
674,1686015336.94,-44.922,265.625,34.668,-44.434,117101.377,353.6454378928358
675,1686015336.95,-52.734,349.609,20.996,-60.547,117101.381,347.8325671324236
676,1686015336.95,-47.852,293.457,6.836,-68.359,117101.385,349.9487398790037
677,1686015336.96,-38.086,121.582,5.859,-53.223,117101.389,353.72786163945483
678,1686015336.96,-31.25,-628.906,-6.836,-51.758,117101.393,346.44847493623604
679,1686015336.96,-41.504,-706.055,76.66,-63.477,117101.397,345.7716678844152
680,1686015336.97,-38.086,276.367,49.805,-67.871,117101.4,344.8035387006983
681,1686015336.97,-28.32,339.844,-14.648,-63.965,117101.404,341.84028026015426
682,1686015336.98,-22.461,100.586,38.086,-62.5,117101.408,336.2033307280585
683,1686015336.98,-12.695,483.398,16.602,-69.824,117101.412,331.8684189890685
684,1686015336.99,-7.324,573.73,-14.648,-71.289,117101.415,340.0407321696517
685,1686015337.0,-4.883,271.973,15.137,-68.359,117101.418,343.64044821134297
686,1686015337.0,-4.883,365.234,41.992,-72.266,117101.422,339.7288640824613
687,1686015337.0,-18.555,592.285,13.672,-78.613,117101.426,343.41837437008746
688,1686015337.01,-17.09,471.191,-6.348,-80.566,117101.43,335.8409947629644
689,1686015337.01,-13.184,13.672,-33.691,-69.824,117101.434,336.50399944214536
690,1686015337.02,-16.602,-48.34,11.719,-60.547,117101.438,343.8581284804406
691,1686015337.02,-21.973,254.883,36.621,-65.918,117101.442,340.8088509094334
692,1686015337.02,-34.668,435.547,-8.789,-81.055,117101.446,336.2594882554547
693,1686015337.03,-25.879,-208.496,-52.734,-73.73,117101.45,340.20935143251694
694,1686015337.03,-18.555,-479.492,76.172,-68.359,117101.454,330.77983367028844
695,1686015337.04,-11.23,312.012,78.125,-77.148,117101.457,336.21798800623594
696,1686015337.04,-15.625,454.59,-9.277,-83.496,117101.458,342.9190522748802
697,1686015337.04,-18.555,176.27,61.035,-77.637,117101.462,340.3537245855857
698,1686015337.04,-11.719,407.227,54.688,-62.5,117101.466,337.75774432848704
699,1686015337.05,-19.043,648.438,-5.859,-57.129,117101.47,334.0374380703744
700,1686015337.05,-25.391,356.934,-23.438,-61.035,117101.474,330.86371437123665
701,1686015337.06,-22.949,-144.531,-2.441,-69.336,117101.478,332.55088749760245
702,1686015337.06,-20.02,-139.648,26.855,-64.941,117101.482,340.6678181526999
703,1686015337.06,-24.902,271.484,39.551,-63.965,117101.485,336.97240951353206
704,1686015337.07,-26.855,348.633,-26.855,-76.172,117101.489,333.2844720755348
705,1686015337.07,-3.906,-743.652,-41.016,-55.664,117101.493,338.3893367745927
706,1686015337.08,4.883,-605.469,105.469,-45.41,117101.497,330.7455492518798
707,1686015337.08,-23.926,521.484,67.871,-73.73,117101.501,331.89314634597577
708,1686015337.08,-25.879,464.355,-13.672,-79.102,117101.505,333.4798639083455
709,1686015337.09,-15.137,329.102,23.926,-65.43,117101.509,323.48828953989624
710,1686015337.09,-22.461,533.691,36.133,-55.664,117101.513,335.5461835666076
711,1686015337.1,-20.996,623.535,14.648,-49.316,117101.517,325.0434329786671
712,1686015337.1,-14.648,351.074,-28.809,-43.945,117101.521,323.6922804104936
713,1686015337.1,-16.113,28.32,-2.93,-47.852,117101.525,330.87445592401855
714,1686015337.11,-19.043,137.695,47.852,-53.711,117101.529,319.6548366818693
715,1686015337.11,-23.926,525.879,20.02,-52.246,117101.533,326.96888273055487
716,1686015337.12,-19.531,83.496,-43.457,-51.27,117101.537,327.32696944226575
717,1686015337.12,-23.438,-120.605,42.969,-66.895,117101.541,318.94788990047084
718,1686015337.12,-38.086,486.328,21.973,-77.148,117101.544,325.0343082758988
719,1686015337.13,-34.18,385.254,-33.203,-57.129,117101.548,319.56580285492913
720,1686015337.13,-18.066,10.254,31.738,-47.363,117101.562,324.67988304862405
721,1686015337.13,-23.926,326.66,37.109,-62.988,117101.566,325.05711886008015
722,1686015337.14,-33.203,587.891,-2.93,-72.754,117101.57,308.7250712322255
723,1686015337.14,-24.902,374.023,-19.043,-64.941,117101.574,315.5467782362141
724,1686015337.14,-19.043,5.859,14.648,-49.316,117101.577,323.5281674401433
725,1686015337.15,-44.922,49.805,15.625,-69.336,117101.581,314.2923303028633
726,1686015337.15,-60.547,144.043,0.0,-84.961,117101.585,308.1988730871218
727,1686015337.15,-46.387,37.109,-6.836,-68.359,117101.589,318.0775399093128
728,1686015337.16,-27.832,-647.461,-1.465,-40.039,117101.593,314.7405687632378
729,1686015337.16,-17.09,-367.188,94.727,-15.625,117101.597,313.16036028780786
730,1686015337.17,-32.715,578.613,38.574,-55.176,117101.601,309.5102157170161
731,1686015337.17,-35.156,402.832,-19.531,-101.562,117101.605,310.37333686119257
732,1686015337.17,-12.207,350.098,50.781,-85.938,117101.609,316.2772212532607
733,1686015337.18,-5.371,674.316,28.32,-83.008,117101.613,309.6694580844953
734,1686015337.18,-12.695,516.113,-22.949,-116.211,117101.617,303.47751074139245
735,1686015337.19,-12.695,18.066,-19.531,-133.789,117101.62,309.9834451560377
736,1686015337.19,-18.066,42.969,44.922,-130.859,117101.624,302.07665902228223
737,1686015337.19,-11.23,240.723,20.02,-117.676,117101.628,304.93472206524615
738,1686015337.2,-5.859,171.875,-17.09,-121.094,117101.632,305.8008492028554
739,1686015337.2,-19.531,-155.273,-35.156,-137.695,117101.636,321.96764856597014
740,1686015337.2,-20.508,-46.387,26.855,-140.137,117101.64,301.91821351756704
741,1686015337.21,-10.742,556.641,43.945,-129.395,117101.644,304.9292023308877
742,1686015337.21,-4.883,547.852,-20.508,-116.211,117101.648,296.99870581268846
743,1686015337.22,-7.812,-139.648,-31.25,-113.77,117101.652,299.7738951839319
744,1686015337.22,13.672,30.273,41.016,-96.191,117101.638,297.9960350544249
745,1686015337.22,32.227,582.031,21.973,-75.195,117101.642,302.29528967306106
746,1686015337.22,17.578,463.379,-10.254,-90.82,117101.646,294.5235062962176
747,1686015337.23,1.465,229.004,24.414,-125.488,117101.65,294.8671569933075
748,1686015337.23,-15.625,218.75,-5.371,-138.184,117101.654,303.9692094854922
749,1686015337.24,-7.812,151.855,-7.812,-111.328,117101.658,300.0182377672936
750,1686015337.24,5.859,58.105,0.977,-86.426,117101.662,294.11787077749034
751,1686015337.24,1.953,-716.309,4.395,-91.797,117101.666,295.8144075002743
752,1686015337.25,-8.789,-745.605,77.148,-105.957,117101.67,301.82518186282914
753,1686015337.25,-8.301,293.945,30.762,-103.027,117101.673,288.3807477247609
754,1686015337.26,-4.883,340.82,-20.508,-94.727,117101.677,295.15662440565205
755,1686015337.26,-8.301,-148.926,61.035,-99.121,117101.681,294.38600077099005
756,1686015337.26,-21.484,322.754,42.48,-113.77,117101.697,284.8760544430915
757,1686015337.27,-16.113,585.449,-9.766,-105.469,117101.701,297.4285020298767
758,1686015337.27,6.348,277.832,3.906,-80.078,117101.705,297.72037131749255
759,1686015337.28,16.602,379.395,12.207,-70.312,117101.709,292.4843593144428
760,1686015337.28,28.32,490.723,3.418,-74.707,117101.713,286.9579733096927
761,1686015337.28,21.484,207.52,-17.09,-81.543,117101.717,286.3049573717403
762,1686015337.29,7.812,-224.609,-17.578,-71.289,117101.721,288.3163031211415
763,1686015337.29,6.836,-377.93,51.27,-62.5,117101.725,279.6712521263348
764,1686015337.3,-3.906,153.809,43.945,-74.219,117101.729,285.40512205641215
765,1686015337.3,-6.836,432.129,-12.207,-73.73,117101.733,287.39257372858685
766,1686015337.3,8.789,-32.227,-40.039,-60.059,117101.736,289.0654539691891
767,1686015337.31,18.555,187.988,18.555,-49.316,117101.74,283.5073291928978
768,1686015337.31,11.719,624.512,9.766,-40.527,117101.742,290.2212813895469
769,1686015337.31,11.719,372.07,-18.555,-49.316,117101.746,287.7363308263759
770,1686015337.32,20.02,114.258,50.293,-61.035,117101.75,280.9059879687192
771,1686015337.32,13.672,428.711,37.598,-61.035,117101.754,284.4948811604809
772,1686015337.32,6.836,563.477,-16.602,-67.383,117101.757,274.72695049850034
773,1686015337.33,3.418,41.992,-22.461,-73.242,117101.761,291.7143029034468
774,1686015337.33,7.324,-745.605,8.301,-56.152,117101.765,288.10838910108674
775,1686015337.33,24.902,-335.938,69.824,-41.016,117101.769,276.4602739024055
776,1686015337.34,21.973,563.477,17.09,-40.527,117101.773,280.0065403543456
777,1686015337.34,18.066,212.891,-49.805,-42.48,117101.777,278.0436873599865
778,1686015337.35,22.461,-494.629,45.898,-51.27,117101.781,280.8045627577682
779,1686015337.35,22.949,90.82,82.52,-52.734,117101.785,285.2986378917909
780,1686015337.37,16.113,643.066,-0.977,-51.758,117101.789,281.283740117798
781,1686015337.37,3.418,253.906,-19.531,-49.805,117101.793,279.95663145956445
782,1686015337.38,2.93,-36.621,33.203,-50.293,117101.796,281.2611136890954
783,1686015337.38,12.695,341.309,37.109,-54.688,117101.8,270.86560918753725
784,1686015337.38,25.391,591.309,-0.977,-54.688,117101.804,282.52275846108006
785,1686015337.39,24.414,33.691,-33.691,-47.852,117101.808,280.36450573668355
786,1686015337.39,10.254,-228.516,28.32,-48.828,117101.812,285.257581942253
787,1686015337.39,9.766,303.711,36.621,-44.434,117101.816,286.6847759172509
788,1686015337.4,21.484,476.562,-0.977,-26.367,117101.82,282.84473065861
789,1686015337.4,19.531,-6.836,-50.293,-26.855,117101.824,288.3938966913922
790,1686015337.41,18.066,39.551,-0.977,-28.32,117101.828,286.6367368051016
791,1686015337.41,26.367,424.316,38.574,-15.625,117101.832,282.61753738569575
792,1686015337.41,32.227,289.062,-8.301,-21.973,117101.836,284.47343966446994
793,1686015337.42,29.297,-35.645,35.156,23.926,117101.84,285.854500850174
794,1686015337.42,31.25,172.852,28.809,138.184,117101.844,285.22729420736425
795,1686015337.42,28.809,443.359,-14.648,176.758,117101.848,290.01129387626
796,1686015337.43,25.391,222.168,-27.344,173.828,117101.851,282.79253986620205
797,1686015337.43,29.785,-521.973,-3.906,169.434,117101.855,283.52550111312723
798,1686015337.44,29.297,-375.977,35.156,148.926,117101.859,287.23406229024897
799,1686015337.44,21.484,90.82,18.555,127.441,117101.863,287.9304812404649
800,1686015337.44,25.879,92.773,-12.207,123.535,117101.867,285.9564256913573
801,1686015337.45,30.762,-590.332,2.441,126.465,117101.871,291.998406996051
802,1686015337.45,20.02,-175.781,62.988,102.539,117101.875,292.5813855376929
803,1686015337.46,18.555,375.0,18.555,79.102,117101.879,281.54252922037267
804,1686015337.46,24.414,118.652,-9.277,71.777,117101.881,291.148852021451
805,1686015337.46,36.621,245.117,34.18,69.824,117101.884,289.9565447766711
806,1686015337.47,36.621,515.625,14.16,67.383,117101.888,285.43467679747977
807,1686015337.47,26.367,343.75,-34.18,57.129,117101.892,277.2211278873819
808,1686015337.48,34.668,-81.543,-17.578,60.059,117101.896,285.1266682493583
809,1686015337.48,63.477,-218.75,23.926,85.938,117101.9,287.2922717163462
810,1686015337.48,44.434,70.801,25.391,65.43,117101.904,282.1452759793213
811,1686015337.49,-4.883,428.223,-10.742,10.742,117101.908,287.2344569114342
812,1686015337.49,-16.113,-247.07,-72.266,-6.836,117101.912,290.8251842570757
813,1686015337.49,-7.812,-768.066,44.922,-5.859,117101.916,292.28615221550626
814,1686015337.5,-11.23,228.027,64.941,-15.625,117101.92,287.96824804550164
815,1686015337.5,-29.297,468.262,-30.273,-37.109,117101.923,298.575227208016
816,1686015337.5,-40.039,22.461,32.715,-53.711,117101.924,288.85379320073673
817,1686015337.51,-34.18,253.418,37.109,-49.805,117101.928,295.2468865233037
818,1686015337.51,-30.273,565.43,-2.441,-48.34,117101.932,281.91412049482176
819,1686015337.51,-24.902,432.129,-5.859,-52.246,117101.936,297.905944917216
820,1686015337.52,-12.207,55.664,12.695,-48.34,117101.939,302.15936911246075
821,1686015337.52,-4.395,-137.695,13.672,-36.621,117101.943,292.0264008670495
822,1686015337.53,-0.488,-12.207,19.043,-30.762,117101.947,296.20954092225725
823,1686015337.53,8.789,0.0,-2.441,-28.809,117101.951,297.8084595521776
824,1686015337.53,20.02,-813.965,-24.414,-21.973,117101.955,291.94900228617746
825,1686015337.54,32.715,-879.883,64.453,-23.926,117101.959,293.6493395702504
826,1686015337.54,47.363,193.848,36.621,-18.555,117101.963,297.8677060565221
827,1686015337.54,65.918,416.016,-35.156,-14.16,117101.967,295.77446594116554
828,1686015337.55,72.754,304.688,0.0,-23.926,117101.971,290.08582593988626
829,1686015337.55,72.266,469.238,-9.766,-12.695,117101.975,292.84594864617065
830,1686015337.56,83.984,473.633,-15.625,6.348,117101.979,291.7376700275011
831,1686015337.56,80.566,263.184,-13.672,14.648,117101.983,286.29280695242267
832,1686015337.56,66.895,294.434,-15.625,15.625,117101.987,294.0816281848424
833,1686015337.57,71.777,143.555,-20.996,21.484,117101.991,284.785799250779
834,1686015337.57,78.613,-2.93,-19.531,24.414,117101.994,288.5951460463553
835,1686015337.58,81.055,-201.66,-34.18,34.18,117101.998,285.8692935425408
836,1686015337.58,74.219,-409.668,37.109,26.367,117102.002,293.47590540771284
837,1686015337.58,71.289,83.984,36.133,6.348,117102.006,288.0881259415526
838,1686015337.59,79.59,357.422,-15.625,14.16,117102.01,292.6646373098574
839,1686015337.59,87.891,131.836,15.625,25.391,117102.014,292.6664218166968
840,1686015337.59,88.379,-102.539,-22.949,29.297,117102.014,283.50852843915396
841,1686015337.6,85.938,525.879,6.836,19.531,117102.018,288.57134883540795
842,1686015337.6,96.68,259.277,-20.996,24.414,117102.022,287.4057976846524
843,1686015337.6,104.004,145.02,16.602,22.461,117102.026,287.47593788527143
844,1686015337.61,95.215,292.48,-1.953,20.508,117102.03,289.7964965467927
845,1686015337.61,90.82,86.426,-20.508,14.648,117102.034,293.2073386830634
846,1686015337.62,84.961,-166.504,-7.324,10.742,117102.037,293.7039325047213
847,1686015337.62,87.402,-836.914,11.23,18.555,117102.041,287.37927516512923
848,1686015337.62,87.891,-522.949,87.891,18.555,117102.045,286.7293879689243
849,1686015337.63,79.59,444.336,22.949,16.602,117102.049,284.48622612867973
850,1686015337.63,84.961,233.398,-38.574,12.695,117102.053,291.1043041198892
851,1686015337.64,88.867,-71.289,7.324,6.836,117102.057,295.1432890830198
852,1686015337.64,93.262,319.824,36.133,17.09,117102.072,288.7981658846856
853,1686015337.65,88.379,594.238,-9.277,17.578,117102.076,288.8701661029915
854,1686015337.65,69.824,136.23,-37.598,-0.488,117102.079,295.80525978278274
855,1686015337.65,62.5,-117.676,30.273,-4.395,117102.083,286.8270804199181
856,1686015337.66,78.125,289.551,19.531,4.883,117102.087,288.07887293371897
857,1686015337.66,83.008,271.484,-28.32,1.465,117102.091,287.1139426088061
858,1686015337.67,69.336,-287.598,-44.434,-15.625,117102.095,287.43720358218104
859,1686015337.67,65.43,-446.777,39.551,-23.926,117102.099,293.35504039360984
860,1686015337.67,69.336,269.043,38.086,-20.508,117102.103,292.62186186737284
861,1686015337.68,68.359,460.449,-24.902,-19.531,117102.107,290.4322960086512
862,1686015337.68,65.918,98.145,-22.949,-20.508,117102.111,284.3740264440755
863,1686015337.68,51.27,442.871,3.418,-31.25,117102.117,287.37320793032643
864,1686015337.68,59.57,171.387,5.859,-33.691,117102.115,292.17519925846824
865,1686015337.69,63.477,284.668,-14.16,-7.812,117102.121,289.7344852629209
866,1686015337.69,68.359,-121.094,47.363,-15.137,117102.125,290.4641927124939
867,1686015337.7,62.5,150.879,34.18,-35.645,117102.129,275.59828677189876
868,1686015337.7,66.895,310.059,-25.391,-30.762,117102.133,281.2252813154191
869,1686015337.7,66.406,-3.906,-15.137,-20.996,117102.137,281.31768442308083
870,1686015337.71,55.664,-808.594,-6.836,-14.16,117102.141,280.4874166805579
871,1686015337.71,49.805,-648.438,84.961,-26.367,117102.145,287.3007582475961
872,1686015337.71,54.199,297.363,41.016,-42.969,117102.149,278.42111313661974
873,1686015337.72,64.941,259.277,-26.367,-38.086,117102.153,289.4328965250749
874,1686015337.72,70.801,137.695,27.832,-25.879,117102.156,284.4707559467996
875,1686015337.73,61.035,356.934,20.996,-26.367,117102.16,282.8850914109764
876,1686015337.76,49.316,383.301,-9.277,-26.367,117102.183,288.3285384188561
877,1686015337.76,51.27,161.133,0.0,-15.137,117102.187,289.49830130951557
878,1686015337.77,44.434,212.402,34.668,-21.484,117102.19,291.00682577873977
879,1686015337.77,39.551,375.0,10.742,-31.738,117102.194,294.30354205821925
880,1686015337.77,37.109,202.637,-12.207,-29.297,117102.198,287.2716774434063
881,1686015337.78,41.016,-349.121,-29.785,-16.602,117102.202,298.90216028690463
882,1686015337.78,52.734,-640.137,53.223,-0.488,117102.206,284.30290294486514
883,1686015337.78,47.852,152.344,61.035,-11.719,117102.21,294.9999128428219
884,1686015337.79,43.945,291.016,-27.832,-26.855,117102.209,282.92601337957444
885,1686015337.79,46.387,364.746,-26.367,-12.207,117102.214,288.7775708843994
886,1686015337.79,43.457,-35.156,31.25,-29.297,117102.213,288.9833081311745
887,1686015337.79,73.242,-261.23,-35.156,19.043,117102.218,289.479750734421
888,1686015337.8,57.129,187.012,35.156,-22.949,117102.216,283.610882629346
889,1686015337.8,76.172,-15.137,29.785,16.113,117102.222,291.597091718473
890,1686015337.8,62.5,480.957,1.953,-23.438,117102.22,288.0100357335085
891,1686015337.8,55.176,490.234,10.254,-16.113,117102.226,291.73713329712837
892,1686015337.8,45.898,227.539,-25.391,-28.809,117102.224,290.5756491997888
893,1686015337.81,41.504,-346.68,-3.906,-19.531,117102.228,283.92764080572454
894,1686015337.81,53.711,-305.176,18.555,-12.207,117102.232,298.74046626732155
895,1686015337.81,53.223,-44.922,-5.859,-19.043,117102.236,295.4903698991631
896,1686015337.82,39.551,-150.879,-4.883,-24.902,117102.24,290.45666240893763
897,1686015337.82,30.273,-192.871,26.367,-32.227,117102.244,286.05439696799044
898,1686015337.83,37.598,145.02,13.672,-39.062,117102.248,298.17677491721156
899,1686015337.83,42.48,393.555,17.09,-33.203,117102.252,293.82130555769106
900,1686015337.84,38.086,135.254,-5.859,-27.344,117102.256,294.9801692597848
901,1686015337.84,31.738,-852.051,-11.719,-38.574,117102.26,296.0572658207483
902,1686015337.84,36.133,-587.402,98.145,-45.898,117102.264,289.69113291038224
903,1686015337.85,40.039,293.945,56.152,-40.039,117102.267,294.91393183303194
904,1686015337.85,32.227,111.328,-28.32,-46.875,117102.271,291.82597858233646
905,1686015337.86,24.902,-168.945,-11.23,-44.922,117102.275,292.8327725894411
906,1686015337.86,25.879,14.16,47.852,-33.203,117102.279,295.13480301101805
907,1686015337.86,27.344,400.391,25.391,-25.391,117102.283,296.2527905322902
908,1686015337.87,20.996,-114.258,-40.527,-15.625,117102.287,301.45877507623976
909,1686015337.87,13.672,-522.949,38.574,-23.926,117102.291,295.30407568157347
910,1686015337.88,15.625,31.738,44.922,-41.016,117102.295,287.5597288730505
911,1686015337.88,29.297,-272.461,15.625,-50.293,117102.299,296.48507895693336
912,1686015337.88,22.461,63.965,-11.23,-42.48,117102.299,286.166405436654
913,1686015337.88,25.391,109.375,34.18,-78.125,117102.303,292.4404488229476
914,1686015337.88,19.043,414.062,5.371,-99.609,117102.307,298.2605873004995
915,1686015337.89,23.926,246.094,5.859,-108.398,117102.311,287.75912437981225
916,1686015337.89,27.344,76.66,36.621,-97.656,117102.315,293.5223048238231
917,1686015337.9,24.414,-18.066,21.484,-85.449,117102.319,302.4394360580356
918,1686015337.9,20.996,-76.172,15.137,-95.215,117102.323,284.6272788166983
919,1686015337.9,21.484,-169.434,6.348,-100.586,117102.326,295.72049688440813
920,1686015337.91,12.207,-823.242,13.672,-88.379,117102.33,296.3441657230303
921,1686015337.91,10.742,-494.629,131.836,-86.914,117102.334,290.2081412001669
922,1686015337.92,18.066,426.27,74.219,-103.027,117102.338,288.7177687760964
923,1686015337.92,10.254,150.879,-13.672,-116.699,117102.342,292.8314359211871
924,1686015337.92,8.301,-131.348,37.109,-111.328,117102.348,293.73006528463384
925,1686015337.93,18.555,299.316,60.547,-105.469,117102.352,298.2323942378684
926,1686015337.93,18.066,504.395,7.812,-115.234,117102.356,297.05826513107337
927,1686015337.94,1.465,41.504,4.883,-126.953,117102.36,297.71560090561917
928,1686015337.94,-6.836,-126.465,77.148,-124.512,117102.364,291.6146125879481
929,1686015337.94,-3.906,57.129,47.852,-114.746,117102.368,300.23294069359093
930,1686015337.95,-15.625,101.562,-9.766,-130.371,117102.371,299.42528377044226
931,1686015337.95,-22.461,-305.176,-34.668,-145.996,117102.375,293.244598181506
932,1686015337.96,-21.484,-575.195,92.773,-141.113,117102.379,295.8774105856392
933,1686015337.96,-16.113,234.863,104.004,-137.207,117102.383,295.4782369490206
934,1686015337.96,-16.113,501.465,12.695,-132.812,117102.387,297.3225023604796
935,1686015337.97,-19.531,184.082,59.57,-129.395,117102.403,292.52638979814566
936,1686015337.97,-19.531,100.586,26.855,-135.742,117102.391,291.94253620915896
937,1686015337.97,-27.344,450.684,39.062,-137.207,117102.407,295.39400299691437
938,1686015337.98,-33.203,270.996,12.207,-145.02,117102.41,301.48452720301304
939,1686015337.98,-32.227,-83.008,81.055,-134.277,117102.414,307.0116571364594
940,1686015337.98,-37.109,65.918,55.664,-128.418,117102.418,302.9332128505113
941,1686015337.99,-44.922,17.578,14.16,-144.043,117102.422,300.107574962626
942,1686015337.99,-38.574,-141.602,20.508,-144.043,117102.426,298.49169747884076
943,1686015337.99,-34.18,-829.59,9.766,-115.723,117102.43,306.37759338450593
944,1686015338.0,-44.434,-759.766,115.234,-108.398,117102.434,306.31151083559365
945,1686015338.0,-37.598,215.82,97.656,-112.305,117102.438,302.9552507529333
946,1686015338.01,-33.691,334.961,21.484,-121.094,117102.442,315.08305815946824
947,1686015338.01,-37.109,213.867,47.363,-129.395,117102.446,314.9838985709969
948,1686015338.03,-45.898,344.727,43.945,-121.094,117102.45,317.9030140294553
949,1686015338.03,-27.344,375.0,24.902,-93.75,117102.454,312.8012415448072
950,1686015338.04,-1.953,176.27,22.949,-83.496,117102.458,316.21840207734255
951,1686015338.04,-23.926,237.793,45.41,-95.703,117102.462,306.13240988296326
952,1686015338.04,-32.715,318.359,19.531,-104.004,117102.466,317.3170800954547
953,1686015338.05,-4.883,45.898,6.348,-75.195,117102.469,316.90088914342914
954,1686015338.05,9.277,-415.527,4.395,33.203,117102.473,315.181762075233
955,1686015338.06,-9.277,-423.34,105.957,86.914,117102.477,321.71519865998783
956,1686015338.06,-14.648,233.398,91.309,72.266,117102.481,321.25846861638666
957,1686015338.06,-16.113,323.73,-10.742,62.988,117102.485,320.8782387368215
958,1686015338.07,-4.395,-439.453,-31.25,70.801,117102.489,328.0058885786568
959,1686015338.07,22.949,-564.453,95.703,90.82,117102.493,337.4224952991495
960,1686015338.07,11.719,310.059,62.988,74.219,117102.494,325.59082473201124
961,1686015338.08,0.0,303.223,-16.113,63.965,117102.498,332.3834339415219
962,1686015338.08,10.742,-101.074,61.523,64.453,117102.502,329.2799331039385
963,1686015338.08,11.719,200.684,68.359,61.523,117102.506,328.54793142840197
964,1686015338.09,11.23,366.211,11.719,68.359,117102.51,327.07596049265504
965,1686015338.09,11.23,-116.699,-4.883,55.176,117102.514,325.3198879535276
966,1686015338.1,11.719,-486.328,52.734,37.109,117102.518,329.32610168906183
967,1686015338.1,16.113,-256.836,62.988,31.25,117102.521,321.1979049320261
968,1686015338.1,19.043,23.438,27.832,29.785,117102.525,322.6331748212768
969,1686015338.11,10.742,-75.684,12.695,19.043,117102.529,331.10357726136425
970,1686015338.11,21.973,-864.258,-11.23,40.527,117102.533,328.45550132132706
971,1686015338.12,44.922,-806.641,102.051,64.453,117102.537,319.93649703745285
972,1686015338.12,31.25,187.5,104.98,41.992,117102.539,321.9173467495691
973,1686015338.12,6.836,248.535,25.879,15.137,117102.543,331.19757502124276
974,1686015338.13,20.508,143.066,49.805,18.555,117102.547,329.7322614592194
975,1686015338.13,37.109,382.324,47.852,21.973,117102.551,329.5560235635725
976,1686015338.13,23.438,479.492,25.391,6.836,117102.555,324.298833142948
977,1686015338.14,15.625,17.09,-18.066,6.348,117102.559,333.3149867359913
978,1686015338.14,17.578,-226.562,17.578,-3.418,117102.563,332.04847009071386
979,1686015338.14,23.926,201.172,58.594,-9.766,117102.567,324.5428330672547
980,1686015338.15,34.668,515.625,32.715,5.371,117102.571,335.0044069665434
981,1686015338.15,33.691,-140.137,-46.387,9.766,117102.575,321.00849693135564
982,1686015338.16,17.578,-737.305,35.156,12.207,117102.578,324.44201382187646
983,1686015338.16,6.348,-13.184,91.797,1.465,117102.582,327.3993914825578
984,1686015338.16,11.719,320.312,12.695,1.465,117102.641,326.98829153763694
985,1686015338.17,22.461,-189.453,-1.953,2.93,117102.645,323.0176735513458
986,1686015338.17,12.695,35.645,30.762,-18.555,117102.649,324.08803681783735
987,1686015338.17,11.719,399.902,10.254,-21.484,117102.653,324.77237880111466
988,1686015338.18,14.16,210.938,-8.301,-27.344,117102.657,328.17965629744157
989,1686015338.18,11.719,-144.531,29.297,-33.691,117102.661,327.64891825009425
990,1686015338.19,17.09,-168.457,23.438,-34.668,117102.665,334.102907511383
991,1686015338.19,20.02,35.156,27.344,-32.227,117102.669,320.75347544323523
992,1686015338.19,32.227,67.383,10.254,-11.719,117102.673,329.1781189553891
993,1686015338.2,41.016,-687.012,-3.906,-3.906,117102.677,317.24513251412327
994,1686015338.2,30.273,-297.363,78.613,-16.113,117102.681,328.11902498951946
995,1686015338.2,26.855,436.523,26.855,-26.367,117102.684,314.4965614362417
996,1686015338.23,21.484,93.262,-5.371,-34.18,117102.652,322.91939100890295
997,1686015338.23,18.066,-63.965,31.25,-33.203,117102.656,326.55552551311973
998,1686015338.23,24.414,315.43,30.762,-29.785,117102.66,322.25494474499214
999,1686015338.24,28.32,474.121,0.0,-34.668,117102.664,320.30657316095596
1000,1686015338.24,32.715,4.883,-19.531,-26.367,117102.667,314.9800360297501
1001,1686015338.25,30.273,-398.926,31.738,-18.066,117102.671,323.65668809057286
1002,1686015338.25,31.25,10.742,64.453,-25.879,117102.675,319.8377895214998
1003,1686015338.25,19.531,-177.734,17.09,-32.715,117102.673,322.1327352176538
1004,1686015338.25,20.508,399.414,4.883,-38.086,117102.679,315.6314898055256
1005,1686015338.26,15.625,28.32,57.129,-30.762,117102.677,316.53927423572776
1006,1686015338.26,6.836,-210.938,-45.41,-36.621,117102.683,316.2069357260094
1007,1686015338.26,15.137,448.73,30.762,-11.719,117102.681,312.233812723886
1008,1686015338.26,15.625,-324.707,67.383,-35.156,117102.687,319.485098339059
1009,1686015338.26,11.23,216.309,-6.348,-8.789,117102.685,319.02630740859024
1010,1686015338.26,27.832,418.457,67.871,-39.551,117102.691,314.7049488026458
1011,1686015338.27,9.277,-333.984,37.109,-15.137,117102.689,318.0315655411855
1012,1686015338.27,27.344,400.391,-12.695,-32.715,117102.695,327.15325552578156
1013,1686015338.27,12.695,-307.617,49.805,-18.066,117102.693,320.44367793305133
1014,1686015338.28,14.16,-65.43,17.09,-16.113,117102.696,314.7739692841599
1015,1686015338.28,15.137,-106.445,10.742,-18.066,117102.7,321.8053304107817
1016,1686015338.28,2.441,-172.363,37.109,-27.344,117102.704,313.01591175933163
1017,1686015338.29,-3.906,144.043,38.086,-24.902,117102.708,316.74723032362283
1018,1686015338.29,-4.395,352.051,12.695,-15.137,117102.712,318.0277934565198
1019,1686015338.3,0.488,106.934,-2.93,-18.066,117102.716,311.1127121032008
1020,1686015338.3,-2.441,-837.891,-15.625,-26.367,117102.721,309.00830180046876
1021,1686015338.3,-16.602,-906.25,75.684,-39.551,117102.725,315.58386044358303
1022,1686015338.31,-17.09,94.238,82.52,-47.852,117102.728,316.99105314262994
1023,1686015338.31,-11.719,256.348,5.371,-39.551,117102.732,306.7144495526312
1024,1686015338.32,-12.207,254.883,20.996,-33.691,117102.736,309.6358540874893
1025,1686015338.32,-5.859,62.012,-3.906,-27.832,117102.74,309.3487005027779
1026,1686015338.32,20.508,3.418,-2.441,0.0,117102.744,317.29777811465755
1027,1686015338.33,28.32,-266.113,-32.715,4.395,117102.748,307.58852418642795
1028,1686015338.33,-11.719,-771.973,46.875,-31.738,117102.752,313.05543106336785
1029,1686015338.33,-36.621,102.051,84.473,-61.523,117102.756,316.31930017406415
1030,1686015338.34,-38.574,395.996,-2.441,-79.59,117102.76,318.72885951713437
1031,1686015338.34,-64.453,286.133,55.664,-85.449,117102.777,316.3361388517614
1032,1686015338.34,-50.293,-56.641,15.625,-82.52,117102.764,313.1534789616567
1033,1686015338.35,-74.707,555.664,21.484,-99.121,117102.781,320.0944487895052
1034,1686015338.35,-77.637,258.301,-0.977,-104.004,117102.785,316.23405833837074
1035,1686015338.35,-70.312,41.016,61.035,-84.961,117102.789,311.1132642249085
1036,1686015338.36,-63.477,217.773,43.945,-81.543,117102.793,311.2954755872942
1037,1686015338.36,-87.891,115.234,9.277,-107.91,117102.797,323.8143121598164
1038,1686015338.37,-90.332,-103.516,-8.789,-115.234,117102.801,312.9573831692987
1039,1686015338.37,-74.219,-770.996,-24.414,-89.355,117102.805,319.4769065176062
1040,1686015338.37,-59.082,-710.938,114.258,-68.359,117102.809,319.8200758343946
1041,1686015338.38,-45.41,147.949,76.172,-62.988,117102.812,333.73401254685757
1042,1686015338.38,-42.969,118.164,-31.25,-52.246,117102.816,324.5813745181265
1043,1686015338.38,-33.691,-340.82,83.008,-40.527,117102.82,326.5893685173591
1044,1686015338.39,-22.461,237.793,98.633,-24.414,117102.822,334.2616842645109
1045,1686015338.39,-13.672,568.359,10.254,-28.32,117102.826,328.4747851692116
1046,1686015338.4,-11.719,182.617,-0.977,-50.293,117102.83,343.96634429647537
1047,1686015338.4,-14.16,146.484,42.48,-53.711,117102.834,337.3084680315231
1048,1686015338.4,-11.23,396.973,49.805,-44.922,117102.837,333.3093950904703
1049,1686015338.41,-14.16,211.914,11.23,-37.109,117102.841,346.5483523235434
1050,1686015338.41,-23.926,-269.043,-12.207,-41.992,117102.845,336.9467783249385
1051,1686015338.42,-23.926,-218.75,56.152,-50.293,117102.849,337.49476282376406
1052,1686015338.42,-22.949,293.945,64.453,-46.875,117102.853,343.7095837922091
1053,1686015338.42,-20.508,445.801,5.859,-44.922,117102.857,334.6773644780346
1054,1686015338.43,-23.438,-209.961,-46.875,-51.758,117102.861,333.40303168648467
1055,1686015338.43,-33.691,-499.512,23.438,-62.5,117102.865,339.44696675709594
1056,1686015338.43,-28.809,171.875,64.941,-55.664,117102.866,336.1027626966234
1057,1686015338.44,-18.066,341.309,-2.93,-40.527,117102.87,340.84430101890246
1058,1686015338.44,-20.996,-249.512,2.93,-34.668,117102.874,340.8645948528916
1059,1686015338.44,-28.32,-34.18,34.668,-43.457,117102.878,350.0369287979759
1060,1686015338.45,-25.391,336.914,12.695,-45.41,117102.882,340.6797710432403
1061,1686015338.45,-17.09,35.645,11.23,-31.738,117102.886,343.5464421078926
1062,1686015338.46,-20.02,-697.754,7.324,-23.926,117102.89,341.2658655924333
1063,1686015338.46,-29.297,-450.684,69.824,-36.133,117102.894,348.9220437487977
1064,1686015338.46,-20.508,321.289,39.551,-32.227,117102.898,344.0032666134629
1065,1686015338.47,-6.836,170.41,-5.859,-13.672,117102.902,339.98808791032235
1066,1686015338.47,-7.324,-87.402,56.152,-31.25,117102.905,342.35264754562337
1067,1686015338.48,-15.137,269.043,41.504,-73.73,117102.909,337.7750164249368
1068,1686015338.49,-27.344,401.855,2.93,-95.215,117102.914,340.83223059554024
1069,1686015338.5,-27.344,59.082,19.531,-85.938,117102.918,343.3258994849682
1070,1686015338.5,-27.832,-40.527,56.152,-85.938,117102.922,335.9559314897766
1071,1686015338.5,-26.367,276.855,30.273,-107.422,117102.926,336.7643022404024
1072,1686015338.51,-24.902,378.906,5.371,-117.676,117102.93,348.8166316413361
1073,1686015338.51,-18.555,-257.324,-25.879,-107.422,117102.934,338.3909352955464
1074,1686015338.52,-10.254,-841.797,41.016,-90.82,117102.937,332.9953780557298
1075,1686015338.52,-13.184,31.738,99.609,-91.797,117102.941,347.89397842062
1076,1686015338.52,-13.672,400.879,3.906,-104.98,117102.945,342.86310280627276
1077,1686015338.53,-17.09,-103.027,-24.902,-108.887,117102.949,333.43922140892016
1078,1686015338.53,-28.809,116.699,41.504,-104.98,117102.953,333.17136175806036
1079,1686015338.54,-39.062,452.637,52.246,-100.098,117102.957,330.502205921687
1080,1686015338.54,-37.598,275.391,17.09,-96.191,117102.959,338.6388158278387
1081,1686015338.54,-28.32,-55.664,54.688,-98.633,117102.963,331.300317200148
1082,1686015338.54,-29.297,138.672,78.125,-93.262,117102.967,331.7978650194523
1083,1686015338.55,-28.809,395.02,32.715,-89.844,117102.971,335.7829954921651
1084,1686015338.55,-27.344,72.266,-17.09,-95.703,117102.975,325.9223360197173
1085,1686015338.56,-28.809,-424.805,21.484,-99.609,117102.978,330.89099779094374
1086,1686015338.56,-26.367,-354.98,54.688,-96.191,117102.982,340.27476823617
1087,1686015338.56,-22.949,-117.676,35.156,-94.727,117102.986,328.4623554390944
1088,1686015338.57,-34.668,-112.793,8.789,-103.027,117102.99,331.2369809824677
1089,1686015338.57,-38.574,-848.145,-6.348,-104.98,117102.994,331.23099756112117
1090,1686015338.58,-31.25,-684.082,119.629,-98.145,117102.998,328.0356131267998
1091,1686015338.58,-27.344,270.02,102.051,-90.82,117103.002,329.6338255327268
1092,1686015338.6,-26.367,216.309,4.395,-91.797,117103.022,323.32280305061266
1093,1686015338.6,-37.109,22.461,43.457,-91.797,117103.026,331.82277197145754
1094,1686015338.61,-45.41,217.773,50.293,-91.797,117103.03,323.2780617024459
1095,1686015338.61,-42.48,365.723,35.156,-78.613,117103.034,325.38392625809735
1096,1686015338.62,-36.133,100.098,-8.301,-68.848,117103.038,323.6237313700682
1097,1686015338.62,-37.598,-204.59,4.883,-83.008,117103.042,323.57460570739084
1098,1686015338.62,-31.738,-172.363,52.246,-80.566,117103.046,331.514474358504
1099,1686015338.63,-27.832,-1.465,39.062,-68.848,117103.05,325.7077877091422
1100,1686015338.63,-15.625,7.812,42.48,-58.105,117103.048,319.6950327660813
1101,1686015338.63,-27.344,-340.82,-26.367,-65.43,117103.054,328.1245891411859
1102,1686015338.63,-16.113,255.371,50.781,-62.5,117103.052,316.312603752134
1103,1686015338.64,-24.414,-784.668,46.387,-66.895,117103.058,325.391480131407
1104,1686015338.64,-19.531,324.707,25.391,-72.266,117103.056,322.44565644979247
1105,1686015338.64,-20.508,9.766,78.125,-76.66,117103.062,324.638592024246
1106,1686015338.64,-22.949,128.418,14.648,-68.359,117103.06,323.60169374961083
1107,1686015338.64,-28.809,-86.914,41.992,-51.758,117103.064,318.5591722293229
1108,1686015338.64,-19.043,283.203,-0.488,-72.754,117103.065,324.109134597607
1109,1686015338.65,-33.691,-108.398,39.551,-50.781,117103.068,324.4281832447367
1110,1686015338.65,-36.133,-115.234,5.371,-64.941,117103.072,314.41651833973077
1111,1686015338.65,-41.016,-299.805,17.09,-63.965,117103.076,316.4563979737109
1112,1686015338.66,-42.48,-240.723,75.195,-59.082,117103.079,312.2932671080219
1113,1686015338.66,-36.133,75.684,42.969,-54.199,117103.083,316.74388736523275
1114,1686015338.67,-45.898,83.008,8.789,-58.594,117103.087,317.851305076684
1115,1686015338.67,-44.434,-19.531,-6.348,-56.641,117103.091,315.3905205560379
1116,1686015338.67,-15.137,-828.125,-5.859,-23.926,117103.095,316.134897764414
1117,1686015338.68,-16.602,-1000.0,73.242,-28.32,117103.099,314.1189089126662
1118,1686015338.68,-39.551,-61.523,80.566,12.695,117103.103,307.6442966925479
1119,1686015338.69,-52.734,152.832,17.09,88.867,117103.107,320.652414247373
1120,1686015338.69,-60.547,121.094,43.457,102.051,117103.111,309.18749633142824
1121,1686015338.69,-54.199,169.922,46.875,99.609,117103.115,310.4882468055862
1122,1686015338.7,-56.641,102.539,8.789,75.684,117103.119,315.2960500581045
1123,1686015338.7,-61.035,-265.137,-17.578,56.152,117103.123,305.0439285704061
1124,1686015338.7,-56.641,-404.297,102.051,53.711,117103.127,317.5688922297103
1125,1686015338.71,-54.688,372.559,88.867,60.059,117103.131,312.6276890888416
1126,1686015338.71,-50.293,488.281,-3.418,64.941,117103.134,314.1986010216843
1127,1686015338.72,-43.945,9.277,6.348,62.988,117103.138,317.7513856451832
1128,1686015338.72,-48.34,-100.098,23.926,62.012,117103.14,311.93919237740096
1129,1686015338.72,-45.898,282.227,49.316,47.363,117103.144,316.66771901342844
1130,1686015338.73,-37.109,350.098,3.418,27.344,117103.148,306.11746334151707
1131,1686015338.73,-40.527,-233.398,20.996,8.789,117103.152,321.93498244883784
1132,1686015338.73,-49.805,-138.672,37.109,-1.953,117103.156,307.9625581050433
1133,1686015338.74,-42.969,-7.324,21.973,9.277,117103.16,312.2031425591229
1134,1686015338.74,-39.062,-64.453,14.16,15.137,117103.164,301.4995299860842
1135,1686015338.74,-50.293,-730.957,-12.695,12.695,117103.168,310.69592677155913
1136,1686015338.75,-54.199,-650.879,95.215,8.789,117103.172,306.78260031655657
1137,1686015338.75,-49.805,214.355,67.383,3.906,117103.175,308.8591620719298
1138,1686015338.76,-43.457,270.996,6.348,6.836,117103.179,307.76227416772315
1139,1686015338.76,-45.41,275.391,32.715,-12.695,117103.183,307.72906594406646
1140,1686015338.76,-47.363,407.227,24.414,-28.809,117103.197,308.6857392847192
1141,1686015338.77,-45.41,394.531,10.742,-26.367,117103.201,304.5535208537396
1142,1686015338.77,-37.598,99.121,11.719,-24.902,117103.205,307.7115297618387
1143,1686015338.78,-24.414,4.883,54.688,-26.855,117103.209,301.9167842768574
1144,1686015338.78,-30.762,268.066,32.227,-25.879,117103.212,303.94864901840117
1145,1686015338.78,-41.992,126.465,0.488,-27.344,117103.216,300.9162619508093
1146,1686015338.79,-35.645,-383.789,-8.301,-27.832,117103.22,299.29010110377976
1147,1686015338.79,-32.227,-817.383,64.453,-35.156,117103.224,299.74989489400633
1148,1686015338.8,-37.598,14.648,96.68,-45.41,117103.228,302.44558129027433
1149,1686015338.8,-45.41,378.906,12.207,-35.156,117103.232,296.25244340131167
1150,1686015338.8,-48.34,-21.973,9.766,-23.438,117103.236,296.1407502622782
1151,1686015338.81,-46.387,217.773,40.527,-28.32,117103.24,294.0986575634839
1152,1686015338.81,-44.434,450.684,18.555,-31.25,117103.242,297.1053637486405
1153,1686015338.81,-39.062,226.074,-3.418,-43.457,117103.246,304.93828818776535
1154,1686015338.82,-36.133,-56.152,69.336,-53.711,117103.25,291.1394954212215
1155,1686015338.82,-31.738,235.352,59.57,-39.062,117103.254,286.1341229225222
1156,1686015338.82,-35.156,329.102,-6.836,-25.879,117103.258,293.75988158073153
1157,1686015338.83,-47.363,-121.094,-15.137,-29.297,117103.262,284.5379806096326
1158,1686015338.83,-36.133,-823.73,-0.488,-27.832,117103.266,284.9716206697087
1159,1686015338.83,-11.23,-706.055,93.262,5.859,117103.27,285.46767576799004
1160,1686015338.84,-22.949,174.316,88.379,-28.32,117103.273,286.116438775218
1161,1686015338.84,-51.27,122.07,-18.066,-81.055,117103.277,290.43195823347406
1162,1686015338.85,-52.246,-504.883,57.129,-65.918,117103.281,287.48969094883256
1163,1686015338.85,-40.527,92.285,93.75,-46.387,117103.285,278.49519022585844
1164,1686015338.87,-41.016,507.812,14.648,-41.504,117103.29,267.19334593902727
1165,1686015338.87,-59.57,172.363,8.301,-61.523,117103.294,265.00997794343556
1166,1686015338.88,-60.547,59.082,39.551,-61.523,117103.297,263.4561753487039
1167,1686015338.88,-56.641,254.395,61.523,-46.875,117103.301,268.43630131246726
1168,1686015338.88,-56.641,397.461,49.316,-39.062,117103.305,264.4880942038235
1169,1686015338.89,-58.105,-80.566,-13.184,-35.645,117103.309,265.56456095367827
1170,1686015338.89,-64.453,-317.383,43.457,-40.039,117103.313,268.0440108010402
1171,1686015338.9,-60.547,135.742,75.684,-38.086,117103.317,271.9999034054606
1172,1686015338.9,-54.199,135.254,20.996,-41.992,117103.321,270.807946711163
1173,1686015338.9,-64.941,-371.582,-7.812,-54.688,117103.325,267.8596191319016
1174,1686015338.91,-70.312,-413.574,88.867,-62.5,117103.329,261.96047884395347
1175,1686015338.91,-57.617,200.684,64.453,-53.711,117103.333,266.12885687674935
1176,1686015338.91,-43.945,225.098,0.0,-32.715,117103.333,274.9756431877048
1177,1686015338.92,-36.133,29.297,63.965,-33.691,117103.337,266.3209730688534
1178,1686015338.92,-41.016,211.914,51.27,-44.434,117103.341,265.2282138598576
1179,1686015338.92,-45.41,354.004,9.766,-43.945,117103.345,272.93641493687346
1180,1686015338.93,-36.621,145.02,12.207,-39.062,117103.349,270.02567662123766
1181,1686015338.93,-25.391,-258.301,40.527,-39.062,117103.353,272.75887201612227
1182,1686015338.94,-30.762,-209.473,25.391,-47.852,117103.357,269.19664024987577
1183,1686015338.94,-34.668,-90.82,4.883,-44.922,117103.361,274.49812725588396
1184,1686015338.94,-28.809,-157.227,3.906,-35.156,117103.365,275.39111345683403
1185,1686015338.95,-23.926,-726.074,13.672,-31.25,117103.368,279.67342524699205
1186,1686015338.95,-24.902,-481.934,87.402,-44.922,117103.372,280.3322051561523
1187,1686015338.96,-31.25,182.129,54.688,-51.758,117103.376,279.04092944088194
1188,1686015338.96,-31.738,45.41,14.16,-42.48,117103.381,283.1672477696195
1189,1686015338.96,-19.531,-67.383,87.402,-33.203,117103.385,281.09333949609095
1190,1686015338.97,-13.184,351.562,46.875,-34.668,117103.389,291.626895036904
1191,1686015338.97,-22.949,415.039,-8.301,-39.551,117103.393,292.61321393536684
1192,1686015338.98,-25.391,43.945,1.953,-48.828,117103.397,286.13363666348585
1193,1686015338.98,-24.414,-165.527,24.902,-43.457,117103.401,289.3339205907231
1194,1686015338.98,-23.926,112.305,50.293,-37.109,117103.404,290.44278980951793
1195,1686015338.99,-26.855,428.223,0.0,-50.781,117103.408,292.43919552160514
1196,1686015338.99,-24.414,-188.477,-32.715,-50.781,117103.412,291.99758346248694
1197,1686015338.99,-13.672,-425.781,90.82,-39.062,117103.416,296.61852278085235
1198,1686015339.0,-13.184,352.539,71.289,-40.527,117103.42,296.01686649711115
1199,1686015339.0,-21.484,408.691,7.324,-32.715,117103.424,296.317928145304
1200,1686015339.0,-30.762,-40.527,17.578,-34.668,117103.438,291.81119694142166
1201,1686015339.01,-31.25,-107.422,25.391,-40.039,117103.441,296.8391428978782
1202,1686015339.01,-20.508,314.453,44.434,-40.039,117103.445,300.7301014006082
1203,1686015339.02,-22.949,378.418,0.977,-54.688,117103.449,299.5927402861246
1204,1686015339.02,-34.18,-333.008,10.254,-55.176,117103.453,308.5020481067965
1205,1686015339.02,-35.156,-384.277,32.227,-53.223,117103.457,304.92053434336697
1206,1686015339.03,-28.32,-6.836,21.973,-48.34,117103.461,301.84328296180865
1207,1686015339.03,-31.738,32.715,8.301,-39.062,117103.465,300.2853457414704
1208,1686015339.03,-49.316,-720.215,-0.977,-39.551,117103.469,309.4272118142988
1209,1686015339.04,-56.152,-596.191,109.375,-43.457,117103.473,302.39489068752937
1210,1686015339.04,-50.293,336.426,59.57,-43.457,117103.477,297.5363228826333
1211,1686015339.05,-47.852,341.797,-12.695,-42.969,117103.481,305.9565958697519
1212,1686015339.05,-53.223,247.559,28.809,-53.711,117103.471,308.98627258283943
1213,1686015339.05,-55.176,349.121,21.484,-61.523,117103.475,300.79190471132813
1214,1686015339.06,-51.758,357.422,0.0,-56.152,117103.479,303.27799538097537
1215,1686015339.06,-49.805,116.211,-0.977,-42.969,117103.483,304.0253776038838
1216,1686015339.06,-51.27,10.742,16.602,-41.016,117103.487,304.5826398761417
1217,1686015339.07,-50.781,-41.016,4.883,-43.457,117103.49,295.8597852538404
1218,1686015339.07,-47.363,8.301,9.766,-44.922,117103.494,299.3873612338404
1219,1686015339.08,-37.598,-251.465,-20.996,-33.203,117103.498,310.9084436998847
1220,1686015339.08,-34.18,-684.57,58.594,-25.879,117103.502,303.218852006493
1221,1686015339.08,-45.41,132.324,84.473,-48.828,117103.506,313.4667412948717
1222,1686015339.09,-53.711,445.801,-15.625,-53.223,117103.51,312.6514832126165
1223,1686015339.09,-47.852,-249.512,-27.832,-37.109,117103.514,313.92135153040977
1224,1686015339.09,-45.41,-78.125,64.453,-40.527,117103.514,300.09206091669597
1225,1686015339.1,-49.316,474.609,30.273,-52.734,117103.518,308.77894676321614
1226,1686015339.1,-47.852,276.855,-6.348,-54.199,117103.522,308.0283666786606
1227,1686015339.1,-43.945,98.633,63.477,-45.41,117103.526,302.8836348348418
1228,1686015339.11,-38.086,290.039,40.039,-40.039,117103.529,310.3200291932275
1229,1686015339.11,-47.363,114.746,-3.906,-57.129,117103.533,305.0319767706561
1230,1686015339.12,-58.594,-145.02,3.418,-64.941,117103.537,307.96023414127114
1231,1686015339.12,-52.246,-822.754,-24.902,-43.945,117103.541,308.83969895460376
1232,1686015339.12,-44.922,-937.5,53.711,-39.062,117103.545,303.24078886765295
1233,1686015339.13,-37.598,129.883,73.73,-47.363,117103.549,307.2261171479405
1234,1686015339.13,-42.48,263.184,-23.926,-55.176,117103.553,309.23455858704864
1235,1686015339.14,-55.176,63.477,24.902,-55.664,117103.557,302.5504558509213
1236,1686015339.17,-57.617,418.945,51.27,-46.387,117103.59,305.3331958555137
1237,1686015339.17,-57.617,535.645,9.766,-47.363,117103.594,303.57203370882866
1238,1686015339.18,-64.941,204.59,-5.371,-54.199,117103.598,311.2761043703308
1239,1686015339.18,-64.453,95.703,26.855,-57.617,117103.602,294.81136706664074
1240,1686015339.18,-53.223,298.828,27.344,-57.617,117103.606,311.076095535349
1241,1686015339.19,-12.695,307.129,49.805,-106.445,117103.617,297.9419461756338
1242,1686015339.19,-41.504,192.871,4.395,-76.66,117103.61,300.35080735084904
1243,1686015339.19,-24.414,271.484,3.418,-115.234,117103.621,300.8152164541988
1244,1686015339.19,-39.062,-312.5,-14.648,-107.422,117103.614,301.8340646889626
1245,1686015339.19,-39.062,42.969,47.852,-118.652,117103.625,299.0188473176857
1246,1686015339.2,-50.781,-540.039,61.523,-122.07,117103.618,300.5987917476055
1247,1686015339.2,-34.18,212.891,33.203,-125.488,117103.629,304.19053733239423
1248,1686015339.2,-48.828,77.148,68.848,-127.441,117103.622,293.92132339301753
1249,1686015339.2,-26.855,294.434,-11.23,-138.672,117103.633,303.49975351900537
1250,1686015339.2,-40.527,139.16,-1.465,-126.465,117103.625,300.6465175343568
1251,1686015339.21,-23.926,-109.863,-4.883,-131.836,117103.637,289.82455258356737
1252,1686015339.21,-44.434,-368.164,-27.832,-123.047,117103.629,297.9822148274312
1253,1686015339.21,-24.414,-465.82,48.828,-116.211,117103.641,311.42853593465094
1254,1686015339.21,-33.691,-233.398,47.363,-116.699,117103.633,302.71680142607266
1255,1686015339.21,-33.203,-233.398,44.922,-123.047,117103.645,301.7345958698856
1256,1686015339.22,-41.016,166.504,5.859,-129.883,117103.648,303.1104185331556
1257,1686015339.22,-43.945,58.105,9.766,-121.582,117103.652,304.84641887548787
1258,1686015339.22,-38.086,-111.328,40.039,-113.281,117103.656,304.600396376342
1259,1686015339.23,-38.086,-66.406,-4.883,-111.816,117103.66,304.9108848268305
1260,1686015339.24,-47.363,-35.645,12.695,-115.234,117103.665,296.0534820258833
1261,1686015339.25,-38.086,-101.074,7.324,-104.98,117103.668,300.03255344120635
1262,1686015339.25,-29.297,-898.438,-17.578,-80.566,117103.672,296.801192487369
1263,1686015339.26,-37.109,-699.219,92.773,-82.031,117103.676,299.0642407518711
1264,1686015339.26,-47.852,142.09,62.5,-90.332,117103.68,302.9797274162767
1265,1686015339.26,-52.734,-197.266,-15.137,-73.242,117103.684,303.301244556506
1266,1686015339.27,-47.852,-304.688,71.777,-59.57,117103.688,308.7002472922714
1267,1686015339.27,-41.504,349.609,59.57,-70.801,117103.692,294.1541766538861
1268,1686015339.27,-45.898,367.676,-21.973,-88.867,117103.696,302.02494684077715
1269,1686015339.28,-52.734,-302.246,-46.387,-98.633,117103.7,307.9450878144524
1270,1686015339.28,-46.875,-201.172,45.898,-95.703,117103.704,299.7900499826442
1271,1686015339.29,-41.504,410.645,47.852,-93.262,117103.707,305.32034000978473
1272,1686015339.29,-42.969,315.918,-13.184,-87.891,117103.71,298.4897518261161
1273,1686015339.29,-48.828,-324.707,7.812,-85.449,117103.714,301.6024614236405
1274,1686015339.3,-53.711,-291.016,34.668,-85.449,117103.718,299.14835963943915
1275,1686015339.3,-41.992,291.504,28.32,-74.219,117103.722,310.45723014378535
1276,1686015339.3,-41.504,241.211,-21.484,-78.125,117103.726,305.60424943931844
1277,1686015339.31,-49.805,-683.105,-21.484,-79.102,117103.73,302.8387129546203
1278,1686015339.31,-45.898,-676.758,52.734,-70.312,117103.734,296.99471314277173
1279,1686015339.32,-44.922,9.766,51.27,-62.5,117103.738,308.7486876692635
1280,1686015339.32,-53.223,71.289,-21.973,-65.43,117103.742,296.86668499549853
1281,1686015339.32,-59.57,-711.914,-16.602,-62.5,117103.745,298.5223182608299
1282,1686015339.33,-56.641,-322.266,79.59,-62.012,117103.749,302.70547844465204
1283,1686015339.33,-52.734,369.629,39.062,-62.5,117103.753,303.4195011210378
1284,1686015339.33,-49.805,176.758,0.0,-63.477,117103.755,299.2172547787839
1285,1686015339.34,-46.387,70.801,30.273,-72.754,117103.759,304.0805434075534
1286,1686015339.34,-51.27,192.871,22.949,-72.754,117103.763,304.686359968955
1287,1686015339.35,-49.316,285.156,19.043,-55.664,117103.767,305.83607569989783
1288,1686015339.35,-46.387,17.578,0.0,-43.457,117103.771,299.9268348364251
1289,1686015339.35,-49.805,-252.441,-3.906,-56.641,117103.775,305.26163020831575
1290,1686015339.36,-46.875,-285.156,26.367,-52.246,117103.779,309.0213170144497
1291,1686015339.36,-49.805,-91.797,29.297,49.805,117103.782,312.93226945330946
1292,1686015339.36,-52.246,-354.492,-35.156,112.305,117103.786,300.4903072171908
1293,1686015339.37,-51.27,-834.961,35.645,100.586,117103.79,301.2360512047498
1294,1686015339.37,-53.711,-65.43,74.707,80.566,117103.794,304.7619200713366
1295,1686015339.38,-43.457,245.605,0.0,83.984,117103.798,303.6034852174753
