,timestamps,TP9,AF7,AF8,TP10,Secondary Timestamp,emg_signal
0,1686361731.9,-3.418,-17.578,-7.812,8.789,808.797,373.50000293199844
1,1686361731.91,44.434,440.918,-9.277,58.594,808.801,393.70093522947593
2,1686361731.91,27.344,107.91,-59.57,-4.883,808.805,383.28861909318516
3,1686361731.91,-15.625,-188.965,-12.207,-52.246,808.809,383.01693279979156
4,1686361731.92,-7.812,12.207,0.488,-10.254,808.813,369.78767560037613
5,1686361731.92,23.926,-18.066,-38.574,2.93,808.817,394.7620767893353
6,1686361731.92,25.879,-263.672,-42.969,-46.387,808.821,387.6778229277384
7,1686361731.93,-1.465,-621.094,-1.465,-114.746,808.825,375.86253444543786
8,1686361731.93,7.812,-344.727,3.418,-103.027,808.829,376.16225528625176
9,1686361731.94,44.434,310.059,-11.23,-27.344,808.833,375.0368016263867
10,1686361731.94,51.758,88.867,-46.875,-39.551,808.837,382.0198025910446
11,1686361731.94,28.32,-515.137,7.324,-120.117,808.84,386.3657901773993
12,1686361731.95,-8.301,-131.836,22.949,-103.027,808.847,379.770598763216
13,1686361731.95,-17.09,197.754,-0.977,-5.371,808.85,371.3963233260799
14,1686361731.96,-8.301,-57.129,-29.785,12.207,808.854,390.54289105643556
15,1686361731.96,-30.762,-647.461,-15.625,-79.59,808.858,383.73142205820864
16,1686361731.96,-46.875,-61.035,15.625,-125.488,808.862,373.7946428628266
17,1686361731.97,-29.297,204.59,-47.852,-24.902,808.866,376.5353605887595
18,1686361731.97,6.348,-291.992,-56.641,66.895,808.87,416.5307399427936
19,1686361731.98,29.785,-257.324,20.02,0.977,808.874,381.1420172877866
20,1686361731.98,12.695,329.102,-3.418,-92.285,808.878,373.9712006214376
21,1686361731.98,0.488,251.953,-58.105,-73.242,808.882,396.17517879868797
22,1686361731.99,24.902,-97.656,-44.434,4.395,808.886,376.4067834436893
23,1686361731.99,26.367,75.195,-31.25,0.977,808.89,374.109260299337
24,1686361731.99,-33.691,216.797,-38.086,-83.496,808.902,369.12553170848673
25,1686361732.0,-68.848,6.348,-36.133,-115.723,808.906,394.42864177672857
26,1686361732.0,-26.855,-210.938,-0.488,-47.363,808.909,390.8429921358836
27,1686361732.0,-13.672,-136.719,-15.137,1.953,808.913,366.6589451197061
28,1686361732.01,-60.059,10.254,-30.273,-49.316,808.917,369.2304918410934
29,1686361732.01,-85.449,-268.555,-46.875,-64.453,808.921,409.1026876676242
30,1686361732.02,-43.457,-900.879,-27.832,5.371,808.925,379.5234184762039
31,1686361732.02,-8.789,-503.906,37.109,23.438,808.929,357.54431794630216
32,1686361732.02,-51.27,206.543,-20.02,-27.344,808.933,380.58924759795303
33,1686361732.03,-107.422,-56.641,-57.617,-7.324,808.937,379.0880625605783
34,1686361732.03,-77.148,-354.98,10.254,104.98,808.941,394.4954262687658
35,1686361732.04,-21.973,316.406,7.324,191.895,808.945,368.92799572315613
36,1686361732.07,-20.02,473.145,-58.594,166.504,808.963,397.27833209943896
37,1686361732.07,-52.734,-16.113,-53.711,84.473,808.967,377.974277060357
38,1686361732.08,-48.34,-42.969,-8.301,69.336,808.971,385.6344073274748
39,1686361732.08,-0.488,215.82,-10.254,100.586,808.975,362.2612939181736
40,1686361732.08,13.184,176.27,-42.969,67.383,808.979,368.6936057745498
41,1686361732.09,-30.762,-413.574,-64.941,4.395,808.983,386.0413541357847
42,1686361732.09,-61.035,-584.961,-24.414,-15.625,808.987,373.6825209347811
43,1686361732.09,-30.273,-27.344,20.02,13.672,808.991,377.4291838905092
44,1686361732.1,33.691,247.07,-27.832,149.414,808.993,377.56226439405657
45,1686361732.1,1.953,321.289,-21.484,43.457,808.994,361.3812382816326
46,1686361732.1,-0.977,-102.539,7.324,79.59,808.997,362.2114950875109
47,1686361732.1,-23.926,-368.164,-79.59,1.465,808.998,385.0433192040011
48,1686361732.1,-66.406,-86.426,-21.973,-28.809,809.001,368.07735980276544
49,1686361732.11,-62.012,-543.945,11.719,-30.273,809.002,374.1656685972014
50,1686361732.11,-23.926,17.09,-19.531,0.977,809.005,379.54911866123945
51,1686361732.11,-19.043,232.422,17.09,57.617,809.006,365.5571099874512
52,1686361732.11,66.895,-44.922,-27.344,96.191,809.009,385.4419649056667
53,1686361732.12,62.988,-486.328,-31.25,72.754,809.012,368.57839659919733
54,1686361732.12,0.977,-349.609,12.207,-79.102,809.016,380.258460543142
55,1686361732.12,-20.996,-62.5,-19.043,-123.535,809.02,357.64008278351497
56,1686361732.13,21.484,-345.215,-28.32,-37.109,809.024,374.44684653388083
57,1686361732.13,34.18,-420.41,-9.766,-31.738,809.028,371.1975181551401
58,1686361732.14,-7.812,-38.574,-24.902,-99.609,809.032,377.4313102058879
59,1686361732.14,-25.879,90.332,-38.086,-109.375,809.036,380.2317819566791
60,1686361732.16,4.395,-187.988,-45.898,-56.152,809.052,365.3677247107116
61,1686361732.16,32.715,-936.035,-31.738,-5.371,809.056,360.2163712448765
62,1686361732.16,18.555,-606.934,51.758,-67.871,809.06,365.22666074346046
63,1686361732.17,5.859,249.512,15.625,-148.438,809.064,344.783122293912
64,1686361732.17,9.277,23.438,-51.27,-98.145,809.068,337.87478261233827
65,1686361732.18,17.09,-239.258,-28.809,-31.25,809.072,373.5356844084332
66,1686361732.18,-4.883,-61.523,-3.906,-75.684,809.076,377.92336008618423
67,1686361732.18,-51.758,143.066,-25.879,-114.258,809.08,366.7192118678009
68,1686361732.19,-1.465,-726.562,-40.527,18.555,809.083,371.66431834732845
69,1686361732.19,-59.082,-454.102,-65.43,-47.363,809.083,351.92419071790096
70,1686361732.19,9.277,-197.754,11.719,61.523,809.086,356.3641117705253
71,1686361732.19,3.418,-496.582,28.32,10.254,809.087,357.7348029893883
72,1686361732.19,18.555,245.605,-22.949,41.504,809.09,348.910501292038
73,1686361732.2,62.012,163.086,-0.488,-4.395,809.091,375.11472443394183
74,1686361732.2,-24.902,-149.414,-52.246,-41.504,809.094,359.54505659832034
75,1686361732.2,35.156,-198.73,-78.613,-25.391,809.095,374.3179172952005
76,1686361732.2,-67.871,-461.426,-18.066,-89.355,809.098,370.7410692956532
77,1686361732.21,-27.832,-411.621,-27.832,-39.062,809.102,371.43927111153573
78,1686361732.21,20.996,-292.48,-40.527,-20.508,809.106,385.79447335883293
79,1686361732.21,15.625,-414.062,-41.992,-50.781,809.11,387.2837572364758
80,1686361732.22,-8.789,-688.477,-14.16,-41.504,809.114,372.312022974581
81,1686361732.22,12.207,-213.867,6.348,10.742,809.118,367.6133868543075
82,1686361732.22,64.941,157.227,-14.648,36.621,809.122,357.27853057680454
83,1686361732.23,48.34,-234.375,-64.941,-20.02,809.125,355.2440401759055
84,1686361732.23,-3.906,-871.582,-39.551,-64.453,809.131,357.6655576665546
85,1686361732.24,-8.789,-478.027,37.598,-45.898,809.135,389.8152444776203
86,1686361732.24,15.625,45.898,0.977,-25.391,809.139,391.2276751082473
87,1686361732.24,21.484,-217.773,-38.086,-59.082,809.143,350.87253284836794
88,1686361732.25,-3.906,-499.512,-5.371,-114.746,809.147,354.4860250507643
89,1686361732.25,-14.16,-375.488,-17.578,-91.797,809.151,355.77542676183504
90,1686361732.26,21.973,-230.957,-32.715,29.297,809.155,351.48249023939087
91,1686361732.26,46.387,-465.82,-60.547,108.398,809.158,352.0915102834467
92,1686361732.26,-0.977,-561.035,19.043,32.227,809.162,381.2366572718959
93,1686361732.27,-42.969,-5.371,18.066,-67.383,809.166,371.1240154802264
94,1686361732.27,-40.527,-31.25,-39.551,-49.805,809.17,368.8087567796701
95,1686361732.28,-18.555,-334.473,-12.207,12.207,809.174,374.162251330119
96,1686361732.28,-22.949,-182.617,-5.859,-22.949,809.175,380.30727751213726
97,1686361732.28,-70.801,-103.027,-24.414,-85.938,809.179,361.01449893415617
98,1686361732.28,-64.941,-304.199,-34.668,-70.801,809.182,351.8632082309524
99,1686361732.29,1.953,-504.395,-0.977,-7.812,809.186,372.99953466240186
100,1686361732.29,18.555,-518.066,-12.207,-34.18,809.19,387.3336297233632
101,1686361732.3,-16.113,-592.285,-28.32,-145.508,809.194,372.2207497300001
102,1686361732.3,-33.691,-644.043,-20.508,-163.086,809.198,357.93468670952603
103,1686361732.3,-12.695,-955.078,-23.926,-74.707,809.202,366.95917236901016
104,1686361732.31,-12.695,-729.492,29.785,-63.477,809.206,380.472274422904
105,1686361732.31,-56.152,63.965,-8.789,-122.07,809.21,374.82373494955567
106,1686361732.32,-86.426,-135.742,-63.477,-115.234,809.214,387.2434632506315
107,1686361732.32,-56.152,-385.254,-3.418,-60.547,809.218,358.6633128814135
108,1686361732.32,-21.484,7.812,-11.23,-51.758,809.218,358.63107615038405
109,1686361732.33,-58.594,-58.594,-52.734,-108.887,809.222,362.6820316404993
110,1686361732.33,-82.031,-500.488,-32.227,-103.516,809.226,371.7452455854138
111,1686361732.33,-42.969,-466.309,19.043,-34.18,809.23,376.6800933053109
112,1686361732.34,0.977,-135.254,-14.648,-30.273,809.233,346.68647795944736
113,1686361732.34,16.113,-369.629,-37.598,-92.773,809.237,354.18097352436206
114,1686361732.34,-5.859,-812.012,-53.711,-138.672,809.241,361.66390802591445
115,1686361732.35,-48.34,-1000.0,-26.855,-74.219,809.245,364.787332071859
116,1686361732.35,-29.785,-207.031,53.711,13.672,809.249,387.943613286665
117,1686361732.36,-3.418,219.238,-13.184,15.625,809.253,363.13554441914914
118,1686361732.36,-44.922,-330.566,-47.363,-24.902,809.257,364.49330792929186
119,1686361732.36,-47.852,-253.906,-3.906,1.953,809.261,349.47241524399595
120,1686361732.37,11.23,51.27,-17.578,50.781,809.277,375.47649726074826
121,1686361732.37,9.277,-114.746,-37.109,7.324,809.28,367.09345305833943
122,1686361732.37,-39.062,-450.195,11.23,-84.473,809.284,371.62720732005283
123,1686361732.38,-48.828,-331.055,-6.836,-98.633,809.288,362.96695820658135
124,1686361732.38,-15.137,-144.531,-22.949,-46.387,809.292,358.33281231525785
125,1686361732.39,-5.859,-463.867,-39.062,-8.301,809.296,372.7505073659246
126,1686361732.39,-55.176,-870.117,-42.48,-54.688,809.3,377.23949386089936
127,1686361732.39,-85.449,-506.348,-13.672,-149.414,809.304,356.6352067314039
128,1686361732.4,-54.688,-256.836,-32.227,-148.438,809.308,382.33254944795755
129,1686361732.4,-41.504,-380.371,-38.086,-73.73,809.312,341.8520771913182
130,1686361732.4,-68.359,-829.102,-37.598,-63.965,809.316,368.50119374691553
131,1686361732.41,-97.656,-374.023,9.277,-127.441,809.319,354.4646165644544
132,1686361732.41,-95.703,190.918,-13.184,-98.145,809.323,361.22335096277834
133,1686361732.42,-34.18,-131.836,-38.574,-17.578,809.327,382.60010081242837
134,1686361732.42,-7.812,-107.422,-2.441,-17.09,809.331,348.5174152407739
135,1686361732.42,-42.48,54.199,-19.043,-14.16,809.334,356.66912985267425
136,1686361732.43,-65.43,-65.918,-47.363,28.32,809.338,364.13000296785356
137,1686361732.43,-39.551,-498.535,-58.105,62.988,809.342,361.72172304783913
138,1686361732.43,-0.488,-513.672,-10.742,37.109,809.346,375.7230096486754
139,1686361732.44,-12.207,30.273,-9.766,-71.777,809.35,377.6351949248577
140,1686361732.44,-20.02,-14.16,-50.781,-100.098,809.354,373.93515115899595
141,1686361732.45,0.0,-538.086,-60.059,-48.828,809.358,364.1176032010676
142,1686361732.45,13.672,-273.926,-7.324,-49.316,809.362,374.8046408002013
143,1686361732.45,6.348,80.078,-18.555,-130.371,809.366,358.18049535307244
144,1686361732.47,-19.043,-414.551,-56.152,-171.387,809.368,364.5368873059491
145,1686361732.48,-21.484,-772.949,-20.02,-93.262,809.372,354.01671360206046
146,1686361732.48,22.461,-175.293,23.438,-34.668,809.376,354.20308257109303
147,1686361732.48,28.32,235.352,-17.09,-95.703,809.38,373.2906639942113
148,1686361732.49,-27.344,-159.668,-56.152,-175.293,809.383,354.9231832011464
149,1686361732.49,-51.758,-639.648,-26.367,-177.734,809.387,373.3118803588542
150,1686361732.5,-16.602,-268.066,21.973,-159.18,809.391,382.61387584147514
151,1686361732.5,-6.348,117.188,-22.949,-205.078,809.395,350.0051131849367
152,1686361732.5,-59.082,-339.355,-54.688,-274.414,809.399,367.7848196546742
153,1686361732.51,-96.191,-905.762,-18.555,-238.281,809.403,374.3797962360969
154,1686361732.51,-65.43,-242.676,51.27,-143.066,809.407,374.8785785709136
155,1686361732.52,-40.039,441.895,4.883,-125.0,809.411,379.4615832257039
156,1686361732.52,-74.707,34.668,-38.086,-159.18,809.413,374.65787908613663
157,1686361732.52,-104.004,-91.797,-5.371,-137.207,809.417,376.00321861786307
158,1686361732.52,-62.012,-35.156,-30.762,-37.109,809.421,377.9278858943338
159,1686361732.53,-6.836,-13.672,-23.438,41.504,809.425,368.67530784296207
160,1686361732.53,-27.344,-188.477,-40.039,47.363,809.429,392.8202686607035
161,1686361732.54,-63.965,-534.668,-26.855,29.785,809.433,358.0537612095861
162,1686361732.54,-41.992,-237.793,22.461,30.273,809.437,372.75260075207154
163,1686361732.54,-6.836,232.422,9.766,32.227,809.441,363.7024667262088
164,1686361732.55,-25.391,-251.953,-62.012,-20.02,809.445,388.66942256002636
165,1686361732.55,-69.824,-497.07,9.277,-96.191,809.449,372.37470776890893
166,1686361732.56,-82.031,176.758,20.508,-60.547,809.452,360.3902815916983
167,1686361732.56,-59.082,178.223,-42.969,40.527,809.456,368.90888297670296
168,1686361732.56,-29.297,-141.602,-10.742,55.664,809.458,373.6378141921367
169,1686361732.57,-40.039,23.926,-2.441,-0.488,809.462,378.88810363150634
170,1686361732.57,-55.664,156.738,-20.02,-21.973,809.466,375.1742005809798
171,1686361732.57,-19.043,11.23,-19.043,20.996,809.47,358.612913816539
172,1686361732.58,23.438,-154.785,-1.465,62.5,809.473,366.9718040524833
173,1686361732.58,10.254,-243.164,-20.508,68.848,809.477,351.98747317790054
174,1686361732.58,5.859,-336.426,-25.879,54.199,809.481,346.6464931591773
175,1686361732.59,49.316,-263.184,-5.859,111.816,809.485,365.1248692989609
176,1686361732.59,70.801,-852.051,-36.133,192.383,809.489,390.63993153482863
177,1686361732.6,54.199,-846.191,20.508,98.633,809.493,377.89164848962827
178,1686361732.6,2.441,265.137,28.32,-63.965,809.497,378.68179209188946
179,1686361732.6,-35.645,319.824,-32.715,-57.129,809.501,385.9356586226741
180,1686361732.62,-3.418,235.352,11.719,61.035,809.518,389.88629154064074
181,1686361732.63,9.277,444.336,1.953,80.078,809.522,390.82451193821527
182,1686361732.63,-20.508,214.355,-35.156,-74.707,809.526,382.69880585113634
183,1686361732.63,-15.137,-111.328,-31.25,-150.391,809.53,375.40738120488027
184,1686361732.64,47.852,-1.465,4.883,-68.359,809.534,374.0002556796186
185,1686361732.64,79.59,-15.625,-9.766,-33.691,809.538,383.38647246160895
186,1686361732.64,33.203,-184.57,-35.156,-107.91,809.542,372.58915520058883
187,1686361732.65,-26.855,-550.293,-62.012,-117.676,809.545,384.0997698492178
188,1686361732.65,-14.648,-784.668,17.09,7.812,809.549,367.59905548571254
189,1686361732.66,16.113,261.719,47.852,60.547,809.553,365.8575524768439
190,1686361732.66,-0.977,515.137,-30.762,-7.324,809.557,389.8198866853676
191,1686361732.66,-18.066,-56.152,-25.879,-40.527,809.561,390.84713019877944
192,1686361732.67,21.484,104.98,7.324,38.574,809.563,394.50011802345523
193,1686361732.67,62.988,368.652,-18.066,104.98,809.567,395.178360278517
194,1686361732.67,38.574,149.902,-39.551,56.152,809.571,409.66289183949584
195,1686361732.68,-10.254,-160.645,9.277,6.836,809.574,387.6316205056453
196,1686361732.68,-18.555,-41.504,0.488,55.664,809.578,397.562938172629
197,1686361732.69,25.391,-67.383,-32.227,147.949,809.582,399.96232093751354
198,1686361732.69,40.039,-207.52,-27.344,149.902,809.586,393.4246579813609
199,1686361732.69,-3.418,-396.973,-1.953,63.477,809.59,396.374333017646
200,1686361732.7,-14.16,-276.855,3.418,37.109,809.594,414.46891981842816
201,1686361732.7,-57.129,-728.516,49.805,-25.879,809.593,409.64724783567334
202,1686361732.7,-42.969,404.297,33.203,29.785,809.596,393.6752439689659
203,1686361732.7,7.812,155.762,-12.207,117.188,809.598,393.10201120714333
204,1686361732.7,11.23,57.617,-34.18,162.109,809.602,397.42671839579907
205,1686361732.7,-15.625,351.562,-27.832,98.633,809.6,411.26016753394316
206,1686361732.71,-21.484,-887.695,-37.109,67.383,809.606,404.1333266081919
207,1686361732.71,-35.645,234.375,6.836,26.367,809.604,391.30088136911496
208,1686361732.71,-51.758,341.797,-32.715,-56.152,809.608,407.9815072467765
209,1686361732.72,-39.062,-53.711,-41.504,-35.645,809.612,398.45119582586983
210,1686361732.72,-16.113,-224.609,-22.461,-16.113,809.616,416.3095192271229
211,1686361732.72,-3.418,57.617,-33.691,-56.641,809.62,403.1554349525832
212,1686361732.73,-30.273,183.105,-24.414,-96.191,809.624,411.7884667387039
213,1686361732.73,-47.363,108.887,-35.645,-92.285,809.628,410.96296834243225
214,1686361732.74,-26.367,-508.301,-70.801,-50.293,809.632,411.82213157063745
215,1686361732.74,-22.461,-439.941,19.531,-68.359,809.635,419.9886815410894
216,1686361732.74,-54.688,113.77,-4.395,-123.047,809.642,417.9716659655355
217,1686361732.75,-72.754,-239.258,-64.453,-111.328,809.646,414.85559030867586
218,1686361732.75,-53.223,-538.574,-24.414,-51.27,809.649,417.21033321917565
219,1686361732.76,-33.691,-14.648,-6.836,-50.781,809.653,429.7810004656351
220,1686361732.76,-50.781,229.492,-32.227,-144.043,809.657,437.786116876078
221,1686361732.76,-55.176,-372.07,-55.176,-214.355,809.661,433.33222583622353
222,1686361732.77,-10.254,-823.73,-38.574,-178.711,809.665,419.97788601710323
223,1686361732.77,25.391,-291.992,-10.254,-146.484,809.669,457.6565612791423
224,1686361732.77,11.23,-5.371,-30.762,-158.691,809.673,440.2351111763977
225,1686361732.78,-19.531,-343.75,-43.457,-141.113,809.677,435.2365648617693
226,1686361732.78,-8.789,-592.285,13.184,-59.082,809.681,447.3042077908881
227,1686361732.79,17.578,48.34,20.996,27.832,809.685,437.12613107191163
228,1686361732.79,4.883,271.484,-47.852,-3.906,809.728,450.5671310207207
229,1686361732.79,-43.945,-240.723,-56.152,-104.004,809.732,452.57388307651854
230,1686361732.8,-49.805,-322.266,-32.715,-93.75,809.736,434.7939888787721
231,1686361732.8,7.812,-226.074,-33.691,-21.484,809.74,441.35686515445417
232,1686361732.8,31.738,-142.578,-25.391,-18.066,809.744,436.76307284461143
233,1686361732.81,-14.648,-490.234,-75.684,-72.266,809.747,430.24940621654383
234,1686361732.81,-40.527,-953.613,-34.668,-81.055,809.751,425.51094690317757
235,1686361732.81,-1.465,-181.641,23.926,-7.812,809.755,422.7673479149489
236,1686361732.82,24.902,178.223,-47.363,33.203,809.759,440.4235264452697
237,1686361732.82,-10.254,-304.199,-72.266,-25.391,809.763,447.2168619308156
238,1686361732.83,-38.086,-338.379,-34.18,-80.566,809.767,433.9810545017068
239,1686361732.83,-1.953,-190.918,-22.461,-86.914,809.771,449.6501012061991
240,1686361732.84,44.434,-199.219,-41.992,-81.055,809.744,433.0460263612245
241,1686361732.84,28.809,-397.949,-7.812,-103.027,809.747,470.1887398772907
242,1686361732.84,-20.996,-316.895,-16.602,-138.184,809.751,471.4930630009099
243,1686361732.85,-27.832,-192.871,-39.062,-104.004,809.755,473.18773073079393
244,1686361732.85,-1.953,-327.148,-46.387,-39.062,809.759,441.7100231135945
245,1686361732.86,-5.859,-755.371,-25.879,-54.688,809.763,449.4460842763697
246,1686361732.86,-50.293,-740.723,-24.902,-121.094,809.767,451.65035332895843
247,1686361732.86,-63.965,-506.836,-21.484,-91.309,809.771,447.4257536395515
248,1686361732.87,-20.996,-587.402,-18.555,26.855,809.775,471.06142482555134
249,1686361732.87,7.324,-564.453,-12.207,60.547,809.779,440.95038206748103
250,1686361732.88,-21.484,-241.699,-14.648,-30.273,809.783,456.30143052012954
251,1686361732.88,-60.059,-201.66,-52.246,-60.059,809.786,441.3522030937427
252,1686361732.89,-51.758,-505.859,-48.34,45.41,809.788,467.8789169306024
253,1686361732.9,-20.508,-526.367,-7.324,135.254,809.792,463.97530089786886
254,1686361732.9,-27.344,-277.344,-37.109,128.418,809.796,457.27310135312507
255,1686361732.9,-42.969,-376.953,-41.992,64.941,809.799,444.6279684005528
256,1686361732.91,-17.578,-623.047,-53.711,73.242,809.803,447.22378719843624
257,1686361732.91,13.672,-1000.0,-74.707,124.512,809.807,455.44441425815836
258,1686361732.91,-22.461,-958.984,-19.043,59.082,809.811,455.88663781054487
259,1686361732.92,-74.219,-259.277,-3.906,-50.781,809.815,440.37832574187456
260,1686361732.92,-49.805,-288.574,-52.734,-58.594,809.819,465.0928457974702
261,1686361732.93,27.344,-243.652,-19.531,-4.395,809.823,454.68251009854436
262,1686361732.93,60.059,148.926,-20.508,-29.297,809.827,441.3512952256419
263,1686361732.93,11.719,-118.652,-60.059,-105.957,809.831,466.04923556894795
264,1686361732.94,-14.16,-755.371,-72.754,-110.84,809.833,456.74344061069866
265,1686361732.94,41.504,-473.633,-22.461,-60.547,809.837,463.76068971417686
266,1686361732.94,74.707,11.719,-29.297,-45.898,809.84,432.4420001456697
267,1686361732.95,46.875,-236.816,-55.176,-133.301,809.844,449.5819528677143
268,1686361732.95,12.207,-583.008,-16.113,-213.867,809.848,424.57418743961483
269,1686361732.96,17.578,-680.664,-15.137,-187.988,809.852,434.30410897030833
270,1686361732.96,42.969,-463.867,-14.16,-150.879,809.856,412.333958591258
271,1686361732.96,15.625,-342.773,-53.223,-177.734,809.86,451.7393570418012
272,1686361732.97,-26.855,-937.5,-47.852,-207.031,809.864,456.21162822234965
273,1686361732.97,-6.348,-657.715,69.336,-149.902,809.868,456.4718894953744
274,1686361732.98,25.879,104.98,0.488,-70.801,809.872,446.4755806509941
275,1686361732.98,4.883,-205.078,-51.758,-64.453,809.876,446.3711667548106
276,1686361732.98,-41.504,-432.617,2.441,-90.82,809.878,440.0990001914728
277,1686361732.98,-41.992,-94.727,-11.23,-44.434,809.882,456.1420441136549
278,1686361732.99,-2.93,10.742,-34.18,31.738,809.886,447.7554983688733
279,1686361732.99,-4.883,-373.535,-37.109,11.23,809.89,451.314434009751
280,1686361733.0,-49.316,-550.781,-2.93,-68.359,809.894,440.36678091286194
281,1686361733.0,-62.988,-489.746,-16.602,-105.957,809.897,435.1782008572671
282,1686361733.0,-34.18,-403.32,-30.762,-70.312,809.901,451.8434637547472
283,1686361733.01,-17.09,-537.598,-51.27,-33.691,809.905,443.2217823015925
284,1686361733.01,-32.227,-625.0,12.207,-94.238,809.909,443.30629176779036
285,1686361733.02,-52.246,1.465,10.742,-178.711,809.913,445.79617050906046
286,1686361733.02,-25.879,78.613,-37.598,-134.766,809.917,430.9493018530337
287,1686361733.02,9.277,-224.609,-21.484,-83.496,809.921,438.87895515130947
288,1686361733.03,-14.648,-62.012,-13.184,-139.648,809.926,461.9218089613854
289,1686361733.03,-56.152,-75.195,-36.133,-197.754,809.93,438.98788142451434
290,1686361733.04,-48.34,-463.379,-40.527,-188.965,809.934,431.08743009593604
291,1686361733.04,-9.277,-660.645,8.301,-154.785,809.938,435.8350155824996
292,1686361733.04,-6.348,-187.5,-4.395,-162.598,809.941,442.90775975207714
293,1686361733.05,-53.711,-167.969,-57.617,-197.266,809.945,437.9737134124762
294,1686361733.05,-82.52,-493.652,-41.016,-187.5,809.949,437.08543803367854
295,1686361733.05,-52.734,-811.035,-37.109,-154.785,809.953,429.50703645626714
296,1686361733.06,-18.555,-445.801,-10.254,-196.289,809.957,438.1901816195135
297,1686361733.06,-30.273,249.023,-9.277,-272.949,809.961,424.8223036429259
298,1686361733.07,-57.617,-46.387,-62.012,-252.441,809.965,435.33710333668927
299,1686361733.07,-40.039,-509.277,2.441,-167.969,809.969,441.3998040266854
300,1686361733.07,-0.488,134.766,12.207,-102.051,809.968,426.1253046769504
301,1686361733.08,-7.812,337.891,-50.781,-116.699,809.972,432.029130031512
302,1686361733.08,-43.457,-120.117,-35.645,-134.277,809.976,417.5159520542575
303,1686361733.08,-41.992,-100.098,-20.02,-66.895,809.98,438.7038294446355
304,1686361733.09,-18.066,-53.223,-35.645,-27.344,809.984,441.7070269930515
305,1686361733.09,-38.574,-127.441,-26.367,-107.91,809.988,433.88855621344817
306,1686361733.1,-87.891,-488.77,-60.547,-166.992,809.991,448.93642370663537
307,1686361733.1,-94.238,-868.652,-24.902,-104.98,809.995,440.75347300903394
308,1686361733.1,-49.805,75.195,22.461,-14.16,809.999,436.27253337678565
309,1686361733.11,-29.785,470.703,-46.875,-30.273,810.003,435.5444046870376
310,1686361733.11,-61.035,-33.203,-57.617,-120.605,810.007,430.54802409099295
311,1686361733.12,-51.758,67.383,-26.367,-132.324,810.011,417.5680148574407
312,1686361733.12,22.461,324.707,-24.414,-63.477,810.026,431.41239818507114
313,1686361733.12,50.781,161.133,-52.734,-29.297,810.03,392.21165908510386
314,1686361733.12,6.836,-183.105,-3.418,-63.477,810.034,432.49103683517063
315,1686361733.13,-21.484,-20.02,4.883,-55.664,810.038,444.2004201704157
316,1686361733.13,1.953,169.922,-30.762,29.297,810.042,415.50345253024506
317,1686361733.14,22.949,-187.5,-56.152,90.332,810.046,433.1835443463949
318,1686361733.14,15.137,-813.477,-63.965,104.004,810.05,437.098279893374
319,1686361733.14,-17.578,-536.133,-14.16,115.723,810.054,416.6271071577559
320,1686361733.15,-7.324,5.371,-14.648,137.695,810.058,422.66269232822464
321,1686361733.15,30.273,17.578,-43.457,152.344,810.062,430.9812717426839
322,1686361733.16,19.531,-605.957,-53.711,90.82,810.065,440.0913980910765
323,1686361733.16,-8.301,-134.277,-8.301,8.301,810.069,419.94976330045444
324,1686361733.18,4.883,515.625,-23.926,31.25,810.073,440.97711419957193
325,1686361733.18,39.062,246.094,-41.504,121.582,810.077,436.2966552436056
326,1686361733.18,21.973,266.113,-10.254,144.531,810.081,420.5530360455487
327,1686361733.19,-19.531,328.125,-25.879,36.621,810.085,407.175998888649
328,1686361733.19,-27.832,207.031,-37.598,-17.09,810.089,397.8442403328113
329,1686361733.2,-11.23,-181.641,-44.922,50.781,810.093,437.3053029234026
330,1686361733.2,4.395,-226.074,-2.93,63.477,810.097,415.72516835153925
331,1686361733.2,-27.344,273.438,-8.301,-35.156,810.1,421.45228930307917
332,1686361733.21,-81.543,230.957,-56.641,-51.758,810.104,414.23515770227465
333,1686361733.21,-62.012,-387.207,-75.684,27.344,810.108,404.73296963276067
334,1686361733.22,-17.578,-245.117,1.953,47.363,810.112,399.12426896984215
335,1686361733.22,-30.762,356.934,-5.859,0.0,810.116,399.56830841839616
336,1686361733.22,-68.359,158.203,-49.316,-21.973,810.118,405.85465773081876
337,1686361733.23,-58.105,-436.523,-42.969,28.32,810.122,393.9001848621934
338,1686361733.23,-11.719,-41.016,-1.953,73.73,810.126,416.5684724036535
339,1686361733.23,-23.438,454.59,-22.949,10.254,810.13,404.07743922503096
340,1686361733.24,-74.707,124.512,-60.059,-62.5,810.134,402.9180665223503
341,1686361733.24,-78.125,-406.738,-15.137,-29.785,810.137,401.6770622226971
342,1686361733.24,-26.367,-146.484,20.996,11.719,810.141,401.6734522803581
343,1686361733.25,7.812,301.27,-21.484,-23.438,810.145,415.39159976072733
344,1686361733.25,-16.602,-83.008,-53.711,-110.84,810.149,416.7713630353112
345,1686361733.26,-28.809,-867.188,-45.41,-128.418,810.153,395.66911041383673
346,1686361733.26,16.113,-393.555,45.41,-59.57,810.157,403.07986281293887
347,1686361733.26,44.434,481.934,1.465,-29.297,810.161,405.2418407081963
348,1686361733.27,7.324,169.922,-41.992,-98.633,810.163,404.0546743146362
349,1686361733.27,-35.156,-32.715,14.16,-157.227,810.167,395.2767077178603
350,1686361733.28,-21.973,394.531,-11.719,-85.449,810.171,395.44633755945114
351,1686361733.28,19.531,537.598,-32.227,-34.18,810.175,397.47933125003925
352,1686361733.28,19.531,105.957,-56.641,-137.695,810.178,383.0071354280244
353,1686361733.29,-17.578,-272.949,-49.805,-217.285,810.182,393.92855943386616
354,1686361733.29,-16.602,-47.363,6.348,-165.039,810.186,389.9809800600295
355,1686361733.29,20.996,386.719,-18.555,-94.238,810.19,402.0352780096551
356,1686361733.3,24.902,-130.371,-78.125,-102.051,810.194,398.8231169176547
357,1686361733.3,-23.438,-421.387,16.113,-147.949,810.198,419.20172469329475
358,1686361733.31,-37.598,311.035,3.906,-148.438,810.202,392.9442738346937
359,1686361733.31,5.371,342.773,-44.922,-119.629,810.206,392.61669524281103
360,1686361733.31,24.902,6.836,-13.672,-135.742,810.208,399.82789555377644
361,1686361733.32,9.277,181.152,-13.184,-184.082,810.212,388.5075353647468
362,1686361733.32,3.906,116.699,-41.016,-162.598,810.216,415.31300509688936
363,1686361733.32,20.996,-196.289,-37.598,-46.387,810.22,399.7153831727272
364,1686361733.33,28.809,-390.625,10.254,30.762,810.224,401.6402903379086
365,1686361733.33,5.859,-252.441,12.695,-7.324,810.228,407.9316739485064
366,1686361733.34,-27.832,55.176,-10.742,-41.016,810.231,385.0221685131099
367,1686361733.34,-14.16,115.723,-41.504,14.16,810.235,413.84964558691604
368,1686361733.34,31.738,-727.539,-43.945,57.617,810.239,396.7230409658132
369,1686361733.35,26.855,-475.098,52.246,-7.324,810.243,402.8139158214636
370,1686361733.35,-12.207,442.383,-2.93,-52.734,810.247,391.50492981643254
371,1686361733.36,-7.324,236.816,-58.594,12.695,810.251,384.41198837871127
372,1686361733.36,44.922,202.148,-4.883,53.223,810.253,379.6509787319751
373,1686361733.36,46.875,436.035,-16.113,-3.418,810.257,384.8202170318158
374,1686361733.36,-10.254,284.18,-45.41,-69.336,810.261,402.0807449782745
375,1686361733.37,-24.902,-78.613,-45.41,-38.086,810.265,384.7091691656155
376,1686361733.37,6.348,-62.5,-19.531,50.781,810.268,396.55454525182023
377,1686361733.38,32.715,-15.137,-36.133,47.363,810.272,400.2594746785283
378,1686361733.38,14.16,-119.629,-53.223,-41.016,810.276,372.94688481435065
379,1686361733.38,-12.695,-504.395,-66.406,-51.27,810.28,397.25383330349496
380,1686361733.39,18.555,-804.688,-2.441,33.203,810.284,397.3296826916176
381,1686361733.39,54.199,165.527,26.855,92.773,810.288,360.2462983649196
382,1686361733.4,4.395,487.793,-35.645,42.48,810.292,390.83485003079005
383,1686361733.4,-46.387,-29.297,-50.781,-40.039,810.296,373.21100791322834
384,1686361733.4,-33.691,128.418,-16.113,-40.039,810.298,377.982896058482
385,1686361733.4,-0.488,411.621,-13.672,-1.953,810.302,369.2063684445543
386,1686361733.41,-4.883,142.578,-41.016,-37.598,810.306,360.1445930079383
387,1686361733.41,-54.199,-195.801,1.953,-106.445,810.309,383.20537191461875
388,1686361733.42,-51.27,-55.664,-3.418,-76.66,810.313,363.6316599504332
389,1686361733.42,-7.812,-64.941,-28.809,-25.879,810.317,369.54368176288637
390,1686361733.42,-25.391,-262.695,-41.016,-91.309,810.321,378.70779775864776
391,1686361733.43,-73.242,-768.066,-43.457,-153.809,810.325,357.8956843543731
392,1686361733.43,-79.102,-529.785,-11.23,-124.023,810.329,378.2126705838764
393,1686361733.44,-52.246,71.289,-17.09,-58.594,810.333,362.0520943102491
394,1686361733.44,-41.992,189.941,-34.668,-17.578,810.337,344.9691986782592
395,1686361733.44,-70.312,29.785,-24.414,-51.27,810.341,333.7415542247773
396,1686361733.45,-97.168,102.539,-14.648,-72.266,810.343,327.744963972196
397,1686361733.45,-69.336,321.777,-20.996,18.066,810.347,319.4898027750549
398,1686361733.45,-25.391,-65.43,-55.176,107.91,810.351,330.83615001613884
399,1686361733.46,-49.316,-737.793,-33.203,73.242,810.355,338.1097071046925
400,1686361733.46,-97.656,-174.316,3.906,-10.742,810.359,323.679743985245
401,1686361733.47,-66.406,110.352,-30.762,-8.301,810.362,333.28577814840963
402,1686361733.47,-6.348,-359.863,-45.898,20.508,810.366,328.6432093758461
403,1686361733.47,-6.348,-397.461,20.996,-35.645,810.37,305.99930298657597
404,1686361733.48,-56.152,262.695,9.277,-135.742,810.374,300.4739544468871
405,1686361733.48,-80.566,278.32,-48.828,-120.605,810.378,322.23465437518826
406,1686361733.48,-52.246,-200.684,-43.945,-8.301,810.382,291.77105573236565
407,1686361733.49,-44.922,41.016,-9.277,-30.762,810.386,259.4909331050443
408,1686361733.5,-79.102,329.102,-16.113,-142.578,810.402,251.577626519152
409,1686361733.5,-92.773,34.668,-34.668,-169.434,810.406,237.5559135478047
410,1686361733.5,-55.176,-349.609,-3.418,-104.98,810.41,217.11048797637508
411,1686361733.51,-20.02,-34.18,0.977,-90.332,810.414,247.46854201047634
412,1686361733.51,-43.945,222.168,-21.484,-143.066,810.418,228.67933918395138
413,1686361733.52,-71.777,-295.41,-43.457,-117.676,810.422,214.16355602528276
414,1686361733.52,-50.781,-830.078,-38.086,-22.949,810.426,187.58401085539086
415,1686361733.52,-0.977,-257.324,5.859,33.203,810.43,209.42715024570072
416,1686361733.53,-8.301,74.219,-23.926,-17.09,810.433,197.01254067910537
417,1686361733.53,-60.059,-220.703,-23.438,-106.445,810.437,178.18734043320364
418,1686361733.53,-56.641,-189.453,18.555,-87.891,810.441,194.56768102915652
419,1686361733.54,-3.418,197.266,-0.977,-12.695,810.445,177.26677959107755
420,1686361733.54,0.977,285.645,-24.902,-17.578,810.462,175.56509032878
421,1686361733.54,-49.805,-260.742,-43.457,-65.43,810.466,197.93461124903686
422,1686361733.55,-76.172,-846.191,-7.324,-40.527,810.469,180.06303049611816
423,1686361733.55,-41.016,-66.895,46.387,43.945,810.473,154.09570867917625
424,1686361733.55,-17.09,439.453,-16.602,77.148,810.477,173.66183151490816
425,1686361733.56,-64.941,-283.203,-66.406,27.832,810.481,178.15339917345392
426,1686361733.56,-95.215,-455.566,-8.789,5.859,810.485,178.59501377993965
427,1686361733.56,-48.34,214.844,27.832,46.875,810.489,187.93127951889886
428,1686361733.57,-1.465,376.465,-32.227,58.594,810.493,179.9439795716419
429,1686361733.57,-28.32,-263.184,-72.266,-22.949,810.497,165.5962216134066
430,1686361733.58,-52.246,-305.176,-1.953,-112.305,810.501,183.46774138073562
431,1686361733.58,-12.207,168.457,1.953,-77.637,810.505,169.1025780612335
432,1686361733.6,49.805,110.352,-21.973,9.277,810.493,173.09925990636924
433,1686361733.6,60.059,-180.176,4.883,-28.32,810.497,201.07792143509354
434,1686361733.6,20.508,-101.562,-17.578,-101.562,810.501,210.63743824984724
435,1686361733.61,10.254,-58.594,-41.504,-45.898,810.505,205.72732653675916
436,1686361733.61,36.621,-232.91,-35.156,51.27,810.509,221.601886066389
437,1686361733.62,40.039,-737.305,-32.715,52.734,810.513,203.6782078366187
438,1686361733.62,1.465,-386.719,15.137,-34.18,810.517,216.13610238415924
439,1686361733.62,-20.996,150.879,-25.391,-83.496,810.52,205.36355083056011
440,1686361733.63,18.066,-264.648,-36.621,-24.414,810.524,239.57481458751917
441,1686361733.63,47.852,-415.039,28.32,9.277,810.528,211.77988807445797
442,1686361733.64,23.926,100.586,11.23,-58.105,810.532,217.11152832484396
443,1686361733.64,-15.625,306.641,-27.832,-83.496,810.536,249.91957863581905
444,1686361733.64,20.996,-117.188,-44.434,-18.066,810.538,252.25685029463702
445,1686361733.65,59.082,-780.762,-17.578,7.812,810.542,249.5632400752818
446,1686361733.65,19.043,-107.91,23.926,-87.402,810.546,262.33607630707724
447,1686361733.65,-28.809,380.859,-32.715,-142.578,810.55,254.4227698487949
448,1686361733.66,-24.414,-50.781,-48.34,-77.148,810.553,238.91703977464428
449,1686361733.66,11.719,-190.43,-16.113,-18.066,810.557,259.5688025751375
450,1686361733.66,-3.906,-95.703,-11.23,-94.238,810.561,262.0387527403509
451,1686361733.67,-62.5,-16.113,-19.531,-201.66,810.565,258.48360484958255
452,1686361733.67,-78.613,-420.898,-60.547,-180.664,810.569,261.7721336393017
453,1686361733.68,-44.434,-742.676,12.695,-93.262,810.573,289.8690193338691
454,1686361733.68,-20.508,214.844,42.969,-118.164,810.577,264.73477761657455
455,1686361733.68,-52.734,270.508,-45.41,-224.609,810.581,281.65334230687336
456,1686361733.69,-79.59,-281.25,-30.273,-214.844,810.583,266.90517749147216
457,1686361733.69,-31.738,177.734,10.254,-99.121,810.587,269.5750233245253
458,1686361733.7,22.949,517.578,-17.09,-35.645,810.591,302.70459017576997
459,1686361733.7,8.789,196.777,-35.645,-105.469,810.595,290.02502910289155
460,1686361733.7,-14.648,-126.953,2.93,-176.758,810.599,267.7614866621856
461,1686361733.71,17.09,-195.801,-8.789,-157.227,810.602,284.1933586037394
462,1686361733.71,48.828,20.508,0.488,-144.531,810.606,269.1712030674253
463,1686361733.71,32.715,132.324,-31.738,-172.363,810.61,286.49310596581086
464,1686361733.72,-16.113,-832.52,-69.336,-169.922,810.614,268.88560130437764
465,1686361733.72,-18.555,-720.215,49.316,-84.961,810.618,284.58984069069334
466,1686361733.73,35.645,469.727,31.738,8.789,810.622,282.78725936381176
467,1686361733.73,24.902,437.012,-56.641,-16.113,810.626,290.50360696093185
468,1686361733.73,-35.156,102.539,-25.879,-101.562,810.628,266.1534705721289
469,1686361733.74,-35.645,250.0,-21.484,-89.844,810.632,289.42621983211984
470,1686361733.74,13.184,300.781,-38.086,1.953,810.636,307.8063554344634
471,1686361733.74,14.648,89.355,-42.969,11.23,810.64,305.5865710923389
472,1686361733.75,-44.922,34.18,-26.367,-96.68,810.643,305.91826857381886
473,1686361733.75,-69.336,-169.434,-43.457,-139.16,810.647,278.184857610686
474,1686361733.75,-31.738,-171.387,-32.715,-62.012,810.651,290.2162184915476
475,1686361733.76,8.301,-256.348,-40.527,-13.672,810.655,300.50144389338715
476,1686361733.76,-6.348,-417.48,1.465,-74.219,810.659,293.47718785593264
477,1686361733.77,-41.504,219.727,-4.883,-118.652,810.663,305.40080477467774
478,1686361733.77,-33.691,288.086,-46.875,-50.293,810.667,300.5956853316921
479,1686361733.77,-9.277,-178.223,-50.293,25.879,810.671,276.8333178080772
480,1686361733.78,-22.461,52.734,-27.344,25.879,810.672,302.6502687155551
481,1686361733.78,-44.434,348.633,-22.949,28.32,810.676,303.8471427808948
482,1686361733.78,-26.367,76.172,-40.527,104.004,810.68,311.3726898817872
483,1686361733.79,19.531,-237.305,12.695,176.758,810.684,310.29917980407424
484,1686361733.79,26.367,20.02,3.906,130.371,810.688,313.26709829768896
485,1686361733.8,-14.16,-48.34,-44.434,29.297,810.692,317.0392786444811
486,1686361733.8,-11.23,-336.426,-43.457,10.742,810.696,308.7056191215021
487,1686361733.8,43.945,-754.395,-35.645,87.891,810.7,306.36659751922485
488,1686361733.81,67.383,-411.621,-3.906,113.281,810.704,308.0195948755287
489,1686361733.81,23.926,382.812,-17.578,17.09,810.707,324.31579023231654
490,1686361733.82,-15.625,47.852,-62.5,1.953,810.711,314.857425404408
491,1686361733.82,9.277,-480.957,1.953,115.234,810.715,298.93177273604834
492,1686361733.84,26.367,215.332,22.461,128.418,810.737,334.23842058196004
493,1686361733.84,-13.184,378.418,-44.922,35.645,810.741,313.89379924292336
494,1686361733.84,-49.805,-202.637,-28.809,41.992,810.745,318.5214669822372
495,1686361733.85,-31.25,-141.113,19.043,128.906,810.748,297.4689451071589
496,1686361733.85,8.789,301.758,-1.465,160.156,810.752,290.05043347759664
497,1686361733.86,9.766,125.977,-27.344,120.117,810.756,304.0504793438156
498,1686361733.86,-10.742,-464.844,-38.574,89.844,810.76,325.20631243650325
499,1686361733.86,-24.902,-517.09,26.367,123.047,810.764,303.4710933851303
500,1686361733.87,-3.906,303.711,24.902,197.754,810.768,326.61573459316526
501,1686361733.87,2.441,426.27,-47.363,190.918,810.772,304.5736016213857
502,1686361733.88,-43.457,-84.961,-56.641,64.453,810.776,296.51221206107505
503,1686361733.88,-46.875,-24.414,-29.297,7.324,810.78,334.05594484761633
504,1686361733.88,-0.488,269.531,-30.273,36.621,810.791,290.9039575992879
505,1686361733.89,3.418,140.625,-36.133,1.953,810.795,307.2688855890871
506,1686361733.89,-38.574,-196.289,-3.906,-148.438,810.799,311.39064273838477
507,1686361733.89,-54.688,-81.055,-8.301,-209.961,810.803,314.88363591813123
508,1686361733.9,-14.16,-7.812,-43.945,-106.934,810.807,312.24040973040684
509,1686361733.9,38.574,-298.34,-43.457,-31.25,810.811,317.44266566847693
510,1686361733.9,26.855,-537.598,0.977,-106.445,810.815,308.7096802344753
511,1686361733.91,3.418,-273.438,-18.555,-177.734,810.819,272.715392960523
512,1686361733.91,-39.551,198.73,19.531,-130.371,810.822,297.58973708553594
513,1686361733.91,27.344,-182.129,-23.926,-118.652,810.823,319.01859519024714
514,1686361733.92,-14.648,279.297,-28.809,-19.531,810.826,297.15791770472634
515,1686361733.92,44.434,-148.926,-13.184,-62.988,810.827,318.4477323217822
516,1686361733.92,-0.977,201.66,8.301,34.668,810.83,303.81659810356837
517,1686361733.92,15.137,-803.711,-64.453,-89.844,810.83,309.38880973755397
518,1686361733.92,-30.273,348.145,-16.602,-38.574,810.834,301.03990584485035
519,1686361733.92,-29.785,-865.234,11.719,-144.531,810.834,283.87685297177893
520,1686361733.93,-64.941,174.805,-48.34,-107.422,810.838,291.4372632477751
521,1686361733.93,-31.738,-299.316,-47.363,-52.734,810.842,308.56376244896256
522,1686361733.93,0.488,-389.16,-5.859,-1.953,810.846,316.74083612146615
523,1686361733.94,-42.969,-157.715,-21.484,-61.035,810.85,307.7107800459314
524,1686361733.94,-73.73,-22.949,-38.574,-85.938,810.854,312.54114244618404
525,1686361733.95,-38.086,-481.445,-66.406,2.441,810.858,296.03449622106996
526,1686361733.95,12.695,-604.004,18.066,68.359,810.861,314.9660588367897
527,1686361733.95,29.785,171.387,25.391,20.508,810.865,303.85907100174836
528,1686361733.99,-0.977,129.883,-51.27,-47.363,810.883,305.2879853302526
529,1686361733.99,-10.742,-607.422,-44.434,-58.105,810.887,291.82328780020566
530,1686361734.0,41.992,-270.02,32.227,-38.574,810.891,314.62537983279816
531,1686361734.0,65.918,264.16,-8.789,-95.215,810.895,309.11757046398435
532,1686361734.0,7.812,-155.273,-62.012,-224.121,810.898,305.90706653844785
533,1686361734.01,-20.02,-668.457,15.625,-223.145,810.902,293.7785739704541
534,1686361734.01,20.508,-335.449,32.227,-111.816,810.906,307.75128561103213
535,1686361734.01,43.457,57.129,-32.227,-74.707,810.91,320.7983371986841
536,1686361734.02,-11.23,135.742,-45.41,-184.082,810.913,295.03311652062695
537,1686361734.02,-6.836,-336.426,-52.734,-158.203,810.914,315.54113569054175
538,1686361734.02,-75.684,-178.711,-9.766,-195.801,810.917,313.16427605751034
539,1686361734.02,-55.176,-972.168,-46.387,-214.355,810.918,331.94343926780937
540,1686361734.02,-70.801,15.137,-10.254,-65.918,810.921,338.49973731595253
541,1686361734.03,-16.113,-652.344,63.965,-169.434,810.922,331.2757619925795
542,1686361734.03,-34.668,112.305,-23.926,97.656,810.925,314.74345816633087
543,1686361734.03,27.832,288.574,40.039,-137.695,810.926,328.421503696524
544,1686361734.03,-53.223,-213.379,-43.457,101.074,810.929,322.801245698467
545,1686361734.04,-80.566,-627.93,-29.785,9.277,810.933,328.0453640152758
546,1686361734.04,-49.316,-447.754,7.324,18.066,810.937,309.35882862757506
547,1686361734.04,-1.465,-72.754,-7.812,59.082,810.94,323.0322617619694
548,1686361734.05,-10.254,-413.086,-70.801,25.879,810.944,317.8506794839853
549,1686361734.05,-41.992,-446.289,-45.41,-49.805,810.948,306.5367024186065
550,1686361734.06,-44.922,-118.164,-7.812,-49.805,810.952,318.5644999759161
551,1686361734.06,-14.648,-178.223,-39.551,41.992,810.956,323.3982843502088
552,1686361734.06,4.883,-784.18,-99.609,73.242,810.958,313.1942790663821
553,1686361734.06,-14.16,-813.477,15.625,-24.414,810.962,330.6723901870127
554,1686361734.07,-24.414,-56.152,27.832,-73.73,810.966,330.13867749812226
555,1686361734.07,20.996,-9.277,-41.504,15.137,810.97,324.6636169660798
556,1686361734.08,93.262,-286.133,10.254,107.422,810.973,335.7020690469501
557,1686361734.08,61.523,-398.438,-16.602,54.199,810.977,347.74456189793864
558,1686361734.08,-11.23,-395.508,-25.879,1.953,810.981,355.5575274617953
559,1686361734.09,-13.672,-259.766,-32.715,75.684,810.985,317.21550380966903
560,1686361734.09,1.465,-885.254,-48.34,162.598,810.989,395.62706498461864
561,1686361734.1,-13.672,-658.691,44.434,96.68,810.993,396.79289276849715
562,1686361734.1,-48.34,120.117,-4.395,-39.062,810.997,398.56721029752214
563,1686361734.1,-43.457,-145.508,-42.48,-52.734,811.001,451.3182859592591
564,1686361734.11,4.395,-95.703,1.953,1.465,811.003,422.48598265511816
565,1686361734.11,18.066,205.566,-23.438,-19.043,811.007,441.39740341963903
566,1686361734.12,0.0,-5.859,-48.828,-81.543,811.011,435.089484936671
567,1686361734.12,-9.277,-483.398,-26.855,-48.34,811.015,438.39133575964905
568,1686361734.12,14.648,-438.477,24.902,46.387,811.019,478.29759069042717
569,1686361734.13,39.062,-228.027,-0.488,64.941,811.023,458.44408778895973
570,1686361734.13,9.766,-299.316,-42.969,-28.32,811.027,469.47158530165086
571,1686361734.13,-30.273,-625.0,-62.012,-69.824,811.03,526.4467126627779
572,1686361734.14,-19.043,-617.188,22.949,13.184,811.034,530.0317104363222
573,1686361734.14,20.02,138.184,22.461,37.109,811.038,519.5002846691525
574,1686361734.15,-8.789,173.828,-47.852,-71.777,811.042,548.2655439520198
575,1686361734.15,-62.988,-420.898,-57.617,-165.527,811.046,544.051406496975
576,1686361734.15,-59.57,-239.258,-14.16,-145.996,811.048,551.4124565078237
577,1686361734.16,-16.113,190.43,-14.648,-112.793,811.052,553.9619344977464
578,1686361734.16,-12.207,4.395,-34.668,-166.992,811.056,538.5467994354465
579,1686361734.16,-57.129,-337.891,12.207,-213.867,811.06,567.2054019113733
580,1686361734.17,-80.078,-220.215,-2.93,-179.688,811.064,578.4594577021494
581,1686361734.17,-37.598,-208.984,-27.832,-112.793,811.068,561.1645202822887
582,1686361734.18,1.953,-333.008,-35.156,-112.793,811.072,629.1166831343936
583,1686361734.18,-39.062,-886.23,-58.594,-162.109,811.075,620.8561884054059
584,1686361734.18,-67.383,-828.613,39.551,-158.691,811.079,616.9853009808198
585,1686361734.19,-12.695,137.207,24.902,-61.523,811.083,623.925503170401
586,1686361734.19,32.715,261.719,-48.828,12.207,811.087,648.8498607762327
587,1686361734.2,18.066,19.043,-10.254,-15.625,811.091,630.4185565517156
588,1686361734.2,-15.137,152.832,-15.137,-33.691,811.093,634.5899935745464
589,1686361734.2,5.371,194.336,-32.715,20.508,811.097,641.0457122309712
590,1686361734.2,43.457,-63.477,-22.461,31.25,811.101,657.7822585136593
591,1686361734.21,18.555,-45.898,9.277,-58.594,811.105,633.2659358780186
592,1686361734.21,-40.527,70.801,-18.555,-133.789,811.109,630.0675238298979
593,1686361734.22,-47.852,-179.688,-27.832,-73.73,811.113,674.5691001290209
594,1686361734.22,-5.859,-470.703,-33.203,34.18,811.116,652.7063086807207
595,1686361734.22,11.23,-549.316,-1.465,4.395,811.12,652.705573644912
596,1686361734.23,-9.766,-74.219,10.254,-81.543,811.124,650.5045555206241
597,1686361734.23,-9.766,255.859,-21.484,-52.734,811.128,669.8635282908369
598,1686361734.24,40.039,-144.531,-54.199,81.543,811.132,664.9173016623276
599,1686361734.24,48.828,27.832,-10.254,83.496,811.136,637.8069925528309
600,1686361734.24,-13.672,380.371,-17.578,-64.453,811.156,645.6557649814367
601,1686361734.24,-48.34,119.141,-42.48,-131.348,811.16,635.2802503331899
602,1686361734.25,-12.207,-107.91,13.184,-97.168,811.164,656.3902082280111
603,1686361734.25,18.555,164.062,11.23,-118.652,811.168,633.2356894220462
604,1686361734.26,-19.531,281.25,-17.578,-215.82,811.171,637.7410840014223
605,1686361734.26,-71.289,-252.441,-39.551,-238.77,811.175,636.7856796876127
606,1686361734.26,-86.426,-791.016,-36.133,-122.07,811.179,635.6633472012912
607,1686361734.27,-62.988,-245.605,7.324,-23.438,811.183,649.1705047845109
608,1686361734.27,-52.246,174.316,-14.16,-59.57,811.187,626.2017539691243
609,1686361734.28,-82.52,-120.117,-36.621,-151.367,811.191,627.59319571356
610,1686361734.28,-83.008,-569.824,1.465,-123.047,811.195,624.371787903234
611,1686361734.28,-28.32,104.004,42.969,-40.527,811.199,620.2974314517407
612,1686361734.29,-8.789,644.531,-20.02,-42.48,811.197,604.2514846412879
613,1686361734.29,-32.227,101.074,-48.34,-87.402,811.201,610.3113539505517
614,1686361734.3,-17.09,-189.453,7.324,-75.684,811.204,596.7042258278382
615,1686361734.3,41.992,259.277,10.742,-17.578,811.208,578.183452134291
616,1686361734.3,70.312,521.973,-23.438,1.465,811.212,584.3684025056235
617,1686361734.31,27.832,-10.254,-39.062,-21.484,811.216,591.1142464549691
618,1686361734.31,-18.066,-387.207,-1.953,11.719,811.22,599.420054637505
619,1686361734.31,-0.488,152.832,10.742,111.328,811.224,559.755963706677
620,1686361734.32,31.738,448.242,-21.973,160.645,811.228,571.8437334626763
621,1686361734.32,26.855,-67.871,-65.918,121.582,811.232,553.3342195339533
622,1686361734.33,-14.16,-146.484,-11.719,49.805,811.236,539.1562655920903
623,1686361734.33,-25.879,324.707,3.418,53.711,811.24,557.988159524421
624,1686361734.35,-2.93,249.023,-35.156,97.168,811.243,526.356695147398
625,1686361734.35,-4.883,-189.941,-20.996,62.012,811.247,528.4082857052985
626,1686361734.36,-40.039,28.809,2.441,1.953,811.251,513.2636857199445
627,1686361734.36,-44.434,369.141,-10.254,13.184,811.254,473.221635257519
628,1686361734.36,0.977,213.867,-30.273,38.574,811.258,515.834116458337
629,1686361734.37,23.438,-583.984,-28.809,28.32,811.262,500.378859324994
630,1686361734.37,-11.23,-277.344,20.02,-87.402,811.266,490.72622957923227
631,1686361734.37,-26.367,315.43,-15.625,-175.781,811.27,483.57758288293525
632,1686361734.38,20.02,-43.457,-41.016,-129.883,811.274,479.3564814607299
633,1686361734.38,56.641,-585.938,-26.855,-119.141,811.278,475.30202608137887
634,1686361734.39,31.738,-32.715,28.32,-199.707,811.282,460.7788223759263
635,1686361734.39,3.906,587.891,-7.324,-223.145,811.286,475.18360020482277
636,1686361734.39,24.414,323.73,-40.039,-145.508,811.289,456.93085887384086
637,1686361734.4,51.758,380.371,5.371,-75.195,811.292,442.5512846404531
638,1686361734.4,35.645,528.809,-5.859,-102.051,811.296,462.7961528980999
639,1686361734.4,-19.531,276.855,-43.945,-139.648,811.3,446.12190394363387
640,1686361734.41,-40.039,-121.582,-31.25,-70.312,811.304,432.1954710248108
641,1686361734.41,-13.672,-265.625,-2.441,20.508,811.308,439.45958113452207
642,1686361734.42,-14.648,117.188,1.953,-21.484,811.312,418.4798051932627
643,1686361734.42,-49.316,426.27,-25.879,-115.723,811.316,419.17079836162713
644,1686361734.42,-36.133,-178.223,-55.176,-100.586,811.32,457.0333441440038
645,1686361734.43,23.926,-310.547,41.016,-48.828,811.324,424.1281667004023
646,1686361734.43,21.484,515.137,25.391,-108.887,811.328,398.9994756088963
647,1686361734.44,-30.762,473.145,-49.805,-196.777,811.332,414.0909293869115
648,1686361734.44,-48.34,-35.156,-37.598,-213.867,811.333,432.7445956456174
649,1686361734.44,-24.902,198.73,3.906,-117.188,811.337,400.1609422294192
650,1686361734.44,-0.977,514.16,-14.16,-20.996,811.341,422.8274275244183
651,1686361734.45,-23.926,276.855,-35.645,-68.359,811.345,426.30024827102187
652,1686361734.45,-46.387,-109.375,2.441,-86.914,811.348,415.49248886017295
653,1686361734.46,-4.395,-160.645,-2.93,-7.812,811.352,411.6287515285204
654,1686361734.46,56.152,46.387,-13.184,34.18,811.356,398.64198837617135
655,1686361734.46,42.969,47.363,-40.039,8.789,811.36,412.7708736289895
656,1686361734.47,-28.809,-773.438,-42.48,-9.766,811.364,389.78260190597973
657,1686361734.47,-42.48,-561.523,67.871,6.348,811.368,386.11579158243387
658,1686361734.48,-1.465,640.137,38.086,62.988,811.372,381.7600331655504
659,1686361734.48,-14.648,475.098,-62.5,72.266,811.376,379.51655000704926
660,1686361734.5,-72.266,-394.043,-23.438,15.137,811.393,374.6129880561728
661,1686361734.5,-89.844,192.871,24.902,8.301,811.397,356.3977262004555
662,1686361734.5,-50.781,650.391,-21.973,43.945,811.401,377.8426377687834
663,1686361734.51,-20.508,297.363,-29.297,64.453,811.405,366.22489456544736
664,1686361734.51,-20.02,271.973,-10.254,28.32,811.409,347.6660760504043
665,1686361734.52,-14.648,121.582,-17.09,33.691,811.413,361.12065455966786
666,1686361734.52,25.391,96.191,-21.973,127.93,811.417,340.5314242656566
667,1686361734.52,50.293,-40.527,-53.711,157.715,811.421,333.3398987492817
668,1686361734.53,-37.598,146.484,-15.137,-10.254,811.436,350.61404103611875
669,1686361734.53,12.695,-387.695,0.977,99.609,811.425,359.70894345787576
670,1686361734.53,-72.266,498.535,-14.16,-81.055,811.44,376.06544956305765
671,1686361734.53,-41.016,139.648,35.156,18.066,811.429,361.7321106569032
672,1686361734.53,-56.641,242.676,-37.598,-37.598,811.444,369.84859309582214
673,1686361734.54,-45.41,501.953,-24.414,9.277,811.433,366.5946531564307
674,1686361734.54,-13.672,62.5,30.273,56.641,811.448,351.24602909063475
675,1686361734.54,-20.996,4.883,-72.266,40.527,811.436,346.38887763041873
676,1686361734.54,-0.488,304.688,0.977,26.367,811.452,351.7053546949956
677,1686361734.55,-16.113,59.57,-57.129,-117.676,811.456,347.7697654482616
678,1686361734.55,-29.785,-250.977,-20.996,-167.969,811.46,354.2056163038391
679,1686361734.55,5.371,-188.965,-7.324,-93.262,811.464,345.99503138111425
680,1686361734.56,40.527,-0.977,-22.949,-72.266,811.467,331.6896857559117
681,1686361734.56,-8.789,321.777,-22.949,-168.945,811.471,355.4048774592405
682,1686361734.56,-56.641,183.594,-48.34,-198.242,811.475,341.0038613636442
683,1686361734.57,-33.203,-837.402,-63.477,-91.797,811.479,347.25761905569044
684,1686361734.57,-0.488,-842.773,9.277,-38.086,811.482,355.20975370604907
685,1686361734.58,-9.766,377.441,20.508,-112.793,811.486,328.75731881616053
686,1686361734.58,-51.27,396.484,-36.621,-182.129,811.49,345.4051807191408
687,1686361734.58,-40.527,232.422,-4.395,-156.738,811.494,344.1312286722411
688,1686361734.59,1.953,497.559,-12.695,-93.75,811.498,342.59790306260436
689,1686361734.59,11.23,286.621,-46.387,-89.355,811.502,336.25810426607075
690,1686361734.6,-17.09,-284.668,-47.852,-68.359,811.506,345.63965927459367
691,1686361734.6,-22.461,-416.504,35.645,25.879,811.51,329.8186759259906
692,1686361734.6,16.113,374.512,30.273,123.535,811.514,333.758718788392
693,1686361734.61,26.855,507.812,-38.086,113.281,811.517,308.36133689814193
694,1686361734.61,-27.344,-55.664,-59.57,-22.461,811.521,338.8484283051731
695,1686361734.62,-57.129,44.434,-13.672,-98.145,811.525,307.2956987407079
696,1686361734.63,-19.043,402.344,-6.348,-51.27,811.531,293.71457227049876
697,1686361734.64,4.883,235.84,-35.645,-39.062,811.535,322.6890600519637
698,1686361734.64,-44.922,-216.797,-0.488,-129.883,811.539,304.00071357815546
699,1686361734.64,-75.684,-15.625,4.883,-164.551,811.543,289.06483523243435
700,1686361734.65,-46.875,243.164,-28.809,-80.078,811.547,322.04011419551466
701,1686361734.65,-24.902,-145.02,-45.41,35.645,811.55,311.73686774423925
702,1686361734.66,-42.48,-726.562,-32.227,25.391,811.554,329.84095482769095
703,1686361734.66,-62.988,-268.555,-1.465,-79.59,811.558,311.5528229243674
704,1686361734.66,-13.672,487.305,-3.418,-56.152,811.572,325.9861561715821
705,1686361734.66,-35.645,82.52,-17.578,-52.246,811.562,289.9718680761147
706,1686361734.66,35.156,290.039,-32.715,22.949,811.576,296.2644859050579
707,1686361734.67,25.879,-44.434,-34.18,12.695,811.566,298.2095757217661
708,1686361734.67,68.359,265.137,0.977,8.789,811.58,315.5905431146468
709,1686361734.67,31.738,-623.047,-34.668,-21.973,811.57,338.6480052572489
710,1686361734.67,40.039,358.887,-20.996,-37.109,811.584,323.4831805471403
711,1686361734.68,-16.602,-256.348,36.621,-90.332,811.574,305.99684089998044
712,1686361734.68,0.0,117.188,-38.574,-21.484,811.588,302.2512525752833
713,1686361734.68,13.184,-189.941,-35.156,67.871,811.592,314.8598940411062
714,1686361734.68,25.879,-120.605,-20.996,111.328,811.596,314.5179863557791
715,1686361734.69,-6.836,185.547,-13.184,10.742,811.6,322.89144772467347
716,1686361734.69,-51.27,275.879,-29.297,-78.125,811.603,312.70706273915226
717,1686361734.7,-38.086,-365.723,-74.219,-22.949,811.607,324.51244779979993
718,1686361734.7,11.23,-754.883,2.441,24.902,811.611,332.00574430825804
719,1686361734.7,1.953,206.543,33.203,-14.16,811.615,319.3367688527213
720,1686361734.74,-41.504,358.398,-34.18,-59.57,811.633,390.5062084115595
721,1686361734.74,-40.527,-131.836,-16.602,-40.527,811.637,417.65946178916295
722,1686361734.74,-2.441,137.695,7.812,-16.113,811.641,421.29029907294
723,1686361734.75,-3.906,388.184,-19.043,-37.598,811.645,405.45439869620066
724,1686361734.75,-55.664,81.543,-44.434,-76.66,811.649,438.13488479640523
725,1686361734.76,-83.496,-445.312,10.254,-57.617,811.652,435.3412436492607
726,1686361734.76,-47.363,-343.262,14.648,22.461,811.656,434.5971423815738
727,1686361734.76,7.812,-23.438,-20.508,28.32,811.66,425.9016320555876
728,1686361734.77,-51.27,395.996,-41.016,-34.668,811.663,433.29357099631744
729,1686361734.77,-8.301,-99.609,-29.785,-46.387,811.664,435.92464030702945
730,1686361734.77,-103.516,153.809,-12.695,-74.219,811.667,475.718636389179
731,1686361734.77,-48.828,-854.98,-39.062,-62.5,811.668,451.1225978817497
732,1686361734.77,-82.031,335.938,-8.789,52.246,811.67,465.2993642358765
733,1686361734.78,-24.902,-636.719,60.547,-15.625,811.672,449.89194678867483
734,1686361734.78,-37.598,423.34,-25.391,141.113,811.674,462.1812830487066
735,1686361734.78,-1.465,457.031,40.039,19.531,811.676,480.77618149954066
736,1686361734.78,-45.41,-10.742,-47.852,78.125,811.678,474.2047126318701
737,1686361734.79,-84.473,-469.238,-23.926,-5.371,811.682,489.9656079045085
738,1686361734.79,-77.637,-119.629,15.625,-41.504,811.686,467.372153912891
739,1686361734.79,-21.484,285.645,-5.371,-26.855,811.69,502.40068535213453
740,1686361734.8,-9.766,-43.457,-60.059,-24.902,811.694,525.0440327856122
741,1686361734.8,-49.805,-241.211,-33.691,-72.754,811.698,489.45101240902835
742,1686361734.8,-68.848,-14.648,18.066,-80.566,811.702,487.47991826989283
743,1686361734.81,-33.203,261.719,-11.23,-20.508,811.706,535.341604513063
744,1686361734.81,-14.16,-387.695,-94.727,9.277,811.708,539.3652085840055
745,1686361734.82,-45.41,-724.121,25.391,-50.293,811.712,542.6607245707606
746,1686361734.82,-66.406,182.617,40.039,-96.191,811.716,527.0701560400161
747,1686361734.82,-43.945,330.566,-39.062,-33.691,811.72,536.9334125376844
748,1686361734.83,-8.789,47.363,17.09,10.742,811.724,527.3006287219504
749,1686361734.83,-11.23,-69.824,-2.441,-32.715,811.728,507.6145747676049
750,1686361734.84,-34.18,-33.691,-4.883,-51.27,811.731,521.6968978418005
751,1686361734.84,-20.996,56.641,-26.367,31.738,811.735,497.5161211813794
752,1686361734.84,20.996,-782.227,-40.039,94.727,811.739,527.3340466442706
753,1686361734.85,27.832,-578.125,48.34,6.348,811.743,507.29872618584926
754,1686361734.85,-4.395,388.672,9.766,-118.652,811.747,486.9421610726847
755,1686361734.86,0.0,163.574,-52.246,-119.629,811.751,502.12690042982973
756,1686361734.86,43.457,-103.027,-16.602,-73.73,811.755,528.1396609286381
757,1686361734.86,54.688,216.309,-0.488,-99.609,811.759,512.2418693864128
758,1686361734.86,12.207,333.496,-30.762,-165.527,811.763,498.68634095739094
759,1686361734.87,-5.371,-90.82,-27.344,-148.926,811.767,505.6965824013767
760,1686361734.87,27.832,-235.84,26.367,-72.266,811.771,494.72858840960254
761,1686361734.88,51.758,-29.297,2.441,-37.109,811.775,502.85197344227873
762,1686361734.88,13.672,-18.066,-34.18,-83.496,811.779,482.55841909947344
763,1686361734.88,-39.551,-376.465,-44.434,-125.0,811.783,484.41917232510036
764,1686361734.89,-22.949,-522.949,34.18,-49.316,811.786,491.5834466866923
765,1686361734.89,1.465,236.328,47.363,43.945,811.79,478.80122217621386
766,1686361734.9,-34.18,370.117,-23.926,16.602,811.794,447.6541839285186
767,1686361734.9,-61.035,-271.973,-59.57,-84.473,811.798,460.3061115717735
768,1686361734.9,-16.602,-114.746,2.93,-68.359,811.797,469.2490203940045
769,1686361734.9,44.922,341.309,10.254,-15.625,811.801,437.04779624092987
770,1686361734.91,45.41,80.566,-40.527,-71.289,811.805,435.3377096915516
771,1686361734.91,-3.418,-362.305,11.23,-140.137,811.809,423.04399154694414
772,1686361734.92,-19.043,-134.766,19.043,-168.457,811.813,419.6118455918953
773,1686361734.92,-6.348,-59.57,-19.043,-155.762,811.817,412.4560135270568
774,1686361734.92,-14.16,-196.777,-21.973,-136.719,811.821,393.03191683023897
775,1686361734.93,-36.133,-798.828,-43.457,-176.758,811.825,391.4222416346444
776,1686361734.93,-64.941,-674.316,36.621,-208.984,811.829,353.33082542748554
777,1686361734.94,-53.223,299.316,34.668,-143.555,811.833,356.76046025947153
778,1686361734.94,-17.09,228.516,-43.457,-87.891,811.836,356.27335689655723
779,1686361734.94,-42.48,-215.82,1.465,-128.906,811.84,305.84946912174854
780,1686361734.95,-70.312,96.191,17.578,-161.133,811.842,315.1145188622258
781,1686361734.95,-29.297,307.129,-14.16,-73.73,811.846,308.5572394092702
782,1686361734.95,6.348,67.871,-9.766,31.738,811.85,311.35847744333694
783,1686361734.96,0.0,49.805,7.324,-19.043,811.854,301.82661743775816
784,1686361734.96,-26.367,45.898,-20.996,-93.262,811.858,283.03087343797495
785,1686361734.97,-38.574,-156.738,-13.184,-0.977,811.862,241.39962847916595
786,1686361734.97,-8.301,-468.262,-48.828,120.605,811.866,277.2399538972603
787,1686361734.97,5.371,-858.887,-20.02,136.719,811.87,217.45158817273335
788,1686361734.98,-29.297,-45.898,41.992,77.637,811.874,211.67700230965724
789,1686361734.98,-71.777,305.664,-24.414,70.801,811.878,203.7504945294681
790,1686361734.98,-65.918,-92.285,-30.762,105.469,811.882,163.67180191294
791,1686361734.99,-43.945,145.02,11.23,69.336,811.885,136.1230195199862
792,1686361735.01,-70.312,297.852,-2.93,-40.039,811.903,120.12215933319166
793,1686361735.01,-83.496,15.137,-32.715,-61.035,811.906,106.36388640293266
794,1686361735.01,-20.508,-308.594,16.113,15.137,811.91,65.51436625436855
795,1686361735.02,33.691,13.184,35.156,57.129,811.914,73.13707238258675
796,1686361735.02,5.371,219.238,-4.395,22.949,811.918,67.34153154171861
797,1686361735.03,-41.016,-331.543,-39.551,-31.738,811.922,64.2745859215351
798,1686361735.03,-32.227,-848.145,-21.973,-3.906,811.926,52.48895158986127
799,1686361735.03,14.16,-248.535,27.344,62.012,811.93,68.03598667921524
800,1686361735.04,20.996,166.016,0.488,71.289,811.934,62.203581891119015
801,1686361735.04,31.25,554.199,17.578,125.0,811.947,73.71505766588363
802,1686361735.04,-22.461,-213.867,-21.973,52.734,811.938,61.793250148983695
803,1686361735.04,0.0,127.93,-6.348,4.395,811.951,68.89338319812725
804,1686361735.04,-40.527,-775.391,-17.578,106.934,811.942,67.34685553628997
805,1686361735.04,-30.273,35.645,23.926,-40.039,811.955,66.26069014458756
806,1686361735.05,1.465,-66.895,54.199,164.551,811.945,60.33424691777421
807,1686361735.05,1.465,300.293,7.812,30.762,811.959,72.49533588738365
808,1686361735.05,29.297,352.539,-13.184,51.27,811.963,63.69717143151736
809,1686361735.06,5.859,-165.527,-29.785,-0.977,811.967,70.26606832648757
810,1686361735.06,-8.301,-322.754,0.488,-58.594,811.971,61.638151036420574
811,1686361735.06,17.09,133.789,14.16,-71.777,811.975,54.568049749593854
812,1686361735.07,47.363,344.238,-13.672,-43.457,811.979,51.61092230785128
813,1686361735.07,13.672,-270.508,-64.941,-51.27,811.983,70.49133599355325
814,1686361735.08,-38.574,-696.777,5.371,-59.082,811.986,55.1005651265699
815,1686361735.08,-15.625,3.418,52.734,13.672,811.99,53.872533034635666
816,1686361735.1,41.992,350.098,-3.418,104.98,811.993,66.20694286558228
817,1686361735.1,45.898,-181.152,-50.293,71.289,811.997,53.55653628871995
818,1686361735.1,8.301,-90.332,-8.789,-15.625,812.001,53.50234082818057
819,1686361735.11,-9.277,260.254,-1.465,12.207,812.005,72.45554131032836
820,1686361735.11,17.578,142.578,-12.695,92.285,812.008,52.26107684470085
821,1686361735.12,32.715,-261.719,31.25,66.406,812.012,79.94638436040898
822,1686361735.12,-14.16,-137.695,34.668,-41.504,812.016,57.79210280855143
823,1686361735.12,-40.039,148.438,-11.719,-93.262,812.02,74.0092322845234
824,1686361735.13,-20.508,-152.832,-33.691,-50.781,812.024,89.01930304480193
825,1686361735.13,-0.977,-755.859,-11.719,-2.93,812.028,56.1427290163048
826,1686361735.14,-16.113,-292.48,65.918,-54.199,812.032,87.29116992063757
827,1686361735.14,-51.27,402.832,19.531,-115.723,812.036,108.20441227512616
828,1686361735.14,-20.02,145.996,-38.086,-81.543,812.052,100.31013951538472
829,1686361735.15,26.855,4.883,0.0,-34.668,812.056,102.12017880696838
830,1686361735.15,13.672,293.457,10.254,-97.168,812.059,76.72486670820825
831,1686361735.16,-37.109,326.172,-24.414,-168.945,812.063,120.88162690097842
832,1686361735.16,-40.527,-95.703,-21.484,-134.766,812.067,104.52560251564168
833,1686361735.16,0.977,-389.648,21.484,-111.328,812.071,117.69700563045924
834,1686361735.17,1.465,-92.773,14.648,-141.602,812.075,134.74184110222194
835,1686361735.17,-34.668,241.211,-9.277,-178.711,812.079,130.81962270017198
836,1686361735.17,-42.48,-239.746,-42.48,-138.672,812.083,139.82663418881404
837,1686361735.18,-5.371,-446.289,44.434,-44.434,812.087,173.84909747729512
838,1686361735.18,24.902,343.262,40.527,-36.133,812.091,174.97782258000294
839,1686361735.19,-8.301,357.422,-33.203,-84.961,812.095,187.73016152996718
840,1686361735.19,-38.086,-152.832,-24.902,-73.73,812.084,191.8128890108371
841,1686361735.19,11.23,17.578,1.953,12.695,812.087,178.4106154816872
842,1686361735.2,41.016,347.168,-1.465,73.242,812.091,228.64914997559262
843,1686361735.2,-0.977,61.523,-31.25,21.484,812.095,236.94781327137324
844,1686361735.2,-34.18,-540.527,18.555,-26.855,812.099,234.55050363583874
845,1686361735.21,-10.742,-426.27,17.578,11.719,812.103,285.9202563171209
846,1686361735.21,22.461,-34.18,-10.742,54.199,812.107,289.5402431231503
847,1686361735.21,-2.441,7.324,-32.715,14.648,812.111,289.60737399322943
848,1686361735.22,-53.711,-763.184,-40.039,-32.715,812.115,296.70230361100045
849,1686361735.22,-43.457,-374.512,52.246,2.441,812.119,356.63726793329505
850,1686361735.23,-5.371,544.434,27.832,41.992,812.123,366.26351184064424
851,1686361735.23,-23.438,184.082,-55.176,13.184,812.127,350.81687156420503
852,1686361735.23,-86.914,-685.547,-32.715,-48.34,812.128,364.7275682454081
853,1686361735.24,-103.516,-119.629,32.227,-70.312,812.132,453.35405312670144
854,1686361735.24,-51.758,461.914,-5.859,-18.555,812.136,428.32733262212474
855,1686361735.24,1.465,164.062,-26.855,3.418,812.14,435.5802856077066
856,1686361735.25,-5.859,76.66,5.371,-28.809,812.143,488.7480529355265
857,1686361735.25,-41.016,-181.641,-21.973,-25.391,812.147,504.54947857801267
858,1686361735.26,-27.344,-192.383,-15.625,23.926,812.151,483.1660508284155
859,1686361735.26,3.906,-250.977,-33.203,47.363,812.155,468.8537146428581
860,1686361735.26,-2.441,-848.633,-22.461,-26.367,812.159,543.5287522239964
861,1686361735.27,-30.273,-88.379,37.109,-83.984,812.163,545.1890389628522
862,1686361735.27,-8.301,393.555,-13.672,-35.645,812.167,534.2016522131015
863,1686361735.28,52.734,30.273,-36.133,49.805,812.171,541.9261154420918
864,1686361735.28,62.988,215.332,-17.09,50.781,812.173,561.2674458517737
865,1686361735.28,21.973,286.621,-32.715,-35.156,812.177,565.6523736512842
866,1686361735.28,16.602,19.531,-32.715,-36.621,812.181,586.004150256677
867,1686361735.29,71.777,-188.477,20.02,65.43,812.185,602.6964662873414
868,1686361735.29,98.633,41.016,3.418,74.219,812.189,615.5344574893363
869,1686361735.3,48.34,-116.699,-37.598,-46.387,812.193,609.3831546871288
870,1686361735.3,8.789,-456.055,-29.785,-100.098,812.197,592.9898098942493
871,1686361735.3,39.551,-804.688,-31.25,-30.273,812.2,610.7906436942671
872,1686361735.31,62.5,-474.609,19.043,20.996,812.204,631.6020611887039
873,1686361735.31,42.969,62.988,-1.465,-56.152,812.208,630.3097562682988
874,1686361735.32,25.391,-136.719,-41.016,-120.117,812.212,617.7269132097164
875,1686361735.32,34.18,-692.383,-1.465,-46.875,812.216,628.8170503096537
876,1686361735.32,72.266,-12.695,51.27,46.387,812.218,636.3426832157044
877,1686361735.33,80.566,532.227,-3.906,28.32,812.222,622.9843119753145
878,1686361735.33,62.012,43.457,-28.32,-55.176,812.226,629.128298264334
879,1686361735.33,77.148,-8.301,32.227,-30.273,812.229,624.6881669089389
880,1686361735.34,107.91,274.902,20.996,56.641,812.233,632.9892544042559
881,1686361735.34,106.934,61.523,-31.25,20.508,812.237,643.5908766015992
882,1686361735.34,55.176,-454.102,-36.133,-78.613,812.241,639.3020764763601
883,1686361735.35,15.625,-510.742,54.688,-77.637,812.245,625.5741313646074
884,1686361735.35,51.758,254.883,57.617,-24.902,812.249,664.1474333879559
885,1686361735.36,67.383,440.43,-12.695,-41.504,812.253,642.8737705172084
886,1686361735.36,32.715,-67.871,-37.598,-83.984,812.257,625.8198923605349
887,1686361735.36,13.184,-313.965,-25.391,-80.566,812.261,646.1298437290167
888,1686361735.37,31.738,9.766,26.855,-25.879,812.266,631.4077437488477
889,1686361735.37,66.406,239.258,-1.465,21.973,812.27,622.2121948090083
890,1686361735.38,50.293,-371.582,-41.016,-33.691,812.274,597.3240085395169
891,1686361735.38,2.441,-291.992,-17.09,-120.117,812.278,625.95980514938
892,1686361735.38,19.531,182.129,-12.207,-66.895,812.282,608.0051886140619
893,1686361735.39,78.613,-111.328,-36.621,36.621,812.286,601.0003956228177
894,1686361735.39,85.938,-732.91,-34.668,14.648,812.29,590.5172621652142
895,1686361735.4,60.059,-364.746,16.113,-89.355,812.294,594.8625193626793
896,1686361735.4,52.734,-8.789,-12.695,-74.707,812.298,579.8850745961417
897,1686361735.4,68.359,-156.25,-27.832,44.922,812.301,571.7631674780406
898,1686361735.41,80.078,-397.949,17.09,82.031,812.305,554.867556402059
899,1686361735.41,50.293,63.477,17.09,24.414,812.309,552.3421563933848
900,1686361735.43,24.902,359.863,-26.855,47.852,812.323,516.8316964887422
901,1686361735.43,57.129,-15.625,-29.785,127.93,812.327,495.45166844759126
902,1686361735.44,77.637,-169.922,-24.414,147.949,812.331,525.0801480179175
903,1686361735.44,31.738,83.984,-24.414,60.547,812.335,514.486735857465
904,1686361735.44,-4.883,166.016,-39.551,22.949,812.339,509.06196164176305
905,1686361735.45,27.832,-350.586,-62.988,96.191,812.343,505.04778504303613
906,1686361735.45,67.871,-895.508,-0.977,115.723,812.347,505.2886250323702
907,1686361735.45,64.941,-81.543,39.551,21.973,812.351,521.0507184223304
908,1686361735.46,38.574,298.34,-32.715,-71.289,812.354,516.8419858807348
909,1686361735.46,52.734,-139.648,-47.852,-71.777,812.358,513.2262122142766
910,1686361735.47,100.098,71.777,-16.602,11.719,812.362,498.107540504853
911,1686361735.47,97.656,277.832,-22.461,30.273,812.366,510.7429873422599
912,1686361735.47,43.945,37.109,-45.41,-32.715,812.368,503.522733253465
913,1686361735.48,15.625,-344.727,-30.273,-0.488,812.372,508.1716221695358
914,1686361735.48,56.152,-112.793,-2.441,65.43,812.376,520.3659021740027
915,1686361735.48,74.707,156.25,-19.043,28.809,812.38,528.0223565399734
916,1686361735.49,20.508,-190.918,-48.828,-54.688,812.384,525.4219041467479
917,1686361735.49,-23.438,-819.336,-24.902,-57.129,812.388,510.22801869097043
918,1686361735.5,3.418,-528.809,10.254,-4.395,812.392,514.6963075936782
919,1686361735.5,34.668,69.336,-7.324,38.086,812.396,539.4610024196949
920,1686361735.5,2.441,-194.824,-42.48,24.414,812.399,543.0127041924586
921,1686361735.51,-28.32,-927.734,-39.551,1.953,812.403,523.1845063246885
922,1686361735.51,17.09,-563.477,62.5,47.363,812.407,554.4110839132974
923,1686361735.52,84.961,376.953,25.879,81.055,812.411,562.3691755110298
924,1686361735.52,75.195,273.438,-49.316,24.414,812.413,564.2120131118972
925,1686361735.52,39.551,8.301,-10.742,-3.418,812.417,556.6992087615168
926,1686361735.52,53.711,167.48,-9.766,107.91,812.421,575.1339357494905
927,1686361735.53,71.777,267.578,-31.25,189.453,812.425,564.9572444828632
928,1686361735.53,64.941,-21.484,-37.598,138.672,812.429,586.7908586475316
929,1686361735.54,41.016,-382.324,-22.949,58.594,812.433,550.6804748316982
930,1686361735.54,41.992,-335.449,-7.812,57.617,812.437,582.0010516883772
931,1686361735.54,79.102,-134.277,-9.277,87.891,812.44,566.1436847742722
932,1686361735.55,84.961,-432.129,-64.941,33.203,812.444,588.4927548316324
933,1686361735.55,41.992,-870.117,-19.043,-78.613,812.448,575.151903279257
934,1686361735.56,8.301,-76.66,28.809,-112.305,812.452,586.8111511685287
935,1686361735.56,36.621,311.035,-26.855,-24.902,812.456,583.3199448786102
936,1686361735.56,80.566,-26.855,-37.109,22.949,812.472,582.871382125346
937,1686361735.56,56.641,111.328,-18.066,-28.32,812.476,597.7898228809647
938,1686361735.57,4.883,200.195,-25.391,-61.523,812.48,570.8517341164052
939,1686361735.57,4.883,33.203,-30.273,-39.551,812.484,584.0766695779737
940,1686361735.58,33.203,-198.242,15.625,-5.859,812.488,583.6887903306863
941,1686361735.58,24.414,-310.059,-11.23,-19.043,812.492,557.8773831602265
942,1686361735.58,-9.277,-292.969,-30.762,-67.383,812.495,586.7541723194691
943,1686361735.59,-16.113,-180.176,-39.062,-19.043,812.499,573.7719156997184
944,1686361735.59,14.648,-804.688,-40.039,84.473,812.503,558.3348065010956
945,1686361735.6,21.484,-702.148,27.832,82.031,812.507,558.8877177412922
946,1686361735.6,-8.789,47.852,-4.395,31.738,812.511,560.2601895739261
947,1686361735.6,-19.043,45.898,-38.086,66.895,812.515,563.0605196220356
948,1686361735.61,26.367,-40.527,4.395,176.758,812.506,545.41870964099
949,1686361735.61,69.336,281.25,-5.859,251.465,812.51,562.8754463788887
950,1686361735.62,45.898,301.758,-29.297,187.5,812.514,558.4967794943126
951,1686361735.62,11.23,-111.328,-28.32,106.934,812.518,526.6633341430228
952,1686361735.62,39.551,-284.18,8.301,140.137,812.522,545.4206480855275
953,1686361735.63,72.754,-79.102,-9.766,168.945,812.525,554.1912081122077
954,1686361735.63,41.992,-66.406,-31.25,101.562,812.529,546.117759089247
955,1686361735.64,-7.324,-273.438,-27.344,57.129,812.533,503.7136560805697
956,1686361735.64,0.488,-110.84,9.277,136.23,812.537,522.1133869224606
957,1686361735.64,40.527,307.129,1.953,170.898,812.541,520.7522505681902
958,1686361735.65,26.855,293.457,-44.922,92.773,812.545,527.8918962706767
959,1686361735.65,-24.414,-396.484,-83.984,16.113,812.549,477.59934876881636
960,1686361735.65,-10.742,-582.52,-16.113,11.719,812.555,468.66396387431274
961,1686361735.66,49.316,164.551,2.93,80.078,812.559,483.8877430217928
962,1686361735.66,51.27,266.602,-41.992,112.793,812.563,469.8599833051568
963,1686361735.66,3.418,-287.109,-23.438,64.941,812.567,437.6768178531485
964,1686361735.67,-8.301,-129.395,-11.23,61.523,812.571,439.69824391861187
965,1686361735.67,53.223,-3.418,-23.926,121.094,812.575,377.29685904117645
966,1686361735.68,85.938,-100.586,-32.227,102.539,812.579,393.92579808633553
967,1686361735.68,33.203,-711.426,-61.523,10.254,812.583,359.1073643355635
968,1686361735.68,1.465,-868.164,19.043,-12.695,812.587,366.5543580978854
969,1686361735.69,40.039,235.84,37.109,32.227,812.591,379.67666619676424
970,1686361735.69,58.594,451.66,-44.434,51.27,812.594,306.0923862278404
971,1686361735.7,36.133,152.344,-22.461,6.348,812.598,288.78533707191184
972,1686361735.71,9.277,307.617,-18.066,-58.594,812.609,235.6972521698091
973,1686361735.72,7.812,364.258,-36.133,-67.871,812.613,147.69816771251095
974,1686361735.72,28.809,71.777,-34.668,-28.809,812.616,151.24180515426355
975,1686361735.72,22.949,-36.621,-8.789,-51.758,812.62,136.82784778659118
976,1686361735.73,-17.09,133.789,-40.039,-122.07,812.624,166.99945241353973
977,1686361735.73,-32.227,-6.348,-50.781,-95.215,812.628,77.65230644002192
978,1686361735.74,-5.371,-320.312,-47.363,11.719,812.632,59.919267721683404
979,1686361735.74,11.23,-791.992,-25.879,55.176,812.636,53.517720980203976
980,1686361735.74,-45.898,370.117,-25.879,-1.465,812.655,74.24801321761718
981,1686361735.74,-21.484,7.812,17.578,0.0,812.64,64.4207090151932
982,1686361735.75,-59.57,124.512,-42.48,-36.621,812.659,64.84330040130129
983,1686361735.75,-66.406,453.125,-27.832,20.508,812.644,76.64283654385386
984,1686361735.75,-30.762,-155.273,-7.812,25.391,812.663,64.32942975505057
985,1686361735.75,-43.457,19.531,-37.598,126.953,812.648,52.17905486895234
986,1686361735.75,8.301,136.23,3.906,63.965,812.667,48.51631515208379
987,1686361735.76,-15.137,219.727,-15.137,120.117,812.652,44.83566195197274
988,1686361735.76,-0.488,253.418,-40.527,45.898,812.671,51.207830738727225
989,1686361735.76,-41.992,-294.434,-58.105,16.602,812.675,54.154652020492634
990,1686361735.76,-34.668,-604.004,0.977,58.594,812.679,43.19659741509659
991,1686361735.77,6.348,-247.559,1.465,86.914,812.683,76.83724387725577
992,1686361735.77,11.719,-2.441,-41.016,13.184,812.687,32.958781278375895
993,1686361735.78,-23.926,17.09,-50.293,-78.613,812.691,60.36043495446293
994,1686361735.78,-44.434,-819.824,-49.316,-65.43,812.695,64.49539997268484
995,1686361735.78,-9.277,-837.402,38.574,-25.879,812.698,44.67789361785549
996,1686361735.79,32.227,432.129,30.273,-54.199,812.698,68.51923198794678
997,1686361735.79,17.09,469.727,-57.129,-128.906,812.702,60.67351142531909
998,1686361735.79,-4.395,154.785,-33.203,-151.367,812.706,51.2957520201424
999,1686361735.8,30.762,407.227,-12.695,-46.387,812.71,55.94790682301043
1000,1686361735.8,59.57,535.645,-36.621,44.434,812.714,36.70085436425046
1001,1686361735.81,32.227,-104.004,-53.223,-11.23,812.718,45.86780070443008
1002,1686361735.81,9.277,-420.898,16.602,-111.816,812.722,74.60446083983251
1003,1686361735.81,42.48,209.473,2.93,-122.07,812.725,41.509252488162716
1004,1686361735.82,64.453,283.691,-49.316,-100.098,812.729,76.71453291141466
1005,1686361735.82,24.902,-131.348,-55.664,-152.344,812.733,52.8172577773819
1006,1686361735.82,-28.32,-148.438,10.742,-233.887,812.737,49.00849045778639
1007,1686361735.83,-35.156,358.398,-2.93,-221.68,812.741,38.91001494684308
1008,1686361735.85,6.836,335.449,-44.434,-121.582,812.746,32.860545483441626
1009,1686361735.85,21.973,18.555,-34.18,-85.449,812.75,44.49077986363018
1010,1686361735.86,-20.996,152.832,-17.578,-98.145,812.754,69.09759952810057
1011,1686361735.86,-47.363,289.062,-24.902,-50.781,812.758,61.34629456156703
1012,1686361735.86,-10.254,143.555,-33.691,59.57,812.762,56.12290882252995
1013,1686361735.87,32.227,-300.781,16.602,109.863,812.766,60.85460607285276
1014,1686361735.87,24.414,-180.664,9.277,43.945,812.77,62.59883901915656
1015,1686361735.88,0.488,67.871,-38.086,-2.93,812.774,53.403090263870176
1016,1686361735.88,12.695,-216.309,-45.41,63.965,812.778,71.05094312584667
1017,1686361735.88,24.414,-756.348,-31.25,86.914,812.782,73.49941643559761
1018,1686361735.89,-15.137,-439.453,24.902,-20.996,812.785,84.09294657663344
1019,1686361735.89,-63.477,241.699,1.465,-59.082,812.789,66.10303649977865
1020,1686361735.89,-51.27,187.5,-36.621,-2.441,812.788,53.7563992496789
1021,1686361735.9,-28.809,77.148,7.812,22.949,812.792,88.26961693225758
1022,1686361735.9,-40.527,348.633,5.859,-27.344,812.796,64.96791226649636
1023,1686361735.9,-75.684,306.152,-16.113,-107.91,812.8,64.20900943194466
1024,1686361735.91,-57.129,-41.016,-15.625,-89.844,812.804,78.7808197752199
1025,1686361735.91,1.465,-258.301,10.742,-2.93,812.808,103.8242884448592
1026,1686361735.92,19.531,-12.695,18.555,-23.438,812.812,93.3004273606258
1027,1686361735.92,3.906,330.566,-19.043,-110.352,812.816,82.88906218099831
1028,1686361735.92,3.418,-242.676,-72.754,-96.191,812.82,113.86069972441156
1029,1686361735.93,37.109,-842.773,-9.766,-5.859,812.823,112.22206630695715
1030,1686361735.93,70.312,166.016,51.758,4.883,812.827,128.51264228234012
1031,1686361735.94,45.41,518.555,-19.043,-74.219,812.831,115.24450350334689
1032,1686361735.94,-3.418,-72.266,-31.738,-70.801,812.836,131.69419576844894
1033,1686361735.94,18.066,-95.215,-5.371,18.066,812.84,136.82104302466263
1034,1686361735.94,70.801,323.242,12.695,69.336,812.844,113.27584089834995
1035,1686361735.95,57.129,325.195,-14.648,35.156,812.848,134.27548637540576
1036,1686361735.95,5.859,-372.07,-29.297,0.0,812.852,139.52369511297945
1037,1686361735.96,3.418,-405.762,2.93,87.402,812.856,124.40501274124668
1038,1686361735.96,49.316,142.578,20.02,188.477,812.86,147.68721694697885
1039,1686361735.96,63.965,300.293,-28.32,162.598,812.864,160.66934372934494
1040,1686361735.97,-13.184,-685.059,-60.059,70.801,812.867,162.9951561483015
1041,1686361735.97,-40.039,-580.078,70.312,38.574,812.871,145.12739490111514
1042,1686361735.98,2.93,514.16,52.246,100.586,812.875,161.4644072028152
1043,1686361735.98,12.695,508.789,-18.555,72.266,812.879,166.41822742836968
1044,1686361735.98,-35.645,291.016,3.418,-31.25,812.878,184.30952303083316
1045,1686361735.98,-77.637,361.816,7.812,-50.781,812.882,188.2363469023792
1046,1686361735.99,-55.176,395.02,-2.93,1.465,812.886,196.85382909821746
1047,1686361735.99,-25.391,142.09,-18.555,1.953,812.89,189.30169707318657
1048,1686361736.0,-42.969,-24.414,7.812,-102.539,812.894,204.18417955328107
1049,1686361736.0,-69.824,-49.805,-8.789,-133.301,812.897,186.2878245214233
1050,1686361736.0,-63.965,9.277,-18.555,-41.016,812.901,219.81314704121954
1051,1686361736.01,-44.922,-153.32,-31.738,34.18,812.905,238.86167958203228
1052,1686361736.01,-56.152,-745.117,-0.488,41.504,812.909,206.66964141873606
1053,1686361736.02,-81.055,77.148,48.828,49.805,812.913,212.6017255651419
1054,1686361736.02,-53.711,568.848,2.441,150.879,812.917,238.13866945326578
1055,1686361736.02,-1.465,188.965,-18.066,244.629,812.921,224.17438720137162
1056,1686361736.03,-0.977,339.355,5.371,180.664,812.923,220.21660528587202
1057,1686361736.03,-52.246,415.527,1.465,48.34,812.927,233.14898538987748
1058,1686361736.04,-81.055,184.082,-11.719,4.883,812.93,260.2826369872217
1059,1686361736.04,-40.039,-30.762,41.016,43.945,812.934,249.7085664267815
1060,1686361736.04,-5.371,202.148,35.156,55.664,812.938,235.76758899182636
1061,1686361736.05,-30.762,27.832,-22.461,0.977,812.942,264.36271621180566
1062,1686361736.05,-62.988,-233.398,-19.531,-48.828,812.946,261.19998814300754
1063,1686361736.05,-38.086,-798.34,-46.875,5.371,812.95,260.41002302990677
1064,1686361736.06,9.766,-797.363,43.945,40.039,812.954,270.587227392967
1065,1686361736.06,-10.254,405.762,61.035,-75.195,812.958,272.8459028039009
1066,1686361736.07,-55.176,418.945,-27.344,-139.16,812.962,276.34783290644697
1067,1686361736.07,-32.227,117.188,35.645,-86.426,812.966,281.8734364699134
1068,1686361736.07,12.207,522.461,41.016,-49.316,812.968,282.1714031475976
1069,1686361736.08,0.0,541.016,-9.766,-112.793,812.972,296.8697098815559
1070,1686361736.08,-50.781,103.516,-18.555,-224.121,812.976,282.80131921363153
1071,1686361736.08,-85.938,42.48,23.926,-229.004,812.98,287.6070631123811
1072,1686361736.09,-61.523,294.434,31.25,-167.48,812.983,298.2657744578573
1073,1686361736.09,-62.988,176.27,-8.301,-181.641,812.987,291.82362573142257
1074,1686361736.09,-119.141,-313.965,-31.25,-227.051,812.991,316.60207529675705
1075,1686361736.1,-140.137,-495.605,50.293,-193.359,812.995,287.45112010080396
1076,1686361736.1,-104.004,213.867,54.688,-111.816,812.999,309.67853881901164
1077,1686361736.11,-69.336,270.508,-20.02,-79.102,813.003,303.6375547127591
1078,1686361736.11,-94.727,-199.707,-25.391,-124.512,813.007,317.9911085217534
1079,1686361736.11,-125.488,-2.93,29.785,-157.227,813.011,291.2090042442436
1080,1686361736.12,-108.887,452.637,43.457,-87.402,813.041,315.30000817835014
1081,1686361736.12,-61.035,416.992,6.348,-34.18,813.045,320.65494984769504
1082,1686361736.12,-60.059,99.121,12.695,-108.398,813.049,308.90076471358026
1083,1686361736.13,-89.844,178.223,27.344,-182.617,813.053,320.8423688792876
1084,1686361736.13,-65.918,362.793,18.555,-128.906,813.057,305.81042871954105
1085,1686361736.14,-39.062,2.441,-15.625,-34.18,813.061,331.40140982807077
1086,1686361736.14,-63.965,-652.344,-1.465,-35.645,813.065,314.9974533340656
1087,1686361736.14,-96.191,-257.812,49.316,-111.328,813.069,333.8850691806539
1088,1686361736.15,-105.957,199.707,19.043,-96.68,813.073,333.8793701555406
1089,1686361736.15,-74.707,230.469,19.043,-41.992,813.077,317.5948323686134
1090,1686361736.16,-66.406,191.895,43.945,-73.242,813.081,343.95040202158197
1091,1686361736.16,-89.844,187.012,15.137,-145.02,813.084,351.06023257894833
1092,1686361736.16,-92.285,295.41,33.691,-120.117,813.072,333.08102807412916
1093,1686361736.17,-64.941,173.34,16.602,-11.23,813.076,325.9101446632844
1094,1686361736.17,-54.688,-359.375,26.855,12.207,813.08,341.1100729955852
1095,1686361736.18,-77.148,237.305,69.824,-66.406,813.084,334.6674829029752
1096,1686361736.18,-75.195,576.172,16.602,-108.887,813.087,336.5902344445201
1097,1686361736.18,-32.227,23.438,-0.977,-52.246,813.091,348.32606436738484
1098,1686361736.19,-3.906,-51.27,68.848,0.0,813.095,360.66226323773645
1099,1686361736.19,-30.762,501.465,64.941,-60.547,813.099,347.4504213774259
1100,1686361736.19,-75.684,465.332,-11.23,-155.762,813.103,352.6557919050245
1101,1686361736.2,-81.543,-7.324,-32.715,-160.156,813.107,347.7073332350098
1102,1686361736.2,-46.875,167.48,40.039,-114.746,813.111,347.6608448831918
1103,1686361736.21,-47.852,520.02,60.547,-121.094,813.115,346.77948490302197
1104,1686361736.22,-94.727,453.613,0.0,-136.23,813.121,366.1572859219946
1105,1686361736.23,-111.816,-169.434,-45.898,-59.082,813.125,366.4530554256196
1106,1686361736.23,-100.098,-129.395,23.926,47.363,813.129,371.62511157756353
1107,1686361736.23,-79.102,590.82,67.383,61.523,813.133,354.62820011535223
1108,1686361736.24,-79.59,568.359,5.371,-5.371,813.137,367.6209893382235
1109,1686361736.24,-97.168,-447.754,-13.184,2.441,813.14,396.3971482616239
1110,1686361736.24,-64.941,-239.258,93.75,91.309,813.144,368.2806349940095
1111,1686361736.25,-28.32,759.766,83.008,103.027,813.148,385.10162266754736
1112,1686361736.25,-57.617,374.512,0.488,31.738,813.152,384.23229634741347
1113,1686361736.26,-83.984,-369.141,25.879,-64.453,813.156,369.9228395323576
1114,1686361736.26,-53.223,270.02,97.168,-94.238,813.16,384.80051924791866
1115,1686361736.26,-28.32,859.863,57.129,-80.566,813.164,389.1081581790358
1116,1686361736.27,-56.152,571.289,15.625,-130.371,813.163,379.07276960755223
1117,1686361736.27,-110.84,435.059,51.758,-171.875,813.167,381.742550928364
1118,1686361736.28,-105.469,563.477,61.035,-115.723,813.171,372.0958070388702
1119,1686361736.28,-54.688,652.344,40.527,-50.293,813.175,356.87299839195873
1120,1686361736.28,-44.922,369.141,19.531,-71.289,813.179,377.59678162582816
1121,1686361736.29,-86.426,82.031,26.367,-144.531,813.183,371.58442209888034
1122,1686361736.29,-125.0,61.523,40.039,-154.297,813.187,394.268854791294
1123,1686361736.29,-107.422,485.84,78.125,-104.98,813.191,370.1168395662601
1124,1686361736.3,-91.309,271.973,-1.465,-86.914,813.194,365.33896245522624
1125,1686361736.3,-123.047,-538.574,8.301,-155.762,813.198,367.574970906734
1126,1686361736.31,-135.254,349.609,97.656,-196.289,813.202,381.4809876830317
1127,1686361736.31,-96.191,836.426,38.574,-92.773,813.206,395.68831648461867
1128,1686361736.31,-68.359,441.895,14.16,-34.668,813.208,401.10174279014495
1129,1686361736.32,-100.586,558.594,44.922,-106.445,813.212,384.64754695459993
1130,1686361736.32,-137.207,624.512,47.852,-143.555,813.215,401.61419319952483
1131,1686361736.32,-111.328,474.609,42.48,-82.52,813.219,389.0090532470965
1132,1686361736.33,-66.406,259.766,64.941,-35.645,813.223,364.9904962009612
1133,1686361736.33,-93.262,166.016,43.945,-63.965,813.227,403.2036609843208
1134,1686361736.34,-147.461,212.402,37.109,-80.078,813.231,382.7628953797941
1135,1686361736.34,-141.113,247.07,31.25,-17.09,813.235,417.3514346689397
1136,1686361736.34,-88.867,-507.812,-17.578,67.871,813.239,382.3845092435897
1137,1686361736.35,-67.871,-696.289,53.223,19.043,813.243,405.3882595460001
1138,1686361736.35,-103.516,479.004,100.586,-90.332,813.247,389.76313050209336
1139,1686361736.36,-119.141,650.391,39.062,-58.105,813.251,398.8103601685422
1140,1686361736.36,-83.496,471.191,73.73,37.598,813.269,378.6707278395647
1141,1686361736.36,-46.387,756.836,73.242,42.48,813.273,395.95093609078947
1142,1686361736.36,-59.57,675.293,26.367,-51.27,813.277,410.00781072633015
1143,1686361736.37,-82.031,315.43,6.348,-98.633,813.281,396.67985877435393
1144,1686361736.37,-44.434,233.887,47.852,-73.242,813.285,380.13358777195094
1145,1686361736.38,-5.859,267.09,65.43,-51.27,813.289,391.5818265193755
1146,1686361736.38,-42.969,242.188,38.086,-104.492,813.293,392.1250886623725
1147,1686361736.38,-98.633,-93.75,11.719,-146.484,813.297,409.60963844822675
1148,1686361736.39,-87.891,-257.812,89.355,-96.191,813.301,414.508309000545
1149,1686361736.39,-44.434,447.754,99.121,-44.434,813.304,407.5377583576624
1150,1686361736.4,-50.293,421.387,26.367,-89.355,813.308,427.2992056753929
1151,1686361736.4,-93.75,-100.586,-4.395,-173.828,813.312,380.27964345727366
1152,1686361736.4,-94.238,148.926,63.965,-163.086,813.298,396.9021737869941
1153,1686361736.41,-52.734,665.039,91.797,-98.633,813.301,400.37445988992863
1154,1686361736.41,-31.738,495.117,35.156,-88.867,813.305,393.97234042052094
1155,1686361736.41,-60.059,133.301,50.293,-148.438,813.309,399.87158129144444
1156,1686361736.42,-87.891,209.961,64.453,-141.602,813.313,393.22864581140254
1157,1686361736.42,-64.941,147.949,33.203,-48.828,813.317,382.69315889474143
1158,1686361736.42,-45.41,-23.926,29.297,-0.977,813.321,383.012278542224
1159,1686361736.43,-107.422,-509.277,10.742,-47.852,813.325,383.2876307788075
1160,1686361736.43,-152.344,-303.711,63.477,-100.586,813.329,384.0135289809959
1161,1686361736.44,-110.352,527.832,92.285,-80.566,813.333,413.45390495448913
1162,1686361736.44,-64.453,432.129,24.902,-29.785,813.337,391.28929708575566
1163,1686361736.44,-86.914,-199.219,34.18,-45.41,813.34,401.79731305106634
1164,1686361736.45,-121.582,54.199,62.988,-70.801,813.346,408.93855237592754
1165,1686361736.45,-91.309,404.785,61.035,-30.762,813.35,398.0254184052278
1166,1686361736.46,-48.34,289.062,41.504,-18.066,813.354,390.00944669448245
1167,1686361736.46,-57.617,154.785,68.848,-87.402,813.358,410.4875099900984
1168,1686361736.46,-109.375,346.191,58.105,-162.598,813.362,424.33071175057444
1169,1686361736.47,-127.93,265.137,23.926,-146.484,813.366,401.2553314783219
1170,1686361736.47,-97.656,-121.582,22.461,-84.473,813.37,376.3245210278827
1171,1686361736.47,-95.215,-247.559,96.191,-104.492,813.374,434.44417940857284
1172,1686361736.48,-122.07,465.82,106.934,-187.5,813.377,393.08793498447017
1173,1686361736.48,-138.672,501.953,20.996,-232.91,813.381,396.04264030283287
1174,1686361736.49,-138.184,118.652,26.367,-191.406,813.385,384.67373988218606
1175,1686361736.49,-119.629,381.348,69.336,-138.184,813.389,394.0118377278393
1176,1686361736.49,-140.137,549.805,58.594,-175.781,813.402,385.7725422573598
1177,1686361736.5,-187.012,303.711,31.25,-197.754,813.405,409.4967925759488
1178,1686361736.5,-162.598,-78.613,31.25,-133.789,813.409,401.97405388204044
1179,1686361736.5,-105.957,15.625,58.105,-63.965,813.413,391.91161780447976
1180,1686361736.51,-103.516,336.426,71.289,-76.172,813.417,384.50746906247616
1181,1686361736.51,-162.109,43.457,18.555,-124.512,813.421,402.5388435304642
1182,1686361736.52,-174.316,-709.473,5.859,-98.145,813.425,391.89907154609676
1183,1686361736.52,-118.164,-389.16,114.746,-50.293,813.429,410.62888490898507
1184,1686361736.52,-100.098,398.926,96.191,-105.957,813.433,403.65040281737885
1185,1686361736.53,-140.137,179.688,14.16,-213.379,813.437,392.44570404526803
1186,1686361736.53,-139.648,-273.438,61.523,-199.219,813.441,387.67962136028365
1187,1686361736.54,-83.984,423.34,129.883,-107.422,813.445,402.58546141662123
1188,1686361736.54,-65.918,799.805,60.059,-75.195,813.447,401.99504347675327
1189,1686361736.54,-84.473,375.0,14.648,-126.953,813.451,392.49840794061254
1190,1686361736.54,-82.52,278.32,57.129,-147.949,813.455,400.7530288716686
1191,1686361736.55,-31.738,458.496,67.383,-78.125,813.459,413.7705106038107
1192,1686361736.55,-9.277,506.348,41.016,-10.742,813.463,401.7488265953605
1193,1686361736.56,-72.266,29.785,17.578,-31.25,813.467,394.7753906013329
1194,1686361736.56,-136.719,-345.703,52.246,-61.035,813.471,410.6582004184032
1195,1686361736.56,-121.582,107.422,89.355,-26.855,813.475,405.39572159839236
1196,1686361736.57,-69.824,605.957,59.57,-14.16,813.479,415.5000369287235
1197,1686361736.57,-60.059,65.43,-9.277,-44.434,813.483,377.23042063607966
1198,1686361736.58,-78.125,-341.797,69.824,-90.82,813.486,411.2615828638475
1199,1686361736.58,-70.312,381.348,103.027,-70.801,813.49,410.82079120134523
1200,1686361736.61,-46.875,541.504,51.27,9.766,813.508,398.40246813421885
1201,1686361736.62,-56.152,188.477,41.992,10.254,813.512,407.11840591707136
1202,1686361736.62,-110.84,232.91,47.363,-74.219,813.516,418.512996716786
1203,1686361736.62,-143.066,357.91,57.129,-80.078,813.52,404.13560723820837
1204,1686361736.63,-106.445,293.945,47.852,5.371,813.524,403.7583036992406
1205,1686361736.63,-93.75,-157.715,46.875,49.805,813.528,391.35656230821166
1206,1686361736.64,-137.695,-51.758,78.125,3.906,813.532,401.76967087818457
1207,1686361736.64,-163.574,214.844,40.527,-15.625,813.536,401.97156810475286
1208,1686361736.64,-136.23,505.371,39.551,9.277,813.538,411.01663942351877
1209,1686361736.64,-137.695,24.414,29.297,32.227,813.54,381.37370679751314
1210,1686361736.64,-107.91,436.035,71.777,82.52,813.542,387.1050662740378
1211,1686361736.65,-103.516,-675.293,13.184,93.262,813.543,407.2254334354751
1212,1686361736.65,-115.723,631.836,49.805,27.832,813.545,387.7545396289262
1213,1686361736.65,-108.887,-629.883,91.309,41.992,813.547,398.7199902462214
1214,1686361736.65,-160.645,507.324,13.672,-64.453,813.549,381.0460617658482
1215,1686361736.66,-134.277,418.945,107.422,-51.758,813.551,413.0683019696328
1216,1686361736.66,-163.574,141.113,9.277,-74.219,813.553,388.8569823288036
1217,1686361736.66,-112.793,-89.355,34.668,-14.16,813.557,404.9300252571702
1218,1686361736.66,-80.078,202.637,66.406,-17.09,813.561,397.21702801788075
1219,1686361736.67,-100.098,395.508,33.691,-83.008,813.565,403.60277653407843
1220,1686361736.67,-121.582,-43.945,-4.395,-91.309,813.569,403.06140200140635
1221,1686361736.68,-103.027,44.922,71.777,-23.926,813.573,412.6726605447988
1222,1686361736.68,-74.707,325.684,66.406,-27.344,813.577,392.87198877601924
1223,1686361736.68,-91.797,154.297,14.16,-115.234,813.581,410.2323421761071
1224,1686361736.69,-130.859,-379.395,-26.855,-139.16,813.582,402.4366549485629
1225,1686361736.69,-114.746,-609.863,65.918,-91.309,813.586,394.81720304630574
1226,1686361736.69,-67.383,468.262,115.234,-71.289,813.59,385.0315039106412
1227,1686361736.7,-92.285,645.996,30.273,-97.656,813.594,424.05603623451054
1228,1686361736.7,-149.414,165.039,48.34,-146.973,813.598,398.6732822939405
1229,1686361736.71,-125.977,64.941,41.992,-144.043,813.602,429.69065125473134
1230,1686361736.71,-63.477,203.125,57.617,-92.773,813.606,425.14701079377363
1231,1686361736.71,-67.383,405.273,34.18,-82.52,813.61,418.1442003833848
1232,1686361736.72,-111.816,-572.754,-22.949,-118.652,813.614,407.90101316563346
1233,1686361736.72,-107.91,-497.07,113.77,-89.355,813.618,397.3269103307259
1234,1686361736.72,-41.016,688.965,120.117,11.23,813.621,411.28181144548336
1235,1686361736.73,1.953,638.672,36.621,27.344,813.625,391.0150840034637
1236,1686361736.73,-13.184,336.914,37.598,-44.922,813.631,403.4440784897975
1237,1686361736.74,-23.438,201.66,34.18,-57.129,813.635,397.71989357561085
1238,1686361736.74,-3.418,371.094,60.059,9.766,813.639,393.7228184413687
1239,1686361736.74,3.418,316.895,31.25,20.996,813.643,409.49650731180543
1240,1686361736.75,-27.832,32.227,58.594,-77.637,813.647,411.42797307264277
1241,1686361736.75,-55.176,20.02,45.898,-176.758,813.65,399.82697293488013
1242,1686361736.76,-43.457,148.926,38.574,-177.734,813.654,425.6865261687238
1243,1686361736.76,-13.672,38.574,27.344,-112.793,813.658,404.1565174667122
1244,1686361736.76,-33.203,-185.059,79.102,-92.773,813.662,407.66963961158166
1245,1686361736.77,-78.125,440.43,84.473,-130.371,813.666,378.8687421336774
1246,1686361736.77,-53.223,498.047,20.996,-84.473,813.67,415.86889820805584
1247,1686361736.78,8.301,184.082,29.297,-4.395,813.674,410.5011810358108
1248,1686361736.78,19.043,374.023,47.852,17.09,813.673,402.05918304388337
1249,1686361736.78,-33.691,449.219,41.016,13.184,813.677,412.53021256648253
1250,1686361736.78,-69.336,228.516,26.855,43.945,813.681,402.59038873714456
1251,1686361736.79,-44.922,-58.105,48.828,101.562,813.684,407.5672612975001
1252,1686361736.79,-23.926,16.113,51.758,66.895,813.688,401.26707599423617
1253,1686361736.8,-42.969,13.672,17.578,-51.758,813.692,411.57795371130385
1254,1686361736.8,-50.293,-55.664,12.207,-80.078,813.696,406.5487760606425
1255,1686361736.8,0.488,-608.887,-19.531,11.23,813.7,411.6314259062513
1256,1686361736.81,34.668,-741.211,61.035,36.133,813.704,403.6658029457913
1257,1686361736.81,10.254,500.0,97.656,-54.688,813.708,418.1232046340351
1258,1686361736.82,-29.785,590.82,12.695,-125.488,813.712,394.7333049551046
1259,1686361736.82,-20.508,241.699,56.152,-88.379,813.716,442.8214142890342
1260,1686361736.82,15.137,571.777,75.195,-14.648,813.718,407.72688178485873
1261,1686361736.83,0.488,557.617,29.785,-12.695,813.722,396.25110043547875
1262,1686361736.83,-44.434,180.176,4.883,-52.246,813.726,406.27958039725473
1263,1686361736.83,-51.758,129.883,48.828,-39.551,813.73,397.40394200544364
1264,1686361736.84,-37.109,299.316,48.828,11.719,813.733,407.4435460895481
1265,1686361736.84,-49.805,170.41,18.066,12.695,813.737,415.0408220883033
1266,1686361736.84,-93.75,-278.32,-1.953,-67.383,813.741,414.81645683716425
1267,1686361736.85,-115.723,-708.008,41.992,-92.285,813.745,400.8488442323247
1268,1686361736.85,-70.312,237.793,102.539,-1.465,813.749,415.4043103721307
1269,1686361736.86,-45.41,704.59,32.227,48.828,813.753,410.9975301150887
1270,1686361736.86,-92.773,100.586,-16.602,23.926,813.757,410.8005365565212
1271,1686361736.86,-116.699,146.484,41.992,19.531,813.761,409.51241293131733
1272,1686361736.87,-67.871,461.914,60.059,83.496,813.776,409.7461812819123
1273,1686361736.87,-6.348,371.094,25.879,141.602,813.78,393.5853764034953
1274,1686361736.88,-4.395,48.34,21.973,95.703,813.784,405.0934766479652
1275,1686361736.88,-37.598,76.172,31.738,31.738,813.788,413.7020247656493
1276,1686361736.88,-50.781,284.668,43.945,70.801,813.792,401.42576582795425
1277,1686361736.89,-28.809,72.754,11.23,121.582,813.796,422.09360021279747
1278,1686361736.89,-34.18,-521.484,4.395,73.242,813.8,405.0762793333851
1279,1686361736.89,-82.031,-180.664,56.152,-7.812,813.804,425.461180046102
1280,1686361736.9,-87.402,147.461,24.902,-20.508,813.808,395.98488544889295
1281,1686361736.9,-58.105,14.16,19.043,2.93,813.811,379.0622064300095
1282,1686361736.91,-66.406,-424.805,14.16,-11.719,813.815,396.49768410968517
1283,1686361736.91,-117.188,57.129,75.195,-97.656,813.819,405.46447598655504
1284,1686361736.91,-140.137,652.344,59.082,-126.465,813.822,401.8989164089231
1285,1686361736.92,-88.867,340.82,17.578,-31.738,813.826,411.66000131429934
1286,1686361736.92,-41.016,367.676,56.152,-2.93,813.83,388.97400914289153
1287,1686361736.92,-74.707,499.023,54.199,-72.266,813.834,387.4061692879775
1288,1686361736.93,-115.234,416.992,22.949,-105.957,813.838,412.57912755457903
1289,1686361736.93,-99.121,-121.094,3.418,-36.621,813.842,393.8747607542207
1290,1686361736.94,-54.199,-300.781,81.055,27.832,813.846,401.1234587877351
1291,1686361736.94,-33.203,389.16,67.871,-21.484,813.85,418.13894563961526
1292,1686361736.94,-37.109,422.852,7.812,-67.383,813.854,405.4584304488722
1293,1686361736.95,-24.902,-29.297,-3.418,-29.785,813.857,415.25570812678643
1294,1686361736.95,9.277,161.133,39.062,48.34,813.861,423.2867904329458
1295,1686361736.96,4.883,366.211,41.016,74.219,813.865,401.69020760518436
