,timestamps,TP9,AF7,AF8,TP10,Secondary Timestamp,emg_signal
0,1686015322.74,-21.973,981.934,106.934,1.953,117087.165,302.35425341766125
1,1686015322.75,-26.367,756.348,54.199,12.695,117087.168,311.8910708221694
2,1686015322.75,-40.039,877.441,74.219,1.953,117087.172,311.9596537805418
3,1686015322.76,-48.34,-987.305,70.801,3.906,117087.176,312.651373270941
4,1686015322.76,-51.758,884.277,62.988,7.812,117087.18,308.4206643949097
5,1686015322.76,-55.176,537.598,73.73,12.695,117087.184,314.9742839186201
6,1686015322.77,-52.246,622.559,100.098,14.16,117087.188,310.0205830410921
7,1686015322.77,-44.922,-992.188,99.609,5.859,117087.192,319.9339962430492
8,1686015322.77,-46.875,897.461,49.805,2.93,117087.196,324.39771343560943
9,1686015322.78,-51.758,305.664,62.988,0.0,117087.2,313.93774560224585
10,1686015322.78,-49.316,521.973,106.934,-6.348,117087.204,314.95285821689544
11,1686015322.79,-42.969,971.68,98.145,2.441,117087.208,310.2725522858101
12,1686015322.79,-36.621,861.328,83.008,16.602,117087.209,310.66818075769964
13,1686015322.79,-45.898,714.844,110.352,0.977,117087.213,311.7587283581281
14,1686015322.8,-65.918,933.105,95.215,-17.578,117087.217,312.4090348106088
15,1686015322.8,-68.359,998.047,62.5,-13.184,117087.22,313.3916207977383
16,1686015322.8,-62.5,825.684,60.059,-15.625,117087.224,311.44156518963655
17,1686015322.81,-57.129,772.949,89.844,-9.766,117087.228,320.73913499347253
18,1686015322.81,-52.734,789.062,81.543,-16.602,117087.232,317.9907817606362
19,1686015322.82,-59.57,811.523,78.125,-41.016,117087.236,314.89397572919177
20,1686015322.82,-58.105,544.922,56.152,-34.18,117087.24,316.32371737244614
21,1686015322.82,-59.57,-77.148,89.355,-14.648,117087.244,314.30811130704353
22,1686015322.83,-58.594,675.781,161.621,-10.254,117087.248,323.60327494387775
23,1686015322.83,-57.129,-938.965,92.285,-14.16,117087.252,320.13557974140116
24,1686015322.83,-70.312,699.707,53.711,-23.926,117087.255,315.8455489113797
25,1686015322.84,-78.613,854.492,119.629,-21.484,117087.259,318.26400352862544
26,1686015322.84,-76.172,-981.445,113.77,-10.742,117087.263,320.63803957292174
27,1686015322.85,-76.172,921.387,43.945,-10.742,117087.267,310.34296177066955
28,1686015322.85,-78.613,651.367,83.496,-12.207,117087.271,317.209874167751
29,1686015322.85,-68.848,759.766,128.418,-8.301,117087.275,322.17506699208514
30,1686015322.86,-68.359,-994.629,123.047,-8.301,117087.278,320.35857562720895
31,1686015322.86,-71.777,951.66,64.453,4.883,117087.282,324.9895260654074
32,1686015322.86,-71.777,242.676,19.531,10.254,117087.286,315.53563622961553
33,1686015322.87,-68.359,458.496,160.156,0.977,117087.29,314.7594951214639
34,1686015322.87,-60.547,-950.684,152.344,0.0,117087.294,321.0096394398803
35,1686015322.88,-67.871,938.965,75.195,-11.23,117087.298,307.0944532522617
36,1686015322.88,-74.219,955.566,108.887,-4.395,117087.297,320.58886493157866
37,1686015322.88,-69.824,968.262,117.188,10.742,117087.301,312.6870900277506
38,1686015322.88,-65.918,977.539,84.473,17.09,117087.305,314.0761063005419
39,1686015322.89,-58.105,928.711,63.477,18.555,117087.309,310.67118264221654
40,1686015322.89,-58.594,918.457,86.914,8.789,117087.313,306.2089870941331
41,1686015322.9,-57.129,904.785,81.543,14.648,117087.317,316.8051330171847
42,1686015322.9,-53.711,-980.957,95.703,24.902,117087.321,311.84757691078863
43,1686015322.9,-62.988,787.109,43.945,19.531,117087.325,319.07180717249116
44,1686015322.91,-72.266,24.902,27.344,19.531,117087.329,311.15041706538796
45,1686015322.91,-67.871,596.68,149.414,11.23,117087.333,305.30884744566004
46,1686015322.92,-62.988,-931.641,120.605,-4.883,117087.336,318.3794459587104
47,1686015322.92,-65.43,899.902,75.195,-9.277,117087.34,317.1610254890433
48,1686015322.92,-67.383,963.379,87.402,-3.418,117087.344,311.46172047112674
49,1686015322.93,-64.453,980.469,82.52,-3.906,117087.348,321.0615749422362
50,1686015322.93,-59.57,952.637,76.172,2.441,117087.352,306.75387173758486
51,1686015322.94,-56.641,935.547,109.375,18.066,117087.356,310.853298489023
52,1686015322.94,-71.289,946.777,88.379,-1.465,117087.36,313.4420685816889
53,1686015322.94,-87.891,972.168,33.203,-12.695,117087.364,305.6980756292097
54,1686015322.95,-82.031,945.801,52.734,-1.953,117087.368,306.2863007880515
55,1686015322.95,-80.078,458.984,55.176,5.859,117087.372,311.49745657973307
56,1686015322.95,-78.125,666.016,161.621,2.93,117087.376,311.7356994767506
57,1686015322.96,-87.891,-960.449,109.375,-18.066,117087.379,309.3226838606072
58,1686015322.96,-88.379,943.359,25.879,-22.949,117087.383,313.7982489115961
59,1686015322.97,-81.055,971.68,104.98,-18.555,117087.387,310.16209760577453
60,1686015322.98,-87.402,970.703,95.215,-20.508,117087.402,306.75962210773247
61,1686015322.99,-96.191,974.121,46.875,-30.273,117087.406,310.1952389863791
62,1686015322.99,-100.586,947.754,36.621,-35.156,117087.41,309.2871425362385
63,1686015322.99,-92.773,956.543,124.023,-34.668,117087.414,299.8831144446266
64,1686015323.0,-85.938,934.082,104.492,-27.344,117087.418,316.6574161330816
65,1686015323.0,-91.797,-970.215,42.48,-33.203,117087.422,303.41168941897223
66,1686015323.0,-89.844,823.242,35.645,-35.645,117087.426,312.81299598319464
67,1686015323.01,-80.078,183.594,60.547,-10.742,117087.43,313.0854303649924
68,1686015323.01,-82.52,719.727,148.438,0.0,117087.434,311.89088236310647
69,1686015323.02,-83.008,-922.852,107.422,-5.859,117087.438,307.5289863313993
70,1686015323.02,-74.707,827.637,34.668,1.465,117087.441,301.4711188375197
71,1686015323.02,-74.707,900.879,113.77,5.859,117087.445,305.3815869661079
72,1686015323.04,-79.102,996.094,138.672,4.883,117087.477,315.6283155572075
73,1686015323.05,-72.266,954.59,90.332,6.348,117087.481,305.533613684545
74,1686015323.05,-72.754,942.871,86.914,-3.418,117087.485,304.1458255382012
75,1686015323.05,-81.055,963.379,107.422,-16.602,117087.489,302.6610092024359
76,1686015323.06,-77.637,988.281,106.934,-11.23,117087.493,302.49621713203925
77,1686015323.06,-73.242,910.645,68.359,4.395,117087.497,305.35507272133333
78,1686015323.06,-79.59,846.68,104.492,3.418,117087.501,307.66794955340725
79,1686015323.07,-80.078,940.918,142.578,-4.395,117087.504,308.8274993963361
80,1686015323.07,-70.801,-989.746,134.766,6.836,117087.508,304.5152537525852
81,1686015323.08,-69.824,928.223,107.422,25.391,117087.512,298.7593858415086
82,1686015323.08,-68.848,580.566,70.312,30.762,117087.516,300.67507528262155
83,1686015323.08,-56.152,832.52,157.715,14.648,117087.52,301.08959017792944
84,1686015323.09,-44.434,-968.262,165.039,20.02,117087.51,305.2794732347907
85,1686015323.09,-40.039,921.875,108.398,35.645,117087.514,302.28416574554427
86,1686015323.1,-38.574,944.824,149.902,16.113,117087.518,305.8362906404717
87,1686015323.1,-60.547,967.773,148.438,-9.277,117087.522,299.3570439534209
88,1686015323.1,-64.453,990.723,99.609,-9.277,117087.526,298.0381379890225
89,1686015323.11,-51.758,908.203,87.402,10.254,117087.53,306.6814520059895
90,1686015323.11,-45.898,860.84,148.438,13.672,117087.534,286.5732319420867
91,1686015323.12,-41.992,976.074,170.41,6.836,117087.538,300.62316998028024
92,1686015323.12,-44.922,978.027,124.512,1.953,117087.542,285.9216747602172
93,1686015323.12,-39.062,942.383,93.262,6.348,117087.546,292.86168975101907
94,1686015323.13,-37.109,944.824,138.184,18.555,117087.55,292.3856932536995
95,1686015323.13,-39.062,980.469,140.625,8.301,117087.553,304.55772010329366
96,1686015323.13,-37.598,980.469,87.402,-2.441,117087.555,299.36092955520934
97,1686015323.14,-39.551,765.137,48.34,-0.977,117087.559,286.80402853188775
98,1686015323.14,-40.527,818.359,173.34,1.465,117087.563,291.01281816443594
99,1686015323.15,-36.621,-978.516,178.223,-2.441,117087.567,302.98348355533403
100,1686015323.15,-35.156,950.684,74.219,-20.02,117087.571,291.38425798905814
101,1686015323.15,-30.273,693.848,54.199,-16.602,117087.575,296.0514826223701
102,1686015323.16,-37.598,841.797,164.551,-7.324,117087.579,293.5353527031513
103,1686015323.16,-40.527,-979.004,149.902,-4.395,117087.583,295.92850923097757
104,1686015323.16,-33.203,935.059,81.543,15.625,117087.583,292.0658699685092
105,1686015323.16,-31.738,938.477,69.336,3.906,117087.586,291.68338963133084
106,1686015323.17,-40.527,596.68,70.312,19.043,117087.587,297.3832234301778
107,1686015323.17,-27.832,949.707,141.602,6.836,117087.59,291.49864893438036
108,1686015323.17,-40.527,823.73,202.148,13.184,117087.591,292.6773414908835
109,1686015323.17,-12.695,956.055,174.805,21.484,117087.594,293.5797615093332
110,1686015323.17,-36.133,-971.68,170.41,19.043,117087.595,293.634154681558
111,1686015323.18,-14.16,998.535,149.902,24.902,117087.598,288.37709855363016
112,1686015323.18,-20.508,923.828,97.168,29.785,117087.599,291.27335788012914
113,1686015323.18,-17.09,949.707,134.766,28.32,117087.602,293.69889490588577
114,1686015323.18,-16.113,976.074,171.387,30.762,117087.606,290.9920528952112
115,1686015323.19,-7.324,974.121,166.016,41.992,117087.61,286.3486247092784
116,1686015323.19,-11.719,955.078,116.699,48.34,117087.614,294.8460825386817
117,1686015323.2,-19.531,959.961,146.484,43.945,117087.618,282.3604901698349
118,1686015323.2,-22.949,955.566,187.988,31.25,117087.622,289.6227963673416
119,1686015323.2,-25.391,-994.629,172.852,28.32,117087.626,295.7585289950416
120,1686015323.21,-23.926,903.32,57.617,26.855,117087.639,290.176783426752
121,1686015323.21,-20.508,603.027,88.867,22.461,117087.642,292.664458200352
122,1686015323.22,-16.113,867.188,219.727,20.996,117087.646,285.91461681501664
123,1686015323.22,-8.301,-987.793,171.875,24.902,117087.65,290.63294455497356
124,1686015323.22,-8.301,945.801,153.809,31.738,117087.654,289.78759410809613
125,1686015323.23,-16.113,972.656,122.559,17.578,117087.658,287.7235404997462
126,1686015323.23,-28.809,972.168,122.559,-2.441,117087.662,293.2192796455736
127,1686015323.24,-25.879,970.703,130.371,0.977,117087.666,291.3271003775044
128,1686015323.24,-21.973,891.602,86.426,11.719,117087.67,295.5354970683607
129,1686015323.24,-26.855,923.34,189.453,-0.977,117087.674,287.35322592127864
130,1686015323.25,-25.879,984.375,169.434,-12.695,117087.678,291.8515767261572
131,1686015323.25,-33.203,967.285,107.91,-1.465,117087.682,292.7537241106899
132,1686015323.25,-31.25,972.168,165.527,5.371,117087.672,286.42269670856257
133,1686015323.26,-19.043,971.68,148.926,-3.906,117087.676,288.69043490983904
134,1686015323.26,-18.066,973.145,96.191,-12.207,117087.68,286.6880828186568
135,1686015323.26,-14.648,966.309,80.566,-9.766,117087.684,295.0045195975677
136,1686015323.27,-1.465,968.262,127.441,0.0,117087.688,287.087059462889
137,1686015323.27,-11.23,963.867,120.117,4.883,117087.692,288.5215747736978
138,1686015323.28,-24.414,987.793,103.027,-2.441,117087.696,289.7809978932923
139,1686015323.28,-23.926,937.988,73.73,-4.883,117087.7,292.60838861926226
140,1686015323.28,-23.926,798.828,95.215,3.418,117087.704,292.5965043103045
141,1686015323.29,-27.832,924.316,172.852,-2.441,117087.708,291.14025220040224
142,1686015323.29,-27.344,991.211,124.023,-18.555,117087.711,292.74907377095025
143,1686015323.3,-34.668,961.914,50.293,-31.738,117087.715,293.33212559899346
144,1686015323.3,-37.598,973.145,124.512,-30.273,117087.719,292.73760466851076
145,1686015323.3,-34.18,972.656,140.625,-22.461,117087.723,300.923932206332
146,1686015323.31,-41.016,970.215,93.262,-33.691,117087.727,284.2708148778404
147,1686015323.31,-39.551,968.75,104.492,-4.883,117087.731,294.2675740072258
148,1686015323.31,-38.086,968.75,120.117,76.172,117087.734,288.1340234624474
149,1686015323.32,-29.297,977.051,111.328,110.352,117087.738,295.1605193154146
150,1686015323.32,-31.25,965.82,89.844,101.074,117087.742,294.2584727658277
151,1686015323.32,-56.641,905.762,72.754,77.148,117087.746,293.01073045349597
152,1686015323.33,-56.641,947.754,162.598,63.965,117087.75,300.90991030782743
153,1686015323.33,-41.504,980.957,140.625,51.27,117087.754,301.34591076983827
154,1686015323.34,-43.457,967.285,83.008,39.551,117087.758,301.56223067684186
155,1686015323.34,-37.598,972.656,95.215,41.504,117087.762,299.4554625417573
156,1686015323.34,-38.574,971.68,110.84,42.969,117087.763,301.9108288100705
157,1686015323.35,-39.551,973.145,140.625,53.223,117087.767,291.9168316231901
158,1686015323.35,-36.621,967.285,105.957,60.547,117087.771,301.4384387652437
159,1686015323.36,-45.898,967.285,127.441,53.223,117087.775,299.7376841943971
160,1686015323.36,-42.969,969.727,94.238,42.969,117087.779,300.84646799980834
161,1686015323.36,-41.992,979.004,94.727,41.016,117087.783,299.1219612515415
162,1686015323.37,-38.086,950.684,83.496,51.27,117087.787,290.79196810831155
163,1686015323.37,-35.645,921.875,63.477,46.387,117087.791,293.3221169402555
164,1686015323.37,-36.133,967.285,149.414,33.691,117087.794,301.70305653056374
165,1686015323.38,-27.832,974.609,120.117,39.062,117087.798,295.0865178367257
166,1686015323.38,-28.809,969.727,104.004,35.156,117087.802,305.1707233473027
167,1686015323.39,-35.645,971.191,135.742,18.555,117087.806,298.6009722783874
168,1686015323.4,-32.715,972.656,112.793,8.301,117087.824,296.9260705158255
169,1686015323.41,-32.715,969.727,88.379,5.859,117087.828,302.952204984437
170,1686015323.41,-33.691,966.797,95.215,12.695,117087.832,306.9218564003755
171,1686015323.41,-26.855,970.703,138.184,4.883,117087.836,297.18694774348455
172,1686015323.42,-25.879,974.121,102.051,-18.555,117087.84,300.0583319583634
173,1686015323.42,-28.32,968.75,26.855,-24.902,117087.843,304.1214065454673
174,1686015323.42,-19.043,939.453,36.133,-15.137,117087.847,300.1407663275579
175,1686015323.43,-5.371,956.055,189.941,-18.066,117087.851,301.3411031755266
176,1686015323.43,-13.672,972.656,94.238,-0.977,117087.867,294.5364129979209
177,1686015323.43,-5.371,976.074,161.621,-21.484,117087.855,300.9479879598738
178,1686015323.44,-23.926,968.75,56.152,-22.461,117087.87,304.580303383312
179,1686015323.44,-19.043,970.215,76.172,-13.184,117087.859,302.19796548857886
180,1686015323.44,-36.133,968.75,107.422,-26.367,117087.874,294.12656019615406
181,1686015323.44,-25.391,971.68,127.93,-7.812,117087.863,295.73508400355837
182,1686015323.44,-34.668,971.68,134.277,-23.438,117087.878,303.7741261301896
183,1686015323.44,-16.602,971.68,122.559,4.883,117087.867,292.17870574808154
184,1686015323.45,-31.25,974.609,70.312,-19.043,117087.882,297.90215604996865
185,1686015323.45,-37.109,959.961,46.387,-20.996,117087.886,295.25536213145756
186,1686015323.46,-35.645,958.496,102.539,-25.879,117087.89,303.926119794748
187,1686015323.46,-15.625,971.68,116.211,-15.625,117087.894,305.80586361088564
188,1686015323.46,-10.254,976.074,101.074,-14.16,117087.898,299.0193563071604
189,1686015323.47,-14.16,959.473,23.438,-18.555,117087.902,303.19367906783106
190,1686015323.47,-13.184,924.805,51.758,-7.812,117087.906,307.36683565932066
191,1686015323.48,-4.395,958.984,181.641,-6.836,117087.91,309.50151945380674
192,1686015323.49,-3.418,976.074,117.188,-17.578,117087.927,302.41800101767967
193,1686015323.5,-13.184,969.238,59.082,-23.926,117087.931,312.1550585721237
194,1686015323.5,-19.043,971.191,87.402,-34.668,117087.934,304.93100103621794
195,1686015323.5,-16.602,973.633,106.445,-36.621,117087.938,306.9452034787301
196,1686015323.51,-20.508,968.262,95.703,-32.227,117087.942,315.34279595610843
197,1686015323.51,-24.902,963.379,87.891,-34.668,117087.946,317.12751689761836
198,1686015323.52,-36.133,971.68,105.957,-43.945,117087.95,311.85234436787994
199,1686015323.52,-43.457,973.145,76.66,-50.293,117087.954,314.0659527154119
200,1686015323.52,-38.086,969.238,51.27,-37.109,117087.958,318.3692218333619
201,1686015323.53,-37.598,959.961,33.203,-33.691,117087.962,307.76755228805587
202,1686015323.53,-38.574,967.285,106.445,-46.387,117087.966,306.9096332405391
203,1686015323.54,-35.645,973.145,98.633,-47.363,117087.97,312.3252187050197
204,1686015323.54,-39.062,971.191,67.871,-41.992,117087.957,319.02543260932975
205,1686015323.54,-35.156,971.68,83.496,-33.203,117087.961,315.8630542398752
206,1686015323.54,-38.574,971.68,53.711,-30.762,117087.965,311.2739251507373
207,1686015323.55,-59.57,972.168,42.48,-43.945,117087.969,311.40869017977275
208,1686015323.55,-64.941,970.215,40.527,-53.223,117087.973,315.6216182648715
209,1686015323.56,-60.547,970.215,85.938,-57.129,117087.977,320.3493228892848
210,1686015323.56,-64.941,970.703,64.941,-57.617,117087.981,321.5302893016057
211,1686015323.56,-56.641,975.098,37.109,-52.734,117087.985,318.3307211511704
212,1686015323.57,-27.344,962.891,28.809,-31.25,117087.989,311.973200362592
213,1686015323.57,-10.254,955.078,92.285,0.0,117087.993,321.5247596299579
214,1686015323.58,-42.48,972.656,132.812,-14.16,117087.996,320.9139035129142
215,1686015323.58,-72.266,973.145,79.102,-61.523,117088.0,309.8375907980517
216,1686015323.58,-67.871,966.309,22.461,-63.477,117088.005,320.755881621063
217,1686015323.59,-63.477,966.309,132.324,-45.898,117088.009,318.9642559015658
218,1686015323.59,-58.105,973.145,138.672,-47.363,117088.013,317.24715052084736
219,1686015323.6,-51.758,970.703,46.875,-41.504,117088.017,321.84408596982206
220,1686015323.6,-44.922,969.727,102.051,-25.391,117088.021,319.9422581650106
221,1686015323.6,-36.621,971.191,109.863,-6.348,117088.025,319.8186209410745
222,1686015323.61,-32.227,973.145,125.977,-3.906,117088.029,318.3196467478513
223,1686015323.61,-22.461,968.75,66.895,-14.648,117088.033,322.7941203606416
224,1686015323.62,-23.926,963.867,26.367,-14.16,117088.037,318.74623102237655
225,1686015323.62,-23.926,971.68,135.742,-6.348,117088.04,322.05091832037766
226,1686015323.62,-24.414,972.168,107.91,4.883,117088.044,327.92795068591073
227,1686015323.63,-31.738,971.68,60.059,5.859,117088.048,321.82230557200876
228,1686015323.63,-34.18,971.68,81.055,0.0,117088.05,324.3344014721689
229,1686015323.63,-24.414,971.68,112.793,2.441,117088.054,327.92628289064055
230,1686015323.64,-13.184,972.656,112.793,15.137,117088.058,333.07248518508885
231,1686015323.64,0.488,968.262,78.125,34.668,117088.061,328.59502489957407
232,1686015323.64,10.742,967.773,108.887,31.25,117088.065,317.5095222204203
233,1686015323.65,12.207,971.68,99.121,28.32,117088.069,329.76426281381777
234,1686015323.65,14.648,973.145,99.609,30.762,117088.073,324.21896671902454
235,1686015323.66,17.09,967.773,57.129,32.227,117088.077,318.54426416178086
236,1686015323.66,-3.906,962.402,52.734,29.297,117088.081,325.9823472529244
237,1686015323.66,-11.23,971.191,148.926,17.578,117088.085,330.8021689529168
238,1686015323.67,5.371,972.168,112.793,13.184,117088.089,331.20028693863014
239,1686015323.67,2.441,971.68,59.57,6.836,117088.093,326.19346575461145
240,1686015323.67,-6.348,971.68,78.125,-2.93,117088.095,331.3622179872664
241,1686015323.68,-11.23,972.168,72.754,-17.09,117088.099,326.97345486318255
242,1686015323.68,-10.254,971.68,54.688,-16.113,117088.103,321.24110539768236
243,1686015323.69,-6.348,971.191,77.148,-6.348,117088.107,326.3360304935294
244,1686015323.69,-13.184,971.191,85.449,-18.066,117088.111,326.8175477630912
245,1686015323.69,-19.531,972.168,52.246,-30.762,117088.115,331.6858269640856
246,1686015323.7,-15.137,972.168,47.852,-30.273,117088.119,329.53598003022785
247,1686015323.7,0.488,957.031,37.598,-15.625,117088.122,332.9906131099031
248,1686015323.7,-0.488,961.426,144.531,-20.996,117088.126,330.02123060651917
249,1686015323.71,-7.324,974.121,89.355,-41.504,117088.13,326.7396639628334
250,1686015323.71,-7.324,971.191,18.555,-56.641,117088.134,335.1923228924396
251,1686015323.72,-17.09,971.68,65.43,-71.777,117088.138,341.90669389350364
252,1686015323.72,-16.602,971.68,86.426,-65.918,117088.138,339.2374511595415
253,1686015323.72,-22.461,972.656,26.855,-84.961,117088.142,334.4587620698322
254,1686015323.72,-25.391,968.75,24.902,-89.355,117088.146,335.354008479995
255,1686015323.73,-19.531,969.727,92.285,-89.844,117088.15,334.07272412784585
256,1686015323.73,-24.902,967.773,67.871,-91.797,117088.154,323.3272647067993
257,1686015323.74,-28.809,980.957,30.273,-100.098,117088.158,330.856602395288
258,1686015323.74,-31.25,949.707,11.23,-97.656,117088.162,327.6948060020402
259,1686015323.74,-36.133,895.508,24.414,-84.961,117088.166,335.47343830551455
260,1686015323.75,-42.969,956.543,140.625,-86.914,117088.169,332.9562729931961
261,1686015323.75,-41.504,979.004,84.961,-91.309,117088.173,331.5783667527204
262,1686015323.76,-41.504,965.82,-11.23,-98.633,117088.177,329.5198118794264
263,1686015323.76,-43.945,969.238,82.031,-98.633,117088.181,331.37211880410814
264,1686015323.76,-45.41,973.145,100.586,-92.285,117088.198,332.37706922106247
265,1686015323.77,-44.434,970.215,35.645,-76.66,117088.202,327.0688959642562
266,1686015323.77,-37.598,968.262,34.18,-74.219,117088.206,335.3270346607661
267,1686015323.78,-57.129,970.215,72.266,-92.773,117088.21,338.4841675194899
268,1686015323.78,-75.195,975.098,71.289,-93.262,117088.213,328.47219198549567
269,1686015323.78,-76.172,966.797,31.738,-82.52,117088.217,338.15894467183415
270,1686015323.79,-80.566,936.523,32.227,-83.984,117088.221,325.9038242548481
271,1686015323.79,-86.914,958.984,99.609,-89.844,117088.225,330.9574736119071
272,1686015323.8,-77.148,977.051,63.965,-103.027,117088.229,333.9402563717786
273,1686015323.8,-62.988,967.773,35.156,-100.586,117088.233,333.78131584671445
274,1686015323.8,-59.57,967.285,111.816,-93.262,117088.237,333.14181868029414
275,1686015323.81,-79.59,972.168,108.887,-103.027,117088.241,330.00039981059393
276,1686015323.81,-92.285,972.168,55.664,-102.051,117088.257,332.396703007666
277,1686015323.81,-74.219,970.215,49.805,-87.891,117088.261,334.6021997118325
278,1686015323.82,-73.242,970.703,68.848,-85.449,117088.265,331.87237882920596
279,1686015323.82,-73.73,970.703,67.871,-89.355,117088.269,330.65650781496726
280,1686015323.82,-63.477,976.074,54.199,-79.59,117088.273,333.7155344141098
281,1686015323.83,-62.988,959.961,31.25,-69.824,117088.277,328.8651244843589
282,1686015323.83,-67.871,952.637,88.379,-64.941,117088.281,321.0915915704073
283,1686015323.83,-70.801,973.145,116.699,-68.359,117088.285,320.7838824833755
284,1686015323.84,-73.242,974.121,58.105,-64.941,117088.289,325.0543168695018
285,1686015323.84,-72.266,963.379,18.555,-56.641,117088.293,318.6367805360806
286,1686015323.85,-67.383,962.891,90.332,-56.641,117088.297,320.21805790799897
287,1686015323.85,-68.359,973.633,83.008,-69.336,117088.3,330.07592250412927
288,1686015323.87,-69.824,971.68,35.156,-83.984,117088.291,329.21352546151695
289,1686015323.87,-60.547,972.168,-8.789,-73.242,117088.295,328.5564727402647
290,1686015323.88,-59.57,971.191,51.758,-69.336,117088.299,319.6482259768372
291,1686015323.88,-67.871,973.633,61.523,-90.82,117088.303,336.33934522909766
292,1686015323.88,-80.078,967.773,23.926,-104.98,117088.307,329.42540531446775
293,1686015323.89,-84.473,961.914,77.637,-111.328,117088.311,328.95236999595915
294,1686015323.89,-68.359,971.68,105.469,-106.445,117088.315,325.62632583270704
295,1686015323.9,-64.941,972.656,49.316,-102.051,117088.319,323.69092047851325
296,1686015323.9,-68.359,971.191,-6.348,-106.934,117088.323,322.5895003793789
297,1686015323.9,-60.059,971.68,59.57,-93.75,117088.327,319.4939335331171
298,1686015323.91,-55.664,970.215,104.492,-67.871,117088.331,321.58249212532587
299,1686015323.91,-53.223,975.098,67.383,-61.523,117088.334,324.8684085519484
300,1686015323.91,-62.988,964.355,16.113,-66.406,117088.336,321.5344051524939
301,1686015323.92,-72.266,952.637,56.641,-70.801,117088.34,321.91076197883314
302,1686015323.92,-66.406,971.191,107.91,-69.336,117088.344,319.1027828451468
303,1686015323.92,-53.711,975.098,63.477,-61.035,117088.348,306.5086360073572
304,1686015323.93,-56.152,961.914,1.465,-58.594,117088.352,320.1603294685168
305,1686015323.93,-75.195,961.914,30.273,-64.453,117088.356,318.66428513448926
306,1686015323.94,-86.426,972.168,70.801,-62.5,117088.359,324.1501255698714
307,1686015323.94,-79.102,974.609,66.895,-57.129,117088.363,326.3208602072694
308,1686015323.94,-73.242,962.891,-0.488,-57.617,117088.367,329.51312252968904
309,1686015323.95,-73.242,940.918,2.441,-56.641,117088.371,321.6961058738024
310,1686015323.95,-70.312,962.891,105.469,-68.848,117088.375,320.4513620677965
311,1686015323.96,-56.641,974.609,70.312,-71.289,117088.379,322.4498396714014
312,1686015323.96,-49.316,970.703,45.898,-60.059,117088.38,323.67465866900835
313,1686015323.96,-58.594,971.191,54.199,-70.312,117088.384,324.0943722967644
314,1686015323.97,-60.547,972.656,28.809,-72.754,117088.388,322.71872477255476
315,1686015323.97,-52.246,969.238,21.973,-55.664,117088.392,319.96908662693215
316,1686015323.98,-47.363,966.309,34.18,-62.012,117088.396,311.5530778491536
317,1686015323.98,-60.547,970.703,23.438,-65.43,117088.4,319.88711548645114
318,1686015323.98,-64.453,973.633,24.414,16.602,117088.403,318.3814077234692
319,1686015323.99,-46.387,970.215,21.973,80.566,117088.407,314.3815936841498
320,1686015323.99,-41.504,942.871,0.488,91.309,117088.411,324.6317310860276
321,1686015323.99,-44.922,956.055,122.559,77.148,117088.415,324.6817200765699
322,1686015324.0,-44.922,975.586,77.637,58.594,117088.419,324.9107172547713
323,1686015324.0,-34.668,972.168,58.594,56.152,117088.423,318.60365709517237
324,1686015324.0,-41.504,970.215,8.301,52.734,117088.423,319.2828475674997
325,1686015324.01,-32.715,971.68,37.598,56.641,117088.427,321.9606609805568
326,1686015324.01,-32.227,972.656,3.418,50.781,117088.431,312.91314821994143
327,1686015324.01,-25.391,969.727,18.555,51.27,117088.435,320.76167570930653
328,1686015324.02,-22.461,969.727,57.617,58.594,117088.439,316.5733505398366
329,1686015324.02,-24.902,969.727,29.297,64.453,117088.443,320.565609177059
330,1686015324.02,-28.809,977.539,19.043,54.688,117088.447,322.5098935132368
331,1686015324.03,-29.785,954.102,3.418,45.898,117088.451,317.16937769708466
332,1686015324.03,-35.156,926.27,28.32,49.316,117088.455,329.3205214995396
333,1686015324.04,-32.715,964.844,150.879,39.551,117088.459,323.7466055372358
334,1686015324.04,-31.738,974.609,74.707,27.832,117088.463,319.4047699842768
335,1686015324.04,-36.621,970.215,-18.555,12.207,117088.466,321.3041678900019
336,1686015324.05,-40.039,971.68,48.34,2.441,117088.47,324.81700595132224
337,1686015324.05,-42.969,972.168,59.082,-2.93,117088.474,322.288362879329
338,1686015324.06,-45.898,970.703,22.461,-20.996,117088.478,319.925893560017
339,1686015324.06,-57.617,970.215,54.199,-31.25,117088.482,329.55134210995874
340,1686015324.06,-56.152,969.238,59.082,-30.273,117088.486,329.5542257097642
341,1686015324.07,-53.223,976.562,22.949,-25.879,117088.49,322.2733563078939
342,1686015324.07,-60.547,964.355,6.836,-31.25,117088.494,332.62777827502555
343,1686015324.08,-55.176,923.828,10.742,-33.203,117088.497,331.9682751054761
344,1686015324.08,-49.805,957.031,81.543,-35.156,117088.501,328.61006394981234
345,1686015324.08,-49.316,978.516,38.574,-32.715,117088.505,337.4504661891926
346,1686015324.09,-43.945,966.797,7.812,-19.043,117088.509,334.4248106890016
347,1686015324.09,-50.293,967.773,85.449,-21.484,117088.513,334.7644050817613
348,1686015324.1,-57.617,971.68,78.125,-36.621,117088.516,332.1298550317445
349,1686015324.1,-51.758,973.633,15.137,-51.758,117088.52,331.8142876534811
350,1686015324.1,-57.617,966.309,11.23,-51.27,117088.524,329.1610386787875
351,1686015324.11,-65.43,966.797,52.734,-44.922,117088.528,342.00562482869316
352,1686015324.11,-55.176,966.309,29.297,-50.293,117088.532,326.0186444051692
353,1686015324.12,-55.664,984.375,21.973,-50.781,117088.536,326.48053983767954
354,1686015324.12,-66.895,931.641,4.883,-46.387,117088.54,331.2119038776714
355,1686015324.12,-59.57,827.148,11.23,-37.109,117088.543,326.64219641548357
356,1686015324.13,-60.547,932.617,100.586,-47.363,117088.547,339.23379203537786
357,1686015324.13,-129.883,986.816,51.27,-62.012,117088.551,323.0736535796992
358,1686015324.14,-203.613,964.355,1.953,-48.828,117088.555,331.1733718898789
359,1686015324.14,-240.723,972.168,26.855,-47.363,117088.559,336.2736098585129
360,1686015324.14,-264.16,973.633,19.531,-65.43,117088.572,325.7926076452962
361,1686015324.14,-278.809,969.238,14.648,-63.477,117088.576,324.3482330275193
362,1686015324.15,-280.273,959.961,-22.949,-53.711,117088.58,330.3254481597662
363,1686015324.15,-272.461,963.867,32.227,-60.059,117088.584,329.168884483272
364,1686015324.16,-262.207,980.957,32.715,-65.43,117088.588,335.7132038027438
365,1686015324.16,-259.766,963.867,-16.113,-67.383,117088.591,345.4934197473791
366,1686015324.16,-253.906,841.797,15.137,-63.477,117088.595,331.98248005292504
367,1686015324.17,-236.328,914.551,100.098,-68.848,117088.599,327.4863849057103
368,1686015324.17,-239.258,991.211,47.363,-86.914,117088.603,336.770920084561
369,1686015324.18,-234.863,963.379,-14.16,-89.355,117088.607,328.3581507259186
370,1686015324.18,-225.586,973.145,52.734,-80.566,117088.611,326.6441659944703
371,1686015324.18,-221.191,972.656,17.578,-82.031,117088.617,333.39457438458277
372,1686015324.18,-226.074,971.68,64.453,-78.125,117088.615,327.4017123035941
373,1686015324.19,-211.914,968.262,-12.695,-88.379,117088.621,332.09654868661937
374,1686015324.19,-196.289,971.68,12.207,-86.914,117088.625,330.0960881269206
375,1686015324.19,-187.988,953.613,54.199,-85.938,117088.629,331.11803843221054
376,1686015324.2,-187.012,-998.047,29.785,-91.309,117088.633,333.34090618558633
377,1686015324.2,-182.129,917.48,-14.16,-89.355,117088.637,321.35365534836626
378,1686015324.2,-183.105,591.797,13.672,-78.125,117088.641,333.8468137178071
379,1686015324.21,-175.781,835.449,108.398,-74.219,117088.645,331.89957515599235
380,1686015324.21,-164.062,-975.586,50.293,-77.637,117088.649,324.3307362866292
381,1686015324.22,-167.48,932.617,-28.809,-83.008,117088.652,338.79884375525245
382,1686015324.22,-165.039,956.055,59.57,-80.078,117088.656,331.4231896276289
383,1686015324.22,-160.156,975.586,50.293,-80.566,117088.66,332.8669936538353
384,1686015324.26,-145.508,970.703,15.137,-81.055,117088.678,331.84891619184384
385,1686015324.26,-132.324,971.68,14.648,-87.891,117088.682,331.81377132959943
386,1686015324.26,-131.348,969.727,19.043,-96.191,117088.686,332.7865583202732
387,1686015324.27,-130.859,976.562,18.555,-88.867,117088.69,332.3229425176737
388,1686015324.27,-122.07,959.473,4.883,-79.102,117088.694,337.84577991004033
389,1686015324.28,-125.488,943.848,20.996,-77.148,117088.697,333.9203605021133
390,1686015324.28,-127.93,960.449,21.973,-79.59,117088.701,339.80310884389047
391,1686015324.28,-121.094,983.398,32.227,-79.59,117088.705,328.48288820718625
392,1686015324.29,-101.562,957.52,-19.043,-82.031,117088.708,333.82074989261463
393,1686015324.29,-110.352,965.82,10.254,-70.801,117088.709,333.54994791280416
394,1686015324.29,-91.309,974.609,41.016,-70.801,117088.712,336.9785413133221
395,1686015324.29,-104.004,747.559,-18.555,-60.059,117088.713,342.4924556960269
396,1686015324.3,-98.145,970.703,17.578,-76.66,117088.716,340.00256879425393
397,1686015324.3,-109.863,862.305,64.941,-75.195,117088.717,338.1990224090739
398,1686015324.3,-109.375,975.098,-9.277,-93.75,117088.72,338.62882220629103
399,1686015324.3,-111.816,-993.164,14.648,-90.332,117088.721,334.9164733458113
400,1686015324.3,-103.516,958.984,-1.465,-86.914,117088.724,343.7076557539108
401,1686015324.31,-88.867,958.984,34.18,-89.844,117088.727,343.9712776924398
402,1686015324.31,-97.656,965.332,13.184,-108.398,117088.731,340.8622496055424
403,1686015324.31,-109.375,991.211,-6.836,-114.258,117088.735,335.6019091743781
404,1686015324.32,-98.145,898.438,-7.812,-111.816,117088.739,338.9353132578615
405,1686015324.32,-92.773,852.051,77.637,-101.074,117088.743,340.0095023384334
406,1686015324.33,-89.844,965.82,65.43,-98.633,117088.747,347.26399038131694
407,1686015324.33,-89.355,-991.699,-15.137,-104.98,117088.751,339.5841344362658
408,1686015324.33,-93.75,863.281,-55.664,-94.727,117088.755,345.8748169138867
409,1686015324.34,-85.449,753.418,67.383,-82.52,117088.759,346.0728036713164
410,1686015324.34,-77.637,973.145,93.75,-83.984,117088.763,339.9439063050068
411,1686015324.35,-84.473,975.586,-8.301,-89.844,117088.767,340.500388000581
412,1686015324.35,-93.262,950.684,34.668,-99.609,117088.77,341.0640815754421
413,1686015324.35,-84.473,958.984,38.086,-85.449,117088.774,341.7191300072285
414,1686015324.36,-77.637,991.211,37.109,-76.172,117088.778,339.2458233997095
415,1686015324.36,-73.73,950.195,-10.742,-83.496,117088.782,340.0826782480502
416,1686015324.36,-62.988,682.129,-24.902,-83.008,117088.786,346.3096375590812
417,1686015324.37,-59.082,853.027,65.918,-85.938,117088.79,346.52597523476976
418,1686015324.37,-56.641,-982.422,12.207,-80.566,117088.794,340.01365090164245
419,1686015324.38,-67.383,938.477,-6.348,-78.613,117088.798,340.05203859125794
420,1686015324.38,-81.543,946.777,65.918,-99.609,117088.798,339.8304701126587
421,1686015324.38,-89.355,973.145,50.293,-125.977,117088.802,343.8977280308011
422,1686015324.38,-88.867,974.121,3.418,-130.859,117088.806,347.309467364118
423,1686015324.39,-85.938,961.914,6.348,-131.836,117088.81,342.42604679862575
424,1686015324.39,-98.633,964.355,17.09,-146.484,117088.814,348.11252919763285
425,1686015324.4,-104.004,947.266,17.09,-154.297,117088.818,342.8292277658778
426,1686015324.4,-98.633,-991.211,31.25,-148.438,117088.822,340.4491815431411
427,1686015324.4,-95.215,894.043,-17.09,-141.602,117088.826,339.1284422341469
428,1686015324.41,-93.262,528.809,-1.465,-137.207,117088.83,341.6413070851822
429,1686015324.41,-93.262,830.078,90.82,-145.996,117088.833,337.3000332299547
430,1686015324.42,-84.473,-975.098,40.527,-137.207,117088.837,334.68951219778745
431,1686015324.42,-85.449,947.266,-7.812,-122.07,117088.841,338.4046417898184
432,1686015324.44,-90.82,970.215,-3.906,-129.883,117088.862,326.0481293335736
433,1686015324.44,-76.172,980.469,-1.465,-123.047,117088.866,343.3649516275707
434,1686015324.45,-67.383,960.449,7.324,-115.723,117088.869,335.88849454487803
435,1686015324.45,-68.359,875.488,0.488,-121.094,117088.873,333.325667480922
436,1686015324.46,-68.359,930.664,26.367,-128.418,117088.877,331.22055763029505
437,1686015324.46,-74.707,999.023,7.812,-129.883,117088.881,333.09917188318997
438,1686015324.46,-73.73,949.707,0.488,-118.652,117088.885,332.02559602500065
439,1686015324.47,-76.172,970.703,39.062,-120.605,117088.888,334.327076766122
440,1686015324.47,-60.547,677.246,8.301,-95.703,117088.889,336.1999006503265
441,1686015324.47,-62.988,840.332,75.684,-102.539,117088.893,328.8908903041548
442,1686015324.47,-81.055,975.098,-6.348,-139.16,117088.892,330.2409812692171
443,1686015324.48,-75.195,-983.887,40.527,-122.559,117088.897,330.1719225989979
444,1686015324.48,-83.008,955.566,-0.977,-144.043,117088.896,331.3921788558402
445,1686015324.48,-83.008,952.148,2.93,-125.0,117088.901,336.1527618527365
446,1686015324.48,-80.078,954.59,32.715,-126.465,117088.9,335.4530609561999
447,1686015324.48,-79.59,974.609,63.965,-114.258,117088.905,323.8667557771902
448,1686015324.48,-81.543,969.238,47.852,-109.375,117088.903,330.42563254254776
449,1686015324.49,-87.891,980.469,1.953,-108.887,117088.907,324.0754057995505
450,1686015324.49,-88.379,906.738,-10.254,-103.027,117088.911,334.13252108557697
451,1686015324.49,-80.566,905.762,73.242,-101.074,117088.915,325.0780134705963
452,1686015324.5,-84.473,948.242,83.984,-112.793,117088.919,326.28281320061
453,1686015324.5,-83.008,-971.191,24.414,-105.469,117088.923,317.67625913727824
454,1686015324.51,-76.172,826.66,-36.621,-102.051,117088.927,317.59725448450314
455,1686015324.51,-72.754,185.059,21.484,-88.379,117088.931,322.4893436807315
456,1686015324.51,-72.754,678.223,129.395,-81.055,117088.947,318.1236936111376
457,1686015324.52,-72.754,-949.219,58.105,-88.379,117088.951,316.8095331789589
458,1686015324.52,-79.102,895.996,8.789,-92.773,117088.955,328.5284198186527
459,1686015324.53,-85.938,958.496,37.598,-94.238,117088.959,319.6389350857629
460,1686015324.53,-74.707,989.258,44.922,-84.961,117088.963,325.2403773133099
461,1686015324.53,-64.453,930.664,6.348,-83.984,117088.967,320.6962333550369
462,1686015324.54,-63.477,514.16,-11.23,-85.938,117088.97,322.8238499004467
463,1686015324.54,-50.781,706.055,91.797,-86.426,117088.974,331.05966190947953
464,1686015324.54,-49.316,-940.43,81.543,-87.891,117088.978,335.82128975151477
465,1686015324.55,-54.688,895.508,2.93,-84.961,117088.982,320.4013413105835
466,1686015324.55,-44.434,800.781,69.824,-81.055,117088.986,334.70439283120504
467,1686015324.56,-42.48,954.59,82.52,-90.82,117088.99,332.0081167653203
468,1686015324.56,-42.48,984.375,21.484,-104.98,117088.993,328.1635393972446
469,1686015324.56,-37.598,950.684,18.066,-101.562,117088.997,324.8344569111849
470,1686015324.56,-45.41,968.75,44.434,-97.656,117089.001,329.70642713125306
471,1686015324.57,-62.988,942.871,36.133,-103.516,117089.005,331.99913769703863
472,1686015324.57,-67.871,-982.91,13.672,-100.098,117089.008,330.8268882939923
473,1686015324.58,-66.895,827.637,16.113,-81.055,117089.012,339.77354927924176
474,1686015324.58,-66.895,456.055,73.242,-76.172,117089.016,327.9967776658344
475,1686015324.58,-68.848,816.895,81.543,-80.566,117089.02,342.25525346639733
476,1686015324.59,-69.336,-924.316,47.852,-76.66,117089.024,329.35404893341934
477,1686015324.59,-52.734,745.605,10.742,-52.246,117089.028,331.1208157828642
478,1686015324.6,-51.758,478.027,100.586,-35.156,117089.032,329.45125736492497
479,1686015324.6,-69.824,929.199,110.84,-54.199,117089.036,332.545349753034
480,1686015324.64,-74.219,991.211,4.883,-65.918,117089.064,335.60335762166045
481,1686015324.64,-67.871,879.883,20.508,-63.965,117089.068,345.2566399392141
482,1686015324.64,-62.5,946.289,72.266,-60.059,117089.072,338.98482559708765
483,1686015324.65,-60.059,-999.512,42.969,-62.988,117089.076,346.82073877376524
484,1686015324.65,-58.594,930.176,2.93,-71.777,117089.08,344.210102899524
485,1686015324.66,-48.828,664.551,42.48,-71.777,117089.084,350.86656134221465
486,1686015324.66,-32.715,808.105,78.613,-61.523,117089.088,351.27063161309246
487,1686015324.66,-34.668,-949.707,45.41,-65.43,117089.092,352.9622500751329
488,1686015324.66,-34.18,846.191,433.105,84.961,117089.106,348.0303778537293
489,1686015324.67,-39.551,888.672,-10.254,-67.871,117089.096,352.7527719120856
490,1686015324.67,-29.785,731.445,543.945,91.309,117089.11,343.6443669345276
491,1686015324.67,-24.902,931.152,636.23,94.238,117089.114,341.14224861202194
492,1686015324.67,-33.203,443.359,38.574,-59.082,117089.1,351.8627631371436
493,1686015324.68,-32.715,774.902,160.156,-24.414,117089.104,351.65111757490325
494,1686015324.68,-25.391,-989.746,623.535,91.797,117089.118,350.89284655607815
495,1686015324.68,-24.902,856.445,593.262,77.148,117089.122,353.54661791620117
496,1686015324.68,-32.715,-940.918,290.527,45.898,117089.107,349.8092314707916
497,1686015324.68,-25.879,626.953,582.031,67.383,117089.126,348.9272638872519
498,1686015324.69,-29.785,745.117,612.793,55.176,117089.13,355.3223155797875
499,1686015324.69,-35.645,957.52,602.539,44.922,117089.134,349.00712276310355
500,1686015324.69,-38.086,823.73,434.57,35.645,117089.138,356.1034786153747
501,1686015324.7,-41.992,825.195,369.141,20.996,117089.141,355.3152329802279
502,1686015324.7,-42.48,956.055,389.648,19.531,117089.145,352.2343528697391
503,1686015324.71,-42.48,-958.496,355.469,21.973,117089.149,355.3548689476207
504,1686015324.71,-47.363,583.984,260.254,22.461,117089.143,351.5136564836639
505,1686015324.72,-48.34,-50.781,320.801,15.137,117089.147,349.0728421951946
506,1686015324.72,-51.758,634.277,371.094,-2.441,117089.151,351.4037455386511
507,1686015324.72,-43.945,986.816,289.551,0.0,117089.155,346.4497727025569
508,1686015324.73,-33.203,572.754,240.234,6.836,117089.159,353.7332406325297
509,1686015324.73,-39.062,612.305,249.023,-2.93,117089.163,355.4667871318539
510,1686015324.73,-43.945,896.484,272.949,-15.137,117089.167,349.9644669639759
511,1686015324.74,-40.527,912.598,224.121,-16.602,117089.171,349.5410273071922
512,1686015324.74,-32.227,345.703,175.293,-15.625,117089.175,355.32877989622784
513,1686015324.75,-30.762,664.551,246.582,-26.367,117089.179,344.0302721879192
514,1686015324.75,-41.504,-934.57,194.336,-40.527,117089.182,347.9683829388981
515,1686015324.75,-38.574,906.25,217.285,-49.805,117089.186,347.0897643843534
516,1686015324.75,-47.363,889.16,167.969,-45.898,117089.186,339.28289432520427
517,1686015324.76,-27.344,967.285,183.594,-51.27,117089.19,346.34018807705104
518,1686015324.76,-27.344,977.539,135.254,-53.711,117089.194,354.7493794920222
519,1686015324.76,-27.832,825.195,104.004,-54.688,117089.198,343.09891312063354
520,1686015324.77,-20.996,708.984,125.0,-49.805,117089.202,341.53766972768875
521,1686015324.77,-20.02,701.66,137.207,-54.199,117089.205,340.4162471771523
522,1686015324.78,-29.785,738.77,123.047,-72.266,117089.209,340.0687641635805
523,1686015324.78,-25.879,481.934,71.777,-83.984,117089.213,337.55463546269203
524,1686015324.78,-18.555,-371.582,82.52,-70.312,117089.217,340.1309903395552
525,1686015324.79,-29.297,204.59,216.797,-71.289,117089.221,335.59941825500783
526,1686015324.79,-34.668,-985.352,134.277,-86.426,117089.225,331.3850310310122
527,1686015324.8,-29.785,763.672,45.898,-91.797,117089.229,318.90908514715784
528,1686015324.8,-27.344,867.676,109.375,-87.402,117089.242,334.9850168799258
529,1686015324.8,-20.508,-981.445,102.051,-71.289,117089.246,324.6362475193784
530,1686015324.81,-24.414,916.504,68.848,-72.266,117089.25,336.7488079983954
531,1686015324.81,-38.574,741.211,72.754,-77.148,117089.254,325.59914645173023
532,1686015324.82,-41.504,864.746,87.402,-60.547,117089.258,326.6539263494212
533,1686015324.82,-29.297,863.281,73.73,-53.711,117089.262,316.65193971913544
534,1686015324.82,-27.344,727.539,46.387,-59.082,117089.266,327.13260495479835
535,1686015324.83,-33.691,22.461,10.254,-59.082,117089.269,324.01318908971257
536,1686015324.83,-41.504,125.0,134.766,-65.43,117089.273,318.1291322479435
537,1686015324.83,-38.086,977.539,125.488,-71.777,117089.277,318.2072646269739
538,1686015324.84,-32.715,939.453,38.574,-73.242,117089.281,322.862759769175
539,1686015324.84,-32.227,852.539,72.266,-78.125,117089.285,327.26323527295636
540,1686015324.84,-41.992,960.938,70.801,-88.379,117089.263,315.66981338850087
541,1686015324.85,-45.898,979.492,51.758,-86.914,117089.266,315.9096276156236
542,1686015324.85,-33.203,912.109,35.156,-74.707,117089.27,320.08015106071895
543,1686015324.85,-33.203,932.129,51.758,-71.289,117089.274,315.3645937921425
544,1686015324.86,-51.758,877.93,37.109,-92.285,117089.278,307.7241603297456
545,1686015324.86,-70.312,809.57,27.344,-105.469,117089.282,302.8422832460106
546,1686015324.86,-57.617,516.602,20.02,-86.914,117089.286,306.56862646168776
547,1686015324.87,-37.598,-122.559,64.941,-73.242,117089.29,307.4007293475874
548,1686015324.87,-35.156,599.121,110.352,-82.031,117089.294,308.05326098873104
549,1686015324.88,-38.574,-949.707,26.367,-75.684,117089.298,315.0003469808279
550,1686015324.88,-31.25,458.496,16.602,-63.965,117089.302,312.21641036375553
551,1686015324.88,-34.18,406.738,118.652,-73.73,117089.305,297.6898834990703
552,1686015324.92,-42.969,968.262,78.125,-83.008,117089.337,295.97030427690726
553,1686015324.92,-47.363,944.336,6.348,-77.148,117089.341,300.7144047538221
554,1686015324.92,-41.504,690.918,37.598,-72.754,117089.345,295.2391143836018
555,1686015324.93,-24.902,879.395,62.012,-66.895,117089.349,289.8487842352135
556,1686015324.93,-26.367,-992.676,32.227,-82.031,117089.353,290.9498154506723
557,1686015324.93,-18.555,896.484,25.391,-87.891,117089.366,294.77049328592767
558,1686015324.94,-31.738,677.734,-11.23,-95.215,117089.357,284.66639730898055
559,1686015324.94,-26.855,604.98,16.602,-87.402,117089.37,295.67792751336583
560,1686015324.94,-29.785,7.812,7.324,-83.008,117089.361,289.29107217598596
561,1686015324.94,-32.227,465.82,60.547,-79.102,117089.373,291.3434702866397
562,1686015324.94,-26.855,461.426,107.422,-75.195,117089.365,286.8014273716364
563,1686015324.94,-32.715,861.816,69.824,-65.43,117089.377,284.6929032554649
564,1686015324.95,-23.438,-923.34,39.551,-75.684,117089.369,291.98423905344697
565,1686015324.95,-27.344,-995.117,1.953,-62.5,117089.381,293.08825819070654
566,1686015324.95,-26.855,857.422,-18.066,-89.844,117089.373,289.64061123484066
567,1686015324.95,-30.273,535.645,-7.324,-64.941,117089.385,284.2119330018756
568,1686015324.96,-33.691,775.879,62.988,-96.68,117089.376,291.09016538097364
569,1686015324.96,-33.691,46.875,61.035,-55.664,117089.389,294.9961368565838
570,1686015324.96,-24.414,467.773,79.59,-48.828,117089.393,280.6800429220892
571,1686015324.96,-25.879,927.734,62.988,-89.844,117089.38,291.7654045644938
572,1686015324.96,-26.367,960.449,48.34,-53.223,117089.397,285.79125401796153
573,1686015324.97,-33.203,673.828,-17.578,-55.664,117089.401,282.99568376603906
574,1686015324.97,-24.414,633.789,14.16,-61.523,117089.405,291.9451792533017
575,1686015324.98,-17.578,965.82,67.383,-68.848,117089.409,290.8475875204559
576,1686015324.99,-19.531,999.023,32.227,-67.383,117089.415,285.0239825874965
577,1686015325.0,-9.766,436.523,-36.621,-62.988,117089.419,283.3329397221715
578,1686015325.0,-19.531,128.418,36.621,-73.242,117089.423,281.5621271763313
579,1686015325.01,-40.527,620.605,67.383,-87.891,117089.427,281.9252366782498
580,1686015325.01,-34.18,938.477,17.09,-80.078,117089.43,287.54482806373494
581,1686015325.01,-25.879,171.387,-22.949,-66.895,117089.434,290.51003929755205
582,1686015325.02,-27.832,-20.508,50.781,-76.172,117089.438,286.7928261657695
583,1686015325.02,-24.414,833.496,47.852,-85.449,117089.442,280.96999573070497
584,1686015325.02,-23.438,918.457,-5.371,-75.195,117089.446,288.4961721330757
585,1686015325.03,-23.438,769.531,21.973,-77.148,117089.45,286.0010919832433
586,1686015325.03,-27.832,939.453,15.625,-104.492,117089.454,288.19234408469373
587,1686015325.04,-36.133,984.863,-12.695,-127.93,117089.458,292.8417098032763
588,1686015325.04,-30.762,866.211,-6.348,-126.465,117089.457,279.902522673098
589,1686015325.04,-20.02,856.445,38.574,-131.348,117089.46,283.1757402957678
590,1686015325.04,-23.926,958.496,16.113,-146.973,117089.464,281.8560732340133
591,1686015325.05,-29.785,976.562,-14.648,-156.738,117089.468,281.7076963551703
592,1686015325.05,-26.367,714.844,-9.766,-155.762,117089.472,286.2033620323523
593,1686015325.06,-22.949,520.996,29.297,-145.996,117089.476,279.50180310970387
594,1686015325.06,-30.273,593.262,31.738,-133.301,117089.48,294.70837927854836
595,1686015325.06,-37.598,599.121,0.977,-133.789,117089.484,284.1923038632301
596,1686015325.07,-37.598,316.406,-24.902,-130.859,117089.488,283.3257222715536
597,1686015325.07,-30.273,-566.895,-3.418,-116.699,117089.492,281.539551146425
598,1686015325.08,-26.367,7.324,102.051,-133.301,117089.496,280.4700289775897
599,1686015325.08,-38.574,953.613,30.762,-152.344,117089.5,286.4877730413834
600,1686015325.08,-46.387,696.289,-33.691,-145.996,117089.504,266.9673264513284
601,1686015325.09,-36.621,819.824,38.086,-130.371,117089.508,279.45945372841504
602,1686015325.09,-43.945,-973.145,11.719,-115.723,117089.512,278.57634867774556
603,1686015325.1,-52.734,898.438,-3.906,-115.723,117089.516,282.8962330653645
604,1686015325.1,-44.434,642.09,57.129,-118.652,117089.519,275.12721801858635
605,1686015325.1,-40.039,560.547,32.715,-115.234,117089.523,278.2649591361261
606,1686015325.11,-43.457,713.867,18.066,-104.98,117089.527,281.60286411875137
607,1686015325.11,-47.363,847.168,-5.859,-94.727,117089.531,281.77489880548393
608,1686015325.11,-49.805,-73.73,-5.859,-94.238,117089.535,273.3275642207869
609,1686015325.12,-48.34,-19.043,113.281,-97.168,117089.539,284.9840812127518
610,1686015325.12,-34.668,961.914,65.43,-89.844,117089.543,280.7970272027684
611,1686015325.13,-29.785,914.551,-10.742,-91.309,117089.547,286.07252280888326
612,1686015325.14,-36.133,719.727,19.531,-96.68,117089.563,284.466403493768
613,1686015325.15,-33.691,907.227,24.902,-88.379,117089.567,274.0993374230797
614,1686015325.15,-20.02,977.051,6.836,-76.66,117089.571,276.9084832928265
615,1686015325.15,-13.184,828.125,5.859,-76.66,117089.574,276.46424222030583
616,1686015325.16,-10.254,699.219,11.719,-89.844,117089.578,279.125332763789
617,1686015325.16,-9.277,492.188,8.789,-97.168,117089.582,286.05856745824104
618,1686015325.16,-11.719,568.848,23.438,-98.633,117089.586,279.992367014088
619,1686015325.17,-13.184,402.832,-19.043,-86.426,117089.59,273.698628777351
620,1686015325.17,-13.184,-395.508,-4.883,-79.102,117089.594,283.05667721391563
621,1686015325.18,-39.062,646.973,56.641,-94.727,117089.598,277.18118372056716
622,1686015325.18,-0.488,271.973,75.684,-64.941,117089.598,278.57499347298966
623,1686015325.18,-41.992,-966.309,24.414,-96.68,117089.602,273.8172382433739
624,1686015325.18,1.953,888.672,10.742,-50.293,117089.602,273.3544468416738
625,1686015325.18,-35.156,878.906,-15.625,-90.332,117089.606,269.6270909393981
626,1686015325.18,-26.367,420.898,-15.625,-75.684,117089.606,267.4835551489981
627,1686015325.19,-29.785,655.273,26.855,-87.402,117089.61,277.8631525539154
628,1686015325.19,-46.387,850.586,15.137,-96.191,117089.614,274.99581278381663
629,1686015325.2,-67.383,757.812,-12.207,-104.98,117089.617,284.97353759161183
630,1686015325.2,-71.289,395.508,16.113,-97.656,117089.621,266.09553260105895
631,1686015325.2,-49.316,287.598,81.055,-73.73,117089.625,274.04903968264534
632,1686015325.21,-36.133,729.492,89.844,-75.195,117089.629,270.669255474375
633,1686015325.21,-38.574,-960.938,51.758,-84.473,117089.633,275.83687920174737
634,1686015325.21,-35.156,691.406,9.277,-94.727,117089.637,282.6521400652277
635,1686015325.22,-16.602,414.551,112.793,-85.449,117089.657,277.36464204058905
636,1686015325.22,-27.832,-94.238,43.945,-96.68,117089.641,271.6160243482193
637,1686015325.22,-10.742,809.57,31.738,-75.195,117089.66,272.6554561368721
638,1686015325.23,-28.809,361.816,14.16,-72.266,117089.664,260.130240560887
639,1686015325.23,-32.227,298.34,106.445,-61.523,117089.668,271.84104407761384
640,1686015325.23,-20.996,727.539,86.914,-58.105,117089.672,272.40755456559714
641,1686015325.24,-25.879,714.355,40.039,-72.266,117089.676,279.1046046999948
642,1686015325.24,-29.297,345.703,24.902,-76.172,117089.68,274.25405893690646
643,1686015325.24,-30.273,-583.984,46.875,-66.895,117089.684,281.3511951688388
644,1686015325.25,-23.926,-188.477,171.875,-74.707,117089.688,273.57243257729493
645,1686015325.25,-17.09,815.918,102.051,-82.031,117089.692,277.01357628483254
646,1686015325.26,-10.254,574.707,0.977,-84.473,117089.696,278.51249910105315
647,1686015325.26,0.977,667.969,64.453,-84.961,117089.7,264.78488832463245
648,1686015325.29,-3.418,-983.398,71.777,-74.219,117089.716,282.5746484937031
649,1686015325.3,-16.113,914.062,25.391,-66.895,117089.72,277.4044068873567
650,1686015325.3,-24.902,674.316,8.301,-68.359,117089.724,276.47765126052377
651,1686015325.3,-35.156,650.391,11.23,-67.871,117089.728,289.4961221870587
652,1686015325.31,-1.953,910.645,14.16,-65.43,117089.744,284.9862966401966
653,1686015325.31,-26.367,684.082,41.016,-60.059,117089.732,275.3215880695609
654,1686015325.31,13.184,717.285,14.16,-58.594,117089.748,277.25322068915006
655,1686015325.31,-14.648,657.227,26.367,-54.688,117089.736,278.7571634519506
656,1686015325.32,-10.742,23.438,12.207,-57.129,117089.74,274.79215245908915
657,1686015325.32,17.578,725.586,45.41,-1.953,117089.752,268.1730161863264
658,1686015325.32,-4.395,145.996,97.656,-64.941,117089.743,279.4817672461219
659,1686015325.32,9.766,868.164,36.621,81.543,117089.756,277.21912556319273
660,1686015325.32,4.883,887.207,73.73,-59.57,117089.747,284.44656634013677
661,1686015325.32,10.254,773.438,-8.789,100.098,117089.76,282.82941848022676
662,1686015325.33,5.859,768.555,17.09,-59.082,117089.751,285.09050599259166
663,1686015325.33,10.254,209.961,2.93,105.469,117089.763,287.1228711867802
664,1686015325.33,12.695,-160.645,74.707,113.281,117089.767,269.4602914012145
665,1686015325.33,5.371,356.445,79.59,-57.129,117089.755,281.72412666339454
666,1686015325.33,13.184,274.902,72.266,100.098,117089.771,288.93813329784234
667,1686015325.34,1.953,703.613,77.637,-62.988,117089.759,278.7324449934915
668,1686015325.34,19.043,615.234,28.809,83.984,117089.775,281.0832393214516
669,1686015325.34,35.156,418.945,9.766,99.609,117089.779,278.27734165899784
670,1686015325.35,41.504,419.922,88.379,103.516,117089.783,279.50185653736276
671,1686015325.35,41.992,866.699,80.566,75.195,117089.787,281.8349452001315
672,1686015325.37,34.18,988.281,5.859,52.734,117089.804,290.4356889825943
673,1686015325.37,38.086,190.43,-46.387,62.012,117089.808,292.2430290894281
674,1686015325.38,46.875,-544.922,36.621,70.312,117089.812,280.580093976247
675,1686015325.38,52.246,486.816,91.797,46.875,117089.816,284.49256955176884
676,1686015325.38,63.477,916.016,3.906,38.574,117089.82,290.34405106318
677,1686015325.39,62.988,265.625,20.996,37.598,117089.824,285.87716548424476
678,1686015325.39,50.781,410.645,81.543,35.645,117089.828,284.9811037575879
679,1686015325.4,46.875,952.148,53.711,36.133,117089.832,292.96589010373384
680,1686015325.4,41.016,763.672,-9.766,29.297,117089.835,281.124035057373
681,1686015325.4,35.156,-240.234,-6.836,27.344,117089.839,285.93070373442214
682,1686015325.41,36.621,83.984,88.379,23.926,117089.843,284.0719381660337
683,1686015325.41,37.598,968.262,49.316,14.16,117089.847,288.2821439638325
684,1686015325.42,39.551,767.09,-15.137,3.418,117089.835,294.23447946633763
685,1686015325.42,39.062,546.875,30.762,0.488,117089.839,290.09039490789615
686,1686015325.42,38.574,780.762,45.41,4.395,117089.843,292.7686456741305
687,1686015325.43,43.945,944.824,12.207,11.719,117089.847,290.2075737979548
688,1686015325.43,44.434,636.719,0.488,10.742,117089.851,289.0483281829806
689,1686015325.44,43.457,204.59,38.086,3.418,117089.855,295.2109800550667
690,1686015325.44,49.316,235.84,42.48,-7.324,117089.859,294.3992950418444
691,1686015325.44,54.199,494.629,14.648,-9.766,117089.863,292.53018307871366
692,1686015325.45,44.434,259.766,-12.695,-12.695,117089.866,291.2434506089584
693,1686015325.45,35.156,-159.668,54.199,-23.438,117089.87,294.7485339610931
694,1686015325.45,34.18,487.793,64.941,-17.09,117089.874,294.07102252341366
695,1686015325.46,31.25,777.832,-14.648,-6.348,117089.878,293.4106111868257
696,1686015325.46,36.133,120.117,-54.199,2.93,117089.892,299.475267041194
697,1686015325.46,46.387,-160.645,56.641,-3.906,117089.896,292.33882537165675
698,1686015325.47,45.41,615.234,53.711,-20.508,117089.9,302.72801354057077
699,1686015325.47,54.688,792.48,-11.23,-7.324,117089.904,291.80954105579406
700,1686015325.48,70.312,540.527,45.898,4.883,117089.908,291.05638359238685
701,1686015325.48,57.129,456.055,21.484,-12.207,117089.912,293.1581406674741
702,1686015325.48,45.898,550.781,25.879,-37.598,117089.915,294.38763761307285
703,1686015325.49,51.27,647.461,-3.906,-35.156,117089.919,299.287087437118
704,1686015325.49,56.641,-68.848,-19.043,-16.602,117089.923,296.09895342212155
705,1686015325.49,64.941,258.301,61.035,-19.043,117089.927,284.86614986907864
706,1686015325.5,63.965,867.676,9.766,-17.09,117089.931,292.1930377524148
707,1686015325.5,67.383,590.332,-23.926,-14.648,117089.935,295.955944837532
708,1686015325.5,70.801,564.453,41.992,-13.672,117089.938,292.5421864518798
709,1686015325.51,75.195,758.301,16.602,-9.766,117089.942,303.2081878148641
710,1686015325.51,78.125,578.613,-20.996,-11.719,117089.946,298.634009778301
711,1686015325.52,71.289,301.27,1.465,-7.812,117089.949,290.14519584730635
712,1686015325.52,73.73,190.43,41.016,-1.465,117089.953,295.8926668803298
713,1686015325.52,86.426,293.945,40.039,6.836,117089.957,301.17772338776757
714,1686015325.53,87.402,403.32,18.555,4.395,117089.961,303.6300168487957
715,1686015325.53,84.473,127.441,-11.23,-6.836,117089.965,298.46353311589223
716,1686015325.54,85.938,-599.121,18.066,-2.441,117089.969,306.7921555337802
717,1686015325.54,87.402,246.094,83.984,-13.672,117089.973,303.78348307772774
718,1686015325.54,83.008,976.074,4.883,-20.996,117089.977,312.88337135216153
719,1686015325.55,81.543,291.992,-48.34,-11.719,117089.981,308.07001034744826
720,1686015325.55,80.566,326.66,45.898,-2.93,117089.991,306.6584896051103
721,1686015325.55,80.078,886.719,44.922,0.977,117089.995,308.35285838812916
722,1686015325.56,76.172,833.496,-4.395,-2.441,117089.999,310.6331129866094
723,1686015325.56,73.73,444.336,22.461,-9.277,117090.003,318.4901345613833
724,1686015325.56,79.102,372.07,11.23,-11.23,117090.007,312.7645435539236
725,1686015325.57,87.402,396.973,5.371,-0.977,117090.011,305.5583183679407
726,1686015325.57,95.215,397.461,-3.418,11.23,117090.015,307.820453657712
727,1686015325.58,98.145,-312.988,-16.602,10.254,117090.019,309.56272739219725
728,1686015325.58,98.145,-362.793,89.844,0.0,117090.023,314.1997852260954
729,1686015325.58,97.168,622.07,70.801,6.836,117090.027,318.45423697866556
730,1686015325.59,96.191,753.906,-13.184,29.785,117090.031,325.93882630457324
731,1686015325.59,91.309,530.273,13.672,18.555,117090.034,312.69860472167034
732,1686015325.59,91.797,628.418,19.531,-3.906,117090.015,321.1419366616031
733,1686015325.6,99.609,719.238,-4.395,-3.906,117090.018,323.00868237917626
734,1686015325.6,102.539,607.422,-3.418,9.277,117090.022,312.9021169123796
735,1686015325.6,96.191,582.52,21.484,19.043,117090.026,320.64672960352834
736,1686015325.61,93.262,550.781,-0.488,14.648,117090.03,325.0120288055187
737,1686015325.61,93.262,336.914,-4.883,12.695,117090.034,322.7694764681556
738,1686015325.62,96.191,122.559,-1.465,32.227,117090.038,324.38792585493644
739,1686015325.62,96.68,-661.621,21.973,38.086,117090.042,327.1230566328783
740,1686015325.62,92.773,-229.98,88.867,23.438,117090.046,318.6036733089719
741,1686015325.63,89.844,698.73,37.598,16.602,117090.05,324.72848338916407
742,1686015325.63,103.516,434.082,-20.508,21.973,117090.054,316.5118489463876
743,1686015325.64,112.305,399.902,19.531,25.391,117090.058,317.7685932286452
744,1686015325.65,100.098,801.758,25.879,19.531,117090.073,328.4372437677263
745,1686015325.66,93.262,728.516,-12.207,13.672,117090.076,328.4024386739095
746,1686015325.66,104.004,393.066,2.93,19.043,117090.08,312.70044423923304
747,1686015325.66,106.934,609.375,35.156,27.832,117090.084,323.78762252843546
748,1686015325.67,99.609,751.465,15.137,23.926,117090.088,327.92769282610834
749,1686015325.67,98.145,317.871,-14.648,15.625,117090.092,332.4292176487533
750,1686015325.68,110.352,-376.953,5.371,23.438,117090.096,322.4940903953587
751,1686015325.68,110.84,64.941,94.238,33.203,117090.1,324.3014956962145
752,1686015325.68,108.887,838.379,34.668,26.367,117090.104,332.90281737864115
753,1686015325.68,127.93,833.008,-7.812,-19.043,117090.118,317.98163550146205
754,1686015325.69,117.676,519.043,-26.367,6.348,117090.108,325.21242770920844
755,1686015325.69,115.723,511.719,-30.273,-33.203,117090.122,328.5866002342721
756,1686015325.69,120.117,197.266,46.387,-18.555,117090.112,322.3717381355504
757,1686015325.69,108.887,263.672,29.297,-30.762,117090.126,330.92928886454274
758,1686015325.7,123.535,594.238,54.199,-20.508,117090.116,316.3436904449053
759,1686015325.7,122.559,562.012,42.48,-24.414,117090.13,321.8367783892287
760,1686015325.7,128.418,710.938,1.465,-25.391,117090.133,324.9981208544111
761,1686015325.7,118.652,193.359,-20.996,-24.902,117090.137,322.7979379070068
762,1686015325.71,120.117,-393.555,11.719,-21.973,117090.141,327.4999953598583
763,1686015325.71,121.582,62.5,64.453,-26.855,117090.145,322.13430345505986
764,1686015325.71,123.535,751.465,33.203,-30.273,117090.149,321.8819383642931
765,1686015325.72,125.0,270.02,-34.668,-24.414,117090.153,317.87851286151334
766,1686015325.72,118.652,-235.84,55.176,-16.113,117090.157,320.85931419926897
767,1686015325.73,120.117,436.523,87.402,-9.766,117090.161,319.4621193246696
768,1686015325.74,120.117,542.48,71.289,-5.859,117090.166,318.7808287515212
769,1686015325.75,118.652,80.566,65.918,-5.859,117090.17,323.6783743135355
770,1686015325.75,119.629,247.559,108.398,-15.625,117090.174,319.27907390990606
771,1686015325.76,120.605,642.578,124.023,-23.438,117090.178,320.5687439209608
772,1686015325.76,113.281,574.219,77.637,-13.184,117090.182,316.5504145340615
773,1686015325.76,112.793,88.379,61.035,-5.371,117090.186,324.10030528065494
774,1686015325.77,105.469,115.723,99.609,-7.324,117090.189,318.28872882897934
775,1686015325.77,103.516,588.379,95.703,-11.23,117090.193,318.346797127871
776,1686015325.77,117.188,485.352,40.527,-0.488,117090.197,317.32736568202967
777,1686015325.78,118.652,-219.727,53.711,14.648,117090.201,321.18848488370793
778,1686015325.78,113.77,200.684,113.281,7.812,117090.205,317.82871600320124
779,1686015325.79,105.957,661.621,58.594,1.465,117090.209,320.3928880368869
780,1686015325.79,99.121,436.523,20.02,10.742,117090.207,321.43324860354056
781,1686015325.79,107.91,451.66,61.035,10.742,117090.211,314.1336051750297
782,1686015325.8,113.281,530.273,36.621,0.0,117090.215,312.19374039861344
783,1686015325.8,100.586,336.914,-12.695,-11.719,117090.219,313.7686254315935
784,1686015325.8,96.191,62.012,5.371,0.488,117090.223,317.25143159769453
785,1686015325.81,98.633,-215.82,67.871,11.719,117090.227,315.7275913636431
786,1686015325.81,99.609,-4.395,47.363,-1.953,117090.231,318.5436626827221
787,1686015325.81,101.074,263.672,9.277,-8.301,117090.235,323.39410340979987
788,1686015325.82,97.168,6.348,-12.695,-9.766,117090.239,315.00904616520967
789,1686015325.82,102.539,-659.668,19.531,1.953,117090.243,328.0918724414551
790,1686015325.83,102.051,223.633,74.219,2.441,117090.246,324.36363700283954
791,1686015325.83,94.238,777.832,6.348,-10.254,117090.25,317.17147854764767
792,1686015325.84,95.215,263.672,-11.23,-4.883,117090.26,326.2547675822724
793,1686015325.84,96.191,460.449,27.832,-0.977,117090.264,317.850383679313
794,1686015325.84,92.773,770.996,21.484,-4.883,117090.268,314.482003937897
795,1686015325.85,93.262,657.715,-8.789,4.395,117090.272,311.5808235114134
796,1686015325.85,97.656,250.977,22.949,13.184,117090.276,316.50117340959304
797,1686015325.86,105.957,156.738,33.691,19.531,117090.28,316.93165163807913
798,1686015325.86,109.863,275.879,9.277,21.484,117090.284,323.06311476086887
799,1686015325.86,104.004,251.465,-19.043,14.16,117090.288,320.37302326443927
800,1686015325.87,106.934,-437.5,-31.25,16.602,117090.291,322.16890679660236
801,1686015325.87,109.863,-365.723,79.59,18.555,117090.295,327.00995421374853
802,1686015325.88,116.699,585.449,54.199,22.461,117090.299,314.7941580336894
803,1686015325.88,116.699,613.77,-19.531,22.461,117090.303,328.9091313584052
804,1686015325.88,103.516,408.691,20.508,15.137,117090.298,316.24030464172296
805,1686015325.88,108.398,575.684,21.973,20.02,117090.302,315.26768496441434
806,1686015325.89,122.07,635.254,4.395,38.086,117090.306,317.43351399861655
807,1686015325.89,114.258,496.094,0.0,35.156,117090.31,326.0346703398366
808,1686015325.9,110.84,347.656,1.465,20.02,117090.314,334.7794728116917
809,1686015325.9,116.211,135.742,7.324,24.414,117090.318,321.00932239820776
810,1686015325.9,111.816,152.832,19.531,33.691,117090.322,320.94289803070535
811,1686015325.91,112.793,77.148,-4.883,31.738,117090.326,326.4411715873148
812,1686015325.91,117.188,-814.453,9.766,30.762,117090.33,328.27741123236996
813,1686015325.91,106.445,-464.355,105.469,22.949,117090.334,329.57360091128425
814,1686015325.92,102.539,510.742,44.434,20.02,117090.338,322.8739079823615
815,1686015325.92,113.281,356.445,-19.531,29.785,117090.341,335.2689542257454
816,1686015325.92,114.258,437.5,16.602,24.902,117090.347,337.61321042847055
817,1686015325.93,100.098,659.18,6.836,15.137,117090.351,333.6902048409436
818,1686015325.93,99.609,492.676,-9.766,19.531,117090.355,343.109767689852
819,1686015325.94,103.027,277.344,15.137,29.297,117090.359,338.7002766498969
820,1686015325.94,101.074,461.914,10.254,23.926,117090.362,338.0427177343944
821,1686015325.94,92.285,342.773,-22.949,5.859,117090.366,346.2879361987014
822,1686015325.95,83.496,69.824,-28.809,6.836,117090.37,345.4346007638662
823,1686015325.95,98.145,-360.84,-16.113,33.691,117090.374,348.25647648470726
824,1686015325.96,99.609,50.781,19.043,30.762,117090.378,339.62413913248264
825,1686015325.96,94.727,692.383,-46.387,22.949,117090.382,353.50948087024886
826,1686015325.96,86.914,356.934,-71.777,24.414,117090.386,347.7026733300049
827,1686015325.97,75.684,114.258,-3.418,21.973,117090.39,342.5097754081617
828,1686015325.97,81.543,505.371,-0.977,21.973,117090.402,349.57224638989334
829,1686015325.97,77.637,706.543,-48.34,20.02,117090.406,349.7890973001965
830,1686015325.98,59.57,354.492,-66.895,-2.441,117090.41,357.9544350059046
831,1686015325.98,56.641,203.613,-1.465,-7.812,117090.414,353.25338737599895
832,1686015325.98,70.801,397.461,-6.348,11.719,117090.418,349.9975011388632
833,1686015325.99,67.871,291.504,-24.414,6.836,117090.422,353.5932326990564
834,1686015325.99,62.5,-81.055,-37.109,61.523,117090.426,357.57737930246526
835,1686015326.0,71.289,-834.961,-14.648,169.922,117090.43,355.52417473976203
836,1686015326.0,79.59,-130.859,67.383,196.289,117090.434,361.0363395740227
837,1686015326.0,84.473,668.457,11.719,183.105,117090.437,356.4841812855154
838,1686015326.01,75.684,305.176,-43.945,169.434,117090.441,352.9728321120713
839,1686015326.01,68.359,324.707,-3.906,156.738,117090.445,361.0774961054958
840,1686015326.03,72.754,535.645,6.836,159.18,117090.447,361.4219149697262
841,1686015326.03,74.707,339.844,-12.695,154.785,117090.451,363.128155985382
842,1686015326.04,76.66,-110.84,-56.152,144.531,117090.455,354.8893747098676
843,1686015326.04,62.5,110.352,-2.93,131.348,117090.459,353.7663781530582
844,1686015326.04,51.758,546.875,12.207,127.93,117090.463,359.6326312139524
845,1686015326.05,62.988,195.801,-31.738,124.512,117090.467,364.37760515427556
846,1686015326.05,67.871,-342.285,5.371,106.445,117090.471,362.16174101858695
847,1686015326.05,62.012,97.656,58.105,87.891,117090.475,366.4192906933345
848,1686015326.06,44.434,456.055,11.23,63.965,117090.492,365.9569555446856
849,1686015326.06,57.617,609.375,26.855,85.449,117090.479,360.54871637445234
850,1686015326.06,41.016,316.406,3.906,67.383,117090.496,356.44487645716083
851,1686015326.06,58.594,448.73,-11.719,89.355,117090.483,355.0297250055992
852,1686015326.06,61.523,307.617,35.156,84.473,117090.499,363.92374639404517
853,1686015326.07,61.035,-72.266,37.109,83.008,117090.486,364.22045137736643
854,1686015326.07,62.988,333.008,19.043,68.848,117090.503,362.52327771949564
855,1686015326.07,61.035,114.746,58.105,73.242,117090.49,369.6983788477584
856,1686015326.07,52.246,170.41,14.648,42.969,117090.507,351.8939143036553
857,1686015326.08,44.922,-92.285,-4.883,40.039,117090.511,359.7130462567136
858,1686015326.08,41.992,-829.102,-7.324,51.27,117090.515,351.9503077057789
859,1686015326.08,35.645,-388.184,99.609,39.062,117090.519,347.991402296291
860,1686015326.09,31.738,517.578,57.129,30.273,117090.523,356.32171666808205
861,1686015326.09,34.668,83.008,-21.484,39.551,117090.527,354.90740858506496
862,1686015326.1,34.668,-237.793,72.266,41.016,117090.531,352.0098751500857
863,1686015326.1,34.18,524.414,66.406,27.832,117090.535,354.562949099127
864,1686015326.12,31.738,611.816,-12.695,12.207,117090.538,348.26971066368617
865,1686015326.12,29.297,162.109,0.488,12.695,117090.542,349.03223130266184
866,1686015326.13,33.203,413.086,40.527,17.09,117090.546,347.53298431973275
867,1686015326.13,24.414,743.652,27.344,14.16,117090.55,349.39973281824484
868,1686015326.13,15.137,528.32,-1.953,3.906,117090.554,347.0279789948333
869,1686015326.14,9.766,-84.961,15.137,3.906,117090.558,355.3794232672654
870,1686015326.14,14.16,-114.258,49.805,10.254,117090.562,349.59908780637716
871,1686015326.14,13.672,322.266,51.27,8.301,117090.566,351.549983374004
872,1686015326.15,-4.395,421.387,-1.465,7.324,117090.57,343.7854629901816
873,1686015326.15,-7.324,-466.797,-13.184,7.324,117090.574,352.62175720819096
874,1686015326.16,4.883,-275.391,97.168,5.371,117090.577,328.8361655870187
875,1686015326.16,4.883,610.352,67.383,2.441,117090.581,343.30656491734914
876,1686015326.16,7.812,471.68,-3.906,5.371,117090.583,343.43335682462646
877,1686015326.17,2.441,236.816,31.738,12.695,117090.587,328.86717539015063
878,1686015326.17,5.371,419.434,45.898,10.742,117090.591,337.59452114985436
879,1686015326.17,10.742,564.453,23.438,3.906,117090.594,343.0978502720119
880,1686015326.18,2.441,316.406,13.184,0.977,117090.598,331.6964079962795
881,1686015326.18,-7.324,-64.453,26.855,-5.859,117090.602,328.607484671937
882,1686015326.18,-12.695,-84.961,22.949,-9.277,117090.606,326.99135997088587
883,1686015326.19,-7.324,342.285,67.383,-6.836,117090.61,332.86446876635716
884,1686015326.19,-9.277,177.246,-0.488,-7.324,117090.614,325.8426189550156
885,1686015326.2,-15.625,-852.051,-11.23,-8.789,117090.618,319.52429816797866
886,1686015326.2,-12.695,-236.328,122.559,-11.23,117090.622,322.00625077773407
887,1686015326.2,-10.254,604.004,73.242,-4.395,117090.626,323.51253772240244
888,1686015326.21,0.977,342.285,15.137,5.371,117090.63,303.2205689673815
889,1686015326.21,-2.93,432.129,43.457,1.465,117090.634,315.79309804694174
890,1686015326.22,-18.555,604.492,23.438,-8.789,117090.638,304.3966847027955
891,1686015326.22,-17.09,501.953,7.324,-9.766,117090.642,304.14700074837725
892,1686015326.22,-8.789,286.621,47.363,-4.395,117090.646,301.63243265312923
893,1686015326.23,-5.371,109.375,37.598,-7.812,117090.65,304.18058993316566
894,1686015326.23,-14.648,229.492,53.711,-12.207,117090.654,287.7810260836526
895,1686015326.24,-15.137,404.297,29.297,-3.418,117090.657,294.83473858517556
896,1686015326.24,-11.719,-292.969,4.883,11.23,117090.661,290.0305199208635
897,1686015326.24,-14.648,17.578,107.91,11.23,117090.665,295.1488830048205
898,1686015326.25,-33.691,667.48,46.875,1.953,117090.669,281.3416429946213
899,1686015326.25,-43.457,326.172,1.465,-0.977,117090.673,275.99375465598285
900,1686015326.25,-36.133,183.594,82.031,0.977,117090.674,282.32976386584176
901,1686015326.26,-33.691,572.754,64.453,-4.395,117090.677,281.8876863621327
902,1686015326.26,-39.062,635.254,8.301,-12.695,117090.681,270.7953955852358
903,1686015326.26,-41.504,313.965,13.184,-5.371,117090.685,273.3279017930561
904,1686015326.27,-40.039,144.043,50.781,-6.348,117090.689,264.7740110057765
905,1686015326.27,-34.668,129.883,37.109,-7.812,117090.693,276.6099994275629
906,1686015326.28,-34.18,193.359,32.715,-9.277,117090.697,258.70439895064504
907,1686015326.28,-32.227,-24.414,3.418,-11.23,117090.701,271.59780526426255
908,1686015326.28,-26.855,-811.035,24.902,3.906,117090.705,259.14165825887494
909,1686015326.29,-30.762,-26.855,127.93,8.789,117090.709,266.744446878344
910,1686015326.29,-46.875,742.676,47.852,-4.395,117090.713,266.6016288106014
911,1686015326.3,-63.477,266.602,-10.742,-15.625,117090.716,267.6459798405002
912,1686015326.3,-57.617,370.117,44.434,-13.184,117090.723,266.3174560726602
913,1686015326.3,-34.668,654.785,51.758,-13.184,117090.727,258.30567870558946
914,1686015326.31,-48.828,395.508,9.766,-42.969,117090.731,269.674022163725
915,1686015326.31,-79.102,-52.734,-20.02,-82.52,117090.735,268.19971506207065
916,1686015326.32,-84.473,186.523,45.898,-106.445,117090.739,272.3256644754117
917,1686015326.32,-68.359,364.746,51.27,-104.004,117090.743,279.95261564311966
918,1686015326.32,-63.965,208.008,17.09,-104.492,117090.747,274.85324919209467
919,1686015326.33,-80.566,-298.34,9.277,-118.164,117090.751,275.12271097057425
920,1686015326.33,-85.938,-56.641,89.355,-126.953,117090.754,285.0903460210692
921,1686015326.34,-73.242,666.504,76.66,-115.723,117090.758,275.8348587287809
922,1686015326.34,-69.824,623.535,26.367,-92.285,117090.762,283.9551085733342
923,1686015326.34,-72.266,585.449,55.176,-86.426,117090.763,276.55459352733135
924,1686015326.34,-69.336,444.824,53.711,-84.961,117090.766,286.6903188018644
925,1686015326.35,-71.289,669.922,34.18,-80.078,117090.767,286.1683528599171
926,1686015326.35,-63.965,503.418,20.996,-69.336,117090.771,273.44679286157333
927,1686015326.35,-60.547,482.422,49.316,-68.848,117090.775,285.51812671778276
928,1686015326.36,-67.871,422.363,28.809,-71.777,117090.779,287.18745525808384
929,1686015326.36,-75.684,192.383,23.438,-70.801,117090.783,284.6033353821161
930,1686015326.36,-72.754,78.613,35.156,-77.637,117090.787,291.4413455862707
931,1686015326.37,-61.035,-777.344,9.277,-68.359,117090.791,288.893743237657
932,1686015326.37,-69.336,-663.086,111.816,-69.824,117090.794,296.1563200708832
933,1686015326.38,-70.801,381.836,95.703,-82.52,117090.798,292.3334697124136
934,1686015326.38,-47.363,393.555,11.23,-71.777,117090.802,302.76983766788186
935,1686015326.38,-39.062,508.789,50.781,-61.035,117090.806,306.1271452901698
936,1686015326.49,-51.758,765.137,34.668,-62.012,117090.916,303.6575144147938
937,1686015326.5,-59.57,534.668,-0.488,-67.871,117090.92,312.88275112241723
938,1686015326.5,-61.523,221.191,28.809,-58.105,117090.924,308.5604449932455
939,1686015326.51,-68.848,529.785,66.895,-59.57,117090.928,314.5813423505819
940,1686015326.51,-58.594,742.188,36.621,-56.641,117090.932,311.6975632607308
941,1686015326.51,-67.383,728.027,35.156,-78.125,117090.931,311.37149302921375
942,1686015326.51,-64.453,508.789,5.859,-58.594,117090.936,305.63706754900966
943,1686015326.51,-74.219,288.086,-16.602,-75.195,117090.935,312.2140127277142
944,1686015326.52,-65.43,354.492,39.551,-70.801,117090.94,309.69735140010545
945,1686015326.52,-71.289,-458.984,-18.066,-56.641,117090.939,315.6938890386212
946,1686015326.52,-53.711,585.449,59.082,-62.988,117090.943,315.6865231424331
947,1686015326.52,-60.547,-293.945,67.871,-49.316,117090.943,315.3322609202303
948,1686015326.52,-50.781,544.434,127.93,-54.199,117090.956,321.378115668527
949,1686015326.52,-48.34,571.289,32.227,-51.758,117090.947,312.01155461126615
950,1686015326.52,-63.477,568.359,74.219,-53.223,117090.947,320.25329205481273
951,1686015326.53,-54.199,216.797,26.367,-50.781,117090.951,315.69806912635494
952,1686015326.53,-53.223,165.527,53.711,-43.457,117090.96,308.36278820376293
953,1686015326.53,-59.082,492.188,-2.441,-62.5,117090.951,316.5680030909661
954,1686015326.53,-55.664,-16.602,90.82,-47.852,117090.955,313.05854063192334
955,1686015326.53,-62.988,168.457,105.469,-42.48,117090.964,305.0965525799253
956,1686015326.53,-59.082,-60.059,58.105,-51.758,117090.955,316.98489918925395
957,1686015326.54,-58.105,126.953,166.016,-47.852,117090.959,319.7026877588172
958,1686015326.54,-61.523,539.551,122.559,-37.109,117090.968,310.82158780044375
959,1686015326.54,-59.082,347.656,95.703,-47.852,117090.959,316.10016307437917
960,1686015326.54,-136.23,120.605,20.508,-115.723,117090.961,315.5748965817764
961,1686015326.54,-60.059,511.719,176.27,-46.875,117090.963,315.58320160153147
962,1686015326.54,-51.27,499.512,89.844,-31.738,117090.972,314.00150513268284
963,1686015326.54,-49.805,269.531,105.469,-43.945,117090.967,308.34178900248224
964,1686015326.54,-130.371,28.809,87.891,-106.445,117090.965,311.8884011031027
965,1686015326.54,-52.246,45.898,75.684,-28.809,117090.976,310.9436875505058
966,1686015326.55,-121.582,432.129,56.641,-91.309,117090.969,311.5421312994828
967,1686015326.55,-53.223,8.301,115.234,-53.223,117090.971,308.61273327923993
968,1686015326.55,-66.895,105.469,104.004,-39.062,117090.98,309.54753574699083
969,1686015326.55,-55.176,315.918,169.922,-62.012,117090.975,311.7063038376495
970,1686015326.55,-117.676,552.246,3.418,-91.309,117090.973,316.70600712533957
971,1686015326.55,-66.895,504.883,110.84,-46.387,117090.984,318.6071856047293
972,1686015326.56,-61.035,407.715,84.961,-42.48,117090.988,313.5246049142587
973,1686015326.56,-125.0,174.316,2.441,-94.727,117090.977,322.1572694605257
974,1686015326.56,-62.988,158.691,112.793,-46.387,117090.991,316.5572835583871
975,1686015326.56,-131.836,-114.746,42.969,-89.844,117090.981,324.1431673834405
976,1686015326.56,-120.605,-15.137,11.23,-95.215,117090.985,308.6178617363148
977,1686015326.56,-63.965,407.227,124.512,-49.805,117090.995,309.8949539769934
978,1686015326.57,-125.488,77.637,-3.418,-107.422,117090.989,318.702889495703
979,1686015326.57,-98.145,477.539,34.668,-85.938,117090.999,314.9071916256845
980,1686015326.57,-118.164,-112.793,-18.555,-98.633,117090.993,313.22522610869146
981,1686015326.57,-104.004,-851.074,7.812,-75.684,117090.997,318.8985949489962
982,1686015326.58,-101.074,-240.723,124.023,-74.219,117091.0,306.7537357242692
983,1686015326.58,-99.609,676.27,49.805,-71.777,117091.004,310.95153900560473
984,1686015326.58,-96.68,30.273,-57.617,-62.5,117091.005,301.6875196930032
985,1686015326.59,-88.867,-928.711,30.273,-45.41,117091.009,309.8725926453339
986,1686015326.59,-81.055,-300.781,140.137,-41.016,117091.013,307.8667164036299
987,1686015326.6,-86.914,439.941,52.734,-62.012,117091.017,305.12616869266463
988,1686015326.6,-80.078,-233.887,-41.016,-72.754,117091.02,308.35706656967955
989,1686015326.6,-79.102,-897.461,46.387,-64.453,117091.024,306.7399505235014
990,1686015326.61,-76.172,40.039,142.578,-57.617,117091.028,316.98802964122893
991,1686015326.61,-74.219,735.84,43.945,-56.641,117091.032,302.4338999612585
992,1686015326.62,-86.426,-303.711,-19.531,-54.199,117091.036,309.14834477273496
993,1686015326.62,-85.449,-550.293,134.766,-52.246,117091.04,302.791806350422
994,1686015326.62,-76.66,606.934,130.371,-54.688,117091.044,305.0193164749133
995,1686015326.63,-73.73,753.906,24.902,0.0,117091.048,300.8753290541297
996,1686015326.63,-81.055,485.84,63.965,83.984,117091.048,306.3253451590693
997,1686015326.63,-81.543,659.668,63.965,99.121,117091.052,315.3821389186241
998,1686015326.64,-71.289,760.742,47.852,87.891,117091.056,301.59670257435243
999,1686015326.64,-70.801,645.508,35.156,81.055,117091.06,305.3886970410562
1000,1686015326.64,-80.078,453.125,31.25,75.195,117091.064,308.57763853669127
1001,1686015326.65,-85.449,230.957,40.039,62.988,117091.067,312.30859217905225
1002,1686015326.65,-82.52,295.41,69.824,61.035,117091.071,303.35222142802036
1003,1686015326.65,-74.219,247.07,46.387,79.59,117091.075,311.85503150777436
1004,1686015326.66,-74.707,-698.242,43.945,88.867,117091.079,314.0662766551505
1005,1686015326.66,-83.984,-432.617,167.969,58.594,117091.083,298.230687953588
1006,1686015326.67,-89.844,536.133,126.953,39.062,117091.087,303.6653685188695
1007,1686015326.67,-82.031,464.355,53.711,43.945,117091.091,307.23076428386355
1008,1686015326.67,-83.496,606.934,94.727,41.016,117091.095,296.6265837052955
1009,1686015326.68,-89.844,814.941,69.336,30.273,117091.099,305.2299616973946
1010,1686015326.68,-89.355,625.488,36.621,25.391,117091.103,300.2659141773398
1011,1686015326.69,-80.566,401.367,71.289,26.855,117091.107,304.42603542151636
1012,1686015326.69,-77.148,624.512,94.238,24.414,117091.11,309.28494767465145
1013,1686015326.69,-85.938,521.973,55.176,16.602,117091.114,309.79647974612055
1014,1686015326.7,-80.566,209.473,45.898,13.672,117091.118,300.2862122508424
1015,1686015326.7,-70.801,-345.703,35.156,19.043,117091.122,305.5606553883604
1016,1686015326.7,-91.309,-169.434,118.164,-12.695,117091.126,315.80423477543735
1017,1686015326.71,-110.84,722.168,103.516,-53.711,117091.13,304.2304191825142
1018,1686015326.71,-104.492,587.891,20.02,-49.805,117091.134,303.3466978099488
1019,1686015326.72,-96.191,59.082,102.051,-32.227,117091.138,296.72029737288574
1020,1686015326.72,-99.121,520.996,124.023,-40.527,117091.138,299.5495488620374
1021,1686015326.72,-104.492,887.207,62.012,-50.293,117091.142,301.9247950676226
1022,1686015326.72,-113.77,569.824,17.09,-50.293,117091.146,305.6204921470786
1023,1686015326.73,-109.375,479.492,58.594,-36.133,117091.15,307.80858737895
1024,1686015326.73,-97.656,569.824,62.988,-17.09,117091.154,294.42639120740466
1025,1686015326.74,-95.703,415.527,42.48,-25.391,117091.158,302.08407262984485
1026,1686015326.74,-102.051,120.605,23.438,-47.363,117091.161,307.8157553817798
1027,1686015326.74,-96.191,-711.914,37.598,-37.598,117091.165,296.4131394067186
1028,1686015326.75,-86.426,-35.645,145.996,-30.273,117091.169,313.64460558643265
1029,1686015326.75,-77.148,873.535,89.844,-31.25,117091.173,302.00095705740233
1030,1686015326.76,-75.684,436.035,2.441,-36.621,117091.177,305.21314689165314
1031,1686015326.76,-84.961,309.57,55.176,-55.664,117091.181,308.56859034815835
1032,1686015326.76,-89.355,700.195,99.609,-53.223,117091.198,307.09404034764174
1033,1686015326.77,-86.426,817.871,58.105,-49.805,117091.202,300.13161761632773
1034,1686015326.77,-90.332,229.98,-19.531,-56.152,117091.206,295.6563426389827
1035,1686015326.78,-100.098,246.094,51.27,-59.57,117091.21,306.6738564589952
1036,1686015326.78,-91.797,726.074,83.496,-48.34,117091.214,300.2897798644501
1037,1686015326.78,-84.961,511.719,24.902,-37.598,117091.217,301.3292118809476
1038,1686015326.79,-87.402,-120.117,14.648,-40.039,117091.221,303.09496340234637
1039,1686015326.79,-88.379,76.66,76.66,-43.945,117091.225,310.2285008981745
1040,1686015326.8,-82.031,696.289,72.266,-49.805,117091.229,310.82387339155446
1041,1686015326.8,-81.055,648.438,50.293,-51.27,117091.233,300.2092149734381
1042,1686015326.8,-86.426,510.742,76.172,-50.293,117091.237,312.3905903058586
1043,1686015326.81,-84.961,667.969,64.941,-59.57,117091.241,309.01225206736524
1044,1686015326.81,-91.797,718.262,24.414,-84.961,117091.242,308.9001725744442
1045,1686015326.81,-95.215,361.328,20.02,-97.656,117091.246,306.7141227307767
1046,1686015326.82,-84.473,183.105,93.75,-90.82,117091.25,311.30272218166664
1047,1686015326.82,-83.984,607.91,78.613,-99.121,117091.254,306.70142797956413
1048,1686015326.82,-98.633,650.879,8.789,-117.676,117091.258,305.3150065743882
1049,1686015326.83,-101.074,112.793,6.836,-111.328,117091.261,305.24078914568054
1050,1686015326.83,-88.379,-408.691,75.684,-94.238,117091.265,314.23279749799013
1051,1686015326.84,-83.496,202.148,117.188,-98.145,117091.269,305.79589362763886
1052,1686015326.84,-79.59,780.762,51.27,-104.98,117091.273,311.23088360167617
1053,1686015326.84,-74.219,289.551,11.23,-107.422,117091.277,307.6859511382926
1054,1686015326.85,-74.219,71.777,105.469,-102.539,117091.281,307.278425077022
1055,1686015326.85,-73.242,711.426,104.98,-96.68,117091.285,318.8086614202362
1056,1686015326.87,-67.871,770.996,26.367,-103.516,117091.29,309.5351911719344
1057,1686015326.87,-71.777,341.309,17.578,-110.84,117091.294,307.7895321315902
1058,1686015326.88,-76.172,557.617,69.824,-106.445,117091.298,311.0631971561995
1059,1686015326.88,-78.125,787.598,67.871,-108.887,117091.302,322.0347374468422
1060,1686015326.88,-83.496,483.398,13.672,-121.094,117091.306,313.204423013593
1061,1686015326.89,-92.285,-333.984,7.324,-124.023,117091.31,320.84804296393617
1062,1686015326.89,-87.402,-270.02,148.926,-117.188,117091.313,314.72369318683127
1063,1686015326.9,-71.289,734.863,135.742,-105.957,117091.317,310.6358408728216
1064,1686015326.9,-78.613,686.035,33.691,-104.98,117091.321,318.32831046577223
1065,1686015326.9,-83.984,323.73,83.984,-109.863,117091.325,309.2178875988654
1066,1686015326.91,-71.777,572.754,101.562,-108.398,117091.329,315.3203190978865
1067,1686015326.91,-63.965,721.68,86.914,-100.098,117091.333,311.08181339951136
1068,1686015326.91,-63.477,637.207,57.617,-100.586,117091.334,317.5573109944625
1069,1686015326.92,-76.66,461.914,51.27,-111.816,117091.337,317.3896292071028
1070,1686015326.92,-84.473,621.094,60.059,-107.422,117091.341,316.80882979610465
1071,1686015326.92,-83.496,799.805,49.316,-87.402,117091.345,327.20667196409136
1072,1686015326.93,-81.055,605.469,20.996,-76.172,117091.349,314.48846225022373
1073,1686015326.93,-86.914,221.68,23.926,-89.844,117091.353,322.56771120355654
1074,1686015326.94,-104.004,165.039,53.223,-97.168,117091.357,321.35889702587457
1075,1686015326.94,-108.398,352.051,56.641,-87.402,117091.361,330.9138009199043
1076,1686015326.94,-107.422,212.891,12.695,-82.031,117091.365,325.3274212254763
1077,1686015326.95,-119.629,-716.309,9.277,-80.566,117091.369,321.3842645238361
1078,1686015326.95,-115.234,-375.488,108.887,-87.402,117091.373,319.2624102879635
1079,1686015326.96,-102.051,610.84,76.172,-87.891,117091.377,319.839617655493
1080,1686015326.96,-99.121,533.203,11.23,-82.031,117091.384,323.39614785473924
1081,1686015326.96,-96.191,656.738,37.598,-90.332,117091.387,323.33308680592216
1082,1686015326.97,-94.238,809.57,47.363,-95.215,117091.391,318.10344922071886
1083,1686015326.97,-85.938,631.348,29.785,-86.426,117091.395,322.0303305535495
1084,1686015326.98,-81.543,435.059,47.852,-80.566,117091.399,317.56591448359615
1085,1686015326.98,-91.309,333.008,38.086,-79.102,117091.403,318.8512593753849
1086,1686015326.98,-105.469,423.828,41.992,-84.961,117091.407,332.9041465078141
1087,1686015326.99,-109.375,602.051,33.691,-87.891,117091.411,324.15692961409025
1088,1686015326.99,-97.656,-127.441,-1.465,-78.613,117091.415,329.047934915156
1089,1686015326.99,-89.844,-152.832,84.961,-77.637,117091.419,318.42949165305896
1090,1686015327.0,-101.074,729.004,72.754,-87.891,117091.423,320.73264562117606
1091,1686015327.0,-100.098,589.844,5.859,-91.797,117091.427,319.7603078650501
1092,1686015327.0,-80.566,148.438,94.238,-77.637,117091.423,321.5557864675321
1093,1686015327.01,-85.449,592.285,110.84,-79.102,117091.427,321.2808222362046
1094,1686015327.01,-94.727,839.844,43.945,-93.75,117091.431,314.6520537888798
1095,1686015327.01,-85.449,574.219,32.715,-97.656,117091.435,321.54823777770815
1096,1686015327.02,-79.59,454.102,62.5,-93.262,117091.439,327.9848755824308
1097,1686015327.02,-77.148,362.793,55.664,-85.449,117091.443,329.14348381988094
1098,1686015327.02,-83.496,427.246,56.152,-85.938,117091.447,320.4400199459542
1099,1686015327.03,-89.355,189.941,11.23,-82.031,117091.45,317.9144782471724
1100,1686015327.03,-81.543,-639.648,21.484,-75.195,117091.454,315.8643546224263
1101,1686015327.04,-72.754,107.422,115.234,-80.566,117091.458,318.6074754717274
1102,1686015327.04,-71.777,940.918,52.246,-89.844,117091.462,319.0084693641369
1103,1686015327.04,-79.102,473.633,-16.602,-94.727,117091.466,323.40243567228026
1104,1686015327.05,-80.566,449.707,59.082,-90.82,117091.471,320.6090257980147
1105,1686015327.05,-76.172,896.973,89.844,-74.219,117091.475,322.3142012493968
1106,1686015327.06,-76.172,904.297,29.297,-70.801,117091.478,324.1488194067737
1107,1686015327.06,-79.59,289.062,-27.832,-79.102,117091.482,317.6525924185469
1108,1686015327.06,-83.008,321.289,42.48,-80.078,117091.486,321.1370218128922
1109,1686015327.07,-77.148,552.734,52.246,-74.219,117091.49,314.9667872461986
1110,1686015327.07,-68.848,442.383,13.672,-75.195,117091.494,319.6435794644847
1111,1686015327.08,-74.707,-55.176,9.277,-82.52,117091.498,313.418711631529
1112,1686015327.08,-77.148,104.492,61.523,-80.566,117091.502,319.12098001706755
1113,1686015327.08,-63.477,780.762,48.34,-80.566,117091.506,322.81992104546447
1114,1686015327.09,-53.223,750.0,12.207,-77.637,117091.51,321.1201107413917
1115,1686015327.09,-54.199,567.383,37.598,-72.266,117091.514,313.79541442968616
1116,1686015327.09,-63.965,682.617,29.297,-83.496,117091.517,321.42207487711573
1117,1686015327.1,-69.824,741.699,7.324,-84.473,117091.521,314.01527083787124
1118,1686015327.1,-66.895,377.441,15.625,-73.242,117091.525,320.4552640072804
1119,1686015327.1,-66.406,243.652,72.266,-74.707,117091.529,317.14475035178367
1120,1686015327.11,-74.219,563.965,33.203,-93.75,117091.533,319.16708673243755
1121,1686015327.11,-79.102,463.867,11.23,-96.191,117091.537,318.23123111023915
1122,1686015327.12,-77.637,137.695,20.02,-80.078,117091.541,314.30160329281654
1123,1686015327.12,-88.379,-579.59,20.02,-71.289,117091.545,318.26365470205815
1124,1686015327.12,-94.727,26.367,90.332,-83.984,117091.549,327.9654312346822
1125,1686015327.13,-97.656,801.758,33.691,-93.262,117091.552,318.33018863740693
1126,1686015327.13,-95.215,515.137,-9.277,-83.984,117091.556,321.39233100103246
1127,1686015327.14,-83.008,630.859,43.457,-67.871,117091.56,316.89485541632433
1128,1686015327.14,-89.355,883.789,39.062,-69.824,117091.572,321.4376165301051
1129,1686015327.14,-98.633,730.469,-1.953,-81.543,117091.576,317.4430666567404
1130,1686015327.15,-96.68,407.227,11.23,-71.777,117091.58,323.90279751250796
1131,1686015327.15,-102.051,640.625,47.852,-59.57,117091.584,324.32995129753164
1132,1686015327.16,-108.398,750.977,26.367,-58.105,117091.588,318.8444818181994
1133,1686015327.16,-102.539,437.012,-9.766,-54.199,117091.592,325.90906340777394
1134,1686015327.16,-95.215,-359.375,-37.598,-44.434,117091.596,316.4748355455224
1135,1686015327.17,-91.797,-372.07,102.051,-42.48,117091.6,316.72198265532637
1136,1686015327.17,-85.938,692.871,86.426,-43.945,117091.604,320.5200911111215
1137,1686015327.17,-80.078,665.039,-20.508,-49.316,117091.608,325.73248678119245
1138,1686015327.18,-77.637,380.859,46.387,-61.523,117091.611,318.173371919079
1139,1686015327.18,-80.078,703.613,63.477,-59.57,117091.615,319.90630392312687
1140,1686015327.18,-82.031,871.582,17.578,-56.641,117091.618,322.81779604418233
1141,1686015327.19,-89.355,611.816,-10.254,-64.453,117091.622,324.79585198523733
1142,1686015327.19,-88.379,415.039,27.832,-60.547,117091.625,321.3675377070944
1143,1686015327.19,-76.66,638.672,48.828,-55.176,117091.629,313.18039593505586
1144,1686015327.2,-71.289,770.508,29.297,-50.781,117091.633,315.9659999135675
1145,1686015327.2,-67.383,206.055,-6.836,-49.316,117091.637,323.0013412400276
1146,1686015327.2,-68.848,-531.738,40.527,-56.641,117091.641,317.7653552911954
1147,1686015327.21,-76.172,-117.188,82.52,-51.758,117091.645,317.5545124642831
1148,1686015327.21,-78.613,553.711,60.059,-44.922,117091.649,322.6253199572367
1149,1686015327.22,-87.891,301.758,-3.906,-49.805,117091.653,318.49910641749904
1150,1686015327.22,-88.379,-411.133,45.898,-42.969,117091.657,314.5716822751614
1151,1686015327.22,-78.125,287.109,94.238,-49.316,117091.661,320.63963003089026
1152,1686015327.24,-72.754,754.395,31.25,13.672,117091.665,309.599075450063
1153,1686015327.25,-64.941,429.199,0.977,116.211,117091.669,317.8693398804466
1154,1686015327.25,-69.336,557.617,20.996,122.559,117091.672,318.1572772183298
1155,1686015327.26,-70.801,729.004,36.621,109.863,117091.676,313.2386941027738
1156,1686015327.26,-62.5,600.586,21.973,109.375,117091.68,317.35879464292526
1157,1686015327.26,-63.477,155.762,22.949,96.68,117091.684,317.2002214241552
1158,1686015327.27,-70.801,201.172,52.246,65.43,117091.688,313.8599861441442
1159,1686015327.27,-77.637,655.762,44.434,50.293,117091.692,316.75332838949026
1160,1686015327.27,-82.031,564.453,17.578,54.199,117091.696,313.9806588521576
1161,1686015327.28,-75.684,-192.383,28.809,50.293,117091.7,316.1968456236797
1162,1686015327.28,-62.5,20.996,94.238,35.645,117091.704,313.52182005750797
1163,1686015327.29,-63.477,674.316,41.992,17.09,117091.708,313.7781486735218
1164,1686015327.29,-63.477,430.664,0.488,26.367,117091.708,317.68804446566855
1165,1686015327.29,-60.059,87.402,86.426,30.273,117091.712,307.526955130344
1166,1686015327.3,-62.012,458.984,63.477,15.625,117091.716,315.0932497812966
1167,1686015327.3,-61.523,655.762,-4.883,8.301,117091.72,325.3884460839671
1168,1686015327.3,-58.594,332.52,0.977,13.672,117091.724,315.89896011994114
1169,1686015327.31,-50.781,51.27,47.852,15.625,117091.728,321.08335017239636
1170,1686015327.31,-52.734,100.586,39.551,0.0,117091.732,313.2321444464843
1171,1686015327.31,-70.801,367.188,34.668,-20.508,117091.735,310.33686306541034
1172,1686015327.32,-85.938,157.227,-13.184,-24.414,117091.739,308.81000481972086
1173,1686015327.32,-85.938,-666.504,11.23,-15.137,117091.743,316.9815411831564
1174,1686015327.33,-83.008,128.418,80.078,-16.602,117091.747,316.11063550098174
1175,1686015327.33,-83.496,657.715,3.418,-21.973,117091.751,323.1013315265215
1176,1686015327.33,-90.82,167.969,-29.297,-23.438,117091.755,312.6076649738984
1177,1686015327.34,-86.426,253.906,45.41,-16.113,117091.759,314.0939566021112
1178,1686015327.34,-72.266,690.43,56.152,-11.719,117091.763,314.46933925812897
1179,1686015327.35,-83.984,708.008,-8.789,-24.902,117091.767,309.68201648369046
1180,1686015327.35,-91.797,29.297,-37.598,-36.621,117091.771,309.76482822794304
1181,1686015327.35,-73.73,-101.562,15.625,-24.902,117091.775,306.81918224350954
1182,1686015327.36,-52.246,335.938,36.621,-12.207,117091.779,318.8297745044951
1183,1686015327.36,-58.594,543.457,7.812,-32.715,117091.783,321.0903362821202
1184,1686015327.36,-70.312,-167.48,2.441,-50.293,117091.786,308.7991358323557
1185,1686015327.37,-66.406,-52.734,74.707,-56.152,117091.79,314.3990745313659
1186,1686015327.37,-65.43,713.379,45.41,-51.758,117091.794,310.7943791771018
1187,1686015327.38,-86.426,437.988,17.09,-59.082,117091.797,315.3118606549509
1188,1686015327.38,-78.125,627.93,-9.766,-41.504,117091.798,317.1626049333958
1189,1686015327.38,-88.379,562.988,23.438,-78.613,117091.8,314.25369841683005
1190,1686015327.38,-88.379,608.398,-7.324,-75.195,117091.804,315.77782105961234
1191,1686015327.39,-81.543,322.266,7.812,-71.777,117091.808,315.47001283067755
1192,1686015327.39,-84.961,18.066,36.621,-79.102,117091.812,317.10164328115053
1193,1686015327.4,-94.238,23.926,0.977,-88.379,117091.816,316.00471242701366
1194,1686015327.4,-93.262,168.945,9.277,-84.961,117091.82,326.001784569417
1195,1686015327.4,-93.75,61.035,16.113,-74.219,117091.824,322.68475641813785
1196,1686015327.41,-90.82,-663.574,11.719,-76.172,117091.828,318.9029280581029
1197,1686015327.41,-93.262,-96.68,72.754,-91.309,117091.832,310.8990497914727
1198,1686015327.42,-88.867,621.094,31.738,-84.473,117091.836,314.42079313506036
1199,1686015327.42,-70.801,359.863,-4.883,-63.477,117091.84,307.1931429745848
1200,1686015327.44,-67.871,515.625,32.227,-61.035,117091.857,314.83051288443653
1201,1686015327.44,-73.242,751.953,23.438,-74.707,117091.861,319.3772683011261
1202,1686015327.44,-81.543,604.004,1.465,-82.031,117091.865,306.85534975493084
1203,1686015327.45,-74.219,314.941,15.625,-69.824,117091.869,312.1625714576285
1204,1686015327.45,-67.871,487.793,33.203,-67.383,117091.873,318.2362504606257
1205,1686015327.46,-73.242,414.062,19.531,-85.938,117091.877,320.4355488047611
1206,1686015327.46,-65.43,164.551,6.348,-89.844,117091.881,311.67595975315567
1207,1686015327.46,-54.688,-457.52,-0.977,-69.824,117091.885,310.1627674842749
1208,1686015327.47,-56.641,645.996,67.871,-62.988,117091.887,313.2410540742934
1209,1686015327.47,-51.27,-381.348,123.535,-52.734,117091.889,307.19684905731657
1210,1686015327.47,-59.57,770.02,31.25,-74.707,117091.891,316.5293004622064
1211,1686015327.47,-56.641,574.219,75.195,-68.359,117091.892,314.69276089716794
1212,1686015327.47,-68.359,456.543,0.0,-89.355,117091.895,312.8594714555575
1213,1686015327.48,-66.406,522.461,-2.441,-82.031,117091.896,311.6659740944842
1214,1686015327.48,-67.383,313.477,47.852,-93.262,117091.899,315.76524244061005
1215,1686015327.48,-63.477,336.426,62.5,-72.266,117091.9,312.72192431772334
1216,1686015327.48,-68.359,432.617,38.086,-84.961,117091.903,317.0549400044676
1217,1686015327.49,-71.289,359.863,9.277,-83.984,117091.906,313.91950415066185
1218,1686015327.49,-76.66,-9.766,0.488,-93.75,117091.91,312.17762697067377
1219,1686015327.49,-76.172,-415.039,62.5,-83.008,117091.914,313.66670520404136
1220,1686015327.5,-63.477,1.465,77.148,-76.66,117091.918,316.0780698956723
1221,1686015327.5,-65.43,537.109,51.27,-76.172,117091.922,309.2135148997309
1222,1686015327.5,-77.637,182.129,-14.648,-81.055,117091.926,313.28441327478544
1223,1686015327.51,-79.59,-809.57,-2.93,-78.613,117091.93,324.2461072057702
1224,1686015327.51,-73.242,-70.801,93.75,-72.754,117091.946,307.8763911868982
1225,1686015327.52,-64.941,683.594,37.109,-69.336,117091.95,321.4952274207528
1226,1686015327.52,-65.918,326.66,-2.93,-62.988,117091.954,315.92023652448177
1227,1686015327.52,-75.195,438.965,27.832,-80.078,117091.958,307.1140929539569
1228,1686015327.53,-69.336,619.141,28.32,-109.863,117091.962,315.0341268768277
1229,1686015327.53,-56.641,316.406,0.0,-119.629,117091.966,315.33301712089605
1230,1686015327.54,-63.965,-306.641,-0.977,-131.348,117091.97,322.27911739293796
1231,1686015327.54,-81.543,-83.496,77.148,-154.785,117091.974,312.93654463475866
1232,1686015327.54,-80.078,553.223,44.922,-162.598,117091.977,315.90105069004454
1233,1686015327.55,-70.801,500.977,3.906,-151.855,117091.981,314.80360037776353
1234,1686015327.55,-63.477,227.539,20.996,-149.902,117091.985,311.9096416639577
1235,1686015327.56,-69.336,225.586,41.016,-165.039,117091.989,323.9095552949876
1236,1686015327.56,-83.496,513.672,34.668,-171.875,117091.99,322.1037322678606
1237,1686015327.56,-81.055,350.586,-0.977,-160.645,117091.994,313.7822047459164
1238,1686015327.57,-74.219,20.02,57.617,-148.926,117091.998,311.04078302073697
1239,1686015327.57,-69.336,369.629,50.781,-151.855,117092.002,316.0003614602627
1240,1686015327.57,-65.43,499.512,1.953,-151.855,117092.006,319.84457558492403
1241,1686015327.58,-69.336,-3.906,1.953,-147.461,117092.01,312.4379558764399
1242,1686015327.58,-62.012,-594.238,52.734,-138.672,117092.014,304.8324227743055
1243,1686015327.58,-61.035,-41.016,83.496,-146.973,117092.018,309.2716706275601
1244,1686015327.59,-62.988,523.926,1.465,-166.016,117092.022,314.6430810818278
1245,1686015327.59,-57.129,93.75,-17.578,-162.109,117092.026,314.6022671017498
1246,1686015327.6,-56.152,-109.863,80.566,-143.555,117092.029,311.71166733417346
1247,1686015327.6,-57.129,484.375,60.547,-145.508,117092.033,316.00930730820807
1248,1686015327.62,-53.223,526.855,-2.93,-154.785,117092.038,307.86706076451725
1249,1686015327.62,-57.617,20.508,-1.465,-147.949,117092.042,303.15041175284813
1250,1686015327.63,-66.406,145.02,40.527,-134.766,117092.046,314.3166366508382
1251,1686015327.63,-69.336,515.625,39.551,-137.207,117092.05,317.2405232155504
1252,1686015327.63,-78.125,450.684,-14.648,-148.438,117092.054,311.8660982286728
1253,1686015327.64,-83.008,-484.863,-47.852,-151.367,117092.058,317.6592874673613
1254,1686015327.64,-79.102,-607.422,92.285,-146.484,117092.062,310.8260713309291
1255,1686015327.64,-80.566,410.645,59.57,-138.184,117092.066,315.2625097984602
1256,1686015327.65,-87.891,435.059,-30.762,-136.23,117092.07,317.01782052105426
1257,1686015327.65,-83.496,30.273,43.457,-130.859,117092.074,311.7422029122166
1258,1686015327.66,-62.012,245.117,48.828,-117.188,117092.077,315.59073104886096
1259,1686015327.66,-54.199,539.551,18.066,-119.629,117092.081,310.57369272838827
1260,1686015327.66,-69.824,412.109,-0.977,-127.441,117092.082,312.7667125614513
1261,1686015327.67,-75.684,191.895,13.184,-125.488,117092.086,313.6496021677585
1262,1686015327.67,-68.359,295.898,12.695,-131.348,117092.09,313.55007271482816
1263,1686015327.67,-66.406,427.734,-0.977,-129.883,117092.094,306.53856702677973
1264,1686015327.68,-60.547,65.43,-0.977,-122.07,117092.098,311.9932356966186
1265,1686015327.68,-57.617,-516.602,59.082,-131.348,117092.102,311.08242886592507
1266,1686015327.68,-65.918,-310.547,36.621,-138.672,117092.106,312.3414906873864
1267,1686015327.69,-60.547,45.898,15.137,-124.023,117092.11,314.8592527310487
1268,1686015327.69,-53.223,-127.441,1.465,-107.91,117092.114,312.3507068306829
1269,1686015327.7,-63.965,-800.293,15.625,-98.145,117092.118,324.5821647679252
1270,1686015327.7,-73.242,-151.855,72.266,-107.91,117092.121,309.85181570947645
1271,1686015327.7,-64.453,469.238,15.625,-106.445,117092.125,308.1748328359706
1272,1686015327.71,-51.27,179.688,-23.438,-93.262,117092.13,316.9297608535489
1273,1686015327.71,-61.035,290.039,8.789,-94.238,117092.133,308.70029322722417
1274,1686015327.72,-69.336,443.359,20.02,-101.562,117092.137,315.9476841725008
1275,1686015327.72,-63.965,354.492,10.742,-98.145,117092.141,314.6452314399317
1276,1686015327.72,-54.688,133.301,15.625,-87.402,117092.145,315.4764176275543
1277,1686015327.73,-61.035,24.902,11.23,-87.402,117092.149,314.5748758330082
1278,1686015327.73,-73.73,-16.602,16.602,-100.586,117092.153,310.9445895208701
1279,1686015327.74,-75.195,-2.93,-4.395,-104.004,117092.157,308.9278220320198
1280,1686015327.74,-75.684,-582.031,-31.738,-98.145,117092.161,308.71652435897744
1281,1686015327.74,-82.52,-486.816,38.086,-101.562,117092.165,307.5180165756805
1282,1686015327.75,-85.938,345.703,-27.344,-109.863,117092.169,308.6682304178912
1283,1686015327.75,-83.008,73.73,-51.758,-104.492,117092.173,307.901283683605
1284,1686015327.75,-68.848,-30.762,10.742,-91.309,117092.172,304.47596164378564
1285,1686015327.76,-67.871,422.363,-7.812,-96.68,117092.176,298.0654947466569
1286,1686015327.76,-71.289,495.117,-34.668,-91.797,117092.18,309.21314020316305
1287,1686015327.76,-77.637,192.383,-40.527,-94.238,117092.184,303.9401615124249
1288,1686015327.77,-78.125,65.918,-14.16,-99.609,117092.188,312.49045762431575
1289,1686015327.77,-62.988,63.477,-1.953,-94.238,117092.192,308.8198142994289
1290,1686015327.78,-63.965,103.027,-21.973,-99.609,117092.196,309.64460972344943
1291,1686015327.78,-71.289,-115.723,-25.391,-100.586,117092.2,308.4663774356212
1292,1686015327.78,-60.547,-869.141,0.0,-89.844,117092.204,310.99818130596293
1293,1686015327.79,-51.27,-401.367,58.105,-94.238,117092.208,306.6902692207794
1294,1686015327.79,-51.758,485.84,18.555,-97.656,117092.211,302.61497239917213
1295,1686015327.8,-55.664,126.465,-30.762,-93.75,117092.215,306.08617147003696
