,timestamps,TP9,AF7,AF8,TP10,Secondary Timestamp,emg_signal
0,1686015380.52,-27.832,560.547,22.949,-48.34,117144.956,339.1845217443003
1,1686015380.53,-37.598,336.914,-29.297,-60.059,117144.96,346.9265568380221
2,1686015380.53,-31.25,-223.145,-21.973,-55.176,117144.964,343.6577288935332
3,1686015380.53,-31.25,101.562,25.879,-52.246,117144.968,346.55494531673276
4,1686015380.54,-40.039,387.695,-6.348,-61.523,117144.972,339.19101758700396
5,1686015380.54,-44.434,1.953,-17.09,-67.871,117144.976,334.6482787208885
6,1686015380.55,-35.645,-781.25,-11.23,-54.688,117144.98,338.40334348829055
7,1686015380.55,-32.227,-927.246,70.312,-41.504,117144.984,346.8644595672542
8,1686015380.55,-32.715,169.434,62.012,-35.645,117144.988,343.36050533036155
9,1686015380.56,-30.762,351.074,-40.527,-33.691,117144.992,341.24477670688304
10,1686015380.56,-32.715,63.477,-2.93,-41.504,117144.995,340.26093680777853
11,1686015380.56,-33.203,268.066,13.672,-50.293,117144.999,332.49585757235786
12,1686015380.57,-20.508,265.625,-14.648,-33.691,117145.003,343.37100603615403
13,1686015380.58,-18.066,49.805,-17.578,-27.832,117145.007,334.55971875002973
14,1686015380.58,-31.25,-115.723,13.672,-34.18,117145.011,341.52554692241307
15,1686015380.58,-27.344,208.008,21.973,-29.785,117145.014,340.262561449174
16,1686015380.59,-18.066,466.309,5.859,-33.203,117145.018,336.8442434368669
17,1686015380.59,-13.672,-2.93,-25.391,-39.551,117145.022,339.2862679863991
18,1686015380.6,-24.414,-426.758,39.551,-54.199,117145.026,333.77930984461204
19,1686015380.6,-27.344,153.32,43.457,-47.852,117145.03,339.3837372483147
20,1686015380.6,-11.719,429.199,-7.324,70.312,117145.034,344.4038731875189
21,1686015380.61,-14.648,71.289,-23.438,166.504,117145.038,335.22602657670205
22,1686015380.61,-20.508,102.051,-8.789,163.574,117145.042,349.10106871982106
23,1686015380.61,-24.414,333.496,4.395,149.902,117145.046,343.00969870333864
24,1686015380.63,-19.043,243.652,-15.137,143.066,117145.048,333.92832017382705
25,1686015380.63,-7.812,56.152,-23.438,134.766,117145.052,342.603025414937
26,1686015380.64,-17.578,4.883,-21.484,104.492,117145.056,339.551709706627
27,1686015380.64,-30.762,67.383,17.09,73.73,117145.06,335.31528705550176
28,1686015380.64,-17.09,142.578,-10.254,76.66,117145.064,339.9536965634677
29,1686015380.65,-9.766,-596.68,-53.223,92.773,117145.068,333.4262852608727
30,1686015380.65,-18.555,-852.051,22.461,78.613,117145.072,329.1029418051626
31,1686015380.65,-22.949,-18.066,37.109,52.734,117145.076,342.4454355649645
32,1686015380.66,-16.602,133.789,-27.832,41.992,117145.08,332.2952912212013
33,1686015380.66,-13.672,-460.449,8.789,38.086,117145.084,343.6319539851692
34,1686015380.67,-18.066,85.938,49.316,17.578,117145.087,343.09331266445037
35,1686015380.67,-31.25,463.379,-21.484,-4.883,117145.091,338.4713941197144
36,1686015380.67,-36.621,134.766,-24.414,-6.348,117145.096,333.00669720274465
37,1686015380.68,-25.879,135.742,20.996,-2.93,117145.1,336.7074981756382
38,1686015380.68,-25.879,390.625,15.137,-11.23,117145.104,341.09988612013564
39,1686015380.69,-30.762,426.27,-13.184,-22.461,117145.108,336.83440643727795
40,1686015380.69,-30.762,52.246,-4.883,-28.809,117145.112,342.12073443065856
41,1686015380.69,-25.879,-161.133,28.32,-21.484,117145.116,340.27374927341526
42,1686015380.7,-21.484,-27.832,7.324,-17.578,117145.119,329.9054116062814
43,1686015380.7,-25.879,74.219,-9.277,-25.391,117145.123,348.9341115404822
44,1686015380.7,-29.785,-272.949,-37.598,-30.273,117145.127,334.65502642971535
45,1686015380.71,-32.227,-850.098,18.066,-24.414,117145.131,337.7808136920058
46,1686015380.71,-25.879,20.02,77.148,-25.391,117145.135,338.6146960081418
47,1686015380.72,-12.695,512.695,-16.602,-30.273,117145.139,328.6208660378036
48,1686015380.72,-17.578,43.945,-36.621,-40.527,117145.139,331.01221791193603
49,1686015380.72,-24.414,140.137,-3.418,-48.34,117145.143,332.53975233011676
50,1686015380.72,-19.043,413.574,-0.488,-37.598,117145.146,336.4387168969052
51,1686015380.73,-18.066,375.977,-8.301,-28.809,117145.15,329.50608030864197
52,1686015380.73,-24.902,-2.93,19.043,-33.691,117145.154,333.11584873245124
53,1686015380.74,-25.391,-208.008,8.301,-34.668,117145.158,341.1320783121494
54,1686015380.74,-21.973,-113.281,0.977,-33.691,117145.162,341.3674770870586
55,1686015380.74,-21.484,-62.5,-2.441,-38.086,117145.166,338.0465829815846
56,1686015380.75,-20.508,-737.305,-41.504,-39.062,117145.17,334.80532132726387
57,1686015380.75,-18.555,-1000.0,19.043,-41.992,117145.174,331.65469181306935
58,1686015380.76,-18.066,-7.812,53.223,-50.781,117145.178,334.0746009268542
59,1686015380.76,-22.949,381.836,-11.23,-58.105,117145.182,337.4783256944666
60,1686015380.76,-32.227,219.238,3.906,-73.242,117145.186,340.9807439854886
61,1686015380.77,-35.156,376.953,-8.789,-79.59,117145.19,328.82059500256963
62,1686015380.77,-29.785,397.461,-13.672,-78.613,117145.194,338.6447955125721
63,1686015380.78,-25.391,238.77,9.766,-74.219,117145.198,336.0036130638445
64,1686015380.78,-35.156,210.938,0.977,-72.266,117145.201,338.3943600992975
65,1686015380.78,-43.457,69.824,-21.484,-76.172,117145.205,331.9259480383054
66,1686015380.79,-41.016,-8.301,-22.949,-67.871,117145.209,332.4589471038636
67,1686015380.79,-46.875,-209.961,-18.066,-66.406,117145.213,341.4587876803089
68,1686015380.8,-43.945,-417.48,68.359,-71.777,117145.217,337.0398001931753
69,1686015380.8,-40.527,161.621,33.691,-91.797,117145.221,326.4545721794719
70,1686015380.8,-40.039,108.887,-31.25,-96.68,117145.225,335.80901364379787
71,1686015380.81,-34.18,-293.457,-22.461,-80.566,117145.229,338.5717283323255
72,1686015380.81,-31.738,70.312,34.668,-76.66,117145.228,345.19275694040516
73,1686015380.81,-31.738,507.812,20.996,-99.121,117145.232,336.92213300916603
74,1686015380.82,-36.133,262.207,-21.973,-125.977,117145.236,335.91595916335166
75,1686015380.82,-34.668,27.832,29.297,-130.371,117145.24,326.9044841151776
76,1686015380.82,-27.344,242.676,13.184,-132.324,117145.244,329.0086188202353
77,1686015380.83,-27.832,146.484,-18.555,-136.719,117145.248,327.4695843669349
78,1686015380.83,-29.785,-108.398,-28.32,-131.836,117145.252,337.93247188243436
79,1686015380.83,-29.785,-817.383,-19.043,-123.535,117145.256,337.69287311044576
80,1686015380.84,-37.598,-650.391,108.398,-118.652,117145.26,330.96707230583695
81,1686015380.84,-37.598,400.879,44.922,-119.629,117145.264,341.56326703260146
82,1686015380.85,-31.25,347.168,-31.25,-133.789,117145.267,332.6193204886821
83,1686015380.85,-25.391,136.719,19.043,-138.672,117145.271,333.961417191198
84,1686015380.87,-17.09,267.09,23.438,-126.465,117145.302,328.13749848808675
85,1686015380.87,-17.09,287.109,23.926,-124.023,117145.306,332.05798972155185
86,1686015380.88,-20.508,154.297,-13.184,-131.348,117145.31,340.9605169689231
87,1686015380.88,-30.273,-63.965,24.902,-135.254,117145.314,340.5976449492127
88,1686015380.88,-27.832,237.793,38.574,-132.812,117145.318,334.65580833494266
89,1686015380.89,-16.113,251.465,-4.395,-119.629,117145.322,331.12666213282375
90,1686015380.89,-8.789,-162.598,-5.371,-112.305,117145.325,329.08455735914845
91,1686015380.9,-15.625,-497.559,68.848,-124.512,117145.329,335.28684798469163
92,1686015380.9,-15.625,154.297,62.5,-118.164,117145.333,334.052258963177
93,1686015380.9,-8.301,510.742,0.0,-102.051,117145.337,322.5221154573393
94,1686015380.91,-15.137,134.766,-25.879,-104.98,117145.341,324.3724536358732
95,1686015380.91,-27.832,98.145,-4.395,-104.98,117145.345,334.0830765528408
96,1686015380.91,-19.531,399.414,12.695,-101.562,117145.333,325.4876663484113
97,1686015380.92,-4.883,450.684,-11.719,-92.773,117145.337,324.64884365446113
98,1686015380.92,-9.766,-1.465,-43.457,-88.867,117145.341,333.37894435323733
99,1686015380.92,-23.926,-33.203,-23.438,-93.262,117145.345,326.35776289048806
100,1686015380.93,-30.273,199.707,11.23,-95.703,117145.349,319.23438744787177
101,1686015380.93,-26.855,41.504,-0.488,-82.52,117145.353,330.69024883183505
102,1686015380.94,-32.715,-528.32,-16.113,-71.289,117145.357,321.2983173498843
103,1686015380.94,-44.922,-353.027,24.902,-82.52,117145.361,319.42376082419497
104,1686015380.94,-56.641,334.473,22.949,-96.68,117145.365,330.66228867535256
105,1686015380.95,-44.922,289.062,-23.926,-90.82,117145.368,330.8144584979141
106,1686015380.95,-27.344,-556.152,2.441,-77.637,117145.372,324.2544793276719
107,1686015380.96,-26.855,-279.297,72.754,-90.332,117145.376,323.62426406052555
108,1686015380.96,-22.949,408.691,-0.488,-102.539,117145.392,327.5868133045431
109,1686015380.96,-15.137,131.348,-27.832,-88.867,117145.396,334.00844179207854
110,1686015380.97,-10.742,-20.02,49.805,-79.59,117145.4,326.4972904303106
111,1686015380.97,-8.789,380.859,22.949,-75.195,117145.404,327.4166309441513
112,1686015380.97,-7.324,466.797,-16.602,-75.684,117145.408,325.5396586875867
113,1686015380.98,-7.324,-3.418,22.949,-82.031,117145.411,326.67391176366846
114,1686015380.98,-17.09,-224.609,44.922,-83.008,117145.415,327.5867254888921
115,1686015380.98,-19.043,102.539,14.16,-77.637,117145.419,318.6458481831843
116,1686015380.99,-15.625,473.633,-0.488,-82.031,117145.423,332.2140437729014
117,1686015380.99,-18.555,-67.871,-58.594,-83.008,117145.427,328.69211398060713
118,1686015381.0,-10.254,-800.781,13.672,-61.035,117145.431,326.33711565780584
119,1686015381.0,-8.301,124.512,76.172,-51.758,117145.435,316.6667566199697
120,1686015381.0,-20.508,520.02,-4.883,-63.965,117145.423,316.64883390529303
121,1686015381.01,-28.32,55.176,-15.625,-81.543,117145.426,327.7221645782148
122,1686015381.01,-28.809,252.441,20.996,-83.496,117145.43,326.1801815081696
123,1686015381.01,-25.391,547.852,23.926,-71.777,117145.434,321.1570093051795
124,1686015381.02,-29.297,401.367,-17.578,-75.195,117145.438,322.2990787366592
125,1686015381.02,-37.598,-162.109,16.113,-85.938,117145.442,315.6319628035607
126,1686015381.03,-35.645,-236.816,42.48,-82.031,117145.446,320.7494896649941
127,1686015381.03,-27.832,181.152,39.062,-66.406,117145.45,317.6266229311652
128,1686015381.03,-34.668,280.762,-16.602,-74.707,117145.454,327.76843323956524
129,1686015381.04,-43.945,-571.777,-23.438,-82.52,117145.458,313.4946277494408
130,1686015381.04,-47.363,-374.512,61.523,-84.473,117145.462,319.6937695370746
131,1686015381.04,-45.898,567.871,26.367,-85.449,117145.466,322.9256654214168
132,1686015381.05,-42.969,342.773,-45.898,-77.637,117145.47,318.3327642300895
133,1686015381.05,-51.27,-510.254,-4.883,-84.961,117145.474,329.88183375068235
134,1686015381.06,-60.547,9.277,43.945,-99.121,117145.477,320.82913774576235
135,1686015381.06,-52.734,575.684,-6.348,-83.008,117145.481,327.7992818047925
136,1686015381.06,-50.781,326.172,-34.18,-74.707,117145.485,320.9476902096755
137,1686015381.07,-53.223,-17.09,-25.391,-79.59,117145.489,322.94784900749937
138,1686015381.07,-55.176,4.883,14.648,-74.707,117145.493,324.7930826873822
139,1686015381.08,-59.57,448.242,7.812,-69.336,117145.497,320.15933209781264
140,1686015381.08,-46.387,81.543,-41.016,-53.223,117145.501,317.2146405428098
141,1686015381.08,-48.828,-361.816,36.621,-66.406,117145.505,318.8253729484579
142,1686015381.09,-57.129,208.008,27.344,-89.355,117145.509,317.78414252484856
143,1686015381.09,-49.805,196.289,-19.531,-73.242,117145.513,320.22297876549214
144,1686015381.09,-46.387,-139.16,-20.996,-72.754,117145.513,313.7855151285395
145,1686015381.1,-46.387,151.855,7.324,-87.891,117145.516,329.1326601486808
146,1686015381.1,-40.039,498.535,3.418,-92.773,117145.52,321.38405359607725
147,1686015381.1,-35.156,346.191,-17.578,-95.215,117145.524,320.4338785000445
148,1686015381.11,-26.367,34.668,22.461,-85.449,117145.528,320.955529952099
149,1686015381.11,-15.137,26.855,4.883,-78.125,117145.532,314.2203860390464
150,1686015381.12,-27.832,89.844,-18.066,-85.449,117145.536,320.8916870739868
151,1686015381.12,-40.039,-32.227,-18.555,-87.402,117145.54,313.9253657139406
152,1686015381.12,-31.738,-740.723,-14.648,-71.289,117145.544,315.69212457204327
153,1686015381.13,-25.879,-567.383,88.379,-66.895,117145.548,315.88688356651244
154,1686015381.13,-33.691,460.449,26.855,-80.566,117145.552,311.5294151257688
155,1686015381.14,-42.969,372.559,-48.828,-90.332,117145.556,310.1067773867143
156,1686015381.14,-34.18,236.328,4.395,-90.332,117145.561,308.25016104047563
157,1686015381.14,-31.738,357.91,0.0,-86.426,117145.565,322.35122819798687
158,1686015381.15,-35.156,334.473,10.742,-88.867,117145.569,319.6143137453764
159,1686015381.15,-32.715,209.473,-1.465,-94.727,117145.573,329.1699401543585
160,1686015381.16,-33.203,-7.812,25.879,-89.355,117145.577,320.84302323938255
161,1686015381.16,-33.691,67.871,12.207,-79.102,117145.581,319.1406868647093
162,1686015381.16,-43.457,212.891,0.488,-76.172,117145.585,310.93791663664183
163,1686015381.17,-48.828,-50.781,-13.672,-81.543,117145.588,321.96859687632605
164,1686015381.17,-42.969,-454.102,60.547,-79.59,117145.592,316.3606817750246
165,1686015381.18,-42.48,295.41,55.664,-72.266,117145.596,317.785326225896
166,1686015381.18,-39.062,650.879,-15.137,-64.941,117145.6,312.4602113037388
167,1686015381.18,-43.945,265.625,-24.902,-80.078,117145.617,318.09808929774726
168,1686015381.18,-37.598,228.516,-32.715,-66.406,117145.604,314.9309196688659
169,1686015381.19,-35.645,513.184,5.371,-78.125,117145.621,319.54036507306455
170,1686015381.19,-31.738,493.652,1.465,-77.148,117145.625,313.68788454255
171,1686015381.19,-33.691,196.777,-13.672,-82.52,117145.628,307.66667511368735
172,1686015381.2,-34.668,47.363,-17.578,-86.914,117145.632,314.25716966027505
173,1686015381.2,-46.387,27.832,-0.977,-89.844,117145.636,311.50713465370796
174,1686015381.21,-44.434,55.176,5.859,-81.543,117145.64,314.912208106142
175,1686015381.21,-37.598,-602.051,-30.273,-68.359,117145.644,320.66882338345516
176,1686015381.21,-45.898,-1000.0,26.367,-63.477,117145.648,322.0370334487193
177,1686015381.22,-37.598,2.441,57.617,-60.059,117145.652,312.51734187775287
178,1686015381.22,-16.113,460.938,-11.23,-56.152,117145.656,329.82321843440764
179,1686015381.22,-12.695,338.867,19.531,-70.801,117145.66,315.524339562427
180,1686015381.23,-22.949,503.906,15.625,-82.52,117145.661,321.33905255709635
181,1686015381.23,-33.203,454.59,-9.766,-86.914,117145.664,321.2855712902103
182,1686015381.24,-32.715,269.043,-2.441,-86.426,117145.668,322.0258138447969
183,1686015381.24,-36.133,317.383,22.461,-77.148,117145.672,320.4480708020484
184,1686015381.24,-42.969,455.078,0.0,-76.172,117145.676,319.6792912742297
185,1686015381.25,-42.969,125.0,-22.461,-78.125,117145.68,319.62501718050027
186,1686015381.25,-34.668,-301.27,11.719,-69.336,117145.684,322.52498080757766
187,1686015381.26,-32.715,-229.98,85.938,-63.965,117145.688,334.2338912999173
188,1686015381.26,-39.062,335.449,48.34,-71.777,117145.692,327.4039355823626
189,1686015381.26,-32.227,540.527,-13.184,-81.543,117145.696,328.3917982340184
190,1686015381.27,-29.785,-98.145,-47.852,-79.59,117145.7,327.39660657505283
191,1686015381.27,-19.043,326.66,78.613,-54.199,117145.706,323.3717400495252
192,1686015381.27,-28.809,-541.992,69.824,-64.941,117145.703,329.5327801381022
193,1686015381.28,-26.855,509.766,-31.25,-55.176,117145.709,324.43463135598483
194,1686015381.28,-28.32,74.707,-6.348,-54.199,117145.713,327.8890770203452
195,1686015381.28,-24.414,303.711,16.113,-48.828,117145.717,325.12825355454515
196,1686015381.29,-28.32,478.516,20.02,-52.246,117145.721,327.1944355938865
197,1686015381.29,-25.391,150.879,-15.625,-62.5,117145.725,324.7662634380573
198,1686015381.3,-23.438,-678.711,-16.602,-57.129,117145.729,327.80419174303
199,1686015381.3,-24.414,-601.562,115.234,-59.082,117145.733,321.2403813198214
200,1686015381.3,-26.367,453.125,48.34,-69.336,117145.737,330.0480133684805
201,1686015381.31,-25.879,294.434,-72.754,-62.012,117145.741,332.38394640221225
202,1686015381.31,-22.461,-505.371,10.742,-51.27,117145.745,328.37541434467016
203,1686015381.32,-15.137,-23.926,62.012,-47.852,117145.748,335.165100161549
204,1686015381.33,-9.277,567.383,-3.906,-33.691,117145.754,327.53229634294246
205,1686015381.34,-11.23,331.543,-36.621,-37.598,117145.758,322.77709600726945
206,1686015381.34,-18.066,189.453,-6.836,-60.547,117145.762,323.1850738814014
207,1686015381.34,-24.902,350.098,14.648,-69.824,117145.766,328.8554710194317
208,1686015381.35,-20.508,499.023,-2.441,-69.824,117145.77,321.51216771468154
209,1686015381.35,-14.648,42.48,-20.996,-62.5,117145.773,327.143666226577
210,1686015381.36,-18.555,-418.945,37.598,-57.617,117145.777,329.648655887684
211,1686015381.36,-21.973,159.18,36.621,-55.664,117145.781,322.539199308124
212,1686015381.36,-19.531,476.074,2.93,-38.086,117145.785,332.03035706707
213,1686015381.37,-24.414,152.832,-33.203,-29.297,117145.789,330.05315370167466
214,1686015381.37,-31.738,164.551,-12.695,-38.086,117145.793,327.38597258070405
215,1686015381.38,-32.715,342.285,9.277,-48.828,117145.797,329.7376580839573
216,1686015381.39,-27.344,108.398,-4.883,-42.969,117145.814,329.46587957483575
217,1686015381.4,-20.508,-219.238,-36.133,-30.273,117145.818,330.2319267205689
218,1686015381.4,-21.484,63.477,-5.371,-34.668,117145.822,330.4821380630497
219,1686015381.4,-32.227,401.367,2.93,-50.293,117145.826,333.5697771536501
220,1686015381.41,-36.133,173.34,-8.301,-55.664,117145.83,323.5366526843668
221,1686015381.41,-30.762,-146.484,26.367,-43.457,117145.834,329.4946475769438
222,1686015381.42,-41.504,-145.02,10.254,-50.781,117145.838,313.26800284713374
223,1686015381.42,-54.688,-0.977,-8.789,-67.871,117145.842,322.53773510351493
224,1686015381.42,-40.527,93.262,-25.391,-62.012,117145.846,322.679832980817
225,1686015381.42,-29.297,166.992,-32.227,-66.406,117145.845,322.4008808801352
226,1686015381.43,-35.645,-647.461,-16.113,-47.852,117145.85,324.5987366644419
227,1686015381.43,-24.902,109.863,13.184,-54.199,117145.849,327.2747167840573
228,1686015381.43,-39.062,-434.082,80.566,-48.34,117145.853,333.0863192455067
229,1686015381.43,-24.414,236.328,-0.977,-62.5,117145.853,317.5830270439007
230,1686015381.44,-33.691,376.465,10.254,-64.941,117145.857,322.21508400202055
231,1686015381.44,-17.578,254.883,4.883,-72.266,117145.857,322.5120263634631
232,1686015381.44,7.812,87.891,-16.602,-44.922,117145.861,319.4760057750338
233,1686015381.44,15.137,-312.988,15.625,-13.672,117145.865,330.03471585510545
234,1686015381.45,-20.508,46.387,61.523,-39.551,117145.869,319.5951326703491
235,1686015381.45,-46.875,453.613,6.836,-63.965,117145.873,320.56506320347484
236,1686015381.46,-25.879,60.547,-33.691,-52.246,117145.877,319.17319999953634
237,1686015381.46,-6.836,-7.324,39.062,-40.039,117145.881,318.25970738103325
238,1686015381.46,-10.742,452.148,43.945,-39.551,117145.885,317.993658438165
239,1686015381.47,-17.09,512.207,-23.926,-31.738,117145.888,318.14908451064434
240,1686015381.47,-14.648,-228.027,-57.129,-22.461,117145.888,322.4754318404028
241,1686015381.47,0.977,-441.895,56.152,-20.996,117145.892,320.27767441319446
242,1686015381.48,13.184,329.102,47.852,-1.465,117145.896,316.25945209540475
243,1686015381.48,4.395,455.566,-5.859,2.93,117145.9,321.4947642466964
244,1686015381.48,3.906,12.695,21.973,-3.906,117145.904,315.4808592922718
245,1686015381.49,15.625,-136.719,17.09,4.395,117145.908,321.409857464727
246,1686015381.49,13.672,-25.879,25.391,13.672,117145.912,325.1572024523545
247,1686015381.49,14.648,11.23,21.484,22.461,117145.916,318.3093098112856
248,1686015381.5,14.16,-666.992,-23.438,18.555,117145.92,328.0095582615352
249,1686015381.5,13.672,-1000.0,34.18,19.043,117145.924,311.5560371914562
250,1686015381.51,15.625,7.812,84.473,12.207,117145.927,313.81183885142735
251,1686015381.51,8.789,368.164,8.301,1.465,117145.931,307.8162457079253
252,1686015381.51,3.906,158.203,28.809,2.93,117145.935,325.7668563558691
253,1686015381.52,-8.789,389.16,18.555,-1.465,117145.939,318.4533961209198
254,1686015381.52,-6.348,386.719,-9.766,-4.883,117145.943,318.6010158522855
255,1686015381.53,-4.883,248.047,10.254,1.953,117145.947,318.7786660951163
256,1686015381.53,-11.23,266.602,33.691,-1.465,117145.951,315.1083213053246
257,1686015381.53,-8.789,94.238,5.859,-13.672,117145.955,316.50914969918784
258,1686015381.54,-5.859,-27.832,-3.418,-27.832,117145.959,321.6171427867595
259,1686015381.54,-2.441,-237.305,-6.836,-26.855,117145.963,320.67611021059736
260,1686015381.54,-2.93,-819.824,23.926,-21.484,117145.967,323.68373359936476
261,1686015381.55,-10.742,-63.965,59.57,-35.156,117145.971,325.0265005141936
262,1686015381.55,-13.672,422.363,3.418,-35.156,117145.975,318.76216843798926
263,1686015381.56,-2.93,244.141,40.527,-27.832,117145.993,314.97922342809636
264,1686015381.56,-12.207,25.879,-2.441,-27.344,117145.978,315.17147923851184
265,1686015381.56,13.672,534.18,23.926,-23.438,117145.997,323.0990891431352
266,1686015381.56,6.836,289.062,0.977,-31.738,117146.001,317.55907468683006
267,1686015381.57,6.348,-17.09,46.387,-36.133,117146.004,321.8382828352942
268,1686015381.57,15.137,129.883,33.691,-33.691,117146.008,311.79312332083686
269,1686015381.58,1.465,63.965,23.926,-41.016,117146.012,311.4966014695938
270,1686015381.58,-7.812,-154.785,6.348,-52.734,117146.016,317.58438603281104
271,1686015381.58,-10.742,-829.102,-10.254,-43.457,117146.02,315.7981501772332
272,1686015381.59,-8.789,-703.613,119.141,-31.25,117146.024,321.15341751484056
273,1686015381.59,-5.371,297.852,58.105,-33.203,117146.028,311.2937842541534
274,1686015381.6,-13.184,80.566,-29.297,-38.086,117146.032,311.92201211131095
275,1686015381.6,-20.02,-390.625,102.539,-41.016,117146.036,315.42827280543725
276,1686015381.6,-11.23,140.625,85.449,-48.34,117146.037,303.86403247623906
277,1686015381.61,-1.465,458.008,6.836,-48.34,117146.041,309.3307525030804
278,1686015381.61,-19.531,160.645,-8.789,-58.594,117146.045,313.7914459130328
279,1686015381.62,-26.855,-7.324,8.789,-67.871,117146.048,314.675617849112
280,1686015381.62,-14.648,193.359,24.414,-61.035,117146.052,324.34486519408847
281,1686015381.62,-9.766,162.109,14.16,-54.688,117146.056,314.27857080216967
282,1686015381.63,-9.766,-247.07,-3.906,-59.57,117146.06,319.5158460360337
283,1686015381.63,-18.555,-552.734,54.688,-59.57,117146.064,312.7775637157712
284,1686015381.64,-21.973,32.715,66.406,-47.852,117146.068,310.3129984018578
285,1686015381.64,-18.555,395.02,-2.93,-38.574,117146.072,309.41826562932914
286,1686015381.64,-21.484,-132.324,-27.832,-44.922,117146.076,302.2733324148241
287,1686015381.65,-20.508,-307.617,47.363,-52.734,117146.08,312.1303171261648
288,1686015381.65,-22.949,115.234,32.227,-55.176,117146.071,311.6454632502445
289,1686015381.65,-25.391,11.719,-20.02,-42.48,117146.075,301.37883016018054
290,1686015381.66,-24.902,-377.93,-37.109,-32.715,117146.079,308.6468791395581
291,1686015381.66,-33.203,-68.848,5.859,-49.316,117146.083,306.98191480744975
292,1686015381.66,-32.715,197.754,2.93,-59.57,117146.086,301.13058017564083
293,1686015381.67,-35.645,-136.719,-18.066,-57.129,117146.09,306.9075834611777
294,1686015381.67,-43.457,-746.094,-23.438,-51.758,117146.094,300.98115518059046
295,1686015381.68,-46.387,-658.203,68.848,-51.27,117146.098,299.6077197141255
296,1686015381.68,-46.875,219.727,41.504,-57.129,117146.102,306.456861107526
297,1686015381.68,-41.992,175.781,-28.32,-47.363,117146.106,292.91114514063366
298,1686015381.69,-37.598,-69.824,35.156,-35.156,117146.11,297.6795267209513
299,1686015381.69,-36.133,277.832,21.973,-35.645,117146.114,299.12891071547796
300,1686015381.71,-35.156,334.961,-14.648,-53.223,117146.138,292.91274227670675
301,1686015381.72,-34.18,82.031,-8.301,-55.664,117146.142,293.12755574043257
302,1686015381.72,-37.598,75.195,15.625,-46.875,117146.146,280.20728916420603
303,1686015381.72,-43.457,62.988,-17.09,-54.688,117146.149,281.7404882009978
304,1686015381.73,-44.922,-0.488,2.441,-62.5,117146.153,289.70624208144034
305,1686015381.73,-32.715,-279.785,-21.484,-54.199,117146.157,285.2443873332162
306,1686015381.74,-28.32,-888.184,3.906,-41.504,117146.161,287.0585618270386
307,1686015381.74,-48.828,-220.215,70.801,-54.199,117146.165,278.20720609890225
308,1686015381.74,-53.711,295.41,-0.977,-68.359,117146.169,281.68211771703994
309,1686015381.75,-42.969,-95.703,-30.762,-59.082,117146.173,287.617230863579
310,1686015381.75,-40.039,-18.555,8.789,-38.086,117146.177,281.88578979513187
311,1686015381.75,-36.621,176.758,-15.137,-39.551,117146.175,279.27387570915846
312,1686015381.76,-29.785,207.52,33.203,-31.25,117146.181,280.455658610622
313,1686015381.76,-51.27,-142.578,-35.645,-48.828,117146.179,281.7418953429352
314,1686015381.76,-40.527,-27.344,13.672,-48.828,117146.183,286.4536433155345
315,1686015381.76,-23.926,308.105,21.484,-36.621,117146.187,295.8420728628834
316,1686015381.77,-25.391,126.465,-37.109,-39.062,117146.191,288.3290392444032
317,1686015381.77,-35.645,-644.043,-39.062,-43.945,117146.195,289.57719551823436
318,1686015381.78,-36.621,-599.609,17.578,-34.668,117146.198,283.2860880538194
319,1686015381.78,-27.832,-181.152,14.648,-34.18,117146.202,272.8557530110779
320,1686015381.78,-26.855,-182.617,-11.719,-53.711,117146.206,290.5355652087785
321,1686015381.79,-33.691,-815.918,-35.645,-62.5,117146.21,285.5866990170591
322,1686015381.79,-34.668,-741.211,67.383,-59.57,117146.214,289.0369342769663
323,1686015381.8,-22.461,133.789,49.805,-55.664,117146.218,284.7212079347758
324,1686015381.8,-20.508,194.824,-23.926,-54.199,117146.232,288.7552659194721
325,1686015381.81,-22.949,55.176,1.953,-51.758,117146.236,287.5814704523941
326,1686015381.81,-20.508,138.672,13.184,-43.945,117146.24,287.07600893239953
327,1686015381.81,-18.066,206.055,17.578,-39.062,117146.244,280.6796830568828
328,1686015381.82,-14.648,85.938,-1.953,-31.25,117146.248,291.84388497291974
329,1686015381.82,-13.672,-236.328,-2.441,-37.109,117146.251,287.4156908540961
330,1686015381.83,-15.625,-189.453,26.367,-47.363,117146.255,286.6252052659384
331,1686015381.83,-14.648,192.871,22.949,-43.945,117146.259,284.48793505175234
332,1686015381.83,-14.648,-173.34,-29.297,-41.992,117146.263,281.9850291851623
333,1686015381.84,-16.602,-880.859,3.418,-46.387,117146.267,282.8832407894278
334,1686015381.84,-13.672,-198.73,42.969,-58.105,117146.271,292.86259127476325
335,1686015381.84,-17.09,-144.531,-20.508,-48.34,117146.262,284.3600839106926
336,1686015381.84,-11.719,198.73,-7.324,-57.617,117146.275,293.16108022934503
337,1686015381.85,-19.531,82.52,7.812,-44.434,117146.266,286.8729374222468
338,1686015381.85,-30.762,295.41,-3.906,-53.223,117146.27,285.74777745009436
339,1686015381.85,-37.109,118.164,-9.277,-53.223,117146.274,294.7066599218033
340,1686015381.86,-25.879,-249.023,17.09,-41.504,117146.278,284.89253263781393
341,1686015381.86,-22.461,-339.355,-8.789,-43.945,117146.282,289.60284511187564
342,1686015381.87,-26.855,-223.633,-3.906,-56.152,117146.286,299.6842723487208
343,1686015381.87,-21.973,-329.102,-6.836,-54.199,117146.29,291.16966981389186
344,1686015381.87,-11.719,-800.781,5.371,-41.992,117146.294,297.3751326877115
345,1686015381.88,-13.672,-334.961,74.219,-45.41,117146.297,293.19177946273413
346,1686015381.88,-12.207,283.691,6.348,-45.41,117146.301,289.37491207406896
347,1686015381.88,-13.672,-145.996,-39.062,-41.992,117146.305,294.6828466751321
348,1686015381.89,-20.996,-825.195,5.859,-37.598,117146.31,290.77175575296866
349,1686015381.89,-26.855,-225.098,77.148,-44.434,117146.314,285.9092747668819
350,1686015381.9,-21.484,375.0,8.301,-50.293,117146.318,297.43080004734514
351,1686015381.9,-23.926,-4.883,-25.391,-54.688,117146.322,294.4070706459448
352,1686015381.9,-35.645,-96.191,15.625,-58.594,117146.325,294.6795028074609
353,1686015381.91,-32.227,-144.043,15.137,-51.758,117146.329,294.49680230848963
354,1686015381.91,-31.738,-14.648,32.715,-56.641,117146.333,287.7398395046025
355,1686015381.92,-35.156,-165.039,-21.973,-59.57,117146.337,299.17987852692215
356,1686015381.92,-38.574,-624.512,60.547,-55.664,117146.341,299.7958539527539
357,1686015381.92,-33.691,12.207,76.172,-56.641,117146.345,295.2837185361364
358,1686015381.93,-29.297,339.844,-5.371,-56.641,117146.349,301.76638722421654
359,1686015381.93,-31.25,-76.66,-36.621,-59.082,117146.353,296.02637132247247
360,1686015381.93,-33.203,-47.852,-20.996,-67.383,117146.354,305.7564570201082
361,1686015381.94,-29.297,48.34,8.789,-71.289,117146.358,295.9669168870975
362,1686015381.94,-27.344,-190.918,-6.348,-60.059,117146.362,299.607721736258
363,1686015381.94,-35.156,-480.957,-30.762,-48.828,117146.366,297.6286511339213
364,1686015381.95,-48.828,-276.855,-18.066,-59.57,117146.37,303.06295237450695
365,1686015381.95,-49.805,-183.594,-0.977,-68.359,117146.374,297.39648125045437
366,1686015381.96,-41.992,-286.133,0.977,-62.5,117146.378,302.32327869336285
367,1686015381.96,-32.715,-796.875,-20.996,-56.152,117146.381,298.5958638625844
368,1686015381.96,-41.016,-791.504,81.055,-59.082,117146.385,303.95316950807273
369,1686015381.97,-44.922,50.781,43.945,-69.336,117146.389,293.5767682118933
370,1686015381.97,-31.25,122.559,-20.996,-72.266,117146.393,298.2049691842495
371,1686015381.98,-27.832,-9.766,24.414,-70.312,117146.397,302.1195174206396
372,1686015381.98,-38.086,182.129,14.648,-71.777,117146.41,292.5425920256332
373,1686015381.98,-38.086,208.984,-15.625,-70.312,117146.414,296.47774229295027
374,1686015381.99,-35.156,-58.594,-25.879,-65.43,117146.418,301.1876545311763
375,1686015381.99,-38.086,-180.664,24.414,-70.312,117146.422,302.66618068084614
376,1686015382.0,-39.551,-107.422,-5.859,-81.543,117146.426,307.7244109575969
377,1686015382.0,-47.363,-253.906,-20.996,-91.309,117146.43,305.172070582779
378,1686015382.0,-39.062,-498.047,-12.695,-79.59,117146.434,304.4362182724102
379,1686015382.01,-26.367,-890.625,-0.488,-52.734,117146.438,305.0826771144284
380,1686015382.01,-37.109,-268.066,34.18,-65.43,117146.442,295.0649321154409
381,1686015382.01,-52.734,179.688,1.953,-92.773,117146.446,302.68005438694576
382,1686015382.02,-44.434,-170.41,-36.621,-83.008,117146.449,303.34684835971683
383,1686015382.02,-23.438,-11.719,-0.977,-58.105,117146.453,301.94295048671415
384,1686015382.02,-22.949,260.254,9.766,-49.805,117146.456,309.07687960898016
385,1686015382.03,-28.809,72.266,-24.414,-55.664,117146.46,307.0654820343933
386,1686015382.03,-35.156,-290.039,-17.578,-61.035,117146.463,301.1342493098603
387,1686015382.03,-34.18,-35.645,15.625,-54.199,117146.467,292.65406782959394
388,1686015382.04,-24.902,168.457,10.254,-51.27,117146.471,301.60391450385595
389,1686015382.04,-30.273,-243.652,-16.113,-59.57,117146.475,306.29806669116465
390,1686015382.05,-38.086,-852.539,-31.738,-49.316,117146.479,308.0503115294105
391,1686015382.05,-38.574,-861.816,64.453,-39.551,117146.483,306.7321170025349
392,1686015382.05,-35.156,-101.562,69.824,-39.062,117146.487,315.29019855335434
393,1686015382.06,-35.645,52.734,-40.527,-45.41,117146.491,314.0115355388085
394,1686015382.06,-40.527,-706.543,3.418,-51.758,117146.495,306.0962475100809
395,1686015382.06,-37.109,-319.824,62.988,-53.711,117146.499,317.1717698814863
396,1686015382.08,-33.691,277.344,-0.977,-57.617,117146.504,316.5106944596852
397,1686015382.09,-33.203,74.707,-30.273,-59.082,117146.508,311.54512903105086
398,1686015382.09,-32.227,-62.988,2.441,-71.289,117146.512,310.42423801862446
399,1686015382.1,-38.086,42.48,14.16,-78.125,117146.515,316.98925288808204
400,1686015382.1,-28.32,131.836,1.465,-62.988,117146.519,314.54021241865803
401,1686015382.1,-20.02,-275.879,-14.648,-50.781,117146.523,313.6424903136293
402,1686015382.11,-23.926,-604.004,54.199,-65.43,117146.527,314.83410885219087
403,1686015382.11,-31.738,-95.703,36.621,-78.125,117146.531,315.15493707029776
404,1686015382.11,-32.715,147.461,-10.742,-70.801,117146.535,307.6879300457773
405,1686015382.12,-25.391,-234.863,-29.297,-59.082,117146.539,331.48560933061214
406,1686015382.12,-31.25,-305.664,-4.883,-53.223,117146.543,323.23533157270043
407,1686015382.13,-46.387,33.203,4.883,-53.711,117146.547,317.0032304496435
408,1686015382.13,-47.363,47.852,-12.207,-44.922,117146.548,317.8646354558991
409,1686015382.13,-32.715,-443.848,-50.781,-37.109,117146.552,323.516079545426
410,1686015382.14,-25.879,-376.465,-9.277,-38.086,117146.556,319.47443041341006
411,1686015382.14,-35.645,57.129,3.418,-44.434,117146.559,325.8048687016941
412,1686015382.14,-38.574,-114.258,-22.949,-46.875,117146.563,322.5929157221836
413,1686015382.15,-22.949,-518.066,12.207,-33.203,117146.567,330.216909095445
414,1686015382.15,-14.648,-532.227,-1.465,-26.855,117146.571,320.89500150157164
415,1686015382.15,-19.531,-317.871,-6.836,-44.922,117146.575,329.6115215793135
416,1686015382.16,-21.484,-219.238,-17.578,-55.176,117146.579,315.39066406906727
417,1686015382.16,-19.531,-810.547,-20.02,-41.504,117146.583,323.7168676400046
418,1686015382.17,-18.555,-662.109,67.383,-38.086,117146.587,328.6131295346637
419,1686015382.17,-14.648,-87.891,29.297,-39.062,117146.591,323.0938409031239
420,1686015382.17,-17.09,-364.746,-6.836,-36.133,117146.595,331.6536225148465
421,1686015382.18,-25.391,-559.082,57.617,-40.039,117146.599,329.05567198300645
422,1686015382.18,-29.297,-37.109,36.133,-48.828,117146.603,320.4083793855543
423,1686015382.19,-29.785,214.355,-19.043,-55.176,117146.607,326.86337928563734
424,1686015382.19,-28.809,-165.039,-20.996,-64.453,117146.611,334.4372059009625
425,1686015382.19,-27.832,-482.422,2.93,-69.336,117146.615,321.5168684928908
426,1686015382.2,-22.949,-241.699,27.344,-63.477,117146.619,325.8220530031297
427,1686015382.2,-21.973,160.156,-4.883,-51.758,117146.622,325.7818894610712
428,1686015382.2,-30.273,-283.691,-49.805,-54.199,117146.626,330.6355603503471
429,1686015382.21,-35.156,-680.664,56.152,-53.223,117146.63,329.91268193164336
430,1686015382.21,-32.715,8.789,54.199,-41.992,117146.634,330.0277419660827
431,1686015382.22,-26.367,224.121,-35.156,-37.109,117146.638,328.3018870882697
432,1686015382.22,-25.879,-238.77,-55.664,-47.852,117146.638,329.3029353860693
433,1686015382.22,-34.18,-210.938,-15.137,-59.57,117146.642,325.530966731905
434,1686015382.22,-35.645,-59.57,13.184,-47.363,117146.646,330.283413057746
435,1686015382.23,-33.691,-247.559,-9.277,-44.922,117146.65,326.29197757619283
436,1686015382.23,-41.016,-652.832,-37.598,-45.898,117146.654,327.2256343757098
437,1686015382.24,-37.598,-675.293,-15.137,-45.41,117146.658,327.4296869091606
438,1686015382.24,-28.809,-389.648,20.508,-49.805,117146.662,318.555493465513
439,1686015382.24,-25.391,-349.609,-10.742,-53.711,117146.666,324.6949205807037
440,1686015382.25,-29.785,-841.309,-42.48,-55.664,117146.67,336.5991331433548
441,1686015382.25,-35.156,-774.902,84.961,-62.5,117146.674,331.93539013031653
442,1686015382.26,-30.273,-11.719,53.711,-70.801,117146.677,330.8215481708014
443,1686015382.26,-35.645,29.297,-19.043,-65.43,117146.681,317.4031528920689
444,1686015382.26,-38.574,-99.609,7.324,-73.242,117146.686,323.09761416307094
445,1686015382.27,-27.344,66.406,-8.301,-82.52,117146.689,329.5384632219068
446,1686015382.27,-21.973,78.613,-5.371,-76.172,117146.693,331.523059323875
447,1686015382.28,-15.625,-65.43,-10.742,-60.059,117146.697,321.2418420707449
448,1686015382.28,-12.207,-88.379,-0.977,-51.758,117146.701,330.9913657380557
449,1686015382.28,-11.23,-204.102,7.812,-52.734,117146.705,320.2431006306682
450,1686015382.29,-15.625,-313.477,-0.977,-55.176,117146.709,319.591805220761
451,1686015382.29,-14.648,-464.355,-6.348,-35.156,117146.713,319.5643202500456
452,1686015382.3,-9.766,-898.926,20.996,-24.414,117146.717,328.06498982376195
453,1686015382.3,-14.648,-362.793,32.227,-37.598,117146.721,312.87968662431126
454,1686015382.3,-23.926,20.996,-14.16,-48.34,117146.725,316.3540735395672
455,1686015382.31,-21.484,-307.129,-19.531,-51.27,117146.729,310.8867781265269
456,1686015382.31,-19.043,-83.984,17.09,-39.551,117146.729,317.4121338076738
457,1686015382.31,-25.391,186.523,14.648,-41.504,117146.733,319.84846480767436
458,1686015382.32,-24.414,-65.43,-13.184,-52.734,117146.736,318.60110830887373
459,1686015382.32,-13.672,-350.098,20.02,-44.922,117146.74,320.12181753525203
460,1686015382.32,-10.254,-190.918,10.742,-29.785,117146.744,323.36794345098065
461,1686015382.33,-16.602,-221.191,-6.348,-23.438,117146.748,311.70232446409284
462,1686015382.33,-24.902,-403.809,0.488,-24.902,117146.752,321.6688086440291
463,1686015382.34,-27.832,-875.977,-24.902,-16.113,117146.756,320.9565582174589
464,1686015382.34,-26.367,-1000.0,60.547,-8.301,117146.76,326.7919181517286
465,1686015382.34,-27.344,-164.062,75.195,-33.691,117146.764,318.38722152446707
466,1686015382.35,-39.062,64.941,-11.719,-54.199,117146.768,318.79585369597777
467,1686015382.35,-40.039,-217.773,20.508,-54.199,117146.772,322.2075053113894
468,1686015382.36,-27.832,19.043,42.969,-51.27,117146.777,312.0168045903352
469,1686015382.36,-29.297,228.516,3.418,-53.711,117146.781,314.53295851299043
470,1686015382.36,-22.461,23.438,-31.738,-63.965,117146.785,312.0016601839423
471,1686015382.37,-13.672,-131.348,1.465,-68.848,117146.788,297.3820558323836
472,1686015382.37,-16.602,6.348,19.043,-68.359,117146.792,302.91303879696204
473,1686015382.38,-13.184,-57.617,2.441,-69.824,117146.796,298.2559444329958
474,1686015382.38,-16.113,-421.875,-17.578,-68.848,117146.8,299.0009218353691
475,1686015382.38,-33.203,-702.148,64.453,-70.312,117146.804,311.93363108610697
476,1686015382.39,-27.344,-131.348,66.406,-64.941,117146.808,297.3322874045078
477,1686015382.39,-11.23,134.766,-12.695,-57.617,117146.812,308.7192691931346
478,1686015382.39,-8.789,-284.668,-17.578,-65.43,117146.816,305.3616634470067
479,1686015382.4,-11.719,-260.742,-1.465,-74.219,117146.82,298.3592779504153
480,1686015382.4,-2.93,52.246,10.742,-73.73,117146.832,300.33502693471127
481,1686015382.4,-5.371,54.199,-3.418,-80.566,117146.836,294.93606215218085
482,1686015382.41,-16.602,-322.266,-34.668,-85.938,117146.84,307.2581109637118
483,1686015382.41,-23.926,-192.383,-14.648,-86.914,117146.844,301.7069792933245
484,1686015382.41,-17.09,-73.242,-29.297,-71.777,117146.848,304.72195038533386
485,1686015382.42,-12.695,-378.906,-7.324,-64.941,117146.851,300.61573983276367
486,1686015382.42,-14.16,-846.191,-41.504,-62.012,117146.855,298.44848329174033
487,1686015382.42,-11.719,-999.512,2.441,-58.105,117146.859,310.2195021266517
488,1686015382.43,-16.113,-255.859,40.527,-70.801,117146.863,309.33489532765765
489,1686015382.43,-26.367,-29.785,-21.973,-67.383,117146.867,310.7474818003485
490,1686015382.44,-20.02,-154.785,26.367,-52.246,117146.871,313.11549908970255
491,1686015382.44,-10.742,130.859,16.602,-52.734,117146.875,316.35560678415567
492,1686015382.48,-12.695,109.863,-15.625,-65.43,117146.896,334.20700377935697
493,1686015382.48,-15.625,-340.332,-8.789,-64.941,117146.9,330.4826200871353
494,1686015382.48,-23.438,-500.977,61.035,-51.27,117146.904,338.1189840200214
495,1686015382.49,-23.926,5.371,31.25,-49.805,117146.908,337.8952388500333
496,1686015382.49,-21.973,140.625,-20.508,-62.5,117146.912,333.05045167778
497,1686015382.5,-22.949,-458.496,-3.418,-55.664,117146.916,343.93209559177745
498,1686015382.5,-14.16,-714.844,59.57,-48.34,117146.92,346.7382349792922
499,1686015382.5,-7.324,-77.637,44.434,-49.805,117146.924,342.5327842499331
500,1686015382.5,-26.855,100.098,-18.066,-41.992,117146.924,340.09621822261386
501,1686015382.51,-17.09,134.766,-19.043,-54.199,117146.928,345.7817429701952
502,1686015382.51,-29.297,-320.801,-29.297,-49.805,117146.928,350.64244478390475
503,1686015382.51,-24.902,-310.059,-34.18,-61.035,117146.931,338.82089609478084
504,1686015382.51,-25.879,-221.68,8.789,-44.922,117146.932,348.614361431368
505,1686015382.51,-27.344,-315.43,5.859,-45.898,117146.935,332.98002589181505
506,1686015382.52,-20.996,-67.871,3.906,-35.156,117146.936,346.28662008435555
507,1686015382.52,-24.902,108.398,21.484,-36.621,117146.939,349.38407541659785
508,1686015382.52,-13.672,-337.402,-15.137,-36.133,117146.939,337.5505108540168
509,1686015382.52,-19.043,-758.301,8.301,-47.852,117146.943,344.1060022133819
510,1686015382.53,-29.785,-752.93,20.508,-53.711,117146.947,347.66235739777494
511,1686015382.53,-22.461,-288.574,33.691,-49.316,117146.951,346.88776006364645
512,1686015382.53,-10.742,-152.832,-2.93,-41.016,117146.955,335.6266964857602
513,1686015382.54,-13.672,-697.266,15.137,-43.457,117146.959,340.72221409847725
514,1686015382.54,-22.461,-424.316,43.457,-48.828,117146.963,344.34560641202586
515,1686015382.55,-21.484,59.082,6.836,-42.48,117146.967,341.18419792930047
516,1686015382.55,-15.137,-129.883,-33.691,-36.621,117146.971,340.7001109788269
517,1686015382.55,-14.648,-880.859,-39.062,-27.344,117146.975,345.9651937904029
518,1686015382.56,-22.461,-779.297,86.914,-41.504,117146.979,341.3701159403563
519,1686015382.56,-33.691,-47.852,47.363,-57.129,117146.983,339.4036330764539
520,1686015382.57,-23.438,-77.148,-2.93,-37.598,117146.987,346.34134173887634
521,1686015382.57,-21.973,-380.859,16.602,-43.457,117146.99,342.8192251784152
522,1686015382.57,-28.809,-476.562,2.441,-58.594,117146.994,335.8521254270846
523,1686015382.58,-25.391,-212.402,35.645,-50.293,117146.998,339.6239473920129
524,1686015382.58,-19.531,-300.781,-22.949,-41.504,117147.002,339.2579361714658
525,1686015382.58,-21.484,-878.906,-20.996,-38.574,117147.006,344.88898993271454
526,1686015382.59,-33.691,-373.047,18.555,-54.688,117147.01,327.52922265874065
527,1686015382.59,-17.578,-392.578,-9.277,-41.504,117147.014,334.7915097803993
528,1686015382.59,-29.785,-188.965,-11.719,-57.617,117147.014,334.44323981897173
529,1686015382.6,-22.461,-12.695,5.371,-38.574,117147.017,331.29869541978155
530,1686015382.6,-39.551,164.551,-0.488,-52.734,117147.021,324.4928979334854
531,1686015382.6,-35.645,-65.43,-19.531,-53.223,117147.025,326.936643251556
532,1686015382.61,-18.555,-384.277,19.043,-41.992,117147.029,335.5251527520518
533,1686015382.61,-19.531,-371.094,18.066,-42.969,117147.033,334.06778658868694
534,1686015382.62,-24.414,-301.27,-0.977,-49.805,117147.037,323.6297807696194
535,1686015382.62,-25.391,-410.645,-22.949,-56.641,117147.041,337.07907437594423
536,1686015382.62,-27.344,-879.883,-46.387,-40.039,117147.045,317.16804224841337
537,1686015382.63,-27.344,-1000.0,55.664,-17.09,117147.049,325.1835539284943
538,1686015382.63,-21.973,-192.871,63.965,-25.879,117147.053,311.59475610192845
539,1686015382.64,-23.438,39.551,-29.785,-38.574,117147.057,331.92696828408907
540,1686015382.64,-23.926,-186.523,15.137,-34.668,117147.061,319.88737626011203
541,1686015382.64,-11.719,90.82,30.762,-27.832,117147.064,319.1385858319338
542,1686015382.65,-11.23,241.211,-11.23,-24.902,117147.068,327.1661323872814
543,1686015382.65,-19.043,-18.066,-20.996,-38.086,117147.072,320.3168817917795
544,1686015382.66,-16.602,-145.996,3.418,-45.41,117147.076,315.80214440070205
545,1686015382.66,-5.371,-281.25,-2.93,-27.832,117147.08,312.8547148568145
546,1686015382.66,-12.207,-212.891,20.996,-18.066,117147.084,324.7719000182708
547,1686015382.67,-25.391,-283.691,-13.184,-26.367,117147.088,318.07336080111907
548,1686015382.67,-31.738,-682.617,78.125,-44.434,117147.092,307.56530094714157
549,1686015382.67,-28.32,-152.832,86.426,-52.734,117147.096,311.3646893023815
550,1686015382.68,-15.625,113.281,-18.555,-53.223,117147.1,321.8683891636701
551,1686015382.68,-19.043,-362.793,-34.668,-52.246,117147.103,316.7741638622316
552,1686015382.68,-25.391,-314.453,4.883,-45.41,117147.106,313.90151179943547
553,1686015382.69,-25.391,52.246,20.02,-44.434,117147.11,314.228469663852
554,1686015382.69,-21.484,37.109,-2.441,-29.297,117147.114,318.86790472722953
555,1686015382.7,-21.973,-331.543,-26.367,-21.973,117147.117,308.98011432859414
556,1686015382.7,-27.832,-320.801,-11.23,-30.273,117147.121,312.87492128799744
557,1686015382.7,-27.344,-350.586,2.441,-31.738,117147.125,309.6609366950031
558,1686015382.71,-23.926,-449.707,4.395,-26.367,117147.129,311.88180500505086
559,1686015382.71,-20.02,-854.004,-32.227,-20.508,117147.133,311.65353491977226
560,1686015382.71,-21.973,-859.375,61.035,-28.809,117147.137,314.38553940730765
561,1686015382.72,-26.855,-128.906,51.27,-45.898,117147.141,303.97190868990884
562,1686015382.72,-21.484,-10.742,-23.926,-41.504,117147.145,313.11273113416485
563,1686015382.73,-6.348,-115.234,23.438,-36.133,117147.149,312.5792936455935
564,1686015382.73,-10.742,78.613,11.23,-52.734,117147.15,312.63589477910915
565,1686015382.73,-18.555,22.949,-27.344,-50.293,117147.154,304.80613179031667
566,1686015382.74,-19.043,-315.43,-1.465,-37.109,117147.158,312.266931129794
567,1686015382.74,-21.973,-192.871,28.809,-35.156,117147.161,320.12089156629577
568,1686015382.74,-20.02,60.059,-21.484,-38.574,117147.165,311.8761401034324
569,1686015382.75,-24.414,-229.004,-30.762,-53.223,117147.169,308.75316832980457
570,1686015382.75,-28.32,-626.465,-10.742,-55.176,117147.173,304.9951804853058
571,1686015382.76,-20.508,-914.062,18.066,-29.297,117147.177,301.84775044746834
572,1686015382.76,-17.09,-280.273,50.781,-33.203,117147.181,317.88187437341224
573,1686015382.76,-20.508,118.164,-20.508,-54.199,117147.185,302.3409795194714
574,1686015382.77,-18.555,-297.363,-46.387,-48.828,117147.189,309.1021792976353
575,1686015382.77,-7.324,-202.148,9.766,-33.691,117147.193,299.8556717744549
576,1686015382.79,-1.465,155.762,14.648,-38.086,117147.208,300.95774960587454
577,1686015382.79,-14.16,38.086,-26.855,-53.711,117147.212,301.28491709609347
578,1686015382.8,-18.555,-390.625,-24.902,-45.898,117147.216,302.8953975103809
579,1686015382.8,-9.766,-200.684,15.137,-29.785,117147.22,314.7806280968926
580,1686015382.8,-14.16,-27.832,-1.953,-39.062,117147.224,303.52629434201214
581,1686015382.81,-22.461,-345.703,-20.508,-50.781,117147.228,299.8339798809835
582,1686015382.81,-26.367,-861.816,-36.133,-41.504,117147.232,301.9884424753399
583,1686015382.81,-28.809,-894.531,62.988,-33.203,117147.236,309.58858516940563
584,1686015382.82,-21.484,-221.191,83.984,-40.039,117147.24,296.46544325973514
585,1686015382.82,-25.391,-67.871,-18.066,-45.41,117147.243,297.27893956565305
586,1686015382.83,-27.344,-744.141,-10.742,-50.781,117147.247,305.4515828945604
587,1686015382.83,-24.902,-337.402,50.293,-58.105,117147.251,299.3363806802846
588,1686015382.83,-22.461,222.656,15.137,-50.293,117147.255,301.1109896905893
589,1686015382.84,-13.672,-19.531,-19.531,-45.898,117147.258,292.039827121889
590,1686015382.84,-16.113,-155.273,3.418,-61.035,117147.262,289.8189670315684
591,1686015382.84,-18.066,12.207,15.625,-66.895,117147.266,299.6482873051322
592,1686015382.85,-3.418,115.234,-6.836,-56.152,117147.27,293.69640193784255
593,1686015382.85,-13.184,-238.77,-22.461,-47.852,117147.274,299.76927426307196
594,1686015382.86,-28.32,-588.379,29.785,-53.711,117147.278,302.0599127081871
595,1686015382.86,-26.367,-418.945,23.926,-58.594,117147.282,294.95867933432197
596,1686015382.86,-23.926,-15.625,16.113,-54.688,117147.286,299.36390240341404
597,1686015382.87,-26.367,-260.254,-33.203,-45.41,117147.29,293.80895825507196
598,1686015382.87,-36.621,-864.258,22.949,-51.758,117147.294,291.88218025942143
599,1686015382.88,-53.711,-273.438,48.828,-75.195,117147.297,295.3455903820398
600,1686015382.88,-35.156,85.938,-19.043,-64.453,117147.299,286.92612071899543
601,1686015382.88,-14.648,-270.508,-35.645,-40.527,117147.303,297.1216199323223
602,1686015382.89,-41.016,-97.168,-5.859,-69.336,117147.307,300.39476019612465
603,1686015382.89,-57.617,140.137,-0.977,-88.867,117147.311,299.4697846237767
604,1686015382.89,-39.551,-109.375,-14.16,-66.895,117147.315,283.4609093734875
605,1686015382.9,-30.762,-487.305,15.625,-50.293,117147.318,285.0466305999266
606,1686015382.9,-16.113,-487.305,5.371,-35.156,117147.322,293.9004753354313
607,1686015382.9,-10.742,-327.637,2.441,-34.668,117147.326,291.2214743463517
608,1686015382.91,-19.531,-182.617,-9.277,-52.734,117147.33,286.61666792887576
609,1686015382.91,-13.184,-829.102,-32.227,-42.48,117147.334,298.91998584469457
610,1686015382.92,-14.16,-918.457,62.5,-32.227,117147.338,290.7791151542693
611,1686015382.92,-14.648,-73.73,37.109,-41.992,117147.342,285.27715850444395
612,1686015382.92,-19.531,-46.875,-27.344,-49.316,117147.346,289.3999783172283
613,1686015382.93,-25.391,-198.242,15.625,-50.293,117147.35,285.101297521572
614,1686015382.93,-26.855,76.172,19.043,-49.316,117147.354,283.44817803628007
615,1686015382.94,-34.18,192.871,-11.719,-62.012,117147.358,280.93090781326976
616,1686015382.94,-39.062,-109.375,-29.785,-75.195,117147.362,278.1169640586811
617,1686015382.94,-39.551,-490.723,2.93,-72.754,117147.366,288.6531342891051
618,1686015382.95,-29.785,-314.941,29.785,-65.918,117147.37,284.0714042010181
619,1686015382.95,-30.273,116.211,-0.488,-64.941,117147.374,293.50428915386993
620,1686015382.96,-36.621,-285.156,-58.105,-66.895,117147.377,281.8338100218507
621,1686015382.96,-32.715,-714.844,57.617,-62.988,117147.381,291.31228121812325
622,1686015382.96,-29.785,-72.754,60.547,-54.199,117147.385,290.6144048888585
623,1686015382.97,-31.25,129.395,-29.297,-57.129,117147.389,300.3475366933645
624,1686015382.97,-34.668,-405.273,-29.785,-62.988,117147.393,282.9232593173855
625,1686015382.97,-39.551,-318.359,3.906,-58.594,117147.396,285.4068327270347
626,1686015382.98,-33.203,81.543,15.625,-48.34,117147.4,287.9075420033654
627,1686015382.98,-25.391,73.242,-19.043,-37.598,117147.404,289.28460840844264
628,1686015382.98,-33.691,-443.848,-33.203,-39.551,117147.408,288.8090540974152
629,1686015382.99,-38.086,-613.77,1.465,-45.41,117147.412,289.2928544989755
630,1686015382.99,-34.18,-398.926,10.742,-50.293,117147.416,286.96705169786657
631,1686015383.0,-27.832,-334.961,-7.324,-50.781,117147.42,292.57807486723544
632,1686015383.0,-25.879,-845.703,-41.504,-42.969,117147.424,283.7707447465811
633,1686015383.0,-30.273,-815.43,81.543,-49.316,117147.428,284.0883384109804
634,1686015383.01,-35.156,-98.633,50.293,-54.199,117147.432,291.06694875185724
635,1686015383.01,-27.832,-139.16,-14.648,-50.293,117147.436,285.5017763388456
636,1686015383.03,-20.996,-145.508,30.273,-56.152,117147.451,285.44962058453905
637,1686015383.03,-23.438,86.914,2.93,-64.941,117147.455,288.80946146481983
638,1686015383.04,-23.438,22.949,-5.859,-63.477,117147.459,284.21634296663734
639,1686015383.04,-21.484,-265.625,12.695,-55.664,117147.463,291.6265570437101
640,1686015383.04,-31.25,-283.203,39.551,-53.223,117147.467,289.249516354053
641,1686015383.05,-34.668,-313.477,-5.371,-60.059,117147.471,291.2897981017
642,1686015383.05,-34.668,-269.531,5.859,-66.895,117147.475,293.11120507283135
643,1686015383.06,-29.785,-341.309,0.0,-59.082,117147.479,289.07410850534336
644,1686015383.06,-29.297,-79.59,24.414,-57.129,117147.493,288.68237569436036
645,1686015383.06,-22.949,-888.672,13.184,-52.246,117147.483,285.70802263629525
646,1686015383.06,-31.738,243.652,11.23,-53.223,117147.497,282.1748706522953
647,1686015383.06,-26.855,-311.523,40.527,-63.477,117147.487,283.48371354259115
648,1686015383.07,-40.039,62.988,-31.738,-67.383,117147.501,295.09787246102843
649,1686015383.07,-32.227,87.891,-6.836,-68.359,117147.491,279.10565722359775
650,1686015383.07,-41.504,-315.43,-25.391,-68.848,117147.505,287.3659351431538
651,1686015383.07,-32.715,-286.133,-10.742,-65.43,117147.494,281.0580077625891
652,1686015383.07,-40.527,-204.102,-3.906,-63.477,117147.509,285.84961063698023
653,1686015383.08,-39.062,-175.293,-27.344,-67.871,117147.513,278.206978382728
654,1686015383.08,-41.016,-472.656,-27.344,-72.754,117147.517,286.82128253735317
655,1686015383.08,-41.016,-823.242,20.996,-76.66,117147.521,295.7934381350489
656,1686015383.09,-38.574,-497.559,56.641,-73.242,117147.525,289.04383781996637
657,1686015383.09,-30.762,82.52,0.977,-65.43,117147.528,290.8211939744342
658,1686015383.1,-26.367,-18.555,-38.574,-62.5,117147.532,295.05944189729246
659,1686015383.1,-31.738,-843.262,-44.434,-58.594,117147.536,292.36570866347
660,1686015383.1,-38.086,-987.305,37.598,-50.293,117147.538,289.69472788217945
661,1686015383.11,-41.504,-102.539,58.594,-51.758,117147.541,288.6795200094841
662,1686015383.11,-42.48,-22.461,-30.273,-70.312,117147.545,292.1579958390394
663,1686015383.12,-36.621,-211.914,-1.953,-84.961,117147.549,288.9586842985894
664,1686015383.12,-33.203,-5.371,12.207,-78.125,117147.553,298.94013607150185
665,1686015383.12,-31.25,-175.293,-22.461,-68.359,117147.557,295.77172896640917
666,1686015383.13,-33.691,-371.582,-3.418,-73.242,117147.561,296.92260809566136
667,1686015383.13,-38.574,-366.211,16.602,-80.078,117147.565,290.0793799396708
668,1686015383.14,-32.227,-354.004,0.488,-78.125,117147.569,291.45690935115664
669,1686015383.14,-23.926,-15.137,10.254,-70.801,117147.573,287.42218730738915
670,1686015383.14,-23.438,-287.109,-52.246,-64.941,117147.577,306.13418174519256
671,1686015383.15,-23.926,-793.457,29.785,-67.871,117147.581,285.816536140299
672,1686015383.15,-23.926,-206.055,63.477,-78.613,117147.582,294.92499273132256
673,1686015383.16,-25.879,77.637,-12.695,-72.266,117147.586,287.5177915401519
674,1686015383.16,-24.902,-190.918,-15.625,-60.547,117147.589,289.73650080330265
675,1686015383.16,-20.508,-48.828,0.0,-61.035,117147.593,296.9240674787196
676,1686015383.17,-28.809,38.086,0.977,-67.383,117147.597,288.1228026083803
677,1686015383.17,-29.785,-291.016,-11.23,-62.012,117147.601,286.5179434640705
678,1686015383.18,-16.602,-823.242,-19.531,-46.875,117147.605,289.3781392634887
679,1686015383.18,-21.973,-726.074,50.293,-49.805,117147.609,292.61627090513156
680,1686015383.18,-21.484,0.488,29.297,-57.129,117147.613,289.05673389542613
681,1686015383.19,-16.602,-52.734,-41.992,-50.781,117147.617,290.663434422539
682,1686015383.19,-18.555,-652.344,17.578,-46.875,117147.621,291.99088312978614
683,1686015383.2,-20.996,-295.898,56.641,-49.316,117147.625,297.95262108305917
684,1686015383.21,-38.574,181.641,-6.836,-55.664,117147.63,298.74540460082585
685,1686015383.21,-38.086,-149.902,-31.25,-54.688,117147.634,308.20902202553384
686,1686015383.22,-31.738,-493.164,46.875,-46.387,117147.638,301.78159865583814
687,1686015383.22,-36.621,-36.621,41.992,-44.922,117147.642,296.52778356885193
688,1686015383.22,-35.156,162.598,-18.555,-41.016,117147.645,292.3688115573791
689,1686015383.23,-27.832,-421.387,-23.926,-34.18,117147.649,297.065595602064
690,1686015383.23,-23.438,-741.211,42.969,-29.297,117147.653,294.9241366566355
691,1686015383.24,-21.973,-183.105,35.156,-32.227,117147.657,301.8159376593938
692,1686015383.24,-23.438,78.125,-17.09,-38.574,117147.661,293.63141412654
693,1686015383.24,-22.949,-298.34,-23.926,-31.25,117147.665,300.2481840968268
694,1686015383.25,-15.137,-295.41,16.602,-26.855,117147.669,296.7242516316987
695,1686015383.25,-13.672,117.188,28.32,-33.203,117147.673,295.2234040554405
696,1686015383.25,-16.113,78.613,-24.902,-35.156,117147.674,298.1369927586488
697,1686015383.26,-21.484,-453.125,-65.43,-41.016,117147.678,297.1172322185463
698,1686015383.26,-21.973,-358.398,-2.93,-41.992,117147.682,302.0773483334404
699,1686015383.26,-23.438,111.328,27.832,-29.785,117147.686,300.30231696929536
700,1686015383.27,-22.461,23.438,-19.043,-34.18,117147.689,299.62551571219063
701,1686015383.27,-33.691,-704.102,-36.621,-50.293,117147.693,297.1167499056784
702,1686015383.28,-37.598,-768.066,19.043,-50.781,117147.697,303.0340882689481
703,1686015383.28,-23.438,-313.477,30.762,-38.574,117147.701,301.00320337358403
704,1686015383.28,-23.926,-167.969,-24.414,-34.668,117147.705,298.9877075384031
705,1686015383.29,-22.461,-778.809,-43.457,-34.18,117147.709,294.10486670233485
706,1686015383.29,-17.578,-631.836,44.922,-45.41,117147.713,294.19183781259875
707,1686015383.3,-22.461,47.852,20.508,-51.27,117147.717,301.03066707152226
708,1686015383.3,-20.508,-12.207,-23.438,-51.758,117147.721,303.4577150126863
709,1686015383.3,-8.789,-165.039,9.766,-50.293,117147.725,305.1880653440682
710,1686015383.31,-7.324,-56.641,-0.488,-54.688,117147.729,301.180053208173
711,1686015383.31,-27.832,-89.355,-8.789,-72.266,117147.732,304.37793592911186
712,1686015383.32,-33.203,-342.285,-1.953,-69.824,117147.736,289.698354332934
713,1686015383.32,-26.855,-642.09,-3.906,-67.383,117147.74,293.6058150302385
714,1686015383.32,-26.855,-493.652,15.137,-85.449,117147.744,300.52111036948025
715,1686015383.33,-26.855,-65.918,-3.906,-84.473,117147.748,301.2380526556207
716,1686015383.33,-18.066,-355.957,-28.809,-60.547,117147.752,283.99744353736247
717,1686015383.33,-14.648,-657.227,77.637,-53.223,117147.756,296.95400748037804
718,1686015383.34,-18.555,-95.215,40.039,-69.824,117147.76,291.3997191841169
719,1686015383.34,-16.113,11.23,-34.18,-63.965,117147.764,298.5986387996231
720,1686015383.34,-5.859,-333.008,-19.043,-35.645,117147.764,302.5790787462881
721,1686015383.35,-3.906,-161.133,-4.395,-28.809,117147.768,296.3593984733334
722,1686015383.35,-6.836,82.031,-13.672,-39.551,117147.772,297.4903675279475
723,1686015383.36,-8.301,-87.402,-25.391,-41.992,117147.776,291.84638919938726
724,1686015383.36,-5.859,-468.75,-15.625,-35.156,117147.779,292.8403682640699
725,1686015383.36,-2.93,-520.508,11.23,-32.227,117147.783,300.74368021987044
726,1686015383.37,-2.93,-378.418,13.184,-29.297,117147.787,299.52414060056657
727,1686015383.37,-2.93,-481.445,-14.16,-34.18,117147.791,299.74732504570716
728,1686015383.37,-7.324,-911.621,-20.996,-34.18,117147.795,296.6958068479546
729,1686015383.38,-10.742,-1000.0,38.086,-25.879,117147.799,299.9698738392491
730,1686015383.38,-20.996,-266.113,41.992,-34.18,117147.803,298.03118513919094
731,1686015383.39,-27.832,-23.926,-20.508,-38.086,117147.807,292.38770718856694
732,1686015383.39,-18.555,-219.727,5.859,-31.738,117147.811,294.11954773774664
733,1686015383.39,-8.301,44.922,20.996,-33.203,117147.815,286.96017528991246
734,1686015383.4,-10.742,174.805,3.418,-34.668,117147.819,293.3772282991915
735,1686015383.4,-21.973,-104.004,-26.855,-35.156,117147.823,285.2254102266968
736,1686015383.41,-21.973,-245.117,-3.906,-28.32,117147.827,292.55578264096124
737,1686015383.41,-24.902,-283.691,27.344,-16.602,117147.831,279.9926125178205
738,1686015383.41,-21.973,-287.598,-6.348,-13.672,117147.835,284.66595148489483
739,1686015383.42,-13.184,-390.625,-20.02,-13.184,117147.839,280.4921471061661
740,1686015383.42,-26.367,-761.23,47.852,-27.344,117147.842,286.38473478043005
741,1686015383.42,-36.133,-424.805,55.176,-46.387,117147.846,287.3119158655647
742,1686015383.43,-19.531,87.891,-3.418,-38.086,117147.85,286.65553185341446
743,1686015383.43,-25.879,-284.18,-46.875,-37.109,117147.854,291.26474599464166
744,1686015383.43,-44.922,-398.926,4.883,-47.363,117147.854,280.96594608785773
745,1686015383.44,-35.645,-6.836,34.668,-50.293,117147.858,279.8411388071655
746,1686015383.44,-21.484,27.832,-9.277,-41.016,117147.862,281.3138230294785
747,1686015383.44,-18.555,-169.434,-7.812,-34.668,117147.866,284.761296578704
748,1686015383.45,-16.602,-180.176,-14.648,-42.969,117147.87,283.6506300742209
749,1686015383.45,-10.742,-370.605,0.488,-34.668,117147.873,283.11335045762394
750,1686015383.46,-3.418,-455.566,17.09,-26.367,117147.877,281.74390841580004
751,1686015383.46,4.883,-845.215,-32.715,-26.367,117147.881,287.18138523381145
752,1686015383.46,0.488,-851.074,63.965,-33.691,117147.885,274.4948622314952
753,1686015383.47,-4.883,-116.211,58.594,-47.852,117147.889,281.16484597447493
754,1686015383.47,-3.418,-20.02,-27.832,-41.016,117147.893,288.58423679758437
755,1686015383.48,-2.93,-292.969,4.395,-28.809,117147.897,276.0675063423197
756,1686015383.49,-11.23,-167.969,23.438,-38.086,117147.915,286.2657068209349
757,1686015383.49,-15.625,80.566,-11.23,-45.41,117147.919,280.3256642937969
758,1686015383.5,-12.695,-168.457,-33.691,-39.062,117147.922,287.58679367626354
759,1686015383.5,-14.648,-437.988,26.855,-30.273,117147.926,278.70057789156846
760,1686015383.5,-20.508,-37.109,24.902,-35.645,117147.93,277.46126536467324
761,1686015383.51,-21.973,-106.445,-18.555,-50.781,117147.934,286.50928500357264
762,1686015383.51,-16.602,-569.824,-13.672,-50.293,117147.938,289.7531030145933
763,1686015383.52,-10.254,-683.594,67.383,-40.039,117147.942,283.3616246956034
764,1686015383.52,-1.953,-59.082,48.828,-42.969,117147.946,288.4877451632436
765,1686015383.52,-2.93,145.996,-23.438,-41.992,117147.95,286.62865089123466
766,1686015383.52,-4.395,221.68,19.531,-34.18,117147.957,286.2798698917042
767,1686015383.53,-10.254,-242.188,-25.879,-40.527,117147.954,288.96692625589947
768,1686015383.53,-3.906,63.965,-25.391,-33.691,117147.961,293.45399942591143
769,1686015383.53,-8.789,-124.023,6.836,-38.086,117147.958,297.78070984200895
770,1686015383.53,-5.859,-503.418,-41.504,-32.715,117147.965,291.3489792099079
771,1686015383.54,-1.953,-259.766,6.836,-34.18,117147.969,294.7518742399978
772,1686015383.54,9.766,29.297,-5.859,-32.715,117147.973,289.4605382006931
773,1686015383.54,11.719,-339.355,-11.719,-38.574,117147.977,292.27379243194986
774,1686015383.55,-2.93,-861.816,-41.504,-37.109,117147.98,293.79144740149127
775,1686015383.55,-6.836,-1000.0,25.879,-23.926,117147.984,295.58650227863654
776,1686015383.56,10.254,-230.469,89.355,-17.578,117147.988,296.42931697246905
777,1686015383.56,12.695,99.121,-4.395,-24.414,117147.992,296.6722159121112
778,1686015383.56,11.23,-208.496,15.137,-38.574,117147.996,289.15928834482537
779,1686015383.57,19.531,-64.941,39.062,-36.133,117148.0,290.9135968589601
780,1686015383.58,21.484,145.996,-2.93,-24.414,117148.005,302.3700461039807
781,1686015383.59,25.879,32.715,-24.414,-20.508,117148.008,296.46070230401716
782,1686015383.59,25.879,-102.539,4.883,-31.738,117148.012,303.34074049606454
783,1686015383.6,25.391,-2.441,2.93,-38.574,117148.016,309.3499728637234
784,1686015383.6,30.273,-27.344,-3.418,-27.344,117148.02,299.8767639626178
785,1686015383.6,23.926,-413.086,-10.254,-24.414,117148.024,305.6844969997613
786,1686015383.61,23.926,-884.277,9.277,-25.391,117148.028,313.41126852639786
787,1686015383.61,25.879,-335.938,43.945,-33.203,117148.032,307.2658259375545
788,1686015383.61,29.785,103.027,4.395,-30.273,117148.036,302.9271052857489
789,1686015383.62,37.109,-207.52,-12.695,-18.066,117148.04,301.8173267629918
790,1686015383.62,32.715,-120.605,15.625,-21.973,117148.044,305.91699108874536
791,1686015383.63,23.438,110.84,10.742,-27.832,117148.048,313.8237278861995
792,1686015383.63,28.809,25.879,-6.348,-18.555,117148.049,304.80486038686445
793,1686015383.63,34.668,-259.766,-20.02,-12.207,117148.053,312.475344613818
794,1686015383.64,33.203,-135.254,7.812,-16.602,117148.057,305.37724043036474
795,1686015383.64,32.715,121.582,4.883,-23.438,117148.061,308.7740160804585
796,1686015383.64,33.691,-109.375,-28.809,-16.602,117148.065,307.3415468857964
797,1686015383.65,39.062,-719.238,-9.277,4.395,117148.069,303.3444358788879
798,1686015383.65,36.133,-614.746,12.695,7.324,117148.072,310.8073929172183
799,1686015383.66,28.32,-319.824,0.488,-7.324,117148.076,313.7260979745897
800,1686015383.66,32.715,-460.938,-24.902,-9.277,117148.08,306.4021928554186
801,1686015383.66,39.062,-912.598,-23.438,3.906,117148.084,314.4136569321888
802,1686015383.67,39.551,-727.539,104.004,5.371,117148.088,312.15740980905576
803,1686015383.67,37.598,0.0,28.809,-3.418,117148.092,325.8669256521411
804,1686015383.67,35.645,-67.871,-43.945,-9.277,117148.096,311.6511297889991
805,1686015383.68,35.645,-206.543,22.949,-14.648,117148.1,319.86572370878207
806,1686015383.68,46.387,94.727,6.348,-12.695,117148.104,325.0892240440524
807,1686015383.69,62.988,216.309,-18.555,-9.277,117148.108,315.6524378754085
808,1686015383.69,56.641,-140.137,-34.18,-12.695,117148.112,321.3290136603826
809,1686015383.69,49.805,-504.883,6.348,-11.23,117148.115,320.0952028876491
810,1686015383.7,67.383,-246.582,59.082,1.465,117148.119,316.6293683945668
811,1686015383.7,65.918,165.039,-12.207,-9.766,117148.123,326.376551776653
812,1686015383.7,57.617,-254.395,-70.801,-20.508,117148.127,329.4460533107246
813,1686015383.71,59.082,-781.738,61.035,-13.184,117148.131,322.7954996328118
814,1686015383.71,60.547,-349.609,91.797,-12.207,117148.135,328.7293670143686
815,1686015383.72,68.359,68.848,3.906,-11.23,117148.139,322.26591225808016
816,1686015383.72,65.43,-367.676,-50.781,-15.137,117148.152,331.4833246336444
817,1686015383.72,61.035,-447.754,22.461,-21.484,117148.156,336.593014377349
818,1686015383.73,71.289,13.672,36.133,-7.812,117148.16,323.6144564688108
819,1686015383.73,74.707,88.867,-11.23,5.371,117148.164,332.57790637759666
820,1686015383.73,63.477,-264.16,-12.207,-3.906,117148.167,335.8317858001075
821,1686015383.74,60.547,-481.445,8.789,-18.555,117148.171,332.15065208344487
822,1686015383.74,64.941,-437.012,18.555,-10.254,117148.175,336.6299093966825
823,1686015383.74,69.824,-379.395,4.883,0.0,117148.179,334.75110160772545
824,1686015383.75,67.871,-814.941,-19.531,6.348,117148.183,335.93084169211903
825,1686015383.75,59.082,-826.66,90.82,-0.977,117148.187,346.3277192211228
826,1686015383.76,56.152,-81.543,58.105,-11.23,117148.191,344.9176813513762
827,1686015383.76,59.57,-7.324,-39.062,0.977,117148.195,333.464219814606
828,1686015383.76,58.105,-304.199,4.883,-1.465,117148.186,343.2723332943763
829,1686015383.77,50.293,-97.656,4.883,-8.789,117148.19,336.27981487529274
830,1686015383.77,53.711,122.559,-8.789,-1.465,117148.194,337.1768331201603
831,1686015383.78,66.895,-88.379,-7.324,2.93,117148.198,341.52083142080266
832,1686015383.78,68.359,-343.262,12.695,3.418,117148.202,333.1110450245564
833,1686015383.78,64.941,-318.359,2.441,0.488,117148.206,347.7481218199115
834,1686015383.79,67.871,-276.855,-25.391,-6.348,117148.21,354.8566273177788
835,1686015383.79,65.918,-433.594,-25.391,1.465,117148.214,345.74773403487757
836,1686015383.8,64.941,-625.488,72.754,12.695,117148.217,345.5158122672216
837,1686015383.8,69.824,-92.285,38.086,6.836,117148.221,352.36146111435596
838,1686015383.8,64.941,67.871,-26.367,-5.371,117148.225,349.5818775856283
839,1686015383.81,60.059,-326.172,-34.668,-7.324,117148.229,345.74403845750976
840,1686015383.81,66.406,-154.297,-3.906,-2.441,117148.229,345.05151326957457
841,1686015383.81,75.195,229.98,16.113,-2.441,117148.232,354.7494089815509
842,1686015383.82,71.777,8.789,-20.996,-3.906,117148.236,346.5675428841455
843,1686015383.82,64.941,-468.262,-20.508,-1.465,117148.24,350.3556711789002
844,1686015383.82,66.895,-243.164,5.371,3.906,117148.244,341.58428288598117
845,1686015383.83,65.918,-146.973,2.441,12.207,117148.248,357.12182029138023
846,1686015383.83,49.805,-365.723,-15.137,-1.465,117148.252,348.5145466326069
847,1686015383.84,39.062,-860.352,-47.852,-13.184,117148.256,346.85257202631976
848,1686015383.84,56.152,-987.305,23.438,-0.977,117148.26,354.35209047030895
849,1686015383.84,67.871,-75.195,44.922,-1.465,117148.264,345.75629948537903
850,1686015383.85,56.152,122.559,-43.457,-8.789,117148.268,338.62046565632846
851,1686015383.85,56.152,-249.023,-9.277,-6.836,117148.272,350.1480249346297
852,1686015383.85,60.547,-16.602,22.949,-0.488,117148.287,351.93390858080596
853,1686015383.86,71.289,203.125,-0.488,9.277,117148.291,350.63218141010066
854,1686015383.86,75.195,-7.324,-41.504,0.0,117148.295,350.36031014423054
855,1686015383.87,65.43,-174.805,-11.719,-9.766,117148.299,350.5461987473961
856,1686015383.87,63.965,-56.152,7.324,1.953,117148.303,337.6679830186299
857,1686015383.87,74.707,-92.773,0.977,14.648,117148.307,337.77234568510966
858,1686015383.88,82.031,-368.652,-27.344,12.207,117148.311,344.39067537832483
859,1686015383.88,67.383,-888.184,-9.766,4.883,117148.314,340.5928248887868
860,1686015383.88,62.988,-347.656,44.922,-2.441,117148.318,338.8206857637587
861,1686015383.89,73.73,163.086,-9.277,4.395,117148.322,340.57824172077886
862,1686015383.89,72.266,-116.699,-35.645,13.184,117148.326,336.83115840505616
863,1686015383.9,62.5,-70.801,-14.648,-2.441,117148.33,333.2646698021599
864,1686015383.9,59.57,108.398,-5.371,-18.555,117148.333,340.8073126072911
865,1686015383.9,65.43,95.703,-19.043,-10.254,117148.337,343.2717155122239
866,1686015383.91,71.289,-210.938,-34.18,0.0,117148.341,334.2354968869867
867,1686015383.91,60.059,-112.793,-25.879,-14.16,117148.345,340.1548476313707
868,1686015383.91,49.316,-35.645,-12.207,-26.855,117148.349,341.23999432979826
869,1686015383.92,53.223,-412.109,-16.113,-26.367,117148.352,335.5042596282769
870,1686015383.92,56.641,-865.723,-52.246,-17.09,117148.356,344.4357330581738
871,1686015383.92,51.758,-771.973,43.457,-19.531,117148.36,346.1949337351954
872,1686015383.93,45.898,-288.574,30.273,-29.785,117148.364,345.99243565405453
873,1686015383.93,51.758,-235.84,-42.48,-20.02,117148.368,340.7236410036743
874,1686015383.94,57.617,-689.453,-0.488,0.977,117148.372,326.2431484520391
875,1686015383.94,57.617,-217.773,38.086,-1.465,117148.376,336.49094930262714
876,1686015383.96,52.734,177.734,-11.719,-9.277,117148.38,330.5474967645834
877,1686015383.96,47.363,-138.184,-29.785,-6.348,117148.384,334.843390329727
878,1686015383.97,57.129,-174.805,14.16,-10.742,117148.388,334.1387426074198
879,1686015383.97,62.5,101.562,12.207,-13.672,117148.391,332.8861725879166
880,1686015383.97,54.688,138.672,-16.602,-13.672,117148.395,328.6663225807976
881,1686015383.98,48.34,-455.078,-13.184,-12.207,117148.399,329.8425531491401
882,1686015383.98,49.316,-768.555,20.02,-4.395,117148.403,322.0536198991891
883,1686015383.98,50.781,-137.207,15.137,6.348,117148.407,324.48905209284374
884,1686015383.99,48.34,140.625,-19.531,9.277,117148.411,329.7608558081691
885,1686015383.99,45.41,-329.102,-40.527,0.977,117148.415,326.29887128588643
886,1686015384.0,45.898,-603.516,14.648,2.93,117148.419,325.89430162280433
887,1686015384.0,48.34,-215.332,47.363,5.859,117148.423,333.1582832423899
888,1686015384.0,45.41,90.332,-9.766,4.883,117148.423,320.1940111951449
889,1686015384.01,46.387,-415.039,-72.266,-1.465,117148.427,323.3137021454875
890,1686015384.01,52.246,-468.75,9.766,-2.441,117148.431,327.2304244456511
891,1686015384.02,55.664,31.25,54.199,-21.973,117148.435,332.95616629102085
892,1686015384.02,53.223,-0.488,-21.484,51.758,117148.439,326.4509691046963
893,1686015384.02,47.852,-688.965,-46.387,261.23,117148.443,334.01381074335376
894,1686015384.03,46.875,-826.172,21.973,336.914,117148.447,327.2018106722896
895,1686015384.03,51.758,-322.754,42.969,337.891,117148.451,332.41438804577984
896,1686015384.03,72.754,-109.375,-29.785,339.844,117148.455,319.68998031184117
897,1686015384.04,73.242,-756.836,-39.551,305.664,117148.459,339.0275791584985
898,1686015384.04,48.34,-611.328,73.73,257.812,117148.462,335.1902192466921
899,1686015384.05,46.387,55.176,25.879,235.352,117148.466,334.0502453340105
900,1686015384.07,58.105,-27.344,-27.344,233.398,117148.488,344.86245269719024
901,1686015384.07,63.965,-342.285,4.883,231.445,117148.492,346.0125519893439
902,1686015384.07,47.363,-181.152,8.301,202.637,117148.496,354.2995617789563
903,1686015384.08,38.574,41.016,6.836,177.734,117148.5,351.0887905620564
904,1686015384.08,53.223,-203.125,0.0,175.293,117148.504,349.5233523246659
905,1686015384.09,58.594,-660.645,2.93,162.109,117148.508,354.8532314650664
906,1686015384.09,47.852,-557.129,25.879,137.695,117148.512,354.2224048297348
907,1686015384.09,53.223,-311.035,-21.973,84.473,117148.513,355.7530240636606
908,1686015384.09,35.645,-127.441,9.766,114.746,117148.516,351.55976487255634
909,1686015384.1,57.617,-102.051,5.859,76.66,117148.517,351.88696564256367
910,1686015384.1,38.086,-335.449,-19.043,106.445,117148.52,351.06269130770073
911,1686015384.1,57.617,119.141,5.859,68.848,117148.521,352.59346996549664
912,1686015384.1,49.805,-676.758,84.473,104.98,117148.523,351.46215859325645
913,1686015384.1,51.758,-150.391,-15.625,60.547,117148.525,354.1846417835406
914,1686015384.1,51.758,-157.715,55.664,91.309,117148.527,357.6411975954446
915,1686015384.11,53.223,-570.312,-3.418,56.152,117148.529,354.7551162793853
916,1686015384.11,51.27,-2.93,-20.508,84.961,117148.531,349.59373212933633
917,1686015384.11,66.406,-514.16,13.672,59.57,117148.533,360.2715476492163
918,1686015384.12,69.824,-340.332,3.906,51.27,117148.537,360.2333410764841
919,1686015384.12,60.059,-559.082,-11.23,38.086,117148.541,352.8695639374791
920,1686015384.12,60.547,-726.562,56.641,37.109,117148.545,356.3502877783133
921,1686015384.13,63.477,-226.562,67.871,42.969,117148.548,368.1216094277583
922,1686015384.13,52.246,153.32,12.695,29.297,117148.552,356.6955288460167
923,1686015384.14,43.457,-74.219,-19.043,4.395,117148.556,363.25134543571534
924,1686015384.14,53.223,-866.699,-38.574,16.113,117148.561,360.47940197371446
925,1686015384.14,60.547,-968.75,55.176,25.879,117148.565,372.16850200019627
926,1686015384.15,50.781,-137.207,59.082,8.789,117148.569,362.04332817727646
927,1686015384.15,36.621,-20.02,-32.715,1.953,117148.572,378.51503362402053
928,1686015384.16,31.738,-208.496,-0.977,0.977,117148.576,377.89924597719863
929,1686015384.16,38.574,-297.363,11.719,7.324,117148.58,369.95193947413986
930,1686015384.16,41.016,-273.438,26.367,-10.742,117148.584,365.1518012501234
931,1686015384.17,36.133,-392.09,-20.02,-60.547,117148.588,361.7408152260314
932,1686015384.17,28.809,-912.598,-15.137,-89.844,117148.592,368.19125381238695
933,1686015384.18,27.344,-358.887,59.082,-104.98,117148.596,364.29385359404404
934,1686015384.18,29.297,106.445,7.812,-111.816,117148.6,377.4632473127622
935,1686015384.18,25.879,-207.52,-34.18,-114.258,117148.604,365.88364984762023
936,1686015384.18,21.973,-152.832,-14.16,-126.465,117148.603,356.3038813816551
937,1686015384.19,27.344,41.016,15.625,-126.953,117148.607,362.1091557213518
938,1686015384.19,29.785,22.461,3.418,-118.652,117148.611,367.5327414999133
939,1686015384.2,18.066,-226.562,-28.32,-121.582,117148.615,367.3062699809387
940,1686015384.2,4.395,-269.043,-28.809,-124.512,117148.619,358.2443888155984
941,1686015384.2,1.465,-387.695,-6.348,-119.629,117148.623,365.4717067890651
942,1686015384.21,9.766,-486.816,0.0,-112.793,117148.627,366.3377010920809
943,1686015384.21,12.695,-845.215,-47.363,-103.516,117148.631,367.10343982438746
944,1686015384.21,12.695,-916.504,43.945,-111.328,117148.635,363.76222564567115
945,1686015384.22,5.859,-410.645,36.133,-134.766,117148.638,364.41389200429614
946,1686015384.22,4.395,-291.992,-28.32,-124.023,117148.642,364.053379177425
947,1686015384.23,16.602,-438.477,71.777,-108.887,117148.646,364.89742861841523
948,1686015384.26,22.461,-77.637,42.48,-114.258,117148.679,347.7962360278524
949,1686015384.26,8.301,109.863,-15.625,-120.605,117148.683,357.13300891607196
950,1686015384.26,-0.488,-231.445,-13.672,-110.352,117148.686,346.3720015487284
951,1686015384.27,10.254,-441.895,60.059,-96.68,117148.69,343.8676530229367
952,1686015384.27,2.441,-118.652,50.293,-72.266,117148.707,346.54835589794374
953,1686015384.27,22.461,-48.34,36.621,-92.773,117148.694,348.4848609536775
954,1686015384.28,17.578,-189.941,-29.785,-95.215,117148.698,350.843158620858
955,1686015384.28,0.488,60.059,-4.395,-68.848,117148.711,350.18760619250577
956,1686015384.28,7.812,-645.508,7.812,-89.844,117148.702,348.04624808390247
957,1686015384.28,-6.348,-527.832,-51.758,-63.965,117148.714,344.3506162218737
958,1686015384.28,0.488,-734.375,88.379,-77.637,117148.706,339.71420777550316
959,1686015384.28,-13.184,-444.336,33.203,-59.57,117148.718,342.5645454553733
960,1686015384.29,-3.418,-101.562,69.824,-84.473,117148.71,341.90810759028204
961,1686015384.29,-9.766,11.23,48.34,-56.641,117148.722,343.2380976306521
962,1686015384.29,-0.977,134.277,-9.766,-89.355,117148.714,339.64619869273423
963,1686015384.29,-7.812,-288.086,-15.625,-58.594,117148.726,344.3582659833527
964,1686015384.3,-1.953,-295.898,-7.812,-81.543,117148.718,348.1346654388521
965,1686015384.3,-10.254,-877.93,-35.156,-64.453,117148.73,337.47588626064845
966,1686015384.3,-12.695,-742.676,86.426,-65.918,117148.734,336.2697987278783
967,1686015384.3,-1.465,-468.75,16.113,-75.195,117148.722,340.0816532869093
968,1686015384.3,-11.719,13.184,61.035,-67.871,117148.738,355.6819453441683
969,1686015384.31,-10.742,-11.23,-32.715,-61.035,117148.742,338.8972905423397
970,1686015384.31,-16.602,-666.992,34.668,-54.199,117148.746,334.2186421143366
971,1686015384.32,-21.973,-348.145,62.988,-58.105,117148.75,340.6415366670281
972,1686015384.33,-16.113,145.02,6.348,-47.363,117148.756,333.55598958760277
973,1686015384.34,-5.859,-125.0,-41.016,-36.621,117148.76,326.2989844343476
974,1686015384.34,-3.906,-856.934,-22.949,-34.668,117148.763,332.51857214870085
975,1686015384.35,-8.301,-583.496,85.449,-43.945,117148.767,322.8678725912977
976,1686015384.35,-5.859,47.363,36.133,-43.457,117148.771,331.41937858301344
977,1686015384.35,-2.93,-332.031,-31.738,-33.691,117148.775,333.9295430657582
978,1686015384.36,-10.742,-638.184,67.871,-45.898,117148.779,320.23150251129937
979,1686015384.36,-8.789,-146.973,60.547,-49.316,117148.783,336.1602736085007
980,1686015384.36,-2.93,53.223,6.348,-40.039,117148.787,317.0908314048901
981,1686015384.37,-2.93,-189.941,20.02,-37.598,117148.791,320.5386603274649
982,1686015384.37,-6.348,-162.109,30.762,-41.016,117148.795,321.29164367739736
983,1686015384.38,-12.207,8.789,9.766,-40.039,117148.799,310.654620474193
984,1686015384.38,-4.395,-62.012,6.836,-29.297,117148.799,317.5741581713591
985,1686015384.38,0.0,-287.109,3.418,-21.484,117148.803,313.6400090648789
986,1686015384.39,6.836,-129.395,6.348,-18.066,117148.807,315.27104566856264
987,1686015384.39,6.836,57.129,-1.953,-21.484,117148.811,304.16288712746524
988,1686015384.39,-10.742,-202.637,-16.113,-35.645,117148.814,318.7936132551525
989,1686015384.4,-11.719,-764.16,-23.926,-27.344,117148.818,316.80705597718264
990,1686015384.4,-10.254,-690.918,21.484,-24.414,117148.822,308.85679022766953
991,1686015384.4,-19.531,-414.551,17.578,-37.598,117148.826,302.10618607435356
992,1686015384.41,-29.785,-493.652,-20.996,-48.34,117148.83,303.591404249716
993,1686015384.41,-26.855,-918.457,-23.438,-33.203,117148.834,306.4261506635391
994,1686015384.42,-24.902,-748.047,109.863,-27.344,117148.838,293.8116261226609
995,1686015384.42,-22.461,5.371,54.199,-41.016,117148.842,296.218749118173
996,1686015384.42,-22.461,-84.473,-42.48,-43.945,117148.846,288.7478471721264
997,1686015384.43,-27.344,-284.18,19.043,-40.039,117148.85,303.25383923512265
998,1686015384.43,-28.809,-8.301,22.461,-28.809,117148.854,286.70297197074325
999,1686015384.44,-26.855,144.043,7.812,-21.484,117148.858,288.9832331047989
1000,1686015384.44,-26.367,-131.836,-11.719,-30.273,117148.861,289.21778556304196
1001,1686015384.44,-25.391,-522.949,6.836,-28.32,117148.865,285.42583615336906
1002,1686015384.45,-18.555,-415.527,41.504,-16.113,117148.869,280.4619881875941
1003,1686015384.45,-15.137,-166.016,26.855,-17.578,117148.873,284.8688995122299
1004,1686015384.46,-19.043,-424.316,-20.996,-28.809,117148.877,287.0479067634584
1005,1686015384.46,-24.902,-931.152,18.555,-30.273,117148.881,276.3007056977071
1006,1686015384.46,-24.902,-352.539,91.309,-28.32,117148.885,275.7856715814912
1007,1686015384.47,-18.555,138.672,18.555,-29.297,117148.889,276.1587442067341
1008,1686015384.47,-27.344,-260.742,-27.832,-24.902,117148.889,273.29359900607403
1009,1686015384.47,-33.203,-250.977,11.23,-19.531,117148.892,260.49213440704165
1010,1686015384.48,-33.203,21.484,27.344,-15.137,117148.896,271.71488318809855
1011,1686015384.48,-41.504,23.926,8.789,-13.184,117148.9,274.00833266265846
1012,1686015384.48,-43.457,-345.703,-6.836,-23.926,117148.904,274.90938544171615
1013,1686015384.49,-43.945,-530.273,2.93,-31.25,117148.908,271.37954609110494
1014,1686015384.49,-36.621,-461.426,30.762,-32.227,117148.912,270.6531052262223
1015,1686015384.5,-21.973,-439.941,13.672,-24.902,117148.916,256.8467812459982
1016,1686015384.5,-21.973,-836.914,-27.344,-15.137,117148.92,263.62345720839545
1017,1686015384.5,-31.738,-933.594,70.312,-24.414,117148.924,265.9410232655988
1018,1686015384.51,-34.668,-353.027,80.566,-39.551,117148.928,263.72320577890156
1019,1686015384.51,-23.438,-145.02,6.836,-25.391,117148.932,252.3030261795643
1020,1686015384.51,-15.625,-439.941,68.848,-18.555,117148.936,269.43400354806744
1021,1686015384.52,-26.367,-83.984,58.105,-35.645,117148.939,262.7818375223044
1022,1686015384.52,-34.668,84.473,-6.348,-41.992,117148.943,268.14739462625835
1023,1686015384.53,-30.762,-109.863,1.465,-28.32,117148.947,261.3289841583183
1024,1686015384.53,-30.273,-64.941,31.738,-17.09,117148.951,285.2006454547142
1025,1686015384.53,-41.016,-167.969,1.465,-28.809,117148.955,277.4796101535746
1026,1686015384.54,-44.922,-331.543,-4.883,-42.48,117148.959,278.5404855216264
1027,1686015384.54,-44.922,-517.09,1.953,-37.109,117148.963,286.3792525790539
1028,1686015384.54,-41.992,-664.062,75.195,-25.879,117148.967,280.4261971310933
1029,1686015384.55,-32.227,-45.41,59.082,-33.691,117148.971,286.1749028053092
1030,1686015384.55,-35.156,97.168,-23.438,-41.992,117148.975,294.14674242858166
1031,1686015384.56,-41.504,-273.926,-20.508,-36.133,117148.979,291.34003588016174
1032,1686015384.57,-36.621,-310.547,-4.883,-20.02,117148.996,297.5975566897332
1033,1686015384.58,-35.645,-42.969,33.203,-17.09,117149.0,297.35991453001344
1034,1686015384.58,-39.551,52.246,0.488,-25.879,117149.004,299.9263520208075
1035,1686015384.59,-34.18,-512.207,-46.387,-24.902,117149.008,293.5976028521908
1036,1686015384.59,-28.809,-501.465,19.531,-20.02,117149.012,293.9642667337248
1037,1686015384.59,-27.832,-223.145,51.758,-21.484,117149.016,299.68767111066904
1038,1686015384.6,-34.18,-318.359,2.93,-32.227,117149.019,303.7566585285389
1039,1686015384.6,-42.48,-856.934,-34.668,-32.715,117149.023,307.05046626588086
1040,1686015384.6,-44.434,-854.492,88.379,-13.184,117149.027,299.9366055899557
1041,1686015384.61,-51.758,1.465,76.66,-20.996,117149.031,304.61908487540666
1042,1686015384.61,-51.27,62.988,-9.766,-20.02,117149.035,306.51221350118817
1043,1686015384.62,-53.711,-249.023,35.156,128.418,117149.039,308.2149700364988
1044,1686015384.62,-58.594,-28.32,30.273,237.793,117149.041,303.80799585695496
1045,1686015384.62,-55.664,181.152,19.043,239.258,117149.045,308.30933793160403
1046,1686015384.63,-49.316,-53.711,-9.766,227.051,117149.048,314.6228786926369
1047,1686015384.63,-50.781,-414.551,10.254,201.172,117149.052,307.67616176678655
1048,1686015384.64,-60.059,-156.25,50.293,177.734,117149.056,307.02509913101534
1049,1686015384.64,-55.176,-106.445,19.531,157.715,117149.06,310.68750165464314
1050,1686015384.64,-43.457,-370.605,21.484,140.625,117149.064,311.8209479626994
1051,1686015384.65,-45.41,-367.188,55.664,123.535,117149.068,308.4623555471697
1052,1686015384.65,-44.922,-350.098,84.473,79.102,117149.082,318.41537744502716
1053,1686015384.65,-49.316,-81.055,40.039,115.723,117149.072,307.7721999925283
1054,1686015384.65,-51.758,69.336,18.555,62.012,117149.086,306.0422262240048
1055,1686015384.65,-41.016,173.34,29.785,123.535,117149.076,306.1685778388924
1056,1686015384.66,-56.152,-217.285,0.488,56.152,117149.09,310.8346139630364
1057,1686015384.66,-33.691,-226.562,-15.137,125.977,117149.08,310.56189451848866
1058,1686015384.66,-49.805,-8.789,31.738,49.805,117149.094,307.22358284872473
1059,1686015384.66,-36.621,-916.504,24.902,105.469,117149.084,304.65962910222174
1060,1686015384.66,-40.527,-6.348,-1.465,36.133,117149.098,312.21402973956305
1061,1686015384.67,-40.527,-436.035,4.883,34.18,117149.102,310.7848584380672
1062,1686015384.67,-46.875,-665.527,35.156,36.133,117149.105,308.31094645303483
1063,1686015384.68,-49.316,-485.84,31.25,22.461,117149.109,314.5965034217357
1064,1686015384.68,-51.758,-125.977,34.18,3.418,117149.113,310.59858542886553
1065,1686015384.68,-57.129,-40.527,2.93,-4.883,117149.117,318.1214382713215
1066,1686015384.69,-53.223,-800.781,-28.809,12.207,117149.121,308.650705172205
1067,1686015384.69,-47.852,-1000.0,34.668,11.719,117149.125,319.07766190326214
1068,1686015384.71,-55.176,-193.848,58.594,-12.207,117149.158,312.28544948087057
1069,1686015384.71,-57.617,-0.977,-5.371,-17.578,117149.162,315.5356545175396
1070,1686015384.72,-51.758,-152.832,26.367,-9.766,117149.165,324.172719921605
1071,1686015384.72,-47.852,154.785,43.457,-6.836,117149.169,322.664541311737
1072,1686015384.72,-53.711,266.113,0.0,-10.742,117149.173,312.26364698733653
1073,1686015384.73,-61.523,-278.809,-11.719,-14.16,117149.177,314.08988411595
1074,1686015384.73,-57.617,-569.336,88.379,-11.719,117149.181,319.01737276509016
1075,1686015384.74,-43.945,-29.297,65.918,-8.301,117149.185,316.01574571640106
1076,1686015384.74,-43.457,39.551,-13.184,-22.949,117149.189,315.09773823119565
1077,1686015384.74,-44.434,200.684,-5.859,-32.715,117149.186,311.8796401067575
1078,1686015384.74,-53.711,-399.902,-3.906,-42.969,117149.193,316.7041617417521
1079,1686015384.74,-45.41,-207.031,-28.809,-35.156,117149.19,315.70736823433043
1080,1686015384.75,-48.34,-517.578,77.637,-39.551,117149.197,316.3257584825133
1081,1686015384.75,-45.898,-128.906,3.418,-36.133,117149.194,302.9202998502462
1082,1686015384.75,-44.922,90.332,65.918,-28.809,117149.201,315.6631182313163
1083,1686015384.75,-46.387,208.984,23.438,-32.715,117149.198,313.68041060570425
1084,1686015384.76,-52.734,98.633,-20.996,-23.926,117149.202,315.24231684205245
1085,1686015384.76,-50.293,-573.73,-44.922,-30.273,117149.206,302.4354383299215
1086,1686015384.76,-46.875,-658.203,0.977,-33.203,117149.21,307.44158384292746
1087,1686015384.77,-43.945,-173.34,44.434,-36.621,117149.214,303.84744298293185
1088,1686015384.77,-40.527,20.996,12.695,-67.383,117149.218,317.29994861724055
1089,1686015384.78,-42.48,-635.742,-13.672,-98.145,117149.222,299.1087673835652
1090,1686015384.78,-58.594,-546.875,29.785,-127.93,117149.225,304.5049897945993
1091,1686015384.78,-68.848,-83.008,31.25,-150.391,117149.229,303.56996198022773
1092,1686015384.81,-60.547,-72.266,-4.395,-145.996,117149.234,302.764698615157
1093,1686015384.82,-53.223,-208.008,15.625,-144.531,117149.238,299.66735780615875
1094,1686015384.82,-56.641,-48.34,26.855,-145.996,117149.242,298.2139016255229
1095,1686015384.82,-57.617,104.98,20.508,-128.418,117149.246,291.4438739467635
1096,1686015384.83,-48.34,-62.5,-13.184,-110.84,117149.25,289.5464449210813
1097,1686015384.83,-42.969,-877.441,-2.93,-103.516,117149.254,292.9096182625608
1098,1686015384.84,-50.293,-692.871,118.164,-118.164,117149.258,287.93224981005767
1099,1686015384.84,-51.758,77.637,41.992,-121.094,117149.262,283.7273523934113
1100,1686015384.84,-41.992,-203.125,-18.555,-101.562,117149.266,289.4858506680955
1101,1686015384.84,-44.434,-75.684,1.953,-107.91,117149.265,293.0792192905811
1102,1686015384.85,-41.504,-220.703,1.953,-92.773,117149.27,292.7369719471167
1103,1686015384.85,-44.922,-23.438,58.594,-99.609,117149.269,288.1828562827012
1104,1686015384.85,-52.246,98.633,25.879,-100.098,117149.274,291.69506882945035
1105,1686015384.85,-48.34,284.18,12.695,-96.68,117149.273,292.490887554027
1106,1686015384.86,-56.641,106.445,-14.648,-106.445,117149.278,278.7616732725044
1107,1686015384.86,-50.293,187.5,-6.348,-105.957,117149.277,288.9814809967971
1108,1686015384.86,-59.57,-486.328,-57.129,-93.262,117149.282,285.0051352993064
1109,1686015384.86,-57.617,-563.965,13.184,-87.402,117149.285,279.587653561607
1110,1686015384.87,-55.176,-162.109,21.973,-89.844,117149.289,286.76327610558803
1111,1686015384.87,-62.5,-295.41,-30.273,-101.074,117149.293,291.7010145492791
1112,1686015384.87,-43.945,-776.367,-1.465,-78.613,117149.297,292.9867930253714
1113,1686015384.88,-20.508,-336.914,78.125,-57.617,117149.301,283.6927265929159
1114,1686015384.88,-50.781,276.367,32.227,-101.562,117149.305,286.24871757207166
1115,1686015384.89,-71.777,52.734,-37.598,-122.07,117149.309,280.2002229606295
1116,1686015384.9,-68.359,-759.277,-3.418,-104.004,117149.319,281.2691282142929
1117,1686015384.9,-68.848,-364.746,85.938,-106.934,117149.323,285.2840339610358
1118,1686015384.9,-65.43,385.742,24.414,-109.863,117149.327,288.69643386104013
1119,1686015384.91,-77.637,101.074,-23.926,-116.699,117149.331,285.65618932570464
1120,1686015384.91,-91.797,-222.168,20.996,-126.953,117149.335,277.70906344941415
1121,1686015384.92,-81.055,-232.422,20.02,-113.77,117149.339,296.7675001909666
1122,1686015384.92,-68.848,-86.914,27.344,-89.844,117149.343,279.15605799551906
1123,1686015384.92,-71.777,-193.848,-2.441,-79.59,117149.347,287.04621982805094
1124,1686015384.93,-67.871,-845.215,13.672,-77.637,117149.351,285.80614722564826
1125,1686015384.93,-66.895,-266.602,79.102,-84.961,117149.355,286.616269510036
1126,1686015384.93,-63.965,44.922,5.371,-78.613,117149.354,290.908468159649
1127,1686015384.93,-63.477,368.652,15.625,-90.332,117149.358,292.97132133122784
1128,1686015384.94,-64.453,202.637,35.645,-81.055,117149.358,289.9826812506606
1129,1686015384.94,-57.617,58.105,-28.32,-79.102,117149.362,289.0927804816769
1130,1686015384.94,-58.594,218.75,13.672,-72.754,117149.361,285.84037316108765
1131,1686015384.94,-49.805,14.16,-17.578,-71.777,117149.365,292.369592441974
1132,1686015384.95,-47.852,38.086,-21.484,-77.637,117149.369,292.2278533182678
1133,1686015384.95,-56.641,-169.922,-13.184,-76.66,117149.373,306.65939446264986
1134,1686015384.96,-62.012,-265.137,14.16,-72.266,117149.377,297.1509829230772
1135,1686015384.96,-55.176,-649.414,-33.203,-55.664,117149.381,291.7896312635258
1136,1686015384.96,-62.988,-1000.0,6.348,-51.27,117149.385,293.7906733652117
1137,1686015384.97,-71.289,-187.012,47.852,-75.195,117149.389,301.3708852265849
1138,1686015384.97,-66.895,198.242,-1.465,-72.266,117149.393,296.9569420087206
1139,1686015384.98,-71.777,40.527,37.109,-61.523,117149.397,302.110941226136
1140,1686015384.98,-72.754,292.969,25.391,-67.871,117149.411,295.16842434346285
1141,1686015384.98,-73.242,357.91,-15.137,-83.984,117149.415,301.9623104970252
1142,1686015384.99,-73.73,131.348,-6.836,-88.867,117149.419,300.34326184654566
1143,1686015384.99,-62.988,53.711,20.508,-73.73,117149.423,294.2601856537782
1144,1686015385.0,-66.406,210.449,13.672,-66.406,117149.427,304.4957042264829
1145,1686015385.0,-77.148,27.832,-7.324,-67.871,117149.431,300.37925728616904
1146,1686015385.0,-82.52,-406.738,-5.859,-64.941,117149.435,304.5674851693198
1147,1686015385.01,-73.242,-647.461,63.965,-55.176,117149.439,300.57567383835436
1148,1686015385.01,-64.941,-8.789,42.969,-51.27,117149.443,311.85463426852584
1149,1686015385.01,-71.289,106.934,-19.531,-61.035,117149.446,299.9696881151663
1150,1686015385.02,-82.52,-328.125,-1.953,-70.312,117149.45,310.6896948622078
1151,1686015385.02,-87.891,-208.984,44.434,-70.312,117149.454,302.5726451606531
1152,1686015385.02,-83.496,299.316,37.109,-66.406,117149.456,313.87935829913727
1153,1686015385.03,-82.031,272.949,-13.184,-62.012,117149.46,311.69831444975915
1154,1686015385.03,-83.496,-148.926,-25.391,-61.523,117149.464,310.38030777295273
1155,1686015385.04,-72.266,24.902,20.508,-56.152,117149.468,303.195035962796
1156,1686015385.04,-69.824,258.789,16.602,-42.48,117149.472,308.6508111680396
1157,1686015385.04,-74.219,-23.438,-14.648,-53.223,117149.476,306.23619648969606
1158,1686015385.05,-79.59,-768.555,-30.762,-65.43,117149.48,305.0836767745172
1159,1686015385.05,-77.148,-752.93,102.539,-60.059,117149.484,301.4725633470065
1160,1686015385.05,-67.383,162.598,86.914,-58.594,117149.488,311.430097465992
1161,1686015385.06,-58.594,201.66,-5.859,-52.734,117149.492,310.39489665273305
1162,1686015385.06,-56.152,-154.785,56.152,-62.988,117149.496,315.2734004220668
1163,1686015385.07,-60.059,-126.953,30.762,-81.543,117149.499,301.4510600569449
1164,1686015385.07,-61.035,43.457,26.855,-79.102,117149.503,308.9442800012433
1165,1686015385.08,-57.617,77.637,-4.395,-71.777,117149.507,320.17606422337235
1166,1686015385.08,-59.082,-259.277,52.246,-77.637,117149.511,308.25556434890893
1167,1686015385.08,-62.012,-11.23,42.48,-82.031,117149.514,307.7684039147808
1168,1686015385.09,-57.617,233.398,-3.906,-68.848,117149.518,307.9632029128987
1169,1686015385.09,-54.199,-131.836,6.348,-56.641,117149.522,306.1639482545612
1170,1686015385.1,-61.035,-545.41,70.312,-62.012,117149.526,314.3764167881872
1171,1686015385.1,-61.523,-8.789,45.898,-67.871,117149.53,316.42167315069474
1172,1686015385.1,-56.641,245.117,-22.461,-58.105,117149.534,309.1790747140495
1173,1686015385.11,-55.176,-16.113,0.977,-49.316,117149.538,306.47187729432665
1174,1686015385.11,-57.617,9.766,21.484,-49.316,117149.542,314.0391523602102
1175,1686015385.11,-71.777,103.027,12.695,-56.641,117149.546,313.31416228601597
1176,1686015385.13,-78.613,133.789,-7.324,-57.617,117149.551,311.42401317197795
1177,1686015385.13,-66.406,-123.535,-41.504,-53.711,117149.554,313.7462460689869
1178,1686015385.14,-64.941,-220.703,-20.508,-53.223,117149.558,305.21851196445346
1179,1686015385.14,-71.289,40.527,-7.812,-56.152,117149.562,307.6960137631111
1180,1686015385.14,-71.777,65.918,-54.199,-67.871,117149.566,305.5946114350621
1181,1686015385.15,-64.941,-624.512,-74.219,-59.082,117149.57,313.96089374616247
1182,1686015385.15,-59.082,-877.441,55.176,-54.199,117149.574,304.58306136228833
1183,1686015385.16,-65.43,-173.828,49.316,-71.289,117149.578,312.42667430725464
1184,1686015385.16,-61.523,26.855,-36.621,-78.613,117149.582,308.47326110737635
1185,1686015385.16,-49.316,-642.578,0.488,-64.941,117149.586,314.38203607101474
1186,1686015385.17,-42.48,-215.82,55.664,-56.152,117149.59,312.53806556297735
1187,1686015385.17,-50.781,336.914,-5.371,-61.035,117149.593,318.73026855308603
1188,1686015385.17,-59.082,68.359,-38.086,-66.406,117149.596,305.47364821983325
1189,1686015385.18,-57.129,-99.121,6.348,-62.5,117149.6,319.88241810858943
1190,1686015385.18,-63.477,135.254,17.578,-54.688,117149.604,307.5906835760629
1191,1686015385.19,-63.477,316.895,-14.648,-49.316,117149.607,316.75477175719885
1192,1686015385.19,-59.082,-39.551,-30.762,-44.434,117149.611,311.22290633202203
1193,1686015385.19,-57.129,-469.727,-5.859,-34.18,117149.615,318.9905267686381
1194,1686015385.2,-49.805,-374.023,8.301,-30.273,117149.619,314.0958473864878
1195,1686015385.2,-52.734,92.773,17.09,-17.09,117149.623,306.94328859740904
1196,1686015385.2,-52.246,-111.816,-39.062,124.512,117149.627,309.26001809654764
1197,1686015385.21,-41.992,-897.461,-1.465,215.82,117149.631,317.7799489605529
1198,1686015385.21,-43.457,-273.438,80.566,199.707,117149.635,320.18531381425873
1199,1686015385.22,-42.48,290.039,17.578,193.848,117149.639,318.8047012816945
1200,1686015385.22,-39.551,-75.195,-25.391,175.293,117149.638,310.94845535752813
1201,1686015385.22,-40.527,-65.918,-3.418,149.902,117149.642,309.29211642184976
1202,1686015385.23,-42.48,162.598,28.32,135.254,117149.646,307.7051511411313
1203,1686015385.23,-31.25,201.172,13.184,125.488,117149.65,319.1439642359479
1204,1686015385.23,-13.184,-148.926,-33.691,118.164,117149.654,310.419305392402
1205,1686015385.24,-18.555,-375.488,-16.602,89.355,117149.658,315.16680142080503
1206,1686015385.24,-24.902,-349.121,16.602,67.871,117149.662,315.4330383589402
1207,1686015385.24,-20.02,-317.871,10.254,66.406,117149.666,310.6265295766
1208,1686015385.25,-22.949,-764.16,-41.504,56.152,117149.67,315.7311529100425
1209,1686015385.25,-20.508,-1000.0,-2.441,39.062,117149.674,311.7733104789106
1210,1686015385.26,-24.902,-237.793,47.852,18.555,117149.678,318.4913701789715
1211,1686015385.26,-27.832,80.078,-8.789,22.949,117149.681,316.2292687942391
1212,1686015385.26,-26.855,-38.574,8.301,20.996,117149.686,316.703547762149
1213,1686015385.27,-24.902,200.195,-0.977,15.137,117149.69,315.281219860421
1214,1686015385.27,-38.574,204.102,-29.297,11.23,117149.694,317.9921163258891
1215,1686015385.28,-41.992,25.879,-8.301,-0.488,117149.698,315.33057638976624
1216,1686015385.28,-28.32,-2.93,6.348,1.465,117149.701,308.1428716652185
1217,1686015385.28,-27.832,-110.352,-15.137,-0.488,117149.705,319.05468789430205
1218,1686015385.29,-42.48,-268.066,-19.531,-17.09,117149.709,319.15482263830626
1219,1686015385.29,-40.039,-449.707,-20.02,-20.508,117149.713,305.8964357512685
1220,1686015385.3,-34.668,-759.277,52.734,-16.602,117149.717,313.11186295946493
1221,1686015385.3,-41.992,-192.871,52.734,-24.902,117149.721,313.8248846522209
1222,1686015385.3,-49.805,-47.363,-20.508,-39.551,117149.725,313.90445299258806
1223,1686015385.31,-54.199,-490.723,11.23,-48.34,117149.729,320.91038235128025
1224,1686015385.31,-51.27,-275.391,66.406,-48.34,117149.729,315.8489018685505
1225,1686015385.31,-49.805,262.695,27.344,-41.016,117149.732,312.21544899571046
1226,1686015385.32,-54.199,153.32,-15.137,-41.992,117149.736,314.19247096428506
1227,1686015385.32,-60.547,-253.418,-6.348,-47.363,117149.74,310.4084359867576
1228,1686015385.32,-60.547,-127.441,17.578,-43.457,117149.744,309.13703428914425
1229,1686015385.33,-53.711,-93.75,13.672,-48.828,117149.748,319.2885853894821
1230,1686015385.33,-50.293,-227.539,-4.883,-59.57,117149.752,307.18039335868707
1231,1686015385.34,-53.711,-806.152,-37.598,-52.246,117149.756,320.06130212654574
1232,1686015385.34,-52.246,-874.023,77.637,-41.016,117149.76,319.78991522175477
1233,1686015385.34,-51.758,91.309,85.449,-39.062,117149.764,308.05459400096424
1234,1686015385.35,-58.105,205.566,-18.555,-42.969,117149.768,317.452972217919
1235,1686015385.35,-62.012,-82.031,12.207,-56.152,117149.772,310.036664004729
1236,1686015385.36,-62.5,-63.965,17.09,-62.5,117149.777,307.57916624996045
1237,1686015385.36,-52.734,59.57,32.715,-55.176,117149.781,310.4823609619336
1238,1686015385.36,-45.41,15.625,-4.883,-58.105,117149.785,317.05765375949966
1239,1686015385.37,-48.828,-362.793,40.527,-77.637,117149.789,319.4257710312651
1240,1686015385.37,-53.223,-99.609,38.574,-83.008,117149.793,319.7314084092675
1241,1686015385.38,-53.711,-22.949,-8.789,-78.613,117149.797,311.2532361013556
1242,1686015385.38,-50.781,-361.816,-1.953,-81.543,117149.801,318.64272098101674
1243,1686015385.38,-54.688,-692.871,58.594,-87.891,117149.804,306.5235746291049
1244,1686015385.39,-60.547,-148.926,58.105,-92.773,117149.808,309.26146967520936
1245,1686015385.39,-46.875,173.828,1.465,-78.125,117149.812,320.1065417272488
1246,1686015385.39,-42.969,-60.059,-0.977,-76.66,117149.816,317.78637905203965
1247,1686015385.4,-48.34,127.93,40.039,-74.707,117149.832,308.13361273134274
1248,1686015385.4,-46.387,-3.906,8.789,-80.566,117149.82,319.4194224014787
1249,1686015385.4,-49.805,100.586,13.184,-67.383,117149.836,310.6519466279658
1250,1686015385.4,-52.246,-256.836,-19.043,-66.895,117149.84,314.53895955252744
1251,1686015385.41,-51.758,-331.543,3.418,-71.289,117149.844,314.9639767704875
1252,1686015385.41,-56.152,-119.629,9.277,-77.637,117149.847,317.4348319976416
1253,1686015385.42,-66.895,-289.551,6.348,-82.52,117149.851,325.40638514578194
1254,1686015385.42,-63.477,-795.41,-43.945,-68.848,117149.855,307.79874145807764
1255,1686015385.42,-60.547,-1000.0,6.836,-50.781,117149.859,311.906915787672
1256,1686015385.43,-59.082,-297.852,85.938,-49.316,117149.863,308.57055330541664
1257,1686015385.43,-62.012,4.883,17.578,-46.387,117149.867,321.59297326992163
1258,1686015385.44,-60.059,-190.43,44.922,-45.41,117149.871,306.3024164957168
1259,1686015385.44,-55.664,122.559,43.457,-51.758,117149.875,306.8754400057502
1260,1686015385.46,-61.035,241.211,-2.93,-59.082,117149.879,316.60854883579947
1261,1686015385.46,-62.012,-3.418,-4.395,-59.57,117149.883,315.1338962722501
1262,1686015385.47,-62.5,-128.906,36.621,-54.688,117149.887,309.99457374969353
1263,1686015385.47,-62.5,148.926,32.227,-60.059,117149.891,305.9899980600492
1264,1686015385.47,-65.918,203.125,-4.395,-68.848,117149.895,318.2706102578226
1265,1686015385.48,-66.406,-347.656,-19.043,-70.312,117149.899,313.8972568266087
1266,1686015385.48,-58.594,-771.973,67.871,-60.059,117149.902,312.7662769138468
1267,1686015385.48,-55.176,-286.621,92.773,-57.617,117149.906,317.26851125559494
1268,1686015385.49,-59.57,213.379,-4.883,-64.941,117149.91,314.6354961646631
1269,1686015385.49,-62.5,-283.203,-28.809,-63.477,117149.914,314.62297210057557
1270,1686015385.5,-56.641,-629.395,86.914,-53.223,117149.918,318.470185680667
1271,1686015385.5,-51.758,6.348,72.266,-48.34,117149.922,317.43517511330265
1272,1686015385.5,-53.223,205.078,-4.883,-52.246,117149.924,314.79653807917305
1273,1686015385.51,-54.688,-205.566,-28.32,-62.5,117149.928,314.55820222716574
1274,1686015385.51,-63.965,-212.402,3.906,-75.195,117149.931,319.47298408809326
1275,1686015385.52,-66.406,93.75,43.457,-78.125,117149.935,310.70490798134847
1276,1686015385.52,-59.57,76.172,-6.348,-70.312,117149.939,314.92124014435103
1277,1686015385.52,-59.082,-593.262,-57.617,-74.219,117149.943,306.90467389887283
1278,1686015385.53,-66.406,-770.996,-0.977,-106.934,117149.947,316.0967161491741
1279,1686015385.53,-63.965,-345.703,42.969,-119.141,117149.951,303.9794829745546
1280,1686015385.53,-62.988,-191.406,8.789,-116.699,117149.955,315.215414398198
1281,1686015385.54,-65.43,-775.879,-16.602,-126.465,117149.959,310.32075763964224
1282,1686015385.54,-63.477,-846.191,75.684,-128.418,117149.963,315.5799591397306
1283,1686015385.55,-66.406,-158.203,68.848,-134.277,117149.967,311.17906800640515
1284,1686015385.55,-62.988,-8.301,3.418,-142.09,117149.985,312.8965788107129
1285,1686015385.55,-66.895,-73.242,30.762,-143.555,117149.989,319.25122413607164
1286,1686015385.56,-83.008,81.055,15.137,-144.531,117149.993,310.3333581805266
1287,1686015385.56,-82.52,125.488,8.301,-146.484,117149.997,311.95520648703877
1288,1686015385.56,-75.195,-1.953,-6.348,-133.301,117150.0,313.0802195158367
1289,1686015385.57,-74.219,-324.707,-7.324,-127.93,117150.004,315.4344929629085
1290,1686015385.57,-80.078,-362.305,13.184,-138.184,117150.008,306.4591689591557
1291,1686015385.58,-77.148,-10.742,14.648,-142.09,117150.012,310.90074821609056
1292,1686015385.58,-65.918,-276.367,-12.207,-136.23,117150.016,309.72898765851915
1293,1686015385.58,-65.918,-665.527,81.543,-128.418,117150.02,312.9304814224427
1294,1686015385.59,-67.383,-165.039,59.082,-139.648,117150.024,302.6248667514969
1295,1686015385.59,-62.012,-195.312,-29.785,-157.715,117150.028,314.52103335117846
