,timestamps,TP9,AF7,AF8,TP10,Secondary Timestamp,emg_signal
0,1686621948.68,-63.477,412.598,94.727,-78.613,1326.591,377.26151013810414
1,1686621948.69,-0.488,496.094,44.434,-18.555,1326.595,380.2987789649795
2,1686621948.69,4.883,300.293,140.625,-5.859,1326.599,369.8356762257996
3,1686621948.69,-54.688,251.465,78.613,-60.059,1326.603,375.52674149625574
4,1686621948.7,-75.684,325.684,30.762,-82.031,1326.607,389.51813722488816
5,1686621948.7,-22.461,114.258,36.621,-26.367,1326.611,372.3636146711039
6,1686621948.7,6.348,-536.133,40.527,2.93,1326.615,381.6496572477279
7,1686621948.71,-41.016,-154.785,177.734,-57.617,1326.619,377.1872183728829
8,1686621948.71,-89.844,319.336,63.477,-108.398,1326.622,379.30566814195674
9,1686621948.72,-53.223,-48.34,10.742,-63.477,1326.626,377.22122256266164
10,1686621948.72,2.441,-62.988,154.785,-7.324,1326.63,375.8146219660783
11,1686621948.72,-22.949,436.523,133.301,-36.621,1326.634,381.8337105942435
12,1686621948.74,-85.449,410.645,2.93,-95.703,1326.637,381.8636333662007
13,1686621948.74,-64.941,55.176,63.477,-75.684,1326.641,380.6495395530153
14,1686621948.75,13.184,232.91,215.82,-15.137,1326.645,385.42510027798517
15,1686621948.75,4.395,509.277,96.191,-18.555,1326.649,385.72338906462016
16,1686621948.76,-62.988,327.148,-11.23,-75.684,1326.653,373.7524426252494
17,1686621948.76,-69.824,-276.367,5.371,-74.707,1326.657,381.4283895851362
18,1686621948.76,-11.23,-582.52,161.133,-6.836,1326.661,377.0457026987026
19,1686621948.77,4.883,-8.301,160.645,6.836,1326.664,379.72369456214176
20,1686621948.77,-49.805,318.359,-5.859,-44.434,1326.668,376.14518563303193
21,1686621948.78,-81.543,-224.121,-19.531,-71.289,1326.672,377.8453766408481
22,1686621948.78,-25.879,-165.527,230.469,-23.926,1326.676,383.60771582895046
23,1686621948.78,22.949,449.707,138.672,11.719,1326.68,375.9219913573378
24,1686621948.79,-20.996,162.598,-31.25,-24.414,1326.684,370.9718098948432
25,1686621948.79,-74.219,-413.574,16.602,-61.523,1326.688,390.11103934453837
26,1686621948.8,-43.457,0.488,82.52,-32.715,1326.692,368.25412634636723
27,1686621948.8,10.254,656.738,79.102,7.324,1326.696,377.3401211893461
28,1686621948.8,-20.02,404.785,3.418,-22.461,1326.7,377.88127490503655
29,1686621948.81,-88.379,-265.625,36.133,-74.707,1326.703,382.2121685060049
30,1686621948.81,-66.406,-196.777,118.652,-56.641,1326.707,383.8417508516917
31,1686621948.81,2.441,535.645,98.633,-5.859,1326.711,383.13646515881675
32,1686621948.82,-1.953,445.312,-46.387,-13.672,1326.715,383.6925612403083
33,1686621948.82,-55.664,-651.855,-7.812,-58.594,1326.719,376.100695965162
34,1686621948.83,-56.641,-254.883,190.43,-62.988,1326.723,381.67867462349346
35,1686621948.83,7.324,568.848,95.703,-7.812,1326.727,376.7902083172516
36,1686621948.83,19.531,444.336,34.18,16.602,1326.741,379.8953579783824
37,1686621948.84,-31.738,189.941,43.945,-38.086,1326.745,375.57080801006816
38,1686621948.84,-59.082,-33.203,30.273,-73.242,1326.749,382.4402236277292
39,1686621948.84,-11.719,281.25,76.172,-29.785,1326.753,375.20389175144993
40,1686621948.85,27.344,271.973,22.949,8.789,1326.756,389.19106815738377
41,1686621948.85,-22.949,-364.258,43.457,-22.949,1326.76,377.588898558629
42,1686621948.85,-84.473,-376.465,48.34,-65.43,1326.764,367.5585378106022
43,1686621948.86,-45.898,16.602,63.965,-36.621,1326.768,374.7267600317508
44,1686621948.86,8.301,-67.383,-12.207,15.137,1326.772,379.45873919345837
45,1686621948.87,-12.207,-806.152,9.277,6.348,1326.776,376.3165819642806
46,1686621948.87,-61.523,-145.02,107.91,-60.059,1326.78,382.7652317305769
47,1686621948.87,-61.523,348.145,47.363,-68.848,1326.784,383.41871834781693
48,1686621948.88,-1.465,155.273,65.43,-10.742,1326.776,387.4387133914177
49,1686621948.88,2.93,466.797,63.477,-5.859,1326.78,371.20119423496016
50,1686621948.88,-62.012,511.719,25.391,-65.43,1326.784,385.55380918384907
51,1686621948.89,-72.266,239.258,24.414,-76.66,1326.788,374.5756893903366
52,1686621948.89,-8.301,37.598,89.844,-16.113,1326.792,377.135822294292
53,1686621948.9,21.973,84.473,79.59,6.348,1326.796,380.76008611454427
54,1686621948.9,-33.203,54.688,31.25,-48.828,1326.799,367.96849369797997
55,1686621948.9,-76.172,-153.32,2.93,-81.055,1326.803,373.04704103556526
56,1686621948.91,-33.691,-725.586,50.781,-34.668,1326.807,373.373871855039
57,1686621948.91,13.184,-212.402,261.23,0.488,1326.811,382.0557562064381
58,1686621948.92,-20.996,603.516,120.605,-37.598,1326.815,378.0675283325558
59,1686621948.92,-57.129,-163.574,119.629,-66.895,1326.816,377.4013499820968
60,1686621948.92,-80.078,172.363,-42.48,-91.309,1326.819,376.0963679452405
61,1686621948.92,3.418,448.73,154.785,-12.207,1326.82,378.67053849209776
62,1686621948.93,-15.137,632.812,8.301,-28.809,1326.824,372.10608786825316
63,1686621948.93,-76.66,168.457,13.184,-77.148,1326.828,381.7463749762801
64,1686621948.94,-57.129,106.445,126.465,-59.082,1326.832,382.8347850309677
65,1686621948.94,9.766,204.59,67.383,0.0,1326.836,373.26463538457153
66,1686621948.94,15.625,169.434,15.625,1.465,1326.84,369.2025684079486
67,1686621948.95,-46.875,-205.078,-37.109,-49.805,1326.844,376.6057198199567
68,1686621948.95,-82.031,-1000.0,5.371,-54.199,1326.848,379.6751693229049
69,1686621948.96,-23.926,-479.492,269.531,-3.418,1326.852,375.8526736742572
70,1686621948.96,18.555,517.09,208.984,13.184,1326.856,378.77914654311786
71,1686621948.96,-33.203,240.234,-34.18,-38.086,1326.859,382.53099262474984
72,1686621948.97,-77.148,72.754,1.953,-76.172,1326.863,380.173390725473
73,1686621948.97,-26.855,445.312,64.453,-39.551,1326.867,376.88782913325525
74,1686621948.98,27.832,602.051,30.273,-2.93,1326.871,387.0675382960147
75,1686621948.98,-1.953,283.203,93.75,-23.926,1326.875,380.6319318744795
76,1686621948.98,-65.43,166.016,75.195,-78.125,1326.879,376.4331201049145
77,1686621948.99,-42.48,129.395,39.062,-59.082,1326.883,373.25596890096426
78,1686621948.99,23.438,85.938,20.508,4.395,1326.887,372.4776879258495
79,1686621948.99,12.695,-456.055,9.766,-1.953,1326.891,375.0747980831227
80,1686621949.0,-37.598,-179.688,142.09,-62.012,1326.895,378.6688695535954
81,1686621949.0,-40.527,369.629,65.918,-67.383,1326.899,371.78757405076476
82,1686621949.01,1.465,95.703,19.043,-6.348,1326.903,375.4543228567425
83,1686621949.01,-36.133,353.516,70.312,-56.152,1326.905,379.75229848981627
84,1686621949.01,16.602,-18.066,105.469,1.465,1326.906,389.72004207169806
85,1686621949.01,-59.082,370.117,12.695,-76.66,1326.909,373.309671961857
86,1686621949.02,0.0,154.785,75.195,-18.066,1326.913,365.6808260010091
87,1686621949.02,39.551,386.719,143.555,19.531,1326.917,375.17880314963423
88,1686621949.02,-8.301,412.109,35.645,-29.785,1326.921,375.1634870437336
89,1686621949.03,-60.547,78.613,19.043,-75.195,1326.924,374.50279333845924
90,1686621949.03,-25.391,-263.184,2.441,-35.156,1326.928,379.9682299122273
91,1686621949.04,25.879,-844.727,49.805,22.949,1326.932,381.6009626233405
92,1686621949.04,-0.488,-74.707,183.594,-3.906,1326.936,379.44921606395656
93,1686621949.04,-56.641,417.48,41.016,-59.082,1326.94,383.35387376442736
94,1686621949.05,-39.062,0.488,8.301,-41.504,1326.944,372.8297127051151
95,1686621949.05,31.25,407.715,72.266,20.996,1326.948,380.4055154267386
96,1686621949.06,25.391,556.641,-1.953,14.16,1326.965,387.8872609043369
97,1686621949.06,-45.898,51.758,-16.602,-48.828,1326.969,373.51485664455305
98,1686621949.07,-60.059,-398.438,65.918,-57.617,1326.973,372.3535920254377
99,1686621949.07,7.812,126.953,168.457,-11.719,1326.977,375.7910678610825
100,1686621949.07,34.18,675.293,60.059,2.93,1326.981,368.4307706754912
101,1686621949.08,-31.25,89.355,-40.039,-52.246,1326.985,373.95219769084883
102,1686621949.08,-63.477,-753.418,24.414,-71.289,1326.989,365.54853890817793
103,1686621949.08,-6.348,-136.23,246.094,-25.879,1326.993,381.2310478842022
104,1686621949.09,30.273,692.383,132.812,10.742,1326.997,378.4829903270388
105,1686621949.09,-20.508,394.531,-32.227,-26.367,1327.0,379.6155225749774
106,1686621949.1,-72.754,82.031,46.875,-76.66,1327.004,375.3738812907082
107,1686621949.1,21.973,570.801,41.504,-2.93,1327.012,378.7882552152073
108,1686621949.1,-38.574,307.617,67.871,-50.781,1327.008,374.3671959066219
109,1686621949.1,1.465,346.68,28.32,-18.066,1327.016,377.76649958862976
110,1686621949.11,-64.453,3.418,28.809,-69.824,1327.02,373.8749505584479
111,1686621949.11,-48.34,-57.617,44.434,-57.617,1327.023,368.670813884471
112,1686621949.12,24.902,341.309,80.078,7.812,1327.027,380.67069365074116
113,1686621949.12,14.16,68.848,-13.672,9.277,1327.031,374.141995458893
114,1686621949.12,-63.965,-919.922,-33.691,-55.176,1327.035,377.7660346929239
115,1686621949.13,-70.801,-497.559,250.977,-63.477,1327.039,370.104819513298
116,1686621949.13,-1.953,434.57,233.887,-0.977,1327.043,375.2343083560001
117,1686621949.14,24.902,181.152,-6.836,24.902,1327.047,372.42678841599854
118,1686621949.14,-23.926,63.477,104.98,-25.391,1327.051,373.4807741252145
119,1686621949.14,-59.57,371.582,82.031,-55.176,1327.055,374.9563119796921
120,1686621949.16,-10.742,351.074,44.922,-10.742,1327.059,367.45180951258743
121,1686621949.17,32.227,262.695,92.285,32.227,1327.063,380.5980603425906
122,1686621949.17,-8.301,367.188,59.57,1.953,1327.067,372.35460902296575
123,1686621949.17,-61.523,401.855,39.551,-50.781,1327.071,371.81081542736126
124,1686621949.18,-34.18,243.652,26.367,-29.785,1327.075,380.56432809320563
125,1686621949.18,18.555,-58.594,131.836,19.531,1327.079,375.03794407761706
126,1686621949.18,-0.488,-99.121,91.797,-6.836,1327.083,381.34268997569495
127,1686621949.19,-59.082,-82.52,22.461,-67.383,1327.086,373.86693588450294
128,1686621949.19,-51.758,-41.016,43.457,-60.547,1327.09,372.73879043566063
129,1686621949.2,0.488,-622.07,36.621,-6.348,1327.094,379.5211232366797
130,1686621949.2,6.836,-173.34,254.395,-6.348,1327.098,373.64971779758184
131,1686621949.2,-46.875,449.219,102.539,-63.965,1327.102,373.91364332135555
132,1686621949.2,-64.941,61.523,5.371,-83.496,1327.102,378.66902029953985
133,1686621949.21,-11.23,137.207,220.703,-23.438,1327.106,378.41483207207034
134,1686621949.21,16.113,497.07,121.094,4.883,1327.11,377.9990084159965
135,1686621949.22,-37.598,436.523,-1.465,-35.156,1327.114,372.56484551048703
136,1686621949.22,-75.684,-23.926,20.996,-68.848,1327.118,370.88587139518177
137,1686621949.22,-31.25,-180.664,68.359,-39.551,1327.121,381.5067382487134
138,1686621949.23,17.09,59.082,57.617,8.301,1327.125,378.76918845520964
139,1686621949.23,-8.789,71.777,20.996,-16.113,1327.129,373.2627745968372
140,1686621949.24,-73.73,-387.695,-59.57,-68.848,1327.133,372.7706054648642
141,1686621949.24,-62.012,-1000.0,46.387,-45.41,1327.137,374.6948535613704
142,1686621949.24,13.672,-203.613,325.195,8.789,1327.141,364.3086722792034
143,1686621949.25,7.324,538.086,132.324,-1.953,1327.145,375.6076596730352
144,1686621949.25,-62.988,20.996,-20.02,-54.688,1327.149,364.9830686210153
145,1686621949.26,-60.547,103.027,83.008,-60.547,1327.153,374.75066223473965
146,1686621949.26,10.742,552.734,72.754,-2.93,1327.157,376.91570649396414
147,1686621949.26,20.02,553.711,23.438,3.906,1327.161,372.33271126365656
148,1686621949.27,-45.898,116.211,67.871,-47.852,1327.165,371.51240068327803
149,1686621949.27,-72.266,-245.605,76.66,-69.336,1327.169,378.3497229920699
150,1686621949.28,-18.555,99.121,106.445,-33.203,1327.173,369.9917639493132
151,1686621949.28,20.996,399.414,18.555,-0.977,1327.177,379.5959678605369
152,1686621949.28,-24.902,-498.047,-2.441,-35.156,1327.181,368.4643468508666
153,1686621949.29,-62.988,-299.805,169.434,-82.031,1327.184,379.99582839781505
154,1686621949.29,-11.23,401.367,86.914,-54.688,1327.188,367.57144758344947
155,1686621949.3,40.527,159.18,13.184,-3.906,1327.192,375.26437982300257
156,1686621949.3,4.395,-49.316,74.219,-21.484,1327.192,373.9417874019537
157,1686621949.3,-52.734,206.055,70.801,-69.824,1327.196,373.73798643910146
158,1686621949.3,-38.086,334.961,29.785,-54.199,1327.2,373.97810412202995
159,1686621949.31,15.137,267.09,70.801,1.465,1327.204,379.4185405238942
160,1686621949.31,3.906,264.16,109.375,-8.789,1327.207,370.86570126448936
161,1686621949.32,-55.664,-43.457,29.785,-69.336,1327.211,366.02704899299306
162,1686621949.32,-53.223,-114.746,50.293,-63.477,1327.215,372.62272921130415
163,1686621949.32,10.742,-229.004,-3.418,0.0,1327.219,379.4573718575429
164,1686621949.33,17.09,-842.773,40.039,17.578,1327.223,369.4438315644395
165,1686621949.33,-44.434,-112.305,178.223,-40.039,1327.227,369.9645151306993
166,1686621949.33,-72.266,377.93,45.898,-65.918,1327.231,370.40246703247215
167,1686621949.34,-18.555,75.195,11.23,-13.184,1327.235,377.2127012823026
168,1686621949.34,32.715,420.41,48.34,19.043,1327.24,380.35799676045184
169,1686621949.34,-9.277,399.902,3.418,-24.414,1327.244,373.0243838737325
170,1686621949.35,-61.523,-137.207,0.0,-63.965,1327.248,369.18309771021217
171,1686621949.35,-29.297,-438.965,104.98,-35.156,1327.252,367.00345152654904
172,1686621949.36,25.391,181.641,201.172,9.277,1327.256,378.3439833155739
173,1686621949.36,2.441,333.008,26.855,-6.836,1327.26,376.41796643193874
174,1686621949.36,-59.082,-214.355,-40.039,-57.617,1327.264,378.33225335612195
175,1686621949.37,-53.223,-739.258,54.199,-44.434,1327.268,373.9137137870832
176,1686621949.37,19.531,-37.598,250.488,16.602,1327.272,381.4463376846112
177,1686621949.38,19.043,676.758,88.867,7.812,1327.276,369.90623053215666
178,1686621949.38,-47.363,192.383,-51.27,-53.711,1327.279,374.17375265781084
179,1686621949.38,-52.246,-8.301,64.941,-68.848,1327.283,366.12544951355557
180,1686621949.4,3.418,250.977,66.406,-19.043,1327.297,374.0927136486971
181,1686621949.4,23.926,468.75,29.785,14.648,1327.301,365.44378406735063
182,1686621949.41,-24.902,186.035,3.418,-28.809,1327.305,370.8264030551623
183,1686621949.41,-63.477,-105.469,50.781,-61.035,1327.309,375.62675957494486
184,1686621949.42,-14.16,-24.902,57.617,-16.602,1327.312,374.8115403278393
185,1686621949.42,30.273,123.535,40.039,26.367,1327.316,377.54420817399273
186,1686621949.42,-18.066,-140.625,-35.645,-6.836,1327.32,370.7796901921992
187,1686621949.43,-78.125,-973.145,-17.09,-58.594,1327.324,367.42096048917307
188,1686621949.43,-42.48,-509.766,281.738,-33.691,1327.328,376.6967666772649
189,1686621949.43,-43.457,390.625,60.059,-44.434,1327.356,369.12271569070964
190,1686621949.44,24.902,462.402,223.145,17.578,1327.332,367.12599420507445
191,1686621949.44,18.555,404.297,34.668,12.207,1327.36,373.6858758641752
192,1686621949.44,10.742,258.301,-16.602,-4.395,1327.336,365.49931732780936
193,1686621949.44,15.137,217.773,78.613,11.719,1327.364,365.0516867914959
194,1686621949.44,-48.34,243.652,56.641,-54.199,1327.368,373.0711994292716
195,1686621949.44,-54.688,171.387,19.531,-56.641,1327.34,372.45997309141814
196,1686621949.45,-76.172,279.297,21.973,-72.754,1327.372,372.27256766149435
197,1686621949.45,-25.391,23.926,38.574,-19.531,1327.375,368.4557482898092
198,1686621949.46,4.395,-237.793,128.906,-1.465,1327.379,372.8767308270692
199,1686621949.46,-40.039,-62.988,116.211,-49.805,1327.383,370.1912126514159
200,1686621949.46,-83.984,258.789,51.27,-84.961,1327.387,373.4032478278889
201,1686621949.47,-41.992,222.656,0.488,-43.945,1327.391,377.3476435986201
202,1686621949.47,7.812,-615.234,14.16,6.836,1327.395,365.50039375909665
203,1686621949.48,-21.973,-342.773,206.543,-23.926,1327.399,368.77936105855423
204,1686621949.48,-66.895,313.965,75.684,-69.824,1327.386,361.4209838044825
205,1686621949.48,-44.922,104.492,41.992,-44.922,1327.39,378.192695151878
206,1686621949.48,14.16,264.648,173.34,1.953,1327.394,374.32428318601563
207,1686621949.49,22.461,484.375,54.688,3.418,1327.398,375.23421982707333
208,1686621949.49,-37.598,303.223,-16.602,-52.734,1327.402,379.1438735000472
209,1686621949.5,-72.266,-258.301,6.348,-79.102,1327.406,374.0578770108545
210,1686621949.5,-20.996,-608.398,160.645,-11.23,1327.41,367.0243486802915
211,1686621949.5,5.371,117.188,187.012,8.789,1327.414,370.1226969960037
212,1686621949.51,-49.316,409.668,0.488,-38.086,1327.417,375.78959541137135
213,1686621949.51,-79.102,-193.359,-12.695,-41.504,1327.421,373.68994838154936
214,1686621949.51,-13.184,38.574,172.852,6.836,1327.425,372.9715348059838
215,1686621949.52,35.156,649.414,136.23,31.738,1327.429,368.79141252701953
216,1686621949.57,-10.254,513.672,-6.836,-15.625,1327.464,360.447135931558
217,1686621949.57,-57.617,-437.5,-23.438,-46.875,1327.468,369.3014554506581
218,1686621949.57,58.105,51.758,19.043,82.52,1327.475,375.2376756799158
219,1686621949.57,-15.625,-373.535,258.789,-5.859,1327.472,367.289408083037
220,1686621949.57,-2.93,-194.824,76.66,19.531,1327.479,372.8258089782963
221,1686621949.58,40.039,569.336,247.559,38.574,1327.476,373.5010883920305
222,1686621949.58,-25.391,110.352,72.754,-23.438,1327.483,376.597164501216
223,1686621949.58,5.859,454.102,-2.93,19.043,1327.48,378.748933193151
224,1686621949.58,29.785,411.621,57.617,36.621,1327.487,377.13954908245955
225,1686621949.59,62.012,248.535,44.922,80.566,1327.49,376.8541305852564
226,1686621949.59,-56.641,-343.75,38.574,-27.344,1327.483,368.52057616626615
227,1686621949.59,-25.879,-304.199,172.852,-8.789,1327.487,368.28076380160326
228,1686621949.59,6.348,-134.277,29.785,24.414,1327.494,370.09908763064976
229,1686621949.59,61.035,499.023,218.75,53.223,1327.491,370.52042381651086
230,1686621949.59,-46.875,-281.25,37.109,-18.555,1327.498,370.2592762692259
231,1686621949.6,57.617,415.527,-4.395,62.988,1327.495,359.9325705082162
232,1686621949.6,-10.742,-152.344,56.641,25.879,1327.502,365.1045453853687
233,1686621949.6,-10.254,-494.629,58.594,17.578,1327.499,378.5995487768842
234,1686621949.6,51.27,-106.934,34.18,69.336,1327.506,367.25247797627253
235,1686621949.6,25.391,56.641,116.699,34.668,1327.51,374.02608205460433
236,1686621949.6,-12.695,-106.934,279.785,5.371,1327.503,371.369355025506
237,1686621949.61,48.34,388.184,104.004,58.105,1327.507,364.4289680148103
238,1686621949.61,-42.969,277.344,95.215,-30.762,1327.514,370.3017925528176
239,1686621949.61,-29.297,216.797,41.016,-13.672,1327.518,369.99957535203305
240,1686621949.63,31.25,-54.688,26.367,50.781,1327.53,364.3177248558159
241,1686621949.63,18.555,138.184,37.109,38.086,1327.534,363.806921800683
242,1686621949.64,-39.062,84.961,18.555,-13.672,1327.538,366.47527619067847
243,1686621949.64,-41.504,-154.297,62.988,-14.648,1327.542,369.44230594212144
244,1686621949.64,20.508,-542.969,15.137,44.922,1327.546,369.5722774995188
245,1686621949.65,43.945,-1000.0,38.086,63.965,1327.55,372.3495236437264
246,1686621949.65,-6.348,-463.379,229.492,-3.418,1327.554,367.67597389782355
247,1686621949.66,-30.273,64.941,98.145,-36.133,1327.558,372.21010270347034
248,1686621949.66,13.184,21.484,98.633,1.465,1327.562,357.3955658099921
249,1686621949.66,47.852,478.516,179.199,23.438,1327.566,368.43671594397216
250,1686621949.67,0.977,570.801,26.367,-14.648,1327.57,364.20152251680355
251,1686621949.67,-19.043,74.707,109.863,-24.902,1327.567,358.1280050546615
252,1686621949.67,-52.246,89.844,-4.883,-54.199,1327.573,368.4802035876161
253,1686621949.68,40.527,556.152,95.703,25.879,1327.571,359.1930300202943
254,1686621949.68,17.09,596.68,3.418,10.254,1327.575,362.31034589688915
255,1686621949.68,-52.246,103.516,3.906,-46.387,1327.579,370.61955561983734
256,1686621949.69,-39.551,-75.684,66.406,-41.016,1327.583,373.9642010833111
257,1686621949.69,24.414,75.684,53.223,16.602,1327.586,370.75721128545104
258,1686621949.69,18.066,143.555,45.898,25.879,1327.59,361.8159913084997
259,1686621949.7,-50.781,-254.395,-28.32,-26.367,1327.594,372.3124436783389
260,1686621949.7,-72.754,-1000.0,27.344,-40.039,1327.598,373.8494293251276
261,1686621949.71,8.789,-382.812,340.82,5.859,1327.602,364.9594300262064
262,1686621949.71,46.387,503.418,201.172,12.207,1327.606,371.6949368239987
263,1686621949.71,-20.02,141.602,-40.527,-39.551,1327.61,366.94114563778714
264,1686621949.72,-63.477,104.492,45.898,-70.312,1327.614,373.9221154691515
265,1686621949.72,-18.066,413.086,67.871,-18.555,1327.618,370.9122945963129
266,1686621949.72,24.902,404.785,33.203,34.18,1327.622,366.1804182099678
267,1686621949.73,-17.578,141.113,79.102,-11.719,1327.626,367.4839978374943
268,1686621949.73,-75.195,96.191,63.477,-74.219,1327.63,364.9329520749094
269,1686621949.74,-41.992,25.879,47.852,-45.898,1327.633,374.3065691181052
270,1686621949.74,23.438,-26.855,43.945,0.0,1327.637,377.8371476704885
271,1686621949.74,-8.789,-646.484,3.418,-18.555,1327.641,372.46322386682107
272,1686621949.75,-76.172,-480.957,217.285,-74.219,1327.645,370.96014748475955
273,1686621949.75,-69.336,265.625,158.203,-62.012,1327.649,375.70107305895414
274,1686621949.76,-3.906,263.184,12.207,6.836,1327.653,383.7709083927025
275,1686621949.76,4.395,156.738,46.387,7.324,1327.657,369.21344922663167
276,1686621949.76,-58.594,248.047,47.363,-53.223,1327.657,373.8667380923874
277,1686621949.76,-71.289,256.348,24.902,-74.219,1327.661,378.47825747744963
278,1686621949.77,-0.488,138.184,52.246,-14.16,1327.665,377.5507651261
279,1686621949.77,40.527,270.508,165.527,30.762,1327.669,370.96251365461126
280,1686621949.78,-29.785,168.945,43.945,-29.785,1327.672,379.1757532076057
281,1686621949.78,-85.938,-132.324,12.695,-80.078,1327.676,374.35580334457273
282,1686621949.78,-38.574,-376.465,21.484,-36.133,1327.68,373.73936656220377
283,1686621949.79,6.348,-881.836,31.738,-2.441,1327.684,373.6527386001427
284,1686621949.79,-20.508,-191.406,212.402,-39.062,1327.688,362.46834770243606
285,1686621949.8,-75.195,200.195,82.031,-86.914,1327.692,372.00834952631095
286,1686621949.8,-49.316,-283.691,0.0,-61.523,1327.696,363.8033486865406
287,1686621949.8,32.715,111.328,112.793,-3.418,1327.7,385.1664617667868
288,1686621949.82,13.184,410.156,55.664,-14.648,1327.717,379.7943975807404
289,1686621949.82,-67.383,121.582,-28.809,-73.73,1327.721,380.38134463677767
290,1686621949.83,-59.57,-319.824,84.473,-68.848,1327.725,375.8541409001534
291,1686621949.83,13.184,90.332,248.535,-0.977,1327.729,376.8549673522169
292,1686621949.84,15.625,522.949,102.539,3.906,1327.733,377.7442393381396
293,1686621949.84,-49.316,-41.992,-36.133,-54.688,1327.737,381.1502528843591
294,1686621949.84,-78.125,-815.43,4.395,-66.895,1327.74,381.30269852126736
295,1686621949.85,-20.508,-282.227,279.297,-8.301,1327.744,388.1014895402311
296,1686621949.85,26.367,498.047,230.469,21.484,1327.748,378.9511200619012
297,1686621949.85,25.879,301.758,19.043,35.156,1327.762,380.5522080486051
298,1686621949.86,-25.391,241.211,-8.301,-26.367,1327.752,374.32614767147123
299,1686621949.86,-3.418,-119.629,26.855,-0.488,1327.765,377.4609651568959
300,1686621949.86,-61.035,-414.551,99.121,-70.801,1327.769,372.55057095296
301,1686621949.86,-81.543,-82.52,39.551,-64.453,1327.756,385.7727478268423
302,1686621949.86,-33.691,171.875,77.637,-19.531,1327.76,376.20816285106304
303,1686621949.86,-31.738,-7.324,103.516,-45.41,1327.773,379.99290424873215
304,1686621949.87,42.48,318.848,47.363,13.672,1327.777,382.15912774979194
305,1686621949.87,22.949,-141.602,19.531,-1.953,1327.781,384.09555779121496
306,1686621949.87,-46.875,-730.469,63.965,-58.105,1327.785,382.70569042058185
307,1686621949.88,-38.574,-462.402,109.863,-72.754,1327.789,380.03853978010505
308,1686621949.88,28.809,227.051,87.402,-16.113,1327.793,381.9159990912106
309,1686621949.89,39.062,-128.418,-31.25,17.578,1327.797,384.19954385073555
310,1686621949.89,-34.668,-590.332,133.301,-35.645,1327.801,385.56157472650654
311,1686621949.89,-64.453,32.227,164.062,-67.383,1327.805,376.02579050883014
312,1686621949.91,3.906,230.469,23.926,-21.973,1327.811,384.80742749868864
313,1686621949.92,44.922,58.105,92.285,4.395,1327.815,369.85934095820323
314,1686621949.92,-12.207,127.441,72.754,-37.109,1327.819,385.0179648339723
315,1686621949.92,-64.453,-46.387,39.551,-70.312,1327.823,373.5447986009992
316,1686621949.93,-22.949,-222.168,48.828,-39.551,1327.827,369.7957933022727
317,1686621949.93,29.297,-583.984,11.23,10.254,1327.831,378.384804011388
318,1686621949.94,1.465,-381.836,71.289,-8.789,1327.835,378.6633396180899
319,1686621949.94,-63.965,171.875,63.965,-71.289,1327.839,386.3577765634191
320,1686621949.94,-51.27,-33.691,-12.207,-60.059,1327.843,382.97956780039766
321,1686621949.95,16.602,-563.477,104.492,6.348,1327.847,374.28266242848446
322,1686621949.95,13.184,2.441,222.656,1.465,1327.851,377.53578198686097
323,1686621949.96,-46.875,290.527,27.344,-65.43,1327.854,374.9164976776856
324,1686621949.96,-55.664,-133.789,20.508,-75.195,1327.852,371.519189805035
325,1686621949.96,0.488,18.555,133.301,-6.348,1327.856,380.6874913828996
326,1686621949.96,17.578,370.117,67.871,10.742,1327.86,376.1940037015636
327,1686621949.97,-43.945,282.227,16.113,-48.828,1327.864,372.1315724213292
328,1686621949.97,-68.359,-166.504,13.184,-62.988,1327.868,374.006397630506
329,1686621949.98,-14.648,-369.141,81.543,-10.254,1327.872,371.53679240789586
330,1686621949.98,32.715,-88.867,72.754,27.344,1327.876,375.4829151615356
331,1686621949.98,-3.906,-83.496,33.691,-4.395,1327.88,382.31147912431766
332,1686621949.99,-71.289,-518.066,-20.508,-64.453,1327.884,361.5783164909603
333,1686621949.99,-45.898,-1000.0,51.758,-41.016,1327.887,375.4732997312318
334,1686621950.0,29.785,-356.445,335.938,18.555,1327.891,376.34945933816925
335,1686621950.0,20.508,335.449,185.547,4.395,1327.895,380.71198475489126
336,1686621950.0,-58.105,-93.262,3.906,-58.594,1327.899,365.79613793452035
337,1686621950.01,-55.176,5.371,82.031,-54.199,1327.903,376.0683849508479
338,1686621950.01,16.602,414.551,80.566,11.719,1327.907,369.56619069433157
339,1686621950.01,17.09,351.562,34.18,17.09,1327.911,365.2565648604436
340,1686621950.02,-50.293,-71.289,70.801,-42.48,1327.915,369.4971306067648
341,1686621950.02,-63.477,-301.758,58.105,-56.152,1327.919,372.9666808116387
342,1686621950.02,-12.695,-146.484,67.383,-20.02,1327.923,369.56321625914745
343,1686621950.03,21.973,-70.312,44.922,6.836,1327.926,378.937338127924
344,1686621950.03,-16.113,-778.809,6.836,-12.695,1327.93,369.89454044114717
345,1686621950.04,-70.801,-617.676,277.832,-74.707,1327.934,375.48759133488795
346,1686621950.04,-40.039,216.797,271.484,-55.664,1327.938,372.82363060786355
347,1686621950.04,8.301,293.457,57.617,-1.953,1327.942,371.42142119810217
348,1686621950.05,-35.645,108.398,35.645,-45.41,1327.942,378.75470092909023
349,1686621950.05,-105.957,119.141,59.57,-107.91,1327.946,367.9827639230059
350,1686621950.05,-76.66,208.984,48.828,-73.242,1327.95,367.3315506282739
351,1686621950.06,-5.371,201.172,55.664,-15.137,1327.954,372.2023246266264
352,1686621950.06,-16.113,85.938,108.398,-33.203,1327.958,374.0112469899803
353,1686621950.07,-79.59,-250.0,35.645,-83.008,1327.961,374.9940940141782
354,1686621950.07,-75.195,-254.395,50.293,-75.684,1327.965,366.44432410399895
355,1686621950.07,-11.719,-330.566,12.695,-8.789,1327.969,367.9996876143918
356,1686621950.08,-10.254,-893.066,32.227,9.766,1327.973,366.38044599469464
357,1686621950.08,-64.453,-304.688,195.801,-44.434,1327.977,368.36701475127
358,1686621950.08,-89.844,106.934,65.918,-74.707,1327.981,369.00592840365437
359,1686621950.09,-31.738,-225.098,8.301,-28.809,1327.985,372.5629181142669
360,1686621950.12,20.508,168.457,113.281,10.254,1328.018,370.17373109908243
361,1686621950.12,-28.32,436.523,61.035,-33.691,1328.022,366.1639693066801
362,1686621950.13,-88.867,60.547,6.836,-85.938,1328.026,371.1081032959349
363,1686621950.13,-42.48,-273.926,163.574,-53.711,1328.029,364.2710222667904
364,1686621950.14,16.113,146.484,229.98,0.977,1328.033,361.50098930949696
365,1686621950.14,-10.254,124.512,46.387,-18.555,1328.037,375.8385163817067
366,1686621950.14,-69.336,-362.793,0.977,-72.754,1328.041,364.8259089140781
367,1686621950.15,-50.293,-801.758,49.805,-45.898,1328.045,367.4196621482365
368,1686621950.15,34.668,-231.445,252.93,21.973,1328.049,367.6029167349805
369,1686621950.15,19.531,206.055,96.68,-13.672,1328.051,364.2880562260743
370,1686621950.16,42.969,273.438,0.0,19.531,1328.055,367.0555712097602
371,1686621950.16,24.902,409.668,118.652,-0.977,1328.053,359.46095627856545
372,1686621950.16,-30.762,-285.156,3.418,-26.855,1328.059,364.56265069311513
373,1686621950.16,-51.758,58.105,-39.062,-70.801,1328.057,373.30017693381103
374,1686621950.16,-52.734,-155.273,82.52,-79.59,1328.061,366.8577227480807
375,1686621950.16,-63.477,-458.984,156.25,-59.082,1328.063,365.2579909989436
376,1686621950.17,-0.488,7.812,135.742,-16.602,1328.067,360.21026731611704
377,1686621950.17,38.086,61.523,43.945,21.973,1328.07,365.46058661495886
378,1686621950.18,-13.672,-321.289,13.672,-19.531,1328.074,366.6319107294949
379,1686621950.18,-62.012,-501.953,183.105,-63.477,1328.078,359.3248408803332
380,1686621950.18,-20.996,41.504,287.109,-30.762,1328.082,367.23249260766863
381,1686621950.19,35.156,409.18,74.707,12.695,1328.086,362.53137022416047
382,1686621950.19,1.465,-226.562,-58.594,-24.414,1328.09,360.0187073756229
383,1686621950.2,-69.824,-555.664,208.496,-81.055,1328.094,374.20111470096987
384,1686621950.2,-41.504,67.383,260.254,-57.129,1328.094,374.3921214117953
385,1686621950.2,40.527,338.867,42.969,3.418,1328.098,368.8916014671371
386,1686621950.2,26.367,-397.949,-48.828,1.953,1328.101,364.29408549579466
387,1686621950.21,-49.805,-742.188,118.652,-63.477,1328.105,361.25112931336906
388,1686621950.21,-59.082,-270.996,128.418,-72.266,1328.109,370.0216881284096
389,1686621950.22,4.883,-243.652,11.719,-11.23,1328.113,367.9896198768138
390,1686621950.22,33.691,-300.781,151.855,5.859,1328.117,373.29529260623326
391,1686621950.22,-19.531,18.066,149.414,-43.457,1328.121,365.3929573226352
392,1686621950.23,-66.406,-64.941,69.824,-78.613,1328.136,373.0024667835987
393,1686621950.23,-46.875,129.395,50.293,-69.824,1328.125,372.2562209188883
394,1686621950.23,-23.926,-329.59,28.32,-44.434,1328.14,359.863327944605
395,1686621950.23,3.418,16.113,16.602,-28.32,1328.129,364.8424177645728
396,1686621950.23,45.898,19.043,228.027,8.301,1328.144,360.69742418256783
397,1686621950.24,34.668,-697.266,25.391,14.16,1328.133,365.0951990529984
398,1686621950.24,16.113,270.508,104.492,-11.23,1328.148,367.2109858899473
399,1686621950.24,-12.207,-452.637,245.605,-24.902,1328.137,362.7776855123557
400,1686621950.24,-55.176,125.977,0.977,-64.941,1328.152,374.3809557849328
401,1686621950.25,-45.898,-389.16,38.086,-60.059,1328.156,368.0503086308288
402,1686621950.25,28.32,-561.035,226.562,5.859,1328.16,366.8895455497885
403,1686621950.25,39.062,-152.344,135.742,10.254,1328.164,366.1876329738975
404,1686621950.26,-31.25,-128.418,16.602,-48.34,1328.168,368.77537957415245
405,1686621950.26,-68.359,-534.18,-15.137,-64.453,1328.171,374.35501056112463
406,1686621950.26,-13.184,-956.543,61.523,-13.672,1328.175,363.2371444687257
407,1686621950.27,32.227,-112.305,262.207,7.324,1328.179,372.46214242103923
408,1686621950.29,-23.926,314.941,64.941,-38.086,1328.184,373.5167811411351
409,1686621950.29,-74.219,-206.543,14.16,-70.312,1328.188,368.5514267321025
410,1686621950.3,-19.531,35.156,91.797,-30.273,1328.192,363.87190036880764
411,1686621950.3,21.484,461.914,46.875,10.254,1328.196,373.1556325242167
412,1686621950.3,-19.043,238.77,-6.836,-27.832,1328.2,365.3726259764037
413,1686621950.31,-74.707,-505.859,48.34,-84.473,1328.204,371.0914617864624
414,1686621950.31,-51.758,-387.207,135.742,-55.176,1328.208,366.76345926912444
415,1686621950.31,13.672,355.469,91.797,12.207,1328.211,368.6013409519261
416,1686621950.32,-0.488,172.852,-64.941,-1.465,1328.215,362.7221925166572
417,1686621950.32,-67.871,-780.762,-16.113,-56.641,1328.219,367.3028651489935
418,1686621950.33,-65.43,-427.734,243.164,-52.246,1328.223,364.8954729612953
419,1686621950.33,3.906,331.543,138.672,9.277,1328.227,364.7995844945393
420,1686621950.33,13.184,168.945,4.883,19.531,1328.227,366.6906478012046
421,1686621950.33,-55.176,-196.289,28.809,-40.527,1328.231,377.44639413846596
422,1686621950.34,-80.566,-82.52,50.781,-62.988,1328.234,363.82076641135853
423,1686621950.34,-17.578,176.27,74.219,-20.508,1328.238,376.9250527833379
424,1686621950.35,17.578,78.125,17.578,7.324,1328.242,372.71118661150695
425,1686621950.35,-29.297,-292.48,-4.395,-20.996,1328.246,363.92733405023483
426,1686621950.35,-65.918,-546.387,32.227,-60.059,1328.25,364.5830716095341
427,1686621950.36,-51.27,-343.262,68.359,-51.27,1328.254,367.79457462434016
428,1686621950.36,-15.137,-367.188,-27.832,-12.207,1328.258,374.38692971783104
429,1686621950.36,-33.203,-923.828,13.672,-20.508,1328.262,361.9317783213153
430,1686621950.37,-76.66,-377.441,175.781,-63.477,1328.266,369.8880514955277
431,1686621950.37,-50.781,78.125,59.57,-46.875,1328.27,369.1449237679499
432,1686621950.38,7.812,-197.266,-13.184,7.812,1328.274,368.07930000705136
433,1686621950.38,1.465,80.566,42.48,-7.324,1328.278,367.0771335889523
434,1686621950.38,-61.523,239.258,24.414,-71.289,1328.282,370.82686688862026
435,1686621950.39,-66.895,-0.488,6.836,-60.547,1328.286,365.7651702599789
436,1686621950.39,1.953,-269.531,127.441,5.859,1328.289,367.2675876232822
437,1686621950.4,17.578,-234.863,104.004,20.02,1328.293,366.34434637754043
438,1686621950.4,-42.48,-68.359,51.758,-37.598,1328.297,369.5710734729782
439,1686621950.4,-60.547,-125.0,3.906,-64.941,1328.301,374.2251224478736
440,1686621950.41,-9.277,-760.742,17.578,-2.93,1328.305,359.97464265913675
441,1686621950.41,33.691,-239.258,254.395,39.551,1328.309,362.6131110695904
442,1686621950.42,-4.395,307.617,93.75,-19.531,1328.313,367.90307041385665
443,1686621950.42,-61.523,-147.461,-21.973,-75.195,1328.317,372.0408375918818
444,1686621950.42,-20.02,-138.672,116.699,-31.738,1328.32,372.1109947529952
445,1686621950.42,45.898,251.953,74.219,18.555,1328.324,365.22246037176643
446,1686621950.43,16.602,82.52,-34.668,-16.113,1328.328,365.68390468456755
447,1686621950.43,-44.434,-428.711,11.23,-59.082,1328.332,363.55951855410683
448,1686621950.44,-33.203,-505.371,217.773,-38.574,1328.336,369.7442186759377
449,1686621950.44,23.438,-189.453,178.223,15.137,1328.339,359.9425293781566
450,1686621950.44,6.836,-128.906,26.367,6.348,1328.343,358.66486032922097
451,1686621950.45,-56.641,-533.691,-39.551,-38.086,1328.347,356.5066669009998
452,1686621950.45,-63.965,-973.145,37.109,-37.598,1328.351,363.09352272434285
453,1686621950.46,-3.418,-175.293,254.395,5.371,1328.355,359.90763370544056
454,1686621950.46,19.531,411.133,102.539,18.555,1328.359,364.8050270063404
455,1686621950.46,-37.109,-143.555,-51.27,-30.273,1328.363,354.3752456298903
456,1686621950.47,-66.895,-186.523,64.941,-56.152,1328.364,364.70213184008566
457,1686621950.47,-10.254,202.148,96.191,-13.672,1328.368,364.113883224062
458,1686621950.48,35.645,236.328,34.18,20.508,1328.372,358.57729907313336
459,1686621950.48,-6.836,-120.117,104.492,-6.348,1328.376,358.83495912433443
460,1686621950.48,-59.57,-215.332,77.148,-50.781,1328.38,356.4012976147185
461,1686621950.49,-26.855,-204.59,46.875,-25.391,1328.384,359.6624587348227
462,1686621950.49,34.668,-227.539,46.875,31.25,1328.388,361.13875455362603
463,1686621950.49,10.254,-786.133,8.301,14.648,1328.392,350.10548868682713
464,1686621950.5,-57.617,-713.867,256.348,-51.27,1328.396,363.7336852541416
465,1686621950.5,-50.781,-25.391,203.125,-50.781,1328.399,347.4184208369269
466,1686621950.51,11.719,93.262,26.367,-1.465,1328.403,346.45224559635074
467,1686621950.51,18.066,78.613,62.988,-9.766,1328.407,351.36648220609413
468,1686621950.51,-41.016,93.262,59.082,-64.453,1328.407,352.290963370004
469,1686621950.52,-62.5,35.645,39.551,-76.172,1328.411,357.86504009303
470,1686621950.52,-3.418,-79.102,80.566,-12.207,1328.415,351.0215524127374
471,1686621950.52,39.062,58.105,158.691,32.227,1328.418,353.18636487368275
472,1686621950.53,-21.484,41.992,31.738,-16.602,1328.422,361.10613302404784
473,1686621950.53,-70.312,-351.074,34.18,-52.246,1328.426,358.64764632872624
474,1686621950.53,-16.113,-567.383,35.645,2.441,1328.43,360.9072099869892
475,1686621950.54,29.785,-933.594,27.344,38.574,1328.434,351.5481392083394
476,1686621950.54,-5.859,-442.383,250.488,-14.16,1328.438,356.06687126558745
477,1686621950.55,-60.547,61.035,104.98,-66.895,1328.442,362.1325045764033
478,1686621950.55,-42.48,-389.16,-25.879,-29.297,1328.446,346.87969203867544
479,1686621950.55,19.043,-197.754,185.547,27.832,1328.45,365.9560349504454
480,1686621950.57,13.672,295.41,111.328,3.906,1328.467,356.25822006246784
481,1686621950.57,-49.316,36.621,-16.602,-56.152,1328.471,362.79834468336077
482,1686621950.58,-50.781,-349.609,135.742,-50.293,1328.475,368.56847176915807
483,1686621950.58,15.625,12.207,199.219,3.906,1328.479,354.8151547656922
484,1686621950.59,26.855,274.902,35.645,11.719,1328.482,371.869401055821
485,1686621950.59,-40.527,-268.555,-37.598,-48.34,1328.486,355.201721351219
486,1686621950.59,-69.336,-868.164,29.785,-69.824,1328.49,365.96420534570694
487,1686621950.6,-4.883,-314.453,240.234,-5.859,1328.494,375.64895685258693
488,1686621950.6,27.832,357.422,120.117,25.879,1328.498,378.3908491028686
489,1686621950.6,34.18,303.223,52.734,21.484,1328.526,375.21417283881505
490,1686621950.6,-27.344,11.23,-42.969,-31.25,1328.502,376.817576943963
491,1686621950.6,-6.836,-42.969,-13.672,-6.348,1328.53,371.49332453907573
492,1686621950.61,-72.266,-499.023,28.32,-73.73,1328.506,372.52439348680787
493,1686621950.61,-77.148,-600.586,58.594,-62.5,1328.534,376.7097762065796
494,1686621950.61,-44.434,-164.062,107.422,-40.527,1328.538,381.0716868928361
495,1686621950.61,-23.438,-163.086,89.355,-33.203,1328.51,381.4180649649175
496,1686621950.62,21.973,235.84,34.18,8.301,1328.542,376.31570303486217
497,1686621950.62,3.418,-262.695,-6.348,-4.395,1328.546,376.8033679048873
498,1686621950.62,-59.57,-861.328,46.875,-56.641,1328.55,390.37257966223984
499,1686621950.63,-60.547,-558.594,124.023,-57.129,1328.554,392.16133864401
500,1686621950.63,7.812,142.09,86.426,0.0,1328.558,379.5181437972443
501,1686621950.64,21.973,-246.582,-52.246,18.066,1328.561,384.12004319871204
502,1686621950.64,-45.41,-730.469,95.703,-35.156,1328.565,388.30040745060376
503,1686621950.64,-68.848,-173.828,141.602,-57.617,1328.569,382.3805135314675
504,1686621950.68,-12.207,-127.93,10.254,-15.137,1328.574,380.64567202426457
505,1686621950.68,22.461,-387.695,14.648,9.277,1328.578,383.9432869751236
506,1686621950.68,-21.484,-140.625,38.086,-28.32,1328.582,389.65681014937746
507,1686621950.69,-65.43,14.648,51.758,-62.012,1328.586,394.00280145396505
508,1686621950.69,-32.227,-77.637,39.551,-34.18,1328.589,379.42639085642605
509,1686621950.7,17.09,-589.844,51.27,18.555,1328.593,395.78515172906333
510,1686621950.7,-8.789,-504.395,92.773,-5.371,1328.597,379.4104718058565
511,1686621950.7,-63.965,-21.484,51.27,-62.988,1328.601,380.61335988077985
512,1686621950.7,-63.965,-307.617,-9.766,-58.594,1328.602,387.9624991970713
513,1686621950.71,-45.41,-174.805,-5.371,-43.945,1328.605,388.40655428884503
514,1686621950.71,2.93,-581.543,172.852,0.0,1328.606,389.48678273343137
515,1686621950.71,1.465,-390.625,115.723,0.977,1328.609,395.93405289868906
516,1686621950.71,3.906,-94.727,200.195,-3.906,1328.61,376.8186720872871
517,1686621950.72,0.0,-55.176,124.512,-12.207,1328.613,378.28213691689325
518,1686621950.72,-52.734,-125.0,6.348,-60.547,1328.614,373.99396727121587
519,1686621950.72,-54.199,80.566,16.113,-59.57,1328.617,387.56355649613437
520,1686621950.72,-74.707,-610.352,18.066,-79.102,1328.618,379.096299794877
521,1686621950.72,-29.297,-767.578,152.832,-19.531,1328.622,389.94304565922914
522,1686621950.73,23.438,-378.906,190.43,27.344,1328.626,390.3033969231291
523,1686621950.73,-12.207,-120.117,32.227,-24.414,1328.629,387.7496581066794
524,1686621950.74,-74.707,-483.398,-14.16,-81.055,1328.633,386.98204612551274
525,1686621950.74,-39.062,-440.918,221.68,-45.898,1328.637,380.341615923996
526,1686621950.74,24.414,197.754,223.145,10.254,1328.641,378.83332120257
527,1686621950.75,-2.93,248.535,23.926,-15.137,1328.645,386.67432039110184
528,1686621950.75,-75.684,-604.492,-109.863,-75.195,1328.661,383.12116726663027
529,1686621950.76,-67.383,-1000.0,81.055,-63.965,1328.665,380.7726178418235
530,1686621950.76,11.23,-89.844,303.223,-5.371,1328.669,373.40581541633304
531,1686621950.76,14.648,249.023,88.867,7.324,1328.673,385.51255991453587
532,1686621950.77,-46.875,-296.387,60.059,-40.039,1328.677,380.0862718489963
533,1686621950.77,-56.152,-497.559,82.52,-49.805,1328.68,381.4111595589159
534,1686621950.78,9.277,-255.859,65.43,10.254,1328.684,390.1985233088119
535,1686621950.78,41.016,-178.711,26.855,34.18,1328.688,377.57677936936875
536,1686621950.78,-26.855,-808.105,-10.254,-18.066,1328.692,375.8160345078429
537,1686621950.79,-65.43,-674.805,267.578,-55.664,1328.696,377.85972269758514
538,1686621950.79,-10.254,83.984,237.305,-15.625,1328.7,374.8252554299842
539,1686621950.8,26.367,163.086,20.508,27.344,1328.704,373.3020233301061
540,1686621950.8,-19.531,-7.812,44.434,-0.977,1328.692,366.37002893577625
541,1686621950.8,-66.895,-28.32,48.34,-49.805,1328.696,374.522067620499
542,1686621950.8,-25.391,24.414,30.762,-23.926,1328.7,371.54465311615513
543,1686621950.81,39.062,1.465,65.918,34.668,1328.704,367.46078792470223
544,1686621950.81,10.254,-99.121,100.098,2.441,1328.708,376.2786984790677
545,1686621950.82,-53.711,-420.898,18.555,-57.617,1328.711,362.13539053224395
546,1686621950.82,-41.016,-484.375,49.805,-47.852,1328.715,368.5511937000754
547,1686621950.82,13.672,-496.582,16.602,5.371,1328.719,375.8087926485263
548,1686621950.83,16.602,-922.852,12.207,13.672,1328.723,362.4798831070565
549,1686621950.83,-41.504,-475.098,232.422,-48.34,1328.727,368.41117892611874
550,1686621950.84,-66.406,19.043,111.816,-70.801,1328.731,374.1326385810723
551,1686621950.84,-17.578,-405.273,-31.738,-7.324,1328.735,363.26168778782016
552,1686621950.84,15.137,-327.148,174.805,20.508,1328.742,376.499311538805
553,1686621950.85,-23.926,141.113,105.957,-32.227,1328.746,370.0922940623663
554,1686621950.85,-66.895,-90.332,-6.836,-71.289,1328.75,373.90146998616626
555,1686621950.86,-20.996,-270.508,165.039,-30.762,1328.754,374.2386637791589
556,1686621950.86,34.18,95.703,190.918,14.648,1328.758,372.8969993697178
557,1686621950.86,-14.16,-108.887,21.973,-26.367,1328.762,378.94831040373134
558,1686621950.87,-68.359,-581.055,-20.508,-75.195,1328.766,376.43126028849053
559,1686621950.87,-43.457,-856.934,19.531,-43.945,1328.77,371.7820354954194
560,1686621950.87,17.578,-245.117,217.773,3.418,1328.773,374.472234732401
561,1686621950.88,5.371,307.129,98.145,-16.113,1328.777,373.4824766267765
562,1686621950.88,-62.012,-134.766,-35.645,-70.801,1328.781,382.1406959842916
563,1686621950.88,-2.441,-31.25,104.004,-19.043,1328.782,375.4902991161785
564,1686621950.89,-61.035,-488.77,69.824,-66.895,1328.785,373.7836565936997
565,1686621950.89,1.953,270.996,29.785,-11.719,1328.786,376.84704207872056
566,1686621950.89,-57.129,-174.805,-3.418,-59.57,1328.79,387.0838480608614
567,1686621950.9,-73.242,-433.594,73.242,-77.637,1328.794,383.0028878137785
568,1686621950.9,-9.766,-61.035,76.66,-20.508,1328.798,386.4199141789136
569,1686621950.9,25.391,-46.875,34.668,12.207,1328.802,379.0024648093323
570,1686621950.91,-30.762,-446.777,-10.742,-34.668,1328.805,394.55376184243187
571,1686621950.91,-84.961,-1000.0,5.371,-76.172,1328.809,382.6911832067521
572,1686621950.92,-41.016,-680.664,264.16,-48.828,1328.813,389.3576788875469
573,1686621950.92,17.578,144.531,254.883,-3.906,1328.817,389.06099357440957
574,1686621950.92,-15.137,-71.289,-9.766,-25.879,1328.821,397.74670762132587
575,1686621950.93,-71.777,-174.316,15.625,-86.426,1328.825,384.2335026183897
576,1686621950.95,-46.875,109.863,79.59,-70.312,1328.848,390.76296367375244
577,1686621950.95,19.531,57.617,2.93,1.465,1328.852,400.62575385762455
578,1686621950.96,2.441,-490.723,-35.645,-3.906,1328.856,389.0118831700857
579,1686621950.96,-58.594,-346.68,37.598,-67.383,1328.86,390.61229161359995
580,1686621950.96,-59.082,35.645,62.012,-65.918,1328.864,393.71218895205567
581,1686621950.97,-4.395,-260.742,1.953,11.23,1328.868,388.62899272823967
582,1686621950.97,18.066,-799.316,21.973,42.969,1328.872,390.4756374243681
583,1686621950.98,-41.992,-446.777,164.062,-40.527,1328.875,380.6386938474052
584,1686621950.98,-80.078,-10.254,-0.488,-80.566,1328.887,396.6757606966222
585,1686621950.98,-79.59,35.156,57.129,-82.52,1328.879,391.7613010142843
586,1686621950.98,-34.18,-177.246,20.508,-48.34,1328.89,384.48193040173277
587,1686621950.98,-23.438,-32.715,8.789,-25.879,1328.883,392.668011267647
588,1686621950.98,24.414,-51.758,105.957,3.906,1328.894,379.7084163333463
589,1686621950.99,-10.254,52.246,29.785,-25.391,1328.898,389.8923165077872
590,1686621950.99,12.695,-26.855,66.406,2.441,1328.887,388.2567483099341
591,1686621950.99,-74.219,-305.664,-28.32,-77.148,1328.902,384.18228040305473
592,1686621950.99,-36.621,83.496,35.645,-37.109,1328.891,388.8224174731656
593,1686621951.0,-42.48,-581.055,38.574,-59.082,1328.906,374.9765484264412
594,1686621951.0,27.832,-472.168,64.453,-4.395,1328.91,380.48330755030355
595,1686621951.0,25.391,-296.875,34.668,-1.953,1328.914,385.3346615614187
596,1686621951.01,-39.062,-176.758,20.02,-49.805,1328.918,378.61176493181443
597,1686621951.01,-60.059,-539.551,-55.664,-57.617,1328.922,379.8638491097512
598,1686621951.01,-4.883,-1000.0,56.641,-6.348,1328.926,380.5451340357723
599,1686621951.02,17.09,-399.414,288.574,5.371,1328.929,376.64164273395426
600,1686621951.04,-37.598,70.801,76.172,-44.434,1328.934,359.0986549932233
601,1686621951.04,-70.312,-424.316,-19.043,-77.148,1328.938,375.21890532211427
602,1686621951.04,-16.113,-148.438,80.566,-35.156,1328.942,367.47621832834034
603,1686621951.05,29.785,332.031,41.992,8.789,1328.946,362.58522452713066
604,1686621951.05,-14.16,90.82,-18.555,-22.461,1328.95,362.8534152475191
605,1686621951.06,-78.125,-628.418,90.332,-69.824,1328.953,350.29864993250345
606,1686621951.06,-48.34,-632.812,144.043,-42.48,1328.957,347.9843450851091
607,1686621951.06,19.531,-102.539,89.355,12.695,1328.961,339.6626800771958
608,1686621951.07,0.0,-30.762,-5.859,-9.277,1328.965,352.05235622728844
609,1686621951.07,-72.266,-769.531,-16.113,-65.43,1328.969,348.5843249612364
610,1686621951.08,-56.152,-501.465,225.098,-59.082,1328.973,340.6901154398705
611,1686621951.08,23.438,226.562,138.672,1.465,1328.977,348.51211262951546
612,1686621951.08,29.297,134.277,-11.23,3.906,1328.977,341.7934613683533
613,1686621951.08,-36.621,-121.582,24.902,-43.457,1328.981,341.7067275760515
614,1686621951.09,-57.617,-37.598,56.152,-56.152,1328.985,345.97842718578363
615,1686621951.09,4.883,162.598,48.828,-12.207,1328.989,341.8143035250124
616,1686621951.1,35.156,-26.367,14.16,17.09,1328.993,345.95200115402855
617,1686621951.1,-21.973,-399.902,15.625,-28.809,1328.997,363.0958474282324
618,1686621951.1,-68.848,-566.895,22.949,-62.5,1329.0,358.27874903691935
619,1686621951.11,-20.02,-383.301,69.824,-24.902,1329.004,347.0142059421842
620,1686621951.11,35.156,-355.957,-18.066,9.766,1329.008,356.0493352823018
621,1686621951.12,-11.719,-965.332,-37.109,-21.973,1329.012,354.7041487806531
622,1686621951.12,-75.684,-642.578,245.605,-73.242,1329.016,352.6109755214919
623,1686621951.12,-45.41,24.414,219.727,-55.664,1329.02,346.84002740500273
624,1686621951.13,15.625,-40.039,3.906,1.465,1329.024,353.71170842511776
625,1686621951.13,-0.977,40.039,11.23,-11.719,1329.028,364.1904932298952
626,1686621951.14,-64.453,80.078,19.531,-62.5,1329.032,372.4814095055623
627,1686621951.14,-62.988,-56.152,25.879,-53.223,1329.036,368.12794683179794
628,1686621951.14,0.488,-125.488,114.258,0.0,1329.039,377.4833867724646
629,1686621951.15,13.672,-227.539,65.43,1.953,1329.043,380.44798282398807
630,1686621951.15,-56.152,-271.973,38.086,-61.523,1329.047,380.97191605223736
631,1686621951.15,-80.078,-228.516,13.184,-76.172,1329.051,385.15831834291663
632,1686621951.16,-23.438,-754.883,29.297,-15.137,1329.055,400.096414969037
633,1686621951.16,10.742,-316.895,206.543,9.277,1329.059,404.832465596997
634,1686621951.17,-34.668,246.582,67.871,-40.039,1329.063,405.4727993557644
635,1686621951.17,-76.172,-211.426,-21.973,-73.242,1329.067,412.0651023639622
636,1686621951.17,-35.156,-382.324,79.102,-21.973,1329.067,410.7953598825714
637,1686621951.18,17.578,155.762,85.449,22.949,1329.071,414.64690110194016
638,1686621951.18,-12.207,315.918,4.883,-10.742,1329.075,413.7788115797892
639,1686621951.18,-74.707,-231.445,15.137,-62.988,1329.079,424.29805124656326
640,1686621951.19,-54.199,-563.965,116.211,-43.945,1329.082,427.553282178198
641,1686621951.19,8.301,-231.934,79.102,9.277,1329.086,420.25806243728135
642,1686621951.19,-9.277,-81.055,27.832,-6.836,1329.09,422.28592080900535
643,1686621951.2,-77.148,-490.723,-39.062,-64.453,1329.094,434.6388117839837
644,1686621951.2,-77.148,-972.656,8.301,-62.5,1329.098,434.7827524243959
645,1686621951.21,-8.789,-195.801,264.16,-10.254,1329.102,431.86337348870296
646,1686621951.21,6.348,408.691,106.445,-1.465,1329.106,441.14864691152803
647,1686621951.21,-56.641,-122.559,-62.5,-52.734,1329.11,444.02728776924494
648,1686621951.23,-86.914,-151.855,43.457,-72.754,1329.129,448.9970556445164
649,1686621951.24,-28.809,261.719,69.824,-23.438,1329.133,453.773824050965
650,1686621951.24,13.672,185.547,-9.766,9.766,1329.137,438.8170922701098
651,1686621951.24,-36.621,-452.148,-31.738,-39.062,1329.141,450.56143264539503
652,1686621951.25,-90.82,-345.703,48.828,-83.008,1329.144,447.34644346596843
653,1686621951.25,-50.293,-116.211,66.406,-40.039,1329.148,451.91315636632913
654,1686621951.26,15.625,-179.688,9.766,17.09,1329.152,448.89257590004445
655,1686621951.26,-17.09,-669.434,-18.066,-9.277,1329.156,445.34740087620037
656,1686621951.26,-46.875,66.895,45.898,-45.898,1329.157,441.2454743532976
657,1686621951.26,-71.289,-431.152,179.688,-71.289,1329.16,445.1103876108912
658,1686621951.26,-61.523,119.141,38.086,-60.059,1329.161,442.76261800287364
659,1686621951.27,-41.016,197.266,130.371,-53.711,1329.164,431.69703889658035
660,1686621951.27,7.324,49.805,82.031,-8.789,1329.165,433.14647634253316
661,1686621951.27,22.949,174.805,16.602,7.812,1329.168,442.8844990240533
662,1686621951.27,42.48,113.77,162.109,14.16,1329.169,442.0514641301807
663,1686621951.28,18.555,57.129,44.434,8.789,1329.172,446.0178400778108
664,1686621951.28,-14.16,72.754,29.785,-31.25,1329.172,443.33807984003073
665,1686621951.28,-69.336,-304.199,-2.93,-79.59,1329.176,428.30071681004307
666,1686621951.28,-31.738,-376.953,52.246,-50.781,1329.18,426.52452125886566
667,1686621951.29,18.066,-230.469,48.34,3.418,1329.184,427.7860251760818
668,1686621951.29,-23.438,-183.594,23.438,-24.902,1329.188,436.27997788447215
669,1686621951.3,-67.383,-66.895,29.297,-60.547,1329.192,428.10632010062614
670,1686621951.3,-30.273,-368.652,-38.086,-20.508,1329.196,432.11036366676865
671,1686621951.3,11.719,-992.676,41.504,17.09,1329.2,422.0505540239326
672,1686621951.32,-9.766,-354.004,254.395,-11.719,1329.218,400.8507191623448
673,1686621951.32,-62.988,100.586,61.523,-59.57,1329.222,401.1874870778909
674,1686621951.33,-51.758,-290.039,73.242,-52.734,1329.226,411.60617602469205
675,1686621951.33,19.043,120.117,243.164,-5.859,1329.23,407.83873665729834
676,1686621951.34,18.555,465.332,84.961,-2.441,1329.234,396.1106009865384
677,1686621951.34,-53.223,-109.863,-43.457,-57.617,1329.238,390.4769764264588
678,1686621951.34,-64.453,-800.293,15.137,-65.43,1329.241,400.8663293725968
679,1686621951.35,7.812,-389.648,247.07,1.953,1329.245,404.9148456564265
680,1686621951.35,37.598,442.383,83.008,21.484,1329.261,392.4076017374645
681,1686621951.35,30.762,204.59,162.109,30.273,1329.249,389.33776267987054
682,1686621951.35,-3.906,171.387,3.906,-10.742,1329.265,382.7137570512508
683,1686621951.36,-25.391,33.691,-42.48,-22.461,1329.253,383.71802677891606
684,1686621951.36,-56.152,-113.281,64.453,-59.082,1329.269,389.77576416450506
685,1686621951.36,-58.594,-495.117,139.16,-61.035,1329.257,386.092742638371
686,1686621951.36,-18.066,100.586,87.891,-26.855,1329.273,380.9593675915365
687,1686621951.36,-10.742,-31.738,275.391,-26.367,1329.261,380.96442780109726
688,1686621951.37,34.668,294.434,32.227,22.949,1329.277,374.65285901898665
689,1686621951.37,4.883,-180.664,-5.859,5.371,1329.281,387.9199209765216
690,1686621951.37,-58.594,-800.781,53.223,-47.363,1329.285,383.3972181537238
691,1686621951.38,-55.176,-444.824,152.344,-43.945,1329.289,375.50989005542147
692,1686621951.38,11.719,300.781,123.535,12.207,1329.292,371.7126906336583
693,1686621951.38,26.367,-82.52,-54.199,27.832,1329.296,372.012966942
694,1686621951.39,-38.574,-957.031,12.207,-30.273,1329.3,377.62929993751766
695,1686621951.39,-56.152,-338.379,254.395,-60.059,1329.304,373.500224804209
696,1686621951.41,10.742,281.25,161.621,-3.906,1329.309,368.1584767912892
697,1686621951.42,31.25,-25.879,-6.348,17.578,1329.313,360.91143915122103
698,1686621951.42,-27.344,16.602,41.992,-29.297,1329.317,350.21202224272804
699,1686621951.42,-60.547,178.223,57.617,-65.918,1329.321,357.09492928483894
700,1686621951.43,-12.695,107.422,33.203,-34.668,1329.325,352.8336443342023
701,1686621951.43,30.273,-202.148,118.164,5.859,1329.328,352.80449878653025
702,1686621951.44,-4.883,-193.848,127.441,-31.738,1329.332,349.3192475794203
703,1686621951.44,-63.477,88.867,64.453,-88.867,1329.336,359.7188528184874
704,1686621951.44,-44.922,2.441,4.395,-56.641,1329.34,355.35756903656994
705,1686621951.45,13.672,-492.188,92.285,6.348,1329.344,350.9537407929333
706,1686621951.45,0.0,-20.508,227.539,-11.719,1329.348,349.5585627982556
707,1686621951.46,-57.617,273.438,43.457,-70.312,1329.352,342.26844034814076
708,1686621951.46,-66.895,-177.734,-16.602,-63.965,1329.355,344.09493202087964
709,1686621951.46,-1.953,-226.562,137.207,2.441,1329.359,345.4758551684853
710,1686621951.46,27.832,230.957,166.504,11.719,1329.363,350.08321947811305
711,1686621951.47,-36.133,286.133,18.555,-45.41,1329.367,350.6482752263184
712,1686621951.47,-71.289,-192.383,6.836,-64.941,1329.371,348.6691919961404
713,1686621951.48,-12.207,-412.109,171.387,-18.066,1329.375,347.61918795391165
714,1686621951.48,18.066,-145.02,173.34,3.906,1329.379,343.720480431731
715,1686621951.48,-35.645,-68.848,38.574,-45.898,1329.383,358.4971507784791
716,1686621951.49,-79.59,-430.664,-22.949,-78.613,1329.387,351.1490380047982
717,1686621951.49,-38.086,-949.219,70.801,-32.715,1329.391,345.177177174088
718,1686621951.5,20.996,-149.414,268.066,23.438,1329.394,347.57324529255686
719,1686621951.5,2.93,383.789,81.543,-2.441,1329.398,352.4511116572585
720,1686621951.5,-62.988,-229.492,-48.34,-54.688,1329.399,350.31170913199793
721,1686621951.51,-46.875,-72.754,83.984,-38.574,1329.403,343.94642547432693
722,1686621951.51,21.973,418.457,53.223,17.578,1329.407,345.1488261578697
723,1686621951.51,13.672,166.992,-21.973,14.16,1329.411,356.1894965598391
724,1686621951.52,-51.27,-266.113,100.586,-53.223,1329.414,342.7597278581588
725,1686621951.52,-57.617,-385.742,91.309,-76.172,1329.418,348.3846756963744
726,1686621951.52,-0.488,-79.59,90.332,-16.113,1329.422,349.60527708439355
727,1686621951.53,18.555,189.453,24.902,6.836,1329.426,350.292700955801
728,1686621951.53,-41.992,-720.703,-66.895,-45.41,1329.43,354.937693657555
729,1686621951.54,-68.359,-696.777,190.918,-77.637,1329.434,356.6498714913012
730,1686621951.54,-2.93,281.25,225.098,-24.902,1329.438,357.4747029462927
731,1686621951.54,48.34,279.785,10.742,24.414,1329.442,344.7666509330289
732,1686621951.54,3.906,-143.555,24.414,-18.066,1329.442,353.81090973748036
733,1686621951.55,-58.105,-2.441,73.242,-75.195,1329.446,362.54916249107225
734,1686621951.55,-19.531,190.918,37.109,-37.109,1329.45,358.0369837190746
735,1686621951.56,33.691,174.316,45.898,19.531,1329.454,348.34257801849304
736,1686621951.56,4.395,125.488,105.469,-11.719,1329.458,356.5987410298166
737,1686621951.56,-55.664,-226.562,34.18,-66.895,1329.462,348.32179824852375
738,1686621951.57,-47.852,-282.715,49.316,-57.617,1329.466,356.59567855798247
739,1686621951.57,12.695,-268.555,14.16,-11.719,1329.47,359.6090204298065
740,1686621951.58,9.766,-940.43,-30.762,-10.742,1329.474,353.02566760747925
741,1686621951.58,-47.363,-629.883,166.992,-58.105,1329.477,356.0680196422757
742,1686621951.58,-54.688,48.828,114.258,-72.266,1329.481,355.0117745198162
743,1686621951.59,-0.488,14.648,0.977,-27.344,1329.485,347.5729617254924
744,1686621951.59,20.996,263.184,42.48,-6.348,1329.489,355.389709514527
745,1686621951.6,-33.203,436.035,34.668,-49.316,1329.493,347.5335815233525
746,1686621951.6,-71.289,128.906,-1.465,-76.66,1329.497,352.27605865383714
747,1686621951.6,-25.391,-121.094,142.578,-33.691,1329.5,359.75097085095047
748,1686621951.61,16.602,234.375,190.918,4.883,1329.504,353.028039032512
749,1686621951.61,-24.414,79.59,9.277,-19.531,1329.508,347.1874256885498
750,1686621951.62,-85.449,-387.207,16.113,-71.777,1329.512,352.11628898034326
751,1686621951.62,-61.035,-750.977,29.297,-50.293,1329.516,349.26431240049453
752,1686621951.62,11.23,-332.031,148.438,0.977,1329.52,351.8468979704863
753,1686621951.63,10.742,242.676,91.797,-15.625,1329.524,356.80574351061085
754,1686621951.63,-58.594,-14.16,-55.176,-63.477,1329.528,347.35430369995765
755,1686621951.64,-57.129,-334.473,105.469,-55.664,1329.532,354.1905033374613
756,1686621951.64,22.949,159.18,221.191,-2.441,1329.532,355.72993352551305
757,1686621951.64,38.086,431.641,20.996,2.441,1329.536,357.7110338751626
758,1686621951.64,-35.645,33.691,-7.812,-51.758,1329.54,358.61637558106224
759,1686621951.65,-69.824,-172.852,174.316,-70.312,1329.544,360.2272149020715
760,1686621951.65,-3.418,137.695,111.328,-11.23,1329.548,351.7132361052778
761,1686621951.66,27.344,107.91,9.766,18.555,1329.551,357.5505119064486
762,1686621951.66,-33.203,-391.113,-21.484,-32.715,1329.555,351.17152543976107
763,1686621951.66,-77.148,-932.617,20.508,-61.523,1329.559,354.7752321860966
764,1686621951.67,-15.137,-256.836,286.133,-21.973,1329.563,355.0630756653276
765,1686621951.67,43.945,423.828,196.777,15.137,1329.567,353.4325454524666
766,1686621951.67,-4.395,17.09,-38.574,-22.461,1329.571,349.96414722463624
767,1686621951.68,-56.641,-289.062,18.555,-62.988,1329.575,350.602717959021
768,1686621951.68,-23.926,86.426,94.238,-34.18,1329.591,348.97426651015627
769,1686621951.69,11.23,417.48,42.969,-8.789,1329.595,343.6602617582606
770,1686621951.69,-17.578,-153.809,-36.133,-21.484,1329.599,350.48688107673183
771,1686621951.7,-84.961,-221.68,10.254,-75.684,1329.603,344.91197181049375
772,1686621951.7,-88.867,206.055,76.172,-84.473,1329.607,339.8627333434393
773,1686621951.7,-34.18,25.879,6.836,-41.504,1329.611,338.3613630050013
774,1686621951.71,-29.297,-599.609,-10.254,-37.598,1329.615,346.7863350913395
775,1686621951.71,-89.844,-342.285,169.922,-90.82,1329.618,348.1203169599683
776,1686621951.71,-118.164,152.344,84.473,-123.535,1329.622,342.5768883157286
777,1686621951.72,-48.34,116.699,2.93,-59.082,1329.626,341.17822860470613
778,1686621951.72,-0.977,140.625,61.523,-5.371,1329.63,353.959692310401
779,1686621951.73,-56.641,250.488,43.945,-50.293,1329.634,338.3027014384238
780,1686621951.73,-109.863,201.66,20.508,-89.355,1329.636,342.2472073174692
781,1686621951.73,-62.012,-79.59,29.785,-54.688,1329.64,338.8527215864654
782,1686621951.73,6.348,-85.938,117.676,-7.812,1329.644,348.90285052132793
783,1686621951.74,-16.113,249.512,82.52,-36.133,1329.648,338.45281074317984
784,1686621951.74,-79.102,177.734,24.902,-91.309,1329.652,343.2886911463328
785,1686621951.75,-64.453,-340.332,6.348,-67.383,1329.656,334.4144637307511
786,1686621951.75,7.324,-822.754,103.027,4.395,1329.66,332.9825005753192
787,1686621951.75,8.789,-337.891,244.629,-2.441,1329.663,337.0265966009305
788,1686621951.76,-59.082,152.344,65.43,-69.824,1329.667,338.82167175562165
789,1686621951.76,-69.336,-314.941,-19.043,-74.707,1329.671,340.4227738248641
790,1686621951.76,-7.324,-363.77,261.719,-19.043,1329.675,338.2600338241081
791,1686621951.77,21.484,331.055,229.004,0.977,1329.679,334.6112621780417
792,1686621951.79,-41.992,265.625,-0.488,-48.34,1329.685,331.18155036425406
793,1686621951.79,-80.566,-233.887,6.348,-81.055,1329.689,336.4559192359953
794,1686621951.8,-23.438,15.625,73.73,-31.738,1329.693,333.2146496314346
795,1686621951.8,18.555,381.836,39.062,-2.441,1329.697,331.5047020158044
796,1686621951.8,-28.32,62.988,-36.133,-34.668,1329.7,325.4205100718126
797,1686621951.81,-72.266,-755.859,6.348,-51.758,1329.704,337.5827445141468
798,1686621951.81,-29.785,-608.398,145.02,-23.926,1329.708,334.41209872269513
799,1686621951.81,20.996,307.129,166.016,18.555,1329.712,337.1109792146474
800,1686621951.82,-14.16,228.027,-31.25,0.488,1329.716,339.46704981786826
801,1686621951.82,-80.078,-681.641,20.02,-55.664,1329.72,341.4307221456661
802,1686621951.83,-62.012,-271.973,294.922,-48.828,1329.724,341.7067303411373
803,1686621951.83,1.953,420.41,187.5,2.441,1329.728,339.02162158620894
804,1686621951.83,-9.277,231.934,-21.973,1.953,1329.727,342.14539582218504
805,1686621951.83,-69.336,-70.801,10.254,-54.199,1329.731,341.6148196940487
806,1686621951.84,-67.383,40.527,86.914,-62.012,1329.735,339.5091050416887
807,1686621951.84,0.0,311.523,66.895,-6.348,1329.739,340.680065462448
808,1686621951.85,18.555,167.969,12.695,8.301,1329.743,342.325313068985
809,1686621951.85,-43.457,-249.512,12.695,-45.898,1329.747,345.78575314651806
810,1686621951.85,-68.359,-441.406,30.273,-57.129,1329.75,343.5253244862729
811,1686621951.86,-17.578,-203.125,70.312,-8.789,1329.754,352.30506109784454
812,1686621951.86,25.879,-206.543,-3.418,21.973,1329.758,351.22217358917135
813,1686621951.86,-10.742,-938.965,-22.949,-6.348,1329.762,360.0194127518075
814,1686621951.87,-62.988,-624.023,221.191,-58.105,1329.766,345.378352456627
815,1686621951.87,-32.715,116.699,240.234,-39.062,1329.77,345.65822968499907
816,1686621951.88,19.043,103.516,53.223,11.23,1329.774,346.820935754323
817,1686621951.88,0.977,281.738,36.133,-16.602,1329.778,356.73117238636945
818,1686621951.88,-61.523,328.613,33.203,-79.102,1329.782,344.9766013709704
819,1686621951.89,-50.293,145.996,34.18,-57.617,1329.786,351.027339358423
820,1686621951.89,17.09,14.648,135.742,4.395,1329.79,355.8347429228157
821,1686621951.9,9.766,-61.035,104.98,-0.488,1329.794,358.1314076985772
822,1686621951.9,-56.152,-21.973,79.102,-60.059,1329.798,353.31638343391245
823,1686621951.9,-71.777,12.695,34.668,-87.402,1329.802,360.44355573582595
824,1686621951.91,-22.461,-604.492,13.672,-37.598,1329.805,354.8856439269872
825,1686621951.91,10.254,-372.07,158.203,-1.465,1329.809,353.4705938684455
826,1686621951.92,-29.297,193.848,89.844,-39.062,1329.813,368.0879360214435
827,1686621951.92,-72.266,-67.383,-37.598,-76.66,1329.817,353.2627248892587
828,1686621951.92,-25.391,-458.496,120.117,-31.25,1329.817,355.7602682565842
829,1686621951.92,29.785,101.562,264.648,9.277,1329.821,367.45395820391906
830,1686621951.93,-3.418,373.047,46.387,-17.09,1329.825,363.1065544035722
831,1686621951.93,-61.035,-27.832,-0.488,-63.965,1329.828,364.1987928314902
832,1686621951.94,-40.527,-115.723,147.949,-39.062,1329.832,361.5178539197128
833,1686621951.94,26.855,-27.832,89.844,26.855,1329.836,356.8002710485702
834,1686621951.94,0.977,-19.043,33.203,0.977,1329.84,358.53732805500374
835,1686621951.95,-75.684,-397.461,-16.602,-68.359,1329.844,366.272215317733
836,1686621951.95,-69.336,-935.059,37.598,-63.965,1329.848,367.3753774484562
837,1686621951.96,2.93,-127.93,269.531,-20.02,1329.852,371.8546134254475
838,1686621951.96,20.02,521.973,107.91,-18.555,1329.856,374.67857152462807
839,1686621951.96,-46.387,-45.898,-71.777,-58.594,1329.86,365.83334211197973
840,1686621951.97,-72.754,-270.508,32.227,-73.242,1329.865,365.55211798853423
841,1686621951.97,-3.906,259.277,99.121,-26.367,1329.869,377.33263859781766
842,1686621951.98,29.297,485.84,25.879,3.418,1329.873,375.82363313689245
843,1686621951.98,-23.438,-211.914,-51.27,-31.738,1329.877,367.48328361327015
844,1686621951.98,-67.383,-277.344,22.949,-67.383,1329.881,367.99988637443664
845,1686621951.99,-25.879,6.836,66.406,-35.156,1329.885,380.6413361945703
846,1686621951.99,35.645,-10.742,15.625,28.809,1329.889,380.06978045639283
847,1686621951.99,6.348,-525.879,-7.324,7.324,1329.893,375.09001345025445
848,1686621952.0,-62.012,-342.773,199.219,-62.012,1329.897,376.52063395157165
849,1686621952.0,-43.457,278.32,157.227,-53.223,1329.901,372.6033720655487
850,1686621952.01,24.902,310.059,16.602,6.348,1329.904,380.6579521224102
851,1686621952.01,14.16,229.004,43.457,-4.883,1329.908,382.1234278600637
852,1686621952.01,-52.246,208.496,39.062,-61.523,1329.907,382.48799585653626
853,1686621952.02,-57.129,265.137,30.273,-55.664,1329.911,379.48453504571313
854,1686621952.02,3.418,125.488,48.828,0.977,1329.915,372.0777708502113
855,1686621952.02,20.996,89.844,94.727,10.742,1329.919,389.29023457278544
856,1686621952.03,-39.551,128.418,13.672,-45.41,1329.923,385.39213104175116
857,1686621952.03,-73.73,-156.25,55.664,-62.012,1329.927,378.85116355854615
858,1686621952.03,-21.973,-350.098,33.691,-9.277,1329.931,380.7023102564815
859,1686621952.04,15.137,-887.207,26.855,24.414,1329.935,376.02111643621004
860,1686621952.04,-25.391,-385.742,259.766,-31.25,1329.939,375.78386312947976
861,1686621952.05,-64.453,213.867,109.375,-77.637,1329.942,378.49447822050996
862,1686621952.05,-16.113,-46.387,0.977,-31.738,1329.946,379.4122334816069
863,1686621952.05,48.828,229.004,110.84,25.391,1329.95,375.2900140095597
864,1686621952.06,20.508,475.098,55.664,3.418,1329.966,382.8548047862105
865,1686621952.06,-42.969,213.867,-7.812,-46.387,1329.97,386.9606317341274
866,1686621952.06,-31.25,-148.926,72.266,-33.203,1329.974,368.9153055466639
867,1686621952.07,33.691,198.242,203.613,22.949,1329.978,375.6710123107391
868,1686621952.07,36.133,454.59,73.242,22.461,1329.982,364.2196247834539
869,1686621952.08,-33.691,-111.328,-45.41,-39.062,1329.986,370.35706577136875
870,1686621952.08,-53.223,-828.125,10.742,-60.059,1329.99,380.95973258185836
871,1686621952.08,19.531,-376.953,276.367,0.977,1329.994,375.7923119839623
872,1686621952.09,43.945,487.305,220.215,26.855,1329.997,374.0153413547237
873,1686621952.09,-17.578,143.066,-63.477,-30.273,1330.001,371.2752918379742
874,1686621952.1,-54.199,-523.438,131.836,-60.059,1330.005,384.17626163641455
875,1686621952.1,3.906,30.273,302.734,-5.859,1330.009,384.1608011792093
876,1686621952.1,48.34,499.023,76.172,29.297,1330.011,379.6244297392774
877,1686621952.1,-8.789,123.047,-29.785,-11.719,1330.015,381.2206504603109
878,1686621952.11,-71.289,-178.711,39.062,-49.805,1330.019,380.24086103235163
879,1686621952.11,-36.133,112.305,73.73,-24.414,1330.023,378.13568489612163
880,1686621952.12,31.738,340.82,18.555,30.273,1330.027,379.54689754128776
881,1686621952.12,1.953,-153.32,-31.738,9.277,1330.031,377.8632339726659
882,1686621952.12,-66.406,-750.488,125.977,-49.316,1330.035,379.8115941698805
883,1686621952.13,-44.922,-478.516,154.785,-32.715,1330.038,385.07102919177845
884,1686621952.13,13.672,28.809,48.34,12.207,1330.042,382.4813669305997
885,1686621952.14,4.883,-168.945,-39.062,0.977,1330.046,386.8865163951116
886,1686621952.14,-62.012,-661.133,104.98,-51.27,1330.05,373.0005537110225
887,1686621952.14,-77.148,-10.254,264.16,-62.5,1330.054,389.40940310072966
888,1686621952.16,-3.418,391.602,84.961,-8.301,1330.059,380.2260857656976
889,1686621952.17,22.461,165.527,8.301,19.531,1330.063,378.7658132974826
890,1686621952.17,-32.227,170.41,19.043,-30.273,1330.067,382.5832545280202
891,1686621952.17,-67.871,246.094,39.062,-64.453,1330.071,389.45774534046177
892,1686621952.18,-14.648,210.938,24.902,-12.695,1330.075,390.16691168604206
893,1686621952.18,44.434,-151.855,96.191,32.227,1330.079,388.8929223532447
894,1686621952.18,-4.395,-160.156,102.539,-9.766,1330.083,389.1280033656365
895,1686621952.19,-70.312,133.301,46.387,-63.965,1330.087,379.21803379329134
896,1686621952.19,-34.668,45.41,3.906,-38.086,1330.091,387.5360032770991
897,1686621952.2,23.926,-486.816,41.992,21.484,1330.095,378.5539641371703
898,1686621952.2,4.395,-287.598,147.461,2.441,1330.098,380.8689504566534
899,1686621952.2,-57.129,95.703,56.152,-65.918,1330.102,387.2609742508995
900,1686621952.21,-44.434,-124.512,-40.039,-67.871,1330.102,376.9506533189664
901,1686621952.21,23.926,-240.234,127.441,0.488,1330.106,381.2496596511996
902,1686621952.21,25.391,253.906,208.984,9.766,1330.11,385.5017731854698
903,1686621952.22,-32.227,320.801,25.391,-56.152,1330.114,387.5653614918875
904,1686621952.22,-55.176,-78.613,17.578,-71.289,1330.118,382.32020647143077
905,1686621952.23,-12.695,-225.586,138.672,-17.09,1330.122,378.1923551036268
906,1686621952.23,26.367,-81.543,57.129,13.184,1330.125,387.7536073512147
907,1686621952.23,-20.996,-101.562,12.695,-32.227,1330.129,377.0704318884051
908,1686621952.24,-78.613,-418.945,-16.602,-72.754,1330.133,376.5210620289696
909,1686621952.24,-38.086,-914.062,32.227,-36.621,1330.137,376.40778193114335
910,1686621952.24,25.391,-87.402,249.512,6.836,1330.141,376.03749471969905
911,1686621952.25,-1.465,474.609,84.961,-15.137,1330.145,370.2382752668459
912,1686621952.26,-66.406,-165.039,-63.965,-58.105,1330.162,384.2315435527983
913,1686621952.27,-35.645,-229.492,60.059,-38.086,1330.166,371.8995292526084
914,1686621952.27,39.551,382.812,113.77,23.438,1330.17,371.18579410389333
915,1686621952.28,19.043,493.652,26.367,5.859,1330.174,373.2012117487345
916,1686621952.28,-48.828,-335.938,-19.531,-52.734,1330.178,370.36735148292996
917,1686621952.28,-43.457,-546.875,59.082,-47.852,1330.181,368.06040706595917
918,1686621952.29,20.508,90.82,141.113,8.789,1330.185,377.6822634319416
919,1686621952.29,35.645,333.496,45.898,16.113,1330.189,370.70837670926795
920,1686621952.3,-1.953,113.281,42.48,-3.418,1330.192,371.45557498434226
921,1686621952.3,-48.34,-546.875,-44.922,-47.852,1330.193,372.2647728384628
922,1686621952.3,-59.082,162.109,55.664,-50.293,1330.196,373.11699594105517
923,1686621952.3,-85.938,-397.949,197.754,-73.73,1330.197,370.69661840122444
924,1686621952.3,-28.32,275.879,48.828,-28.32,1330.2,372.4323171271083
925,1686621952.3,-16.113,365.723,259.277,-13.672,1330.201,379.416116348591
926,1686621952.31,38.574,153.32,57.129,31.738,1330.204,378.2838289303937
927,1686621952.31,37.109,315.918,113.281,28.809,1330.205,361.98693622203444
928,1686621952.31,9.277,9.766,144.043,20.996,1330.208,373.47340133156433
929,1686621952.32,-59.082,-201.172,49.316,-36.133,1330.212,377.7640088557523
930,1686621952.32,-45.41,-209.473,52.246,-24.902,1330.216,368.3213234203796
931,1686621952.32,13.184,-294.922,36.621,37.109,1330.219,368.2340863133272
932,1686621952.33,13.672,-770.508,104.492,33.203,1330.223,370.7410793793745
933,1686621952.33,-42.969,-187.988,216.797,-27.832,1330.227,381.77900635220135
934,1686621952.33,-50.293,278.32,52.734,-35.645,1330.231,377.3765860934555
935,1686621952.34,8.789,-240.234,-44.922,25.391,1330.235,365.98087007000373
936,1686621952.34,29.785,-518.066,118.652,33.203,1330.239,365.7063454877024
937,1686621952.35,-25.879,93.262,174.316,-32.227,1330.243,373.82902475792065
938,1686621952.35,-59.57,145.996,15.137,-59.57,1330.247,376.99243941126974
939,1686621952.35,-6.836,-63.477,136.23,-5.371,1330.251,377.93776381675957
940,1686621952.36,34.18,270.02,228.516,34.18,1330.255,371.9197879991682
941,1686621952.36,-14.648,56.641,44.434,-13.672,1330.259,375.65808511990207
942,1686621952.36,-64.453,-323.242,-9.277,-58.594,1330.263,376.7102418525732
943,1686621952.37,-29.785,-834.961,6.348,-31.738,1330.267,380.8670907041396
944,1686621952.37,34.668,-539.551,239.258,19.531,1330.27,381.919925215843
945,1686621952.38,20.508,343.262,197.754,4.883,1330.274,387.1328814075264
946,1686621952.38,-46.875,59.57,-45.41,-53.223,1330.278,383.7513125270706
947,1686621952.38,-37.109,-133.301,97.656,-42.48,1330.282,379.74204597051215
948,1686621952.38,26.855,336.426,214.355,13.672,1330.283,390.3305634748078
949,1686621952.39,19.043,505.371,59.082,11.719,1330.286,378.53436805663983
950,1686621952.39,-49.805,65.43,-35.156,-46.387,1330.29,384.7675451060245
951,1686621952.4,-68.359,-164.062,145.508,-56.641,1330.294,396.6275943271996
952,1686621952.4,-0.488,113.281,172.363,7.812,1330.298,389.41420436631864
953,1686621952.4,28.32,81.543,37.598,31.738,1330.302,392.60427798025586
954,1686621952.41,-35.156,-349.609,-37.109,-15.137,1330.306,396.1401468580745
955,1686621952.41,-67.383,-897.949,20.02,-39.551,1330.31,400.74114310468843
956,1686621952.42,-8.789,-353.516,256.836,-5.371,1330.314,394.3476648450775
957,1686621952.42,37.109,141.602,104.492,25.391,1330.318,403.8235502372057
958,1686621952.42,-7.324,-238.281,-31.25,-13.672,1330.322,414.09234692266455
959,1686621952.43,-62.5,-265.625,167.48,-56.152,1330.326,409.0339138042312
960,1686621952.43,-27.344,207.52,139.16,-25.879,1330.341,410.56851076043125
961,1686621952.44,36.133,373.047,29.297,21.484,1330.345,407.9382538911211
962,1686621952.44,17.578,98.145,7.324,0.977,1330.349,405.75509912918125
963,1686621952.44,-50.781,51.27,8.789,-59.082,1330.353,409.2543706743492
964,1686621952.45,-49.316,191.895,41.504,-61.523,1330.357,416.9790542531719
965,1686621952.45,7.812,-12.695,-1.953,2.441,1330.361,404.06855868803876
966,1686621952.46,11.719,-614.258,-3.418,13.184,1330.365,403.62457761677535
967,1686621952.46,-47.363,-346.68,175.781,-51.758,1330.369,424.9390380637645
968,1686621952.46,-67.871,170.898,106.934,-66.895,1330.373,424.92846894182566
969,1686621952.47,2.441,157.715,7.324,-10.254,1330.376,417.83198511079644
970,1686621952.47,40.039,142.09,35.645,18.555,1330.38,424.6122128923678
971,1686621952.48,-19.043,-24.414,20.02,-26.367,1330.384,420.28668687084144
972,1686621952.48,-60.547,31.738,42.969,-67.383,1330.386,430.1737687706362
973,1686621952.48,-15.625,18.555,-5.371,-23.926,1330.39,417.67795747428147
974,1686621952.48,31.25,-192.871,82.52,21.973,1330.394,427.1498695069777
975,1686621952.49,-1.953,115.723,74.219,-15.137,1330.397,420.758819488667
976,1686621952.49,-62.988,127.441,-4.883,-57.617,1330.401,425.8713369450452
977,1686621952.5,-37.598,-349.609,10.742,-26.855,1330.405,424.82438631734857
978,1686621952.5,22.949,-678.711,142.09,29.297,1330.409,436.17786499610634
979,1686621952.5,13.184,-136.23,267.09,11.719,1330.413,430.0169417330636
980,1686621952.51,-55.664,191.895,43.945,-46.875,1330.417,429.39104996493603
981,1686621952.51,-61.523,-314.941,-34.18,-47.852,1330.421,427.6552276644864
982,1686621952.52,14.16,-330.078,246.094,9.277,1330.425,435.74224944716116
983,1686621952.52,31.738,341.797,199.707,16.602,1330.429,427.2188203290624
984,1686621952.54,-27.832,276.855,-15.625,-45.41,1330.438,427.2497283917219
985,1686621952.54,-59.082,-376.953,-19.531,-69.824,1330.442,426.18810808807837
986,1686621952.55,-1.953,-292.48,93.75,-13.672,1330.446,428.81042741348523
987,1686621952.55,33.203,341.309,125.977,20.02,1330.45,422.19902891719704
988,1686621952.55,-29.785,284.18,-15.625,-23.438,1330.454,431.30450807282415
989,1686621952.56,-79.59,-679.199,-54.688,-57.617,1330.458,428.52002773643204
990,1686621952.56,-30.762,-666.016,239.746,-23.926,1330.462,425.12519610859624
991,1686621952.56,36.133,260.254,302.246,17.578,1330.465,427.58226116169874
992,1686621952.57,0.977,192.871,-13.184,-2.93,1330.469,433.918424379525
993,1686621952.57,-73.73,-528.809,68.359,-50.781,1330.473,429.5203803057105
994,1686621952.58,-47.363,-165.527,249.023,-41.016,1330.477,419.19152468228276
995,1686621952.58,14.648,363.77,68.359,0.0,1330.481,413.6125222692377
996,1686621952.58,-4.395,230.469,-23.926,-13.184,1330.477,432.82553629200106
997,1686621952.58,-57.129,-48.828,30.762,-55.664,1330.481,430.96152565486517
998,1686621952.59,-43.945,-1.465,61.523,-46.875,1330.485,422.05446620425903
999,1686621952.59,25.391,215.332,44.922,2.93,1330.489,418.92954405916805
1000,1686621952.6,24.414,55.176,12.207,-7.812,1330.493,426.50066696694
1001,1686621952.6,-45.898,-343.75,13.184,-65.43,1330.497,429.12790435320335
1002,1686621952.6,-78.613,-472.168,20.996,-82.031,1330.501,416.399189797652
1003,1686621952.61,-26.367,-277.832,62.012,-29.297,1330.505,419.5258636083795
1004,1686621952.61,9.766,-292.969,3.906,14.16,1330.509,418.80991346015844
1005,1686621952.62,-47.363,-953.125,-43.945,-31.738,1330.512,424.37537148179854
1006,1686621952.62,-92.773,-645.02,224.609,-77.637,1330.516,420.4413145128245
1007,1686621952.62,-40.039,111.328,243.164,-42.969,1330.52,425.6416121264312
1008,1686621952.63,23.438,33.691,13.672,11.719,1330.524,421.6083873593673
1009,1686621952.63,-9.277,68.848,3.906,-3.906,1330.528,410.5199018993308
1010,1686621952.64,-75.195,187.988,48.34,-60.059,1330.532,405.2178852768552
1011,1686621952.64,-54.688,115.234,32.715,-44.434,1330.536,416.2629797433577
1012,1686621952.64,11.719,-18.066,86.426,17.578,1330.539,412.55033691088926
1013,1686621952.65,9.766,-92.773,51.758,6.348,1330.543,404.24468245840114
1014,1686621952.65,-54.199,-226.074,22.949,-48.34,1330.547,403.3956808868581
1015,1686621952.65,-62.988,-296.387,24.902,-44.434,1330.551,408.01944717223597
1016,1686621952.66,0.0,-803.711,-2.93,18.555,1330.555,411.1941214671655
1017,1686621952.66,31.738,-541.504,252.93,43.945,1330.559,399.2027346167989
1018,1686621952.67,-18.555,232.422,148.926,-17.578,1330.563,402.57896445106655
1019,1686621952.67,-60.547,-9.766,-35.156,-57.617,1330.567,392.31533026257455
1020,1686621952.67,-10.742,-41.504,111.816,-16.602,1330.567,402.4976826670861
1021,1686621952.67,36.133,386.23,101.074,21.973,1330.571,409.5997102369037
1022,1686621952.68,-10.254,354.492,-11.23,-13.672,1330.575,403.9447756469051
1023,1686621952.68,-71.289,-89.355,-2.93,-62.988,1330.578,404.6824039085013
1024,1686621952.69,-35.156,-225.586,144.043,-35.645,1330.582,393.3494636262725
1025,1686621952.69,25.391,-82.52,80.566,18.066,1330.586,391.87530634615564
1026,1686621952.69,2.93,-83.008,-8.789,-3.418,1330.59,401.3708291890093
1027,1686621952.7,-58.594,-455.078,-18.555,-56.152,1330.594,386.8015947421018
1028,1686621952.7,-49.805,-923.34,20.508,-36.621,1330.598,391.2384499519603
1029,1686621952.7,20.508,-318.848,214.844,21.484,1330.602,392.6186182162216
1030,1686621952.71,23.438,240.723,111.328,10.254,1330.606,394.643817378877
1031,1686621952.71,-48.34,-249.023,-75.684,-52.246,1330.61,380.64131541772264
1032,1686621952.72,-64.453,-301.27,175.293,-63.477,1330.614,381.38508695939976
1033,1686621952.72,5.371,304.199,223.145,-16.113,1330.618,374.0285274434096
1034,1686621952.72,35.645,334.473,20.02,10.742,1330.622,379.45079481190083
1035,1686621952.73,-13.184,-104.98,45.898,-25.391,1330.626,360.6843823283097
1036,1686621952.73,-62.5,-94.727,65.918,-53.223,1330.629,369.1296909456716
1037,1686621952.74,-27.832,-42.48,45.898,-10.254,1330.633,360.59883041555554
1038,1686621952.74,23.926,-143.555,13.672,30.273,1330.637,346.76534099914716
1039,1686621952.74,-0.977,-633.789,-24.414,-1.465,1330.641,347.58017062482367
1040,1686621952.75,-57.617,-409.18,197.266,-41.016,1330.645,350.04412359677696
1041,1686621952.75,-23.926,225.098,229.492,-24.902,1330.649,331.2558714654213
1042,1686621952.76,41.992,225.098,77.148,26.855,1330.653,337.5338254704367
1043,1686621952.76,21.973,52.246,21.973,21.484,1330.657,338.9025828505912
1044,1686621952.76,-41.016,-194.824,18.555,-30.273,1330.66,333.6689168104433
1045,1686621952.76,-38.086,-116.699,110.352,-26.367,1330.664,334.5956387669857
1046,1686621952.77,31.25,20.508,126.465,34.668,1330.668,320.71852036344956
1047,1686621952.77,44.922,-129.395,73.242,52.734,1330.672,321.95087551307296
1048,1686621952.78,-23.438,-88.379,1.953,-5.859,1330.676,330.0940107989045
1049,1686621952.78,-53.223,-199.219,12.207,-36.133,1330.68,306.0591226546573
1050,1686621952.78,-1.465,-369.629,32.227,17.09,1330.684,319.1802818469072
1051,1686621952.79,32.715,-847.168,57.617,56.152,1330.687,312.7986649784938
1052,1686621952.79,-4.395,-328.125,198.73,-4.395,1330.691,305.4254347377166
1053,1686621952.8,-39.551,79.102,71.289,-51.758,1330.695,309.47303644154766
1054,1686621952.8,0.488,-165.527,8.789,-6.836,1330.699,306.09645258128245
1055,1686621952.8,49.805,139.16,86.914,20.508,1330.703,302.59408260099576
1056,1686621952.82,19.531,373.535,45.898,-0.977,1330.717,292.2321115079771
1057,1686621952.82,-34.668,153.809,8.301,-39.551,1330.721,294.5290190103439
1058,1686621952.83,-10.254,-332.52,2.93,-24.414,1330.725,298.3681372076699
1059,1686621952.83,54.199,-128.418,104.98,38.574,1330.729,296.39745358652067
1060,1686621952.84,50.781,321.777,74.707,34.18,1330.733,299.93131174791023
1061,1686621952.84,-13.672,-118.652,-29.297,-24.414,1330.737,295.98296730550254
1062,1686621952.84,-28.809,-906.25,8.301,-13.672,1330.741,290.0078250946241
1063,1686621952.85,40.527,-654.785,251.465,56.641,1330.745,287.71557126517365
1064,1686621952.85,93.262,388.184,75.195,61.035,1330.761,291.88307114156856
1065,1686621952.85,67.383,298.34,239.258,55.664,1330.748,303.675653468997
1066,1686621952.85,16.113,142.09,-29.785,6.348,1330.765,293.50231163179734
1067,1686621952.86,4.395,170.898,-35.645,-12.207,1330.752,297.6243365479105
1068,1686621952.86,-46.875,-167.969,35.156,-37.598,1330.769,296.5494420336037
1069,1686621952.86,-20.02,-213.867,75.195,-34.18,1330.756,295.4597380494255
1070,1686621952.86,2.441,37.109,77.637,7.324,1330.773,309.52045507893786
1071,1686621952.86,54.199,114.258,215.332,25.391,1330.76,310.93093823006757
1072,1686621952.87,64.453,209.473,34.18,62.012,1330.777,307.87196698801955
1073,1686621952.87,36.621,-206.543,-16.113,39.062,1330.781,306.00957124003764
1074,1686621952.87,-29.297,-740.723,75.195,-15.625,1330.785,311.7989898402615
1075,1686621952.88,-7.812,-540.527,104.98,-3.418,1330.789,308.1398483502212
1076,1686621952.88,62.5,-99.609,77.148,56.641,1330.793,311.98795431599353
1077,1686621952.88,58.105,-275.879,-39.551,64.453,1330.797,307.7647508048859
1078,1686621952.89,-12.695,-883.789,25.879,10.254,1330.801,312.6068009580124
1079,1686621952.89,-21.973,-278.32,282.227,-2.441,1330.804,324.66013015625805
1080,1686621952.91,50.781,273.438,200.684,62.012,1330.809,341.4483535224457
1081,1686621952.92,74.707,49.316,26.367,73.242,1330.813,342.1684778074454
1082,1686621952.92,22.949,39.062,10.742,13.184,1330.817,344.1917298312864
1083,1686621952.92,-16.602,123.047,41.504,-14.648,1330.821,340.92000747439437
1084,1686621952.93,33.691,130.859,30.762,27.832,1330.825,342.7968173747783
1085,1686621952.93,76.66,-273.438,83.496,63.477,1330.829,355.60641865085546
1086,1686621952.94,31.738,-250.977,98.633,30.762,1330.833,350.3763524847739
1087,1686621952.94,-15.137,13.672,32.715,-11.23,1330.837,341.39340642953806
1088,1686621952.94,18.066,-232.91,-11.719,10.254,1330.84,357.92981760513374
1089,1686621952.95,76.66,-770.996,2.93,69.336,1330.844,355.5980823742006
1090,1686621952.95,52.734,-383.789,209.473,50.293,1330.848,349.37691527974835
1091,1686621952.96,-2.441,-129.395,-0.977,-15.625,1330.852,348.08495723394054
1092,1686621952.96,-10.742,125.977,93.262,-15.625,1330.852,357.3399863137627
1093,1686621952.96,64.941,-3.418,111.328,52.246,1330.856,345.5306090408623
1094,1686621952.96,74.707,297.852,50.781,61.523,1330.86,360.231812385423
1095,1686621952.97,0.977,186.523,-23.438,-1.465,1330.864,352.99555144126685
1096,1686621952.97,-20.02,-192.871,43.945,-6.348,1330.867,344.9425974147055
1097,1686621952.98,52.246,-326.172,181.641,55.664,1330.871,353.3278663973055
1098,1686621952.98,71.289,-175.293,82.031,71.777,1330.875,349.9698574188855
1099,1686621952.98,14.648,-213.867,14.648,25.879,1330.879,352.73962831173776
1100,1686621952.99,-24.414,-552.734,-15.137,0.977,1330.883,348.5085767521011
1101,1686621952.99,22.949,-934.57,17.578,47.363,1330.887,344.40053912354676
1102,1686621952.99,77.148,-351.562,170.898,82.031,1330.891,358.8689956098069
1103,1686621953.0,46.387,90.332,50.781,46.875,1330.895,347.234101023517
1104,1686621953.0,3.418,-436.035,-61.035,10.254,1330.899,349.98509084046964
1105,1686621953.01,34.668,-322.754,191.895,25.879,1330.903,361.47198480779826
1106,1686621953.01,97.656,298.34,191.406,72.266,1330.907,348.0191514273584
1107,1686621953.01,76.66,250.0,5.859,70.801,1330.911,354.149386718283
1108,1686621953.02,10.742,-224.609,27.832,20.02,1330.915,348.3007992889098
1109,1686621953.02,24.902,-478.516,32.227,21.973,1330.919,350.8416807814562
1110,1686621953.02,97.656,-78.613,151.367,78.613,1330.922,357.99788835408776
1111,1686621953.03,101.074,145.508,58.594,90.82,1330.926,353.9652174192923
1112,1686621953.03,35.156,-684.082,-69.336,40.039,1330.93,350.96548345938277
1113,1686621953.04,16.113,-499.512,211.914,22.949,1330.934,349.0435303194799
1114,1686621953.04,82.52,231.934,218.75,79.102,1330.938,353.77306646280135
1115,1686621953.04,104.98,138.672,16.113,104.492,1330.942,356.02868974647026
1116,1686621953.05,42.48,-325.195,4.395,61.523,1330.946,354.30625365078544
1117,1686621953.05,-1.953,-398.438,53.711,27.344,1330.949,344.9976942232886
1118,1686621953.05,42.969,28.32,97.168,53.223,1330.953,359.04036165937487
1119,1686621953.06,108.887,105.957,39.551,101.074,1330.957,362.8616020114535
1120,1686621953.06,77.637,-304.199,30.762,75.684,1330.961,359.57410137430367
1121,1686621953.07,14.16,-506.348,35.645,17.578,1330.965,364.86695656512273
1122,1686621953.07,40.527,-355.469,42.969,35.156,1330.969,359.6761829425351
1123,1686621953.07,105.469,-363.77,-9.277,86.426,1330.973,355.23069153191415
1124,1686621953.08,88.379,-876.465,3.418,77.637,1330.977,360.72039421666693
1125,1686621953.08,19.531,-399.902,191.895,17.09,1330.981,350.46694549140767
1126,1686621953.08,10.254,28.809,85.449,2.441,1330.985,355.85989537004536
1127,1686621953.09,74.219,-130.859,-12.695,73.242,1330.989,353.94221090266865
1128,1686621953.09,106.934,130.859,30.273,117.188,1330.989,351.90808569000126
1129,1686621953.1,40.039,227.539,-5.859,43.457,1330.993,356.328349440385
1130,1686621953.1,-10.742,-13.672,-2.93,-12.695,1330.997,359.4789220826844
1131,1686621953.1,39.062,-333.496,44.434,37.109,1331.001,355.14761011202785
1132,1686621953.11,89.844,-141.113,62.988,77.148,1331.005,355.2454220302477
1133,1686621953.11,41.016,-165.527,-2.93,34.18,1331.009,359.9928935239648
1134,1686621953.12,-18.066,-456.543,-8.789,-15.137,1331.013,348.51505895248545
1135,1686621953.12,23.438,-878.906,-16.113,24.902,1331.017,352.1366462714998
1136,1686621953.12,84.473,-646.973,212.402,73.242,1331.02,368.30304765500387
1137,1686621953.13,64.453,157.227,191.406,47.852,1331.024,351.69647630214615
1138,1686621953.13,5.859,-83.984,-48.828,-3.418,1331.028,356.6834406159459
1139,1686621953.14,22.949,-309.57,101.074,13.672,1331.032,355.86099471474955
1140,1686621953.14,97.168,147.461,182.129,74.707,1331.032,358.2813108672034
1141,1686621953.14,88.867,319.824,27.344,67.383,1331.036,362.03200933094246
1142,1686621953.14,18.066,-77.637,-33.691,8.789,1331.04,342.05392641709926
1143,1686621953.15,4.883,-247.559,127.93,-4.395,1331.044,353.390248148762
1144,1686621953.15,67.871,-10.742,140.137,58.105,1331.048,352.5710698679362
1145,1686621953.16,88.867,-139.16,26.855,84.473,1331.052,350.1842008509456
1146,1686621953.16,25.391,-500.488,2.93,32.715,1331.056,351.52564227690726
1147,1686621953.16,-16.113,-973.145,25.391,3.418,1331.06,345.88454454646904
1148,1686621953.17,44.922,-518.066,292.969,52.734,1331.063,361.2402858511261
1149,1686621953.17,99.121,257.324,241.699,98.633,1331.067,349.58746993451433
1150,1686621953.17,55.664,-201.172,-8.301,59.082,1331.071,355.332290258412
1151,1686621953.18,2.93,-463.867,159.18,-1.465,1331.075,351.09291244630305
1152,1686621953.18,43.945,-97.168,199.707,34.668,1331.091,348.0452615208102
1153,1686621953.19,103.027,122.07,146.973,102.539,1331.095,350.48731487854394
1154,1686621953.19,73.73,-115.723,33.203,76.172,1331.099,349.7398260659037
1155,1686621953.19,14.648,-208.496,19.043,16.113,1331.103,350.75153376071097
1156,1686621953.2,26.855,8.301,84.473,29.785,1331.107,353.68397708186643
1157,1686621953.2,92.285,-161.133,17.578,99.121,1331.111,342.91149771462506
1158,1686621953.2,89.844,-742.676,5.859,102.539,1331.115,356.92158339457757
1159,1686621953.21,26.855,-499.023,184.57,35.156,1331.119,351.61700663099185
1160,1686621953.21,13.672,-83.008,123.047,20.996,1331.122,351.01890241640626
1161,1686621953.22,71.289,-357.91,-1.465,77.148,1331.126,356.1030778775132
1162,1686621953.22,89.355,-502.93,147.461,98.145,1331.13,349.0467011155657
1163,1686621953.22,35.645,-122.559,161.133,39.551,1331.134,344.0532755336319
1164,1686621953.23,-1.465,-29.785,23.438,2.441,1331.136,344.548230597804
1165,1686621953.23,47.363,-178.711,27.344,56.152,1331.14,351.240094889879
1166,1686621953.23,93.75,-105.469,95.215,105.957,1331.144,345.5502456291573
1167,1686621953.24,52.246,59.57,48.828,66.895,1331.148,350.5755913352643
1168,1686621953.24,1.953,-100.098,-19.043,18.555,1331.152,352.04487061181896
1169,1686621953.25,32.715,-578.125,-7.324,42.48,1331.156,352.9100487919602
1170,1686621953.25,94.238,-784.18,147.949,103.027,1331.159,353.883078807831
1171,1686621953.25,79.59,-344.727,240.723,92.773,1331.163,346.3968773632138
1172,1686621953.26,11.719,-41.992,44.922,20.02,1331.167,357.41979392182276
1173,1686621953.26,5.371,-482.422,-6.836,13.184,1331.171,352.56736492842765
1174,1686621953.26,73.73,-508.789,208.984,76.172,1331.175,341.8874024787744
1175,1686621953.27,95.215,-127.441,131.348,81.055,1331.179,354.62918008565424
1176,1686621953.29,28.809,-206.543,-19.043,24.414,1331.183,350.3493562111081
1177,1686621953.29,4.883,-651.855,-35.645,5.371,1331.187,353.7031856919208
1178,1686621953.29,68.359,-406.738,168.945,48.34,1331.19,356.00180455765536
1179,1686621953.3,106.445,124.512,113.281,78.613,1331.194,358.7631698870751
1180,1686621953.3,54.688,-61.523,-43.945,31.738,1331.198,350.9239460038411
1181,1686621953.31,-0.488,-731.445,39.551,-6.836,1331.202,357.13164825622647
1182,1686621953.31,48.828,-618.652,223.145,44.922,1331.206,359.88809672617367
1183,1686621953.31,110.84,115.234,222.168,95.703,1331.21,350.268605535344
1184,1686621953.32,66.406,-80.566,-41.504,62.988,1331.214,359.1636555765613
1185,1686621953.32,3.906,-826.66,-15.625,23.438,1331.218,358.0731806823109
1186,1686621953.32,45.898,-473.633,270.996,49.316,1331.222,352.32080734157313
1187,1686621953.33,129.395,96.191,219.238,121.582,1331.226,362.74234448647445
1188,1686621953.33,130.859,-54.199,25.391,125.488,1331.23,363.0603964532039
1189,1686621953.34,75.684,-413.574,-0.488,68.359,1331.234,353.96847503981866
1190,1686621953.34,70.801,-547.852,62.988,68.848,1331.238,358.78962769753235
1191,1686621953.34,125.0,-86.914,198.73,122.07,1331.242,364.22182137644205
1192,1686621953.35,129.395,-109.863,53.223,132.324,1331.246,356.9759676308273
1193,1686621953.35,63.477,-854.004,20.02,80.078,1331.249,352.7429395350596
1194,1686621953.35,47.363,-862.793,228.516,52.734,1331.253,354.9667325430474
1195,1686621953.36,105.469,-277.832,242.676,99.121,1331.257,366.18135704358406
1196,1686621953.36,131.836,-307.617,12.695,136.719,1331.261,362.15213433919445
1197,1686621953.37,76.66,-817.871,61.523,96.68,1331.265,353.4973947348745
1198,1686621953.37,39.062,-366.211,254.883,43.945,1331.269,355.49077477066777
1199,1686621953.37,78.613,-104.004,96.68,72.754,1331.273,363.41009341235394
1200,1686621953.38,131.348,-275.879,-5.859,112.305,1331.274,354.89569166554963
1201,1686621953.38,96.68,-150.391,11.719,85.938,1331.278,372.2892095614597
1202,1686621953.38,31.25,-138.184,40.039,35.156,1331.282,364.54591023582356
1203,1686621953.39,53.711,-233.398,42.48,47.363,1331.286,368.7175042039673
1204,1686621953.39,106.934,-442.383,34.668,104.98,1331.29,367.43889031610007
1205,1686621953.4,93.75,-510.254,18.555,91.797,1331.293,359.6516579481181
1206,1686621953.4,26.855,-538.574,32.227,32.715,1331.297,360.6586004344884
1207,1686621953.4,18.555,-584.961,27.344,29.785,1331.301,370.23245961077635
1208,1686621953.41,74.707,-895.508,-7.324,80.078,1331.305,371.5726689592213
1209,1686621953.41,89.355,-660.156,219.238,88.379,1331.309,359.0866200193548
1210,1686621953.42,37.598,-43.457,118.164,39.062,1331.313,369.6019977356824
1211,1686621953.42,4.883,-261.719,-42.969,14.16,1331.317,365.08524816728647
1212,1686621953.42,58.594,-325.195,113.77,65.918,1331.331,361.87110261650867
1213,1686621953.42,92.773,44.922,86.914,102.051,1331.335,372.8111585410069
1214,1686621953.43,44.922,62.012,-13.184,52.734,1331.339,363.44592775156207
1215,1686621953.43,-8.301,-282.715,18.555,0.488,1331.343,375.3875969274345
1216,1686621953.44,25.879,-450.684,131.836,30.273,1331.346,361.07338654912223
1217,1686621953.44,82.031,-327.148,71.777,87.891,1331.35,369.5942889470776
1218,1686621953.44,44.922,-395.996,-2.441,58.594,1331.354,370.8756405410697
1219,1686621953.45,-15.137,-710.938,-31.738,-4.883,1331.358,373.26779629505563
1220,1686621953.45,3.418,-991.211,16.602,19.531,1331.362,363.8744587354111
1221,1686621953.46,76.66,-349.609,251.953,77.148,1331.366,365.16439766319957
1222,1686621953.46,68.359,189.941,81.543,61.035,1331.37,371.869053025171
1223,1686621953.46,-10.742,-469.727,-100.098,-8.789,1331.374,374.59196185194065
1224,1686621953.47,-21.484,-527.832,189.453,-15.137,1331.364,378.6632406672215
1225,1686621953.47,51.758,78.125,234.375,48.828,1331.368,374.1468147587305
1226,1686621953.48,88.379,97.656,32.715,81.543,1331.372,372.19729748475146
1227,1686621953.48,27.832,-355.957,6.836,25.879,1331.376,364.714055804412
1228,1686621953.48,-20.02,-421.875,30.762,-23.926,1331.38,372.5144154967638
1229,1686621953.49,30.273,-337.891,36.133,26.367,1331.384,374.62330020187215
1230,1686621953.49,80.078,-376.953,20.508,75.195,1331.388,376.5406053437292
1231,1686621953.49,24.414,-774.902,-19.043,35.645,1331.391,368.39835220715787
1232,1686621953.5,-37.598,-576.66,173.34,-23.438,1331.395,364.75704040002387
1233,1686621953.5,3.906,-151.855,127.93,3.418,1331.399,376.12309646746013
1234,1686621953.51,62.012,-329.59,10.254,58.105,1331.403,374.6695042427957
1235,1686621953.51,34.18,-359.863,77.637,34.668,1331.407,369.4091729004721
1236,1686621953.51,-28.809,-198.242,54.199,-31.738,1331.407,372.95215283527415
1237,1686621953.52,-14.648,-90.332,24.414,-20.02,1331.411,367.2984003840769
1238,1686621953.52,55.664,-224.121,4.395,52.246,1331.415,364.5667509496293
1239,1686621953.52,56.641,-413.086,86.426,60.547,1331.419,371.2103868712076
1240,1686621953.53,-2.93,-280.762,64.941,-4.395,1331.423,375.76419819240806
1241,1686621953.53,-18.066,-448.73,15.137,-24.414,1331.426,370.62354427173807
1242,1686621953.53,34.668,-639.648,28.32,38.574,1331.43,380.463533283849
1243,1686621953.54,62.5,-912.598,30.273,69.824,1331.434,373.4470619579059
1244,1686621953.54,12.695,-500.488,207.52,9.766,1331.438,380.42341035803656
1245,1686621953.55,-35.156,-173.828,87.891,-36.133,1331.442,370.23588524522233
1246,1686621953.55,7.324,-378.418,11.23,10.742,1331.446,382.2556157305734
1247,1686621953.55,59.082,-140.137,94.727,48.34,1331.45,378.3851924954698
1248,1686621953.56,21.484,-138.184,38.086,17.578,1331.466,376.81206844468085
1249,1686621953.56,-29.785,-302.734,9.277,-20.996,1331.469,380.32702319246647
1250,1686621953.57,-3.418,-674.316,-32.715,6.836,1331.473,372.4857340819819
1251,1686621953.57,62.012,-360.352,178.711,60.059,1331.477,373.6467968553181
1252,1686621953.57,55.664,88.867,108.398,44.434,1331.481,377.02142820288236
1253,1686621953.58,-10.254,-482.91,-53.223,-10.254,1331.485,371.94472986580854
1254,1686621953.58,-17.578,-927.734,24.414,-8.789,1331.489,373.1194599872131
1255,1686621953.58,44.434,-374.023,229.98,46.387,1331.493,376.0905740778065
1256,1686621953.59,53.711,201.172,187.012,46.387,1331.497,379.86598715430404
1257,1686621953.59,-16.113,-167.48,-39.062,-10.254,1331.501,376.8992146277988
1258,1686621953.6,-50.293,-495.605,86.914,-41.504,1331.505,371.1744255280847
1259,1686621953.6,64.941,65.918,109.863,50.293,1331.528,374.644473485585
1260,1686621953.6,24.902,-51.27,256.348,9.766,1331.508,377.87131804092337
1261,1686621953.6,-3.418,-320.312,6.348,-4.395,1331.532,378.1769196006001
1262,1686621953.61,-43.945,-559.082,41.504,-31.25,1331.536,373.1692678913952
1263,1686621953.61,-5.371,-447.266,130.371,-0.977,1331.54,367.0298777158819
1264,1686621953.62,43.457,-34.18,188.477,29.297,1331.544,368.7299250398864
1265,1686621953.62,16.602,-342.773,-0.977,13.184,1331.548,379.77122899390366
1266,1686621953.62,-57.129,-1000.0,-23.438,-37.109,1331.552,367.59561849215356
1267,1686621953.63,-39.062,-687.5,279.785,-25.391,1331.556,369.32134839535934
1268,1686621953.63,31.25,80.078,251.465,28.809,1331.559,383.6016688196158
1269,1686621953.64,12.695,-178.223,20.996,23.438,1331.563,375.39991681460555
1270,1686621953.64,-56.152,-501.465,186.523,-40.527,1331.567,377.45140001579614
1271,1686621953.64,-63.477,-142.09,218.75,-51.758,1331.571,377.8620618636669
1272,1686621953.66,2.93,9.277,62.5,4.883,1331.559,379.5628896676338
1273,1686621953.67,20.508,-217.773,21.484,16.113,1331.563,379.84240724198276
1274,1686621953.67,-47.852,-224.121,28.809,-36.621,1331.567,380.8020208974915
1275,1686621953.67,-72.754,-113.281,54.688,-64.453,1331.571,385.1939631174236
1276,1686621953.68,-2.93,-251.953,33.203,-15.137,1331.575,370.6166599523061
1277,1686621953.68,36.621,-586.914,85.938,22.949,1331.579,369.1001449679196
1278,1686621953.68,-13.184,-673.828,81.543,-18.066,1331.583,374.0031837824636
1279,1686621953.69,-61.035,-476.562,130.371,-61.523,1331.587,363.8217800095859
1280,1686621953.69,-20.996,-305.176,144.531,-23.438,1331.591,374.9213882516226
1281,1686621953.7,31.25,-755.859,16.602,31.738,1331.594,374.9670446322004
1282,1686621953.7,3.418,-523.438,165.039,-3.906,1331.598,377.9599365561608
1283,1686621953.7,-56.152,-91.797,99.609,-66.895,1331.602,387.10408406767726
1284,1686621953.7,-39.062,-356.445,-41.016,-51.27,1331.602,380.02084894869967
1285,1686621953.71,26.855,-667.969,119.629,14.16,1331.606,383.0370352302561
1286,1686621953.71,27.344,-215.332,207.031,20.996,1331.61,377.5958419247408
1287,1686621953.72,-43.945,-40.527,25.391,-35.645,1331.614,373.816504675505
1288,1686621953.72,-64.941,-370.117,27.832,-47.852,1331.618,382.89273424599054
1289,1686621953.72,0.977,-497.559,169.434,5.859,1331.621,372.49216318748563
1290,1686621953.73,20.02,-454.59,92.285,22.461,1331.625,374.35918735973036
1291,1686621953.73,-30.762,-560.059,18.555,-39.551,1331.629,369.87420916632743
1292,1686621953.74,-61.523,-734.863,4.883,-64.453,1331.633,376.08501354412437
1293,1686621953.74,-10.742,-1000.0,49.316,-17.578,1331.637,386.8154216229427
1294,1686621953.74,43.945,-591.309,327.637,20.508,1331.641,382.6697414842474
1295,1686621953.75,2.441,-27.832,184.57,-14.16,1331.645,378.2551657287908
