,timestamps,TP9,AF7,AF8,TP10,Secondary Timestamp,emg_signal
0,1686015322.74,-21.973,981.934,106.934,1.953,117087.165,311.6706196587535
1,1686015322.75,-26.367,756.348,54.199,12.695,117087.168,312.69975062065913
2,1686015322.75,-40.039,877.441,74.219,1.953,117087.172,311.051047900654
3,1686015322.76,-48.34,-987.305,70.801,3.906,117087.176,321.2017306161318
4,1686015322.76,-51.758,884.277,62.988,7.812,117087.18,312.27277820882153
5,1686015322.76,-55.176,537.598,73.73,12.695,117087.184,308.53817371196556
6,1686015322.77,-52.246,622.559,100.098,14.16,117087.188,318.02174823890385
7,1686015322.77,-44.922,-992.188,99.609,5.859,117087.192,317.496032440561
8,1686015322.77,-46.875,897.461,49.805,2.93,117087.196,315.35874243592474
9,1686015322.78,-51.758,305.664,62.988,0.0,117087.2,309.90623883915185
10,1686015322.78,-49.316,521.973,106.934,-6.348,117087.204,315.5003581543985
11,1686015322.79,-42.969,971.68,98.145,2.441,117087.208,306.3223234133113
12,1686015322.79,-36.621,861.328,83.008,16.602,117087.209,318.90977874264735
13,1686015322.79,-45.898,714.844,110.352,0.977,117087.213,315.1570731807839
14,1686015322.8,-65.918,933.105,95.215,-17.578,117087.217,307.6856665116154
15,1686015322.8,-68.359,998.047,62.5,-13.184,117087.22,309.1208347369366
16,1686015322.8,-62.5,825.684,60.059,-15.625,117087.224,310.0439559924783
17,1686015322.81,-57.129,772.949,89.844,-9.766,117087.228,323.9491564264808
18,1686015322.81,-52.734,789.062,81.543,-16.602,117087.232,314.31687390089246
19,1686015322.82,-59.57,811.523,78.125,-41.016,117087.236,314.40154059130737
20,1686015322.82,-58.105,544.922,56.152,-34.18,117087.24,311.37473114732165
21,1686015322.82,-59.57,-77.148,89.355,-14.648,117087.244,317.96618606099616
22,1686015322.83,-58.594,675.781,161.621,-10.254,117087.248,324.03810000494644
23,1686015322.83,-57.129,-938.965,92.285,-14.16,117087.252,322.0946934340138
24,1686015322.83,-70.312,699.707,53.711,-23.926,117087.255,321.11772409922673
25,1686015322.84,-78.613,854.492,119.629,-21.484,117087.259,316.7979520574305
26,1686015322.84,-76.172,-981.445,113.77,-10.742,117087.263,319.34324769014734
27,1686015322.85,-76.172,921.387,43.945,-10.742,117087.267,314.7524016426018
28,1686015322.85,-78.613,651.367,83.496,-12.207,117087.271,315.18318909450784
29,1686015322.85,-68.848,759.766,128.418,-8.301,117087.275,314.78405319632805
30,1686015322.86,-68.359,-994.629,123.047,-8.301,117087.278,307.86751972482966
31,1686015322.86,-71.777,951.66,64.453,4.883,117087.282,311.417023252874
32,1686015322.86,-71.777,242.676,19.531,10.254,117087.286,314.61887988965793
33,1686015322.87,-68.359,458.496,160.156,0.977,117087.29,313.0157980251342
34,1686015322.87,-60.547,-950.684,152.344,0.0,117087.294,315.4061370027914
35,1686015322.88,-67.871,938.965,75.195,-11.23,117087.298,314.7764278965518
36,1686015322.88,-74.219,955.566,108.887,-4.395,117087.297,310.5305135880068
37,1686015322.88,-69.824,968.262,117.188,10.742,117087.301,313.74192900617663
38,1686015322.88,-65.918,977.539,84.473,17.09,117087.305,311.17597192974995
39,1686015322.89,-58.105,928.711,63.477,18.555,117087.309,309.3124902029316
40,1686015322.89,-58.594,918.457,86.914,8.789,117087.313,311.5558482857166
41,1686015322.9,-57.129,904.785,81.543,14.648,117087.317,310.62157192041707
42,1686015322.9,-53.711,-980.957,95.703,24.902,117087.321,301.5320163705923
43,1686015322.9,-62.988,787.109,43.945,19.531,117087.325,309.2736172721149
44,1686015322.91,-72.266,24.902,27.344,19.531,117087.329,317.64143102787085
45,1686015322.91,-67.871,596.68,149.414,11.23,117087.333,315.85185723744485
46,1686015322.92,-62.988,-931.641,120.605,-4.883,117087.336,315.0977470357689
47,1686015322.92,-65.43,899.902,75.195,-9.277,117087.34,309.88637348209596
48,1686015322.92,-67.383,963.379,87.402,-3.418,117087.344,310.6151999051712
49,1686015322.93,-64.453,980.469,82.52,-3.906,117087.348,309.32989228140525
50,1686015322.93,-59.57,952.637,76.172,2.441,117087.352,306.6932654664722
51,1686015322.94,-56.641,935.547,109.375,18.066,117087.356,319.60896650479646
52,1686015322.94,-71.289,946.777,88.379,-1.465,117087.36,300.8398439478983
53,1686015322.94,-87.891,972.168,33.203,-12.695,117087.364,311.5305018656654
54,1686015322.95,-82.031,945.801,52.734,-1.953,117087.368,310.8106614904014
55,1686015322.95,-80.078,458.984,55.176,5.859,117087.372,316.3504994157913
56,1686015322.95,-78.125,666.016,161.621,2.93,117087.376,307.73501386127833
57,1686015322.96,-87.891,-960.449,109.375,-18.066,117087.379,312.8412140369268
58,1686015322.96,-88.379,943.359,25.879,-22.949,117087.383,310.64136729749663
59,1686015322.97,-81.055,971.68,104.98,-18.555,117087.387,303.7566176203071
60,1686015322.98,-87.402,970.703,95.215,-20.508,117087.402,312.7055469146461
61,1686015322.99,-96.191,974.121,46.875,-30.273,117087.406,312.71985579134054
62,1686015322.99,-100.586,947.754,36.621,-35.156,117087.41,308.57017275482434
63,1686015322.99,-92.773,956.543,124.023,-34.668,117087.414,301.0163990721261
64,1686015323.0,-85.938,934.082,104.492,-27.344,117087.418,323.4934469966007
65,1686015323.0,-91.797,-970.215,42.48,-33.203,117087.422,306.5680734929461
66,1686015323.0,-89.844,823.242,35.645,-35.645,117087.426,306.56427422050314
67,1686015323.01,-80.078,183.594,60.547,-10.742,117087.43,304.59913758696814
68,1686015323.01,-82.52,719.727,148.438,0.0,117087.434,306.9926191284258
69,1686015323.02,-83.008,-922.852,107.422,-5.859,117087.438,304.1839690428818
70,1686015323.02,-74.707,827.637,34.668,1.465,117087.441,310.5673511308403
71,1686015323.02,-74.707,900.879,113.77,5.859,117087.445,302.7019759163548
72,1686015323.04,-79.102,996.094,138.672,4.883,117087.477,304.6263064431292
73,1686015323.05,-72.266,954.59,90.332,6.348,117087.481,307.87158872074633
74,1686015323.05,-72.754,942.871,86.914,-3.418,117087.485,309.4941309149474
75,1686015323.05,-81.055,963.379,107.422,-16.602,117087.489,302.2511442553306
76,1686015323.06,-77.637,988.281,106.934,-11.23,117087.493,309.7614503693967
77,1686015323.06,-73.242,910.645,68.359,4.395,117087.497,302.1078088995997
78,1686015323.06,-79.59,846.68,104.492,3.418,117087.501,308.0760158088954
79,1686015323.07,-80.078,940.918,142.578,-4.395,117087.504,310.2948795437253
80,1686015323.07,-70.801,-989.746,134.766,6.836,117087.508,297.0573616167929
81,1686015323.08,-69.824,928.223,107.422,25.391,117087.512,303.16996290647387
82,1686015323.08,-68.848,580.566,70.312,30.762,117087.516,296.1810395106199
83,1686015323.08,-56.152,832.52,157.715,14.648,117087.52,295.50425549388467
84,1686015323.09,-44.434,-968.262,165.039,20.02,117087.51,310.2905084489326
85,1686015323.09,-40.039,921.875,108.398,35.645,117087.514,300.5967965724033
86,1686015323.1,-38.574,944.824,149.902,16.113,117087.518,298.71734315462135
87,1686015323.1,-60.547,967.773,148.438,-9.277,117087.522,298.7867828004986
88,1686015323.1,-64.453,990.723,99.609,-9.277,117087.526,303.9739675904007
89,1686015323.11,-51.758,908.203,87.402,10.254,117087.53,285.158848575
90,1686015323.11,-45.898,860.84,148.438,13.672,117087.534,298.08215392414326
91,1686015323.12,-41.992,976.074,170.41,6.836,117087.538,298.7006100608128
92,1686015323.12,-44.922,978.027,124.512,1.953,117087.542,297.2690750368018
93,1686015323.12,-39.062,942.383,93.262,6.348,117087.546,300.20818235687716
94,1686015323.13,-37.109,944.824,138.184,18.555,117087.55,306.9527433070731
95,1686015323.13,-39.062,980.469,140.625,8.301,117087.553,300.98024905049544
96,1686015323.13,-37.598,980.469,87.402,-2.441,117087.555,292.18436016950295
97,1686015323.14,-39.551,765.137,48.34,-0.977,117087.559,288.05048795349416
98,1686015323.14,-40.527,818.359,173.34,1.465,117087.563,299.818947555807
99,1686015323.15,-36.621,-978.516,178.223,-2.441,117087.567,297.867801687551
100,1686015323.15,-35.156,950.684,74.219,-20.02,117087.571,295.58162727655775
101,1686015323.15,-30.273,693.848,54.199,-16.602,117087.575,300.4748583502032
102,1686015323.16,-37.598,841.797,164.551,-7.324,117087.579,291.1709463742906
103,1686015323.16,-40.527,-979.004,149.902,-4.395,117087.583,297.4072290400388
104,1686015323.16,-33.203,935.059,81.543,15.625,117087.583,291.5033100154691
105,1686015323.16,-31.738,938.477,69.336,3.906,117087.586,289.3081454191909
106,1686015323.17,-40.527,596.68,70.312,19.043,117087.587,293.49818340548364
107,1686015323.17,-27.832,949.707,141.602,6.836,117087.59,290.0021800191595
108,1686015323.17,-40.527,823.73,202.148,13.184,117087.591,291.2308743023942
109,1686015323.17,-12.695,956.055,174.805,21.484,117087.594,291.87570621949817
110,1686015323.17,-36.133,-971.68,170.41,19.043,117087.595,301.2943402170239
111,1686015323.18,-14.16,998.535,149.902,24.902,117087.598,292.5364852081012
112,1686015323.18,-20.508,923.828,97.168,29.785,117087.599,296.16291876500924
113,1686015323.18,-17.09,949.707,134.766,28.32,117087.602,299.79970270457625
114,1686015323.18,-16.113,976.074,171.387,30.762,117087.606,292.19780120464605
115,1686015323.19,-7.324,974.121,166.016,41.992,117087.61,288.4789343431476
116,1686015323.19,-11.719,955.078,116.699,48.34,117087.614,290.44078413345306
117,1686015323.2,-19.531,959.961,146.484,43.945,117087.618,292.8143714004487
118,1686015323.2,-22.949,955.566,187.988,31.25,117087.622,289.11907014797544
119,1686015323.2,-25.391,-994.629,172.852,28.32,117087.626,292.5682670850253
120,1686015323.21,-23.926,903.32,57.617,26.855,117087.639,284.50443517576286
121,1686015323.21,-20.508,603.027,88.867,22.461,117087.642,289.8166480998296
122,1686015323.22,-16.113,867.188,219.727,20.996,117087.646,290.1203739411153
123,1686015323.22,-8.301,-987.793,171.875,24.902,117087.65,295.2819078990573
124,1686015323.22,-8.301,945.801,153.809,31.738,117087.654,291.7284115408707
125,1686015323.23,-16.113,972.656,122.559,17.578,117087.658,283.26903548590724
126,1686015323.23,-28.809,972.168,122.559,-2.441,117087.662,287.84077401118105
127,1686015323.24,-25.879,970.703,130.371,0.977,117087.666,293.1136089998928
128,1686015323.24,-21.973,891.602,86.426,11.719,117087.67,289.13681120957995
129,1686015323.24,-26.855,923.34,189.453,-0.977,117087.674,292.63099845885824
130,1686015323.25,-25.879,984.375,169.434,-12.695,117087.678,291.1847877564015
131,1686015323.25,-33.203,967.285,107.91,-1.465,117087.682,291.17297274248267
132,1686015323.25,-31.25,972.168,165.527,5.371,117087.672,288.3394524119743
133,1686015323.26,-19.043,971.68,148.926,-3.906,117087.676,290.589013600029
134,1686015323.26,-18.066,973.145,96.191,-12.207,117087.68,290.58789427949284
135,1686015323.26,-14.648,966.309,80.566,-9.766,117087.684,293.66129208138375
136,1686015323.27,-1.465,968.262,127.441,0.0,117087.688,291.8741040466074
137,1686015323.27,-11.23,963.867,120.117,4.883,117087.692,292.9304514605657
138,1686015323.28,-24.414,987.793,103.027,-2.441,117087.696,286.75293894686433
139,1686015323.28,-23.926,937.988,73.73,-4.883,117087.7,293.2636773888416
140,1686015323.28,-23.926,798.828,95.215,3.418,117087.704,288.43427626946504
141,1686015323.29,-27.832,924.316,172.852,-2.441,117087.708,293.40476733177394
142,1686015323.29,-27.344,991.211,124.023,-18.555,117087.711,293.64250418360245
143,1686015323.3,-34.668,961.914,50.293,-31.738,117087.715,299.48026124771803
144,1686015323.3,-37.598,973.145,124.512,-30.273,117087.719,293.7253587391782
145,1686015323.3,-34.18,972.656,140.625,-22.461,117087.723,297.8306774210188
146,1686015323.31,-41.016,970.215,93.262,-33.691,117087.727,291.32101257838383
147,1686015323.31,-39.551,968.75,104.492,-4.883,117087.731,293.5680339233885
148,1686015323.31,-38.086,968.75,120.117,76.172,117087.734,291.76164892036826
149,1686015323.32,-29.297,977.051,111.328,110.352,117087.738,298.61963967298357
150,1686015323.32,-31.25,965.82,89.844,101.074,117087.742,299.86925335814357
151,1686015323.32,-56.641,905.762,72.754,77.148,117087.746,292.03259846255264
152,1686015323.33,-56.641,947.754,162.598,63.965,117087.75,297.3640595091804
153,1686015323.33,-41.504,980.957,140.625,51.27,117087.754,295.0326433809138
154,1686015323.34,-43.457,967.285,83.008,39.551,117087.758,298.28731422994235
155,1686015323.34,-37.598,972.656,95.215,41.504,117087.762,301.2269969700851
156,1686015323.34,-38.574,971.68,110.84,42.969,117087.763,300.64136384382175
157,1686015323.35,-39.551,973.145,140.625,53.223,117087.767,291.23285506929744
158,1686015323.35,-36.621,967.285,105.957,60.547,117087.771,294.2412702487706
159,1686015323.36,-45.898,967.285,127.441,53.223,117087.775,295.9768056030976
160,1686015323.36,-42.969,969.727,94.238,42.969,117087.779,303.3176764330213
161,1686015323.36,-41.992,979.004,94.727,41.016,117087.783,289.10794885590195
162,1686015323.37,-38.086,950.684,83.496,51.27,117087.787,295.9156808720184
163,1686015323.37,-35.645,921.875,63.477,46.387,117087.791,287.7841421189092
164,1686015323.37,-36.133,967.285,149.414,33.691,117087.794,297.5917911207223
165,1686015323.38,-27.832,974.609,120.117,39.062,117087.798,296.51852883135365
166,1686015323.38,-28.809,969.727,104.004,35.156,117087.802,293.5211345044214
167,1686015323.39,-35.645,971.191,135.742,18.555,117087.806,300.1165110486739
168,1686015323.4,-32.715,972.656,112.793,8.301,117087.824,299.14842733307455
169,1686015323.41,-32.715,969.727,88.379,5.859,117087.828,294.7780541615932
170,1686015323.41,-33.691,966.797,95.215,12.695,117087.832,298.21537956721306
171,1686015323.41,-26.855,970.703,138.184,4.883,117087.836,306.10146027444813
172,1686015323.42,-25.879,974.121,102.051,-18.555,117087.84,305.6219622291215
173,1686015323.42,-28.32,968.75,26.855,-24.902,117087.843,296.39643335511124
174,1686015323.42,-19.043,939.453,36.133,-15.137,117087.847,297.3028883562964
175,1686015323.43,-5.371,956.055,189.941,-18.066,117087.851,307.0381745631343
176,1686015323.43,-13.672,972.656,94.238,-0.977,117087.867,299.6685724255491
177,1686015323.43,-5.371,976.074,161.621,-21.484,117087.855,302.61468417123103
178,1686015323.44,-23.926,968.75,56.152,-22.461,117087.87,293.4335180608119
179,1686015323.44,-19.043,970.215,76.172,-13.184,117087.859,300.7721248071093
180,1686015323.44,-36.133,968.75,107.422,-26.367,117087.874,296.4575178223924
181,1686015323.44,-25.391,971.68,127.93,-7.812,117087.863,299.73684597767794
182,1686015323.44,-34.668,971.68,134.277,-23.438,117087.878,300.75623942357856
183,1686015323.44,-16.602,971.68,122.559,4.883,117087.867,310.4189838609875
184,1686015323.45,-31.25,974.609,70.312,-19.043,117087.882,299.1054138554745
185,1686015323.45,-37.109,959.961,46.387,-20.996,117087.886,306.68318392667345
186,1686015323.46,-35.645,958.496,102.539,-25.879,117087.89,302.7670463171238
187,1686015323.46,-15.625,971.68,116.211,-15.625,117087.894,295.31932116146515
188,1686015323.46,-10.254,976.074,101.074,-14.16,117087.898,298.3240390523258
189,1686015323.47,-14.16,959.473,23.438,-18.555,117087.902,308.4369562855536
190,1686015323.47,-13.184,924.805,51.758,-7.812,117087.906,313.3658791455534
191,1686015323.48,-4.395,958.984,181.641,-6.836,117087.91,301.92809665627107
192,1686015323.49,-3.418,976.074,117.188,-17.578,117087.927,306.277445111082
193,1686015323.5,-13.184,969.238,59.082,-23.926,117087.931,307.3600889740267
194,1686015323.5,-19.043,971.191,87.402,-34.668,117087.934,303.0563319166294
195,1686015323.5,-16.602,973.633,106.445,-36.621,117087.938,303.04141837015237
196,1686015323.51,-20.508,968.262,95.703,-32.227,117087.942,306.74534645387007
197,1686015323.51,-24.902,963.379,87.891,-34.668,117087.946,310.9078790058734
198,1686015323.52,-36.133,971.68,105.957,-43.945,117087.95,310.9555155793818
199,1686015323.52,-43.457,973.145,76.66,-50.293,117087.954,312.4328978961829
200,1686015323.52,-38.086,969.238,51.27,-37.109,117087.958,309.34232282086776
201,1686015323.53,-37.598,959.961,33.203,-33.691,117087.962,320.62195558031055
202,1686015323.53,-38.574,967.285,106.445,-46.387,117087.966,307.36041480212936
203,1686015323.54,-35.645,973.145,98.633,-47.363,117087.97,311.7023767376951
204,1686015323.54,-39.062,971.191,67.871,-41.992,117087.957,319.7381316635715
205,1686015323.54,-35.156,971.68,83.496,-33.203,117087.961,318.191484164105
206,1686015323.54,-38.574,971.68,53.711,-30.762,117087.965,320.5869488497337
207,1686015323.55,-59.57,972.168,42.48,-43.945,117087.969,315.23450041076063
208,1686015323.55,-64.941,970.215,40.527,-53.223,117087.973,315.34249240065935
209,1686015323.56,-60.547,970.215,85.938,-57.129,117087.977,319.3660535498767
210,1686015323.56,-64.941,970.703,64.941,-57.617,117087.981,310.3883792290604
211,1686015323.56,-56.641,975.098,37.109,-52.734,117087.985,310.05400781205907
212,1686015323.57,-27.344,962.891,28.809,-31.25,117087.989,312.1389577835326
213,1686015323.57,-10.254,955.078,92.285,0.0,117087.993,318.56583013844164
214,1686015323.58,-42.48,972.656,132.812,-14.16,117087.996,318.78714776017523
215,1686015323.58,-72.266,973.145,79.102,-61.523,117088.0,311.54186980622535
216,1686015323.58,-67.871,966.309,22.461,-63.477,117088.005,320.01190134624994
217,1686015323.59,-63.477,966.309,132.324,-45.898,117088.009,316.7092898781253
218,1686015323.59,-58.105,973.145,138.672,-47.363,117088.013,318.09170773906465
219,1686015323.6,-51.758,970.703,46.875,-41.504,117088.017,317.12333586370295
220,1686015323.6,-44.922,969.727,102.051,-25.391,117088.021,318.4227631650288
221,1686015323.6,-36.621,971.191,109.863,-6.348,117088.025,319.7225252025505
222,1686015323.61,-32.227,973.145,125.977,-3.906,117088.029,331.7112096218612
223,1686015323.61,-22.461,968.75,66.895,-14.648,117088.033,322.3535850602757
224,1686015323.62,-23.926,963.867,26.367,-14.16,117088.037,322.26273519640694
225,1686015323.62,-23.926,971.68,135.742,-6.348,117088.04,327.09006179149196
226,1686015323.62,-24.414,972.168,107.91,4.883,117088.044,324.15784368434674
227,1686015323.63,-31.738,971.68,60.059,5.859,117088.048,326.7640709047685
228,1686015323.63,-34.18,971.68,81.055,0.0,117088.05,336.6144970941671
229,1686015323.63,-24.414,971.68,112.793,2.441,117088.054,326.9467794892177
230,1686015323.64,-13.184,972.656,112.793,15.137,117088.058,321.6704476425028
231,1686015323.64,0.488,968.262,78.125,34.668,117088.061,318.76605023741524
232,1686015323.64,10.742,967.773,108.887,31.25,117088.065,324.0674584596085
233,1686015323.65,12.207,971.68,99.121,28.32,117088.069,329.1241192996058
234,1686015323.65,14.648,973.145,99.609,30.762,117088.073,323.1685455382408
235,1686015323.66,17.09,967.773,57.129,32.227,117088.077,329.8265650730172
236,1686015323.66,-3.906,962.402,52.734,29.297,117088.081,325.9213106455497
237,1686015323.66,-11.23,971.191,148.926,17.578,117088.085,331.8999280971226
238,1686015323.67,5.371,972.168,112.793,13.184,117088.089,318.69541475525017
239,1686015323.67,2.441,971.68,59.57,6.836,117088.093,325.6902359809401
240,1686015323.67,-6.348,971.68,78.125,-2.93,117088.095,327.11545823586965
241,1686015323.68,-11.23,972.168,72.754,-17.09,117088.099,328.4919586830831
242,1686015323.68,-10.254,971.68,54.688,-16.113,117088.103,323.47765346398523
243,1686015323.69,-6.348,971.191,77.148,-6.348,117088.107,320.79402256568255
244,1686015323.69,-13.184,971.191,85.449,-18.066,117088.111,337.1682014187062
245,1686015323.69,-19.531,972.168,52.246,-30.762,117088.115,333.02870516188744
246,1686015323.7,-15.137,972.168,47.852,-30.273,117088.119,332.03747988538845
247,1686015323.7,0.488,957.031,37.598,-15.625,117088.122,331.20421272985203
248,1686015323.7,-0.488,961.426,144.531,-20.996,117088.126,331.74258448403384
249,1686015323.71,-7.324,974.121,89.355,-41.504,117088.13,331.16385949498977
250,1686015323.71,-7.324,971.191,18.555,-56.641,117088.134,330.10796099465836
251,1686015323.72,-17.09,971.68,65.43,-71.777,117088.138,325.7328274431486
252,1686015323.72,-16.602,971.68,86.426,-65.918,117088.138,329.67328330600606
253,1686015323.72,-22.461,972.656,26.855,-84.961,117088.142,336.1388632897195
254,1686015323.72,-25.391,968.75,24.902,-89.355,117088.146,326.8495964449391
255,1686015323.73,-19.531,969.727,92.285,-89.844,117088.15,329.0574773746229
256,1686015323.73,-24.902,967.773,67.871,-91.797,117088.154,330.07659515860036
257,1686015323.74,-28.809,980.957,30.273,-100.098,117088.158,340.84078487014267
258,1686015323.74,-31.25,949.707,11.23,-97.656,117088.162,330.1664359599988
259,1686015323.74,-36.133,895.508,24.414,-84.961,117088.166,335.32506905210124
260,1686015323.75,-42.969,956.543,140.625,-86.914,117088.169,328.9110137215472
261,1686015323.75,-41.504,979.004,84.961,-91.309,117088.173,324.03736020102826
262,1686015323.76,-41.504,965.82,-11.23,-98.633,117088.177,329.1692623918156
263,1686015323.76,-43.945,969.238,82.031,-98.633,117088.181,336.1789471254571
264,1686015323.76,-45.41,973.145,100.586,-92.285,117088.198,326.70065315753357
265,1686015323.77,-44.434,970.215,35.645,-76.66,117088.202,333.6776338804735
266,1686015323.77,-37.598,968.262,34.18,-74.219,117088.206,335.90040321307833
267,1686015323.78,-57.129,970.215,72.266,-92.773,117088.21,338.17276136416183
268,1686015323.78,-75.195,975.098,71.289,-93.262,117088.213,336.8768158186386
269,1686015323.78,-76.172,966.797,31.738,-82.52,117088.217,328.32060099174663
270,1686015323.79,-80.566,936.523,32.227,-83.984,117088.221,335.56511679838155
271,1686015323.79,-86.914,958.984,99.609,-89.844,117088.225,329.05370924831584
272,1686015323.8,-77.148,977.051,63.965,-103.027,117088.229,334.980142312482
273,1686015323.8,-62.988,967.773,35.156,-100.586,117088.233,331.92441893464456
274,1686015323.8,-59.57,967.285,111.816,-93.262,117088.237,335.58769590234203
275,1686015323.81,-79.59,972.168,108.887,-103.027,117088.241,335.1349870772359
276,1686015323.81,-92.285,972.168,55.664,-102.051,117088.257,331.20347197325276
277,1686015323.81,-74.219,970.215,49.805,-87.891,117088.261,333.59280982790847
278,1686015323.82,-73.242,970.703,68.848,-85.449,117088.265,328.1907936027329
279,1686015323.82,-73.73,970.703,67.871,-89.355,117088.269,336.77772497900514
280,1686015323.82,-63.477,976.074,54.199,-79.59,117088.273,330.8868063786075
281,1686015323.83,-62.988,959.961,31.25,-69.824,117088.277,321.8807877334207
282,1686015323.83,-67.871,952.637,88.379,-64.941,117088.281,318.6783263214907
283,1686015323.83,-70.801,973.145,116.699,-68.359,117088.285,333.13343060370175
284,1686015323.84,-73.242,974.121,58.105,-64.941,117088.289,331.52941965430824
285,1686015323.84,-72.266,963.379,18.555,-56.641,117088.293,328.36532636391644
286,1686015323.85,-67.383,962.891,90.332,-56.641,117088.297,332.84813254256903
287,1686015323.85,-68.359,973.633,83.008,-69.336,117088.3,327.4869513358943
288,1686015323.87,-69.824,971.68,35.156,-83.984,117088.291,328.4253784897704
289,1686015323.87,-60.547,972.168,-8.789,-73.242,117088.295,328.75812441289435
290,1686015323.88,-59.57,971.191,51.758,-69.336,117088.299,326.8166921006821
291,1686015323.88,-67.871,973.633,61.523,-90.82,117088.303,323.96708816750225
292,1686015323.88,-80.078,967.773,23.926,-104.98,117088.307,328.4995068310812
293,1686015323.89,-84.473,961.914,77.637,-111.328,117088.311,326.9269432769304
294,1686015323.89,-68.359,971.68,105.469,-106.445,117088.315,318.96100941873317
295,1686015323.9,-64.941,972.656,49.316,-102.051,117088.319,322.2701211241512
296,1686015323.9,-68.359,971.191,-6.348,-106.934,117088.323,325.5898970806694
297,1686015323.9,-60.059,971.68,59.57,-93.75,117088.327,322.5091269412142
298,1686015323.91,-55.664,970.215,104.492,-67.871,117088.331,325.93695894035505
299,1686015323.91,-53.223,975.098,67.383,-61.523,117088.334,324.4296374486517
300,1686015323.91,-62.988,964.355,16.113,-66.406,117088.336,323.49970138363744
301,1686015323.92,-72.266,952.637,56.641,-70.801,117088.34,322.7794926621575
302,1686015323.92,-66.406,971.191,107.91,-69.336,117088.344,318.32097153270774
303,1686015323.92,-53.711,975.098,63.477,-61.035,117088.348,327.0383994246266
304,1686015323.93,-56.152,961.914,1.465,-58.594,117088.352,325.1097023921337
305,1686015323.93,-75.195,961.914,30.273,-64.453,117088.356,321.26231705486134
306,1686015323.94,-86.426,972.168,70.801,-62.5,117088.359,319.3748772903083
307,1686015323.94,-79.102,974.609,66.895,-57.129,117088.363,324.4942134460499
308,1686015323.94,-73.242,962.891,-0.488,-57.617,117088.367,316.1070591770407
309,1686015323.95,-73.242,940.918,2.441,-56.641,117088.371,323.55738133170996
310,1686015323.95,-70.312,962.891,105.469,-68.848,117088.375,323.37199512633896
311,1686015323.96,-56.641,974.609,70.312,-71.289,117088.379,315.64345717494575
312,1686015323.96,-49.316,970.703,45.898,-60.059,117088.38,321.2513022952698
313,1686015323.96,-58.594,971.191,54.199,-70.312,117088.384,322.8440328614508
314,1686015323.97,-60.547,972.656,28.809,-72.754,117088.388,317.14969348337604
315,1686015323.97,-52.246,969.238,21.973,-55.664,117088.392,331.68754191356
316,1686015323.98,-47.363,966.309,34.18,-62.012,117088.396,322.1362766640562
317,1686015323.98,-60.547,970.703,23.438,-65.43,117088.4,321.1371344202181
318,1686015323.98,-64.453,973.633,24.414,16.602,117088.403,326.70338803930684
319,1686015323.99,-46.387,970.215,21.973,80.566,117088.407,325.0079094364931
320,1686015323.99,-41.504,942.871,0.488,91.309,117088.411,323.9104102194865
321,1686015323.99,-44.922,956.055,122.559,77.148,117088.415,313.0966662042178
322,1686015324.0,-44.922,975.586,77.637,58.594,117088.419,325.5918737735635
323,1686015324.0,-34.668,972.168,58.594,56.152,117088.423,325.66040734019316
324,1686015324.0,-41.504,970.215,8.301,52.734,117088.423,324.2637974378006
325,1686015324.01,-32.715,971.68,37.598,56.641,117088.427,324.9608702313806
326,1686015324.01,-32.227,972.656,3.418,50.781,117088.431,324.33675517023926
327,1686015324.01,-25.391,969.727,18.555,51.27,117088.435,311.3341612981204
328,1686015324.02,-22.461,969.727,57.617,58.594,117088.439,322.95323247506104
329,1686015324.02,-24.902,969.727,29.297,64.453,117088.443,327.8670806691603
330,1686015324.02,-28.809,977.539,19.043,54.688,117088.447,320.0664422088463
331,1686015324.03,-29.785,954.102,3.418,45.898,117088.451,319.263978745354
332,1686015324.03,-35.156,926.27,28.32,49.316,117088.455,318.3107373841542
333,1686015324.04,-32.715,964.844,150.879,39.551,117088.459,319.50022333825535
334,1686015324.04,-31.738,974.609,74.707,27.832,117088.463,327.4539741683648
335,1686015324.04,-36.621,970.215,-18.555,12.207,117088.466,325.07066242288334
336,1686015324.05,-40.039,971.68,48.34,2.441,117088.47,320.73177600730537
337,1686015324.05,-42.969,972.168,59.082,-2.93,117088.474,316.6925288782772
338,1686015324.06,-45.898,970.703,22.461,-20.996,117088.478,331.57121916438405
339,1686015324.06,-57.617,970.215,54.199,-31.25,117088.482,327.7920350008353
340,1686015324.06,-56.152,969.238,59.082,-30.273,117088.486,335.30958075589336
341,1686015324.07,-53.223,976.562,22.949,-25.879,117088.49,325.32328322895654
342,1686015324.07,-60.547,964.355,6.836,-31.25,117088.494,325.78255030286505
343,1686015324.08,-55.176,923.828,10.742,-33.203,117088.497,322.28198390576165
344,1686015324.08,-49.805,957.031,81.543,-35.156,117088.501,328.20585577027094
345,1686015324.08,-49.316,978.516,38.574,-32.715,117088.505,325.38942543179286
346,1686015324.09,-43.945,966.797,7.812,-19.043,117088.509,333.3295546145758
347,1686015324.09,-50.293,967.773,85.449,-21.484,117088.513,324.39160408298335
348,1686015324.1,-57.617,971.68,78.125,-36.621,117088.516,333.8339151494009
349,1686015324.1,-51.758,973.633,15.137,-51.758,117088.52,332.1241739361192
350,1686015324.1,-57.617,966.309,11.23,-51.27,117088.524,333.0094265129324
351,1686015324.11,-65.43,966.797,52.734,-44.922,117088.528,330.599993719426
352,1686015324.11,-55.176,966.309,29.297,-50.293,117088.532,327.0063774543912
353,1686015324.12,-55.664,984.375,21.973,-50.781,117088.536,335.0401710882122
354,1686015324.12,-66.895,931.641,4.883,-46.387,117088.54,329.6059102624314
355,1686015324.12,-59.57,827.148,11.23,-37.109,117088.543,334.43846078947786
356,1686015324.13,-60.547,932.617,100.586,-47.363,117088.547,327.8287633766268
357,1686015324.13,-129.883,986.816,51.27,-62.012,117088.551,326.2777862956346
358,1686015324.14,-203.613,964.355,1.953,-48.828,117088.555,331.9177259183671
359,1686015324.14,-240.723,972.168,26.855,-47.363,117088.559,324.6686361783051
360,1686015324.14,-264.16,973.633,19.531,-65.43,117088.572,325.65393636811996
361,1686015324.14,-278.809,969.238,14.648,-63.477,117088.576,328.64787923948774
362,1686015324.15,-280.273,959.961,-22.949,-53.711,117088.58,328.8551112301375
363,1686015324.15,-272.461,963.867,32.227,-60.059,117088.584,336.2045458998607
364,1686015324.16,-262.207,980.957,32.715,-65.43,117088.588,330.85591119293775
365,1686015324.16,-259.766,963.867,-16.113,-67.383,117088.591,337.4809424041115
366,1686015324.16,-253.906,841.797,15.137,-63.477,117088.595,324.8857200586813
367,1686015324.17,-236.328,914.551,100.098,-68.848,117088.599,331.082975309603
368,1686015324.17,-239.258,991.211,47.363,-86.914,117088.603,334.6871654783564
369,1686015324.18,-234.863,963.379,-14.16,-89.355,117088.607,332.5331471147007
370,1686015324.18,-225.586,973.145,52.734,-80.566,117088.611,330.1156867807086
371,1686015324.18,-221.191,972.656,17.578,-82.031,117088.617,323.4025770621894
372,1686015324.18,-226.074,971.68,64.453,-78.125,117088.615,334.3598693379377
373,1686015324.19,-211.914,968.262,-12.695,-88.379,117088.621,335.1672526507643
374,1686015324.19,-196.289,971.68,12.207,-86.914,117088.625,335.9635672524201
375,1686015324.19,-187.988,953.613,54.199,-85.938,117088.629,336.2924697212681
376,1686015324.2,-187.012,-998.047,29.785,-91.309,117088.633,321.96399230436737
377,1686015324.2,-182.129,917.48,-14.16,-89.355,117088.637,325.82326352217035
378,1686015324.2,-183.105,591.797,13.672,-78.125,117088.641,333.5786033823939
379,1686015324.21,-175.781,835.449,108.398,-74.219,117088.645,323.85940821923793
380,1686015324.21,-164.062,-975.586,50.293,-77.637,117088.649,332.49698308695616
381,1686015324.22,-167.48,932.617,-28.809,-83.008,117088.652,333.556259589333
382,1686015324.22,-165.039,956.055,59.57,-80.078,117088.656,324.4108024982265
383,1686015324.22,-160.156,975.586,50.293,-80.566,117088.66,322.16027344689905
384,1686015324.26,-145.508,970.703,15.137,-81.055,117088.678,326.05584582577046
385,1686015324.26,-132.324,971.68,14.648,-87.891,117088.682,334.2844050093032
386,1686015324.26,-131.348,969.727,19.043,-96.191,117088.686,332.17381679369015
387,1686015324.27,-130.859,976.562,18.555,-88.867,117088.69,335.0526579822329
388,1686015324.27,-122.07,959.473,4.883,-79.102,117088.694,330.7921227397965
389,1686015324.28,-125.488,943.848,20.996,-77.148,117088.697,327.7185250634166
390,1686015324.28,-127.93,960.449,21.973,-79.59,117088.701,345.72009214611097
391,1686015324.28,-121.094,983.398,32.227,-79.59,117088.705,336.36689068294464
392,1686015324.29,-101.562,957.52,-19.043,-82.031,117088.708,333.54855178679264
393,1686015324.29,-110.352,965.82,10.254,-70.801,117088.709,334.6281657059632
394,1686015324.29,-91.309,974.609,41.016,-70.801,117088.712,332.0625474267663
395,1686015324.29,-104.004,747.559,-18.555,-60.059,117088.713,337.35850287153846
396,1686015324.3,-98.145,970.703,17.578,-76.66,117088.716,339.02223619439405
397,1686015324.3,-109.863,862.305,64.941,-75.195,117088.717,337.4578011918517
398,1686015324.3,-109.375,975.098,-9.277,-93.75,117088.72,342.0573228127406
399,1686015324.3,-111.816,-993.164,14.648,-90.332,117088.721,340.05329703563535
400,1686015324.3,-103.516,958.984,-1.465,-86.914,117088.724,338.96582445434785
401,1686015324.31,-88.867,958.984,34.18,-89.844,117088.727,337.05272877311506
402,1686015324.31,-97.656,965.332,13.184,-108.398,117088.731,342.3722564658603
403,1686015324.31,-109.375,991.211,-6.836,-114.258,117088.735,335.27826435689616
404,1686015324.32,-98.145,898.438,-7.812,-111.816,117088.739,332.8781704211298
405,1686015324.32,-92.773,852.051,77.637,-101.074,117088.743,340.2411733848916
406,1686015324.33,-89.844,965.82,65.43,-98.633,117088.747,337.7998590081469
407,1686015324.33,-89.355,-991.699,-15.137,-104.98,117088.751,340.7645373758339
408,1686015324.33,-93.75,863.281,-55.664,-94.727,117088.755,341.703510900697
409,1686015324.34,-85.449,753.418,67.383,-82.52,117088.759,337.60756175875684
410,1686015324.34,-77.637,973.145,93.75,-83.984,117088.763,348.879602981451
411,1686015324.35,-84.473,975.586,-8.301,-89.844,117088.767,345.8314739007167
412,1686015324.35,-93.262,950.684,34.668,-99.609,117088.77,351.01540276212995
413,1686015324.35,-84.473,958.984,38.086,-85.449,117088.774,337.8430529762201
414,1686015324.36,-77.637,991.211,37.109,-76.172,117088.778,344.15525118876434
415,1686015324.36,-73.73,950.195,-10.742,-83.496,117088.782,341.66679236238974
416,1686015324.36,-62.988,682.129,-24.902,-83.008,117088.786,338.7266046524885
417,1686015324.37,-59.082,853.027,65.918,-85.938,117088.79,343.11282878941677
418,1686015324.37,-56.641,-982.422,12.207,-80.566,117088.794,351.5940751169137
419,1686015324.38,-67.383,938.477,-6.348,-78.613,117088.798,345.97748006447557
420,1686015324.38,-81.543,946.777,65.918,-99.609,117088.798,341.28943315631875
421,1686015324.38,-89.355,973.145,50.293,-125.977,117088.802,346.12726710301473
422,1686015324.38,-88.867,974.121,3.418,-130.859,117088.806,348.19640709968155
423,1686015324.39,-85.938,961.914,6.348,-131.836,117088.81,346.9612670513756
424,1686015324.39,-98.633,964.355,17.09,-146.484,117088.814,342.7820759217312
425,1686015324.4,-104.004,947.266,17.09,-154.297,117088.818,333.39726014414833
426,1686015324.4,-98.633,-991.211,31.25,-148.438,117088.822,343.3863987898052
427,1686015324.4,-95.215,894.043,-17.09,-141.602,117088.826,345.3399263488519
428,1686015324.41,-93.262,528.809,-1.465,-137.207,117088.83,335.0634428989246
429,1686015324.41,-93.262,830.078,90.82,-145.996,117088.833,340.30634034954556
430,1686015324.42,-84.473,-975.098,40.527,-137.207,117088.837,345.64961826936894
431,1686015324.42,-85.449,947.266,-7.812,-122.07,117088.841,341.48511527644314
432,1686015324.44,-90.82,970.215,-3.906,-129.883,117088.862,335.8826998425057
433,1686015324.44,-76.172,980.469,-1.465,-123.047,117088.866,342.13914761216597
434,1686015324.45,-67.383,960.449,7.324,-115.723,117088.869,335.8888081533619
435,1686015324.45,-68.359,875.488,0.488,-121.094,117088.873,324.027872323503
436,1686015324.46,-68.359,930.664,26.367,-128.418,117088.877,332.1819671357038
437,1686015324.46,-74.707,999.023,7.812,-129.883,117088.881,332.60645468853505
438,1686015324.46,-73.73,949.707,0.488,-118.652,117088.885,329.82416806935805
439,1686015324.47,-76.172,970.703,39.062,-120.605,117088.888,328.14570947904394
440,1686015324.47,-60.547,677.246,8.301,-95.703,117088.889,333.38258747075696
441,1686015324.47,-62.988,840.332,75.684,-102.539,117088.893,331.4376274195267
442,1686015324.47,-81.055,975.098,-6.348,-139.16,117088.892,325.7498201094772
443,1686015324.48,-75.195,-983.887,40.527,-122.559,117088.897,330.54570023041856
444,1686015324.48,-83.008,955.566,-0.977,-144.043,117088.896,332.85300635392446
445,1686015324.48,-83.008,952.148,2.93,-125.0,117088.901,325.9401456548938
446,1686015324.48,-80.078,954.59,32.715,-126.465,117088.9,324.4499064516311
447,1686015324.48,-79.59,974.609,63.965,-114.258,117088.905,333.5525171720062
448,1686015324.48,-81.543,969.238,47.852,-109.375,117088.903,325.3369061945431
449,1686015324.49,-87.891,980.469,1.953,-108.887,117088.907,330.3729951928395
450,1686015324.49,-88.379,906.738,-10.254,-103.027,117088.911,331.6140599484819
451,1686015324.49,-80.566,905.762,73.242,-101.074,117088.915,325.13203448814085
452,1686015324.5,-84.473,948.242,83.984,-112.793,117088.919,324.52986475015547
453,1686015324.5,-83.008,-971.191,24.414,-105.469,117088.923,323.347428794577
454,1686015324.51,-76.172,826.66,-36.621,-102.051,117088.927,323.66039571201725
455,1686015324.51,-72.754,185.059,21.484,-88.379,117088.931,325.5011902127464
456,1686015324.51,-72.754,678.223,129.395,-81.055,117088.947,322.98687709671185
457,1686015324.52,-72.754,-949.219,58.105,-88.379,117088.951,326.0658534847789
458,1686015324.52,-79.102,895.996,8.789,-92.773,117088.955,326.8788487247587
459,1686015324.53,-85.938,958.496,37.598,-94.238,117088.959,316.836040210333
460,1686015324.53,-74.707,989.258,44.922,-84.961,117088.963,320.4726287520572
461,1686015324.53,-64.453,930.664,6.348,-83.984,117088.967,327.5730775607465
462,1686015324.54,-63.477,514.16,-11.23,-85.938,117088.97,325.3207078459085
463,1686015324.54,-50.781,706.055,91.797,-86.426,117088.974,326.7911228467542
464,1686015324.54,-49.316,-940.43,81.543,-87.891,117088.978,325.0966418009339
465,1686015324.55,-54.688,895.508,2.93,-84.961,117088.982,323.61849069033826
466,1686015324.55,-44.434,800.781,69.824,-81.055,117088.986,327.7671555751838
467,1686015324.56,-42.48,954.59,82.52,-90.82,117088.99,320.77841543514677
468,1686015324.56,-42.48,984.375,21.484,-104.98,117088.993,324.84294272538443
469,1686015324.56,-37.598,950.684,18.066,-101.562,117088.997,324.5355321604176
470,1686015324.56,-45.41,968.75,44.434,-97.656,117089.001,330.9975908779421
471,1686015324.57,-62.988,942.871,36.133,-103.516,117089.005,328.0011174020391
472,1686015324.57,-67.871,-982.91,13.672,-100.098,117089.008,329.7553711932641
473,1686015324.58,-66.895,827.637,16.113,-81.055,117089.012,330.66089813518295
474,1686015324.58,-66.895,456.055,73.242,-76.172,117089.016,326.7845233385444
475,1686015324.58,-68.848,816.895,81.543,-80.566,117089.02,328.6249786698122
476,1686015324.59,-69.336,-924.316,47.852,-76.66,117089.024,338.44300403568053
477,1686015324.59,-52.734,745.605,10.742,-52.246,117089.028,334.9465045384514
478,1686015324.6,-51.758,478.027,100.586,-35.156,117089.032,332.30858053182027
479,1686015324.6,-69.824,929.199,110.84,-54.199,117089.036,336.27508263173246
480,1686015324.64,-74.219,991.211,4.883,-65.918,117089.064,341.76078690233265
481,1686015324.64,-67.871,879.883,20.508,-63.965,117089.068,350.7237352875248
482,1686015324.64,-62.5,946.289,72.266,-60.059,117089.072,351.1787021997559
483,1686015324.65,-60.059,-999.512,42.969,-62.988,117089.076,341.2348732288388
484,1686015324.65,-58.594,930.176,2.93,-71.777,117089.08,348.0244534170339
485,1686015324.66,-48.828,664.551,42.48,-71.777,117089.084,348.9215462449589
486,1686015324.66,-32.715,808.105,78.613,-61.523,117089.088,345.4777003203882
487,1686015324.66,-34.668,-949.707,45.41,-65.43,117089.092,349.0779377713877
488,1686015324.66,-34.18,846.191,433.105,84.961,117089.106,348.8468034053457
489,1686015324.67,-39.551,888.672,-10.254,-67.871,117089.096,353.94738892898516
490,1686015324.67,-29.785,731.445,543.945,91.309,117089.11,352.8545737700755
491,1686015324.67,-24.902,931.152,636.23,94.238,117089.114,354.139509093924
492,1686015324.67,-33.203,443.359,38.574,-59.082,117089.1,355.85025436783
493,1686015324.68,-32.715,774.902,160.156,-24.414,117089.104,351.2498224001635
494,1686015324.68,-25.391,-989.746,623.535,91.797,117089.118,352.7089849689614
495,1686015324.68,-24.902,856.445,593.262,77.148,117089.122,345.5674485691166
496,1686015324.68,-32.715,-940.918,290.527,45.898,117089.107,362.0271067191946
497,1686015324.68,-25.879,626.953,582.031,67.383,117089.126,356.66569538618853
498,1686015324.69,-29.785,745.117,612.793,55.176,117089.13,350.26086383983215
499,1686015324.69,-35.645,957.52,602.539,44.922,117089.134,356.25828430034767
500,1686015324.69,-38.086,823.73,434.57,35.645,117089.138,359.2944904077489
501,1686015324.7,-41.992,825.195,369.141,20.996,117089.141,358.2548527013316
502,1686015324.7,-42.48,956.055,389.648,19.531,117089.145,364.8860352938082
503,1686015324.71,-42.48,-958.496,355.469,21.973,117089.149,350.50723298560314
504,1686015324.71,-47.363,583.984,260.254,22.461,117089.143,353.9364829094497
505,1686015324.72,-48.34,-50.781,320.801,15.137,117089.147,360.89989996691645
506,1686015324.72,-51.758,634.277,371.094,-2.441,117089.151,355.126541876832
507,1686015324.72,-43.945,986.816,289.551,0.0,117089.155,349.76817028303026
508,1686015324.73,-33.203,572.754,240.234,6.836,117089.159,356.06861382898586
509,1686015324.73,-39.062,612.305,249.023,-2.93,117089.163,353.61713573074314
510,1686015324.73,-43.945,896.484,272.949,-15.137,117089.167,349.6970399490659
511,1686015324.74,-40.527,912.598,224.121,-16.602,117089.171,354.7748520256568
512,1686015324.74,-32.227,345.703,175.293,-15.625,117089.175,349.56383086905606
513,1686015324.75,-30.762,664.551,246.582,-26.367,117089.179,352.30733022568523
514,1686015324.75,-41.504,-934.57,194.336,-40.527,117089.182,349.04798137137203
515,1686015324.75,-38.574,906.25,217.285,-49.805,117089.186,355.85795678204556
516,1686015324.75,-47.363,889.16,167.969,-45.898,117089.186,352.67534446955244
517,1686015324.76,-27.344,967.285,183.594,-51.27,117089.19,345.5347658171221
518,1686015324.76,-27.344,977.539,135.254,-53.711,117089.194,352.56188010909887
519,1686015324.76,-27.832,825.195,104.004,-54.688,117089.198,348.6868977027811
520,1686015324.77,-20.996,708.984,125.0,-49.805,117089.202,343.8270492336597
521,1686015324.77,-20.02,701.66,137.207,-54.199,117089.205,342.92757410435763
522,1686015324.78,-29.785,738.77,123.047,-72.266,117089.209,340.3728257068527
523,1686015324.78,-25.879,481.934,71.777,-83.984,117089.213,336.013241579916
524,1686015324.78,-18.555,-371.582,82.52,-70.312,117089.217,348.7895203103147
525,1686015324.79,-29.297,204.59,216.797,-71.289,117089.221,337.29219805026344
526,1686015324.79,-34.668,-985.352,134.277,-86.426,117089.225,332.49323185734806
527,1686015324.8,-29.785,763.672,45.898,-91.797,117089.229,334.5521582240229
528,1686015324.8,-27.344,867.676,109.375,-87.402,117089.242,341.18944904497454
529,1686015324.8,-20.508,-981.445,102.051,-71.289,117089.246,334.54921873442737
530,1686015324.81,-24.414,916.504,68.848,-72.266,117089.25,331.3077085111389
531,1686015324.81,-38.574,741.211,72.754,-77.148,117089.254,333.91203217238024
532,1686015324.82,-41.504,864.746,87.402,-60.547,117089.258,316.2946057422396
533,1686015324.82,-29.297,863.281,73.73,-53.711,117089.262,322.7329295913239
534,1686015324.82,-27.344,727.539,46.387,-59.082,117089.266,322.45726031987016
535,1686015324.83,-33.691,22.461,10.254,-59.082,117089.269,310.52908624183516
536,1686015324.83,-41.504,125.0,134.766,-65.43,117089.273,319.63401320983087
537,1686015324.83,-38.086,977.539,125.488,-71.777,117089.277,323.94386430839444
538,1686015324.84,-32.715,939.453,38.574,-73.242,117089.281,309.0093757386414
539,1686015324.84,-32.227,852.539,72.266,-78.125,117089.285,317.8391017226823
540,1686015324.84,-41.992,960.938,70.801,-88.379,117089.263,321.9596795457209
541,1686015324.85,-45.898,979.492,51.758,-86.914,117089.266,308.79912270013375
542,1686015324.85,-33.203,912.109,35.156,-74.707,117089.27,314.77407494098793
543,1686015324.85,-33.203,932.129,51.758,-71.289,117089.274,313.39000422329224
544,1686015324.86,-51.758,877.93,37.109,-92.285,117089.278,318.09810625663033
545,1686015324.86,-70.312,809.57,27.344,-105.469,117089.282,312.4598683786797
546,1686015324.86,-57.617,516.602,20.02,-86.914,117089.286,309.17362937686585
547,1686015324.87,-37.598,-122.559,64.941,-73.242,117089.29,303.57581026209493
548,1686015324.87,-35.156,599.121,110.352,-82.031,117089.294,301.965541258495
549,1686015324.88,-38.574,-949.707,26.367,-75.684,117089.298,300.5315432152567
550,1686015324.88,-31.25,458.496,16.602,-63.965,117089.302,307.54961277868017
551,1686015324.88,-34.18,406.738,118.652,-73.73,117089.305,303.56345907931643
552,1686015324.92,-42.969,968.262,78.125,-83.008,117089.337,300.56486837820796
553,1686015324.92,-47.363,944.336,6.348,-77.148,117089.341,292.19587523563825
554,1686015324.92,-41.504,690.918,37.598,-72.754,117089.345,290.23763658441794
555,1686015324.93,-24.902,879.395,62.012,-66.895,117089.349,286.00514838512277
556,1686015324.93,-26.367,-992.676,32.227,-82.031,117089.353,286.97877960102755
557,1686015324.93,-18.555,896.484,25.391,-87.891,117089.366,289.8100912191201
558,1686015324.94,-31.738,677.734,-11.23,-95.215,117089.357,287.69737305651387
559,1686015324.94,-26.855,604.98,16.602,-87.402,117089.37,287.84186063431326
560,1686015324.94,-29.785,7.812,7.324,-83.008,117089.361,289.39867302679386
561,1686015324.94,-32.227,465.82,60.547,-79.102,117089.373,280.84149687908814
562,1686015324.94,-26.855,461.426,107.422,-75.195,117089.365,282.80735818765226
563,1686015324.94,-32.715,861.816,69.824,-65.43,117089.377,290.23237667208736
564,1686015324.95,-23.438,-923.34,39.551,-75.684,117089.369,287.1155151978798
565,1686015324.95,-27.344,-995.117,1.953,-62.5,117089.381,291.2231784518086
566,1686015324.95,-26.855,857.422,-18.066,-89.844,117089.373,287.34597303233534
567,1686015324.95,-30.273,535.645,-7.324,-64.941,117089.385,287.7115898901828
568,1686015324.96,-33.691,775.879,62.988,-96.68,117089.376,288.0382285211037
569,1686015324.96,-33.691,46.875,61.035,-55.664,117089.389,293.4169996613783
570,1686015324.96,-24.414,467.773,79.59,-48.828,117089.393,288.2055170564183
571,1686015324.96,-25.879,927.734,62.988,-89.844,117089.38,284.87372450170216
572,1686015324.96,-26.367,960.449,48.34,-53.223,117089.397,286.7472140004497
573,1686015324.97,-33.203,673.828,-17.578,-55.664,117089.401,293.0091158329418
574,1686015324.97,-24.414,633.789,14.16,-61.523,117089.405,285.89075301316126
575,1686015324.98,-17.578,965.82,67.383,-68.848,117089.409,285.7895291406189
576,1686015324.99,-19.531,999.023,32.227,-67.383,117089.415,282.6205079516182
577,1686015325.0,-9.766,436.523,-36.621,-62.988,117089.419,287.09131501470904
578,1686015325.0,-19.531,128.418,36.621,-73.242,117089.423,282.01860979880655
579,1686015325.01,-40.527,620.605,67.383,-87.891,117089.427,285.60718261971505
580,1686015325.01,-34.18,938.477,17.09,-80.078,117089.43,279.50398053907753
581,1686015325.01,-25.879,171.387,-22.949,-66.895,117089.434,281.28799038968043
582,1686015325.02,-27.832,-20.508,50.781,-76.172,117089.438,283.63666292621883
583,1686015325.02,-24.414,833.496,47.852,-85.449,117089.442,285.10328580248773
584,1686015325.02,-23.438,918.457,-5.371,-75.195,117089.446,285.62157771447437
585,1686015325.03,-23.438,769.531,21.973,-77.148,117089.45,288.7619110831911
586,1686015325.03,-27.832,939.453,15.625,-104.492,117089.454,279.0710788145278
587,1686015325.04,-36.133,984.863,-12.695,-127.93,117089.458,276.5267700785657
588,1686015325.04,-30.762,866.211,-6.348,-126.465,117089.457,279.0921644368211
589,1686015325.04,-20.02,856.445,38.574,-131.348,117089.46,282.33335918353464
590,1686015325.04,-23.926,958.496,16.113,-146.973,117089.464,284.6994812992389
591,1686015325.05,-29.785,976.562,-14.648,-156.738,117089.468,278.8472465759583
592,1686015325.05,-26.367,714.844,-9.766,-155.762,117089.472,281.7110788376227
593,1686015325.06,-22.949,520.996,29.297,-145.996,117089.476,279.8539476357984
594,1686015325.06,-30.273,593.262,31.738,-133.301,117089.48,274.8246756172447
595,1686015325.06,-37.598,599.121,0.977,-133.789,117089.484,280.96098635154567
596,1686015325.07,-37.598,316.406,-24.902,-130.859,117089.488,281.60030760445943
597,1686015325.07,-30.273,-566.895,-3.418,-116.699,117089.492,280.66450618312655
598,1686015325.08,-26.367,7.324,102.051,-133.301,117089.496,281.4316968957218
599,1686015325.08,-38.574,953.613,30.762,-152.344,117089.5,280.48551164788165
600,1686015325.08,-46.387,696.289,-33.691,-145.996,117089.504,286.8383544584117
601,1686015325.09,-36.621,819.824,38.086,-130.371,117089.508,283.42526622553703
602,1686015325.09,-43.945,-973.145,11.719,-115.723,117089.512,277.23665008585454
603,1686015325.1,-52.734,898.438,-3.906,-115.723,117089.516,277.4304791016097
604,1686015325.1,-44.434,642.09,57.129,-118.652,117089.519,279.5489120441727
605,1686015325.1,-40.039,560.547,32.715,-115.234,117089.523,283.4299262143201
606,1686015325.11,-43.457,713.867,18.066,-104.98,117089.527,282.64469814152994
607,1686015325.11,-47.363,847.168,-5.859,-94.727,117089.531,280.92026769021294
608,1686015325.11,-49.805,-73.73,-5.859,-94.238,117089.535,277.61786300862434
609,1686015325.12,-48.34,-19.043,113.281,-97.168,117089.539,287.0798065521362
610,1686015325.12,-34.668,961.914,65.43,-89.844,117089.543,288.64290116373877
611,1686015325.13,-29.785,914.551,-10.742,-91.309,117089.547,282.7194222774453
612,1686015325.14,-36.133,719.727,19.531,-96.68,117089.563,280.9657769258534
613,1686015325.15,-33.691,907.227,24.902,-88.379,117089.567,279.09059459806787
614,1686015325.15,-20.02,977.051,6.836,-76.66,117089.571,287.93059558383464
615,1686015325.15,-13.184,828.125,5.859,-76.66,117089.574,278.86564071092613
616,1686015325.16,-10.254,699.219,11.719,-89.844,117089.578,279.11708116674265
617,1686015325.16,-9.277,492.188,8.789,-97.168,117089.582,285.02878213488475
618,1686015325.16,-11.719,568.848,23.438,-98.633,117089.586,270.2015980325024
619,1686015325.17,-13.184,402.832,-19.043,-86.426,117089.59,271.03112640515076
620,1686015325.17,-13.184,-395.508,-4.883,-79.102,117089.594,277.2544714091483
621,1686015325.18,-39.062,646.973,56.641,-94.727,117089.598,276.67981184866073
622,1686015325.18,-0.488,271.973,75.684,-64.941,117089.598,270.37868449500763
623,1686015325.18,-41.992,-966.309,24.414,-96.68,117089.602,275.4357536600818
624,1686015325.18,1.953,888.672,10.742,-50.293,117089.602,275.08733903254563
625,1686015325.18,-35.156,878.906,-15.625,-90.332,117089.606,271.4226006497081
626,1686015325.18,-26.367,420.898,-15.625,-75.684,117089.606,275.67017014721324
627,1686015325.19,-29.785,655.273,26.855,-87.402,117089.61,272.71177068646324
628,1686015325.19,-46.387,850.586,15.137,-96.191,117089.614,265.84189716346066
629,1686015325.2,-67.383,757.812,-12.207,-104.98,117089.617,269.86759408480054
630,1686015325.2,-71.289,395.508,16.113,-97.656,117089.621,275.22757370658485
631,1686015325.2,-49.316,287.598,81.055,-73.73,117089.625,267.01873012536157
632,1686015325.21,-36.133,729.492,89.844,-75.195,117089.629,269.13121025955945
633,1686015325.21,-38.574,-960.938,51.758,-84.473,117089.633,268.83537019623736
634,1686015325.21,-35.156,691.406,9.277,-94.727,117089.637,272.3961214417117
635,1686015325.22,-16.602,414.551,112.793,-85.449,117089.657,276.6492597658591
636,1686015325.22,-27.832,-94.238,43.945,-96.68,117089.641,270.17888621034245
637,1686015325.22,-10.742,809.57,31.738,-75.195,117089.66,283.197730307221
638,1686015325.23,-28.809,361.816,14.16,-72.266,117089.664,276.10168038977207
639,1686015325.23,-32.227,298.34,106.445,-61.523,117089.668,280.03017040990056
640,1686015325.23,-20.996,727.539,86.914,-58.105,117089.672,275.31301002431314
641,1686015325.24,-25.879,714.355,40.039,-72.266,117089.676,284.3028299817802
642,1686015325.24,-29.297,345.703,24.902,-76.172,117089.68,277.8271971314341
643,1686015325.24,-30.273,-583.984,46.875,-66.895,117089.684,271.513159125434
644,1686015325.25,-23.926,-188.477,171.875,-74.707,117089.688,272.77546390431655
645,1686015325.25,-17.09,815.918,102.051,-82.031,117089.692,275.5071787597505
646,1686015325.26,-10.254,574.707,0.977,-84.473,117089.696,277.15348270600566
647,1686015325.26,0.977,667.969,64.453,-84.961,117089.7,285.985861294206
648,1686015325.29,-3.418,-983.398,71.777,-74.219,117089.716,287.0823225617595
649,1686015325.3,-16.113,914.062,25.391,-66.895,117089.72,280.21645485577716
650,1686015325.3,-24.902,674.316,8.301,-68.359,117089.724,281.60272008033576
651,1686015325.3,-35.156,650.391,11.23,-67.871,117089.728,287.60039797218116
652,1686015325.31,-1.953,910.645,14.16,-65.43,117089.744,276.72194950230164
653,1686015325.31,-26.367,684.082,41.016,-60.059,117089.732,280.22620327142056
654,1686015325.31,13.184,717.285,14.16,-58.594,117089.748,278.1329949438156
655,1686015325.31,-14.648,657.227,26.367,-54.688,117089.736,279.54837535998945
656,1686015325.32,-10.742,23.438,12.207,-57.129,117089.74,278.474376312792
657,1686015325.32,17.578,725.586,45.41,-1.953,117089.752,283.30530196981556
658,1686015325.32,-4.395,145.996,97.656,-64.941,117089.743,283.46912401313784
659,1686015325.32,9.766,868.164,36.621,81.543,117089.756,281.4163905113645
660,1686015325.32,4.883,887.207,73.73,-59.57,117089.747,277.0057019583507
661,1686015325.32,10.254,773.438,-8.789,100.098,117089.76,274.39895686785025
662,1686015325.33,5.859,768.555,17.09,-59.082,117089.751,285.138670228533
663,1686015325.33,10.254,209.961,2.93,105.469,117089.763,277.82284650921457
664,1686015325.33,12.695,-160.645,74.707,113.281,117089.767,287.3710719221753
665,1686015325.33,5.371,356.445,79.59,-57.129,117089.755,277.45550709483757
666,1686015325.33,13.184,274.902,72.266,100.098,117089.771,286.87242470412025
667,1686015325.34,1.953,703.613,77.637,-62.988,117089.759,276.1247038081648
668,1686015325.34,19.043,615.234,28.809,83.984,117089.775,279.99105484838964
669,1686015325.34,35.156,418.945,9.766,99.609,117089.779,284.80621015588963
670,1686015325.35,41.504,419.922,88.379,103.516,117089.783,270.90602006472807
671,1686015325.35,41.992,866.699,80.566,75.195,117089.787,284.4501691943293
672,1686015325.37,34.18,988.281,5.859,52.734,117089.804,294.42811942169055
673,1686015325.37,38.086,190.43,-46.387,62.012,117089.808,290.9097370382425
674,1686015325.38,46.875,-544.922,36.621,70.312,117089.812,289.9476292363811
675,1686015325.38,52.246,486.816,91.797,46.875,117089.816,282.4677468705512
676,1686015325.38,63.477,916.016,3.906,38.574,117089.82,285.4714563928851
677,1686015325.39,62.988,265.625,20.996,37.598,117089.824,285.1962350472447
678,1686015325.39,50.781,410.645,81.543,35.645,117089.828,283.57631720561994
679,1686015325.4,46.875,952.148,53.711,36.133,117089.832,282.9177979498749
680,1686015325.4,41.016,763.672,-9.766,29.297,117089.835,282.6407324597394
681,1686015325.4,35.156,-240.234,-6.836,27.344,117089.839,293.47776819571595
682,1686015325.41,36.621,83.984,88.379,23.926,117089.843,285.66598266870574
683,1686015325.41,37.598,968.262,49.316,14.16,117089.847,287.6455441596018
684,1686015325.42,39.551,767.09,-15.137,3.418,117089.835,292.7321441571729
685,1686015325.42,39.062,546.875,30.762,0.488,117089.839,284.66834395739477
686,1686015325.42,38.574,780.762,45.41,4.395,117089.843,284.17111052550547
687,1686015325.43,43.945,944.824,12.207,11.719,117089.847,287.9658165128306
688,1686015325.43,44.434,636.719,0.488,10.742,117089.851,287.0947528512919
689,1686015325.44,43.457,204.59,38.086,3.418,117089.855,295.1296091773297
690,1686015325.44,49.316,235.84,42.48,-7.324,117089.859,297.2789883056653
691,1686015325.44,54.199,494.629,14.648,-9.766,117089.863,294.27284728940623
692,1686015325.45,44.434,259.766,-12.695,-12.695,117089.866,293.1346282640128
693,1686015325.45,35.156,-159.668,54.199,-23.438,117089.87,292.77075820679187
694,1686015325.45,34.18,487.793,64.941,-17.09,117089.874,293.1810231418664
695,1686015325.46,31.25,777.832,-14.648,-6.348,117089.878,298.5015301380588
696,1686015325.46,36.133,120.117,-54.199,2.93,117089.892,301.0934836496327
697,1686015325.46,46.387,-160.645,56.641,-3.906,117089.896,295.4580471056793
698,1686015325.47,45.41,615.234,53.711,-20.508,117089.9,293.51938835462624
699,1686015325.47,54.688,792.48,-11.23,-7.324,117089.904,297.07202798672813
700,1686015325.48,70.312,540.527,45.898,4.883,117089.908,292.0155158721531
701,1686015325.48,57.129,456.055,21.484,-12.207,117089.912,289.40022945305407
702,1686015325.48,45.898,550.781,25.879,-37.598,117089.915,289.14484555760816
703,1686015325.49,51.27,647.461,-3.906,-35.156,117089.919,289.0645652385223
704,1686015325.49,56.641,-68.848,-19.043,-16.602,117089.923,288.72066922956907
705,1686015325.49,64.941,258.301,61.035,-19.043,117089.927,290.67085663125835
706,1686015325.5,63.965,867.676,9.766,-17.09,117089.931,287.92582380867054
707,1686015325.5,67.383,590.332,-23.926,-14.648,117089.935,296.7806242772429
708,1686015325.5,70.801,564.453,41.992,-13.672,117089.938,303.5267533024972
709,1686015325.51,75.195,758.301,16.602,-9.766,117089.942,287.6501630899482
710,1686015325.51,78.125,578.613,-20.996,-11.719,117089.946,290.7351818956149
711,1686015325.52,71.289,301.27,1.465,-7.812,117089.949,299.024642203985
712,1686015325.52,73.73,190.43,41.016,-1.465,117089.953,297.759215233788
713,1686015325.52,86.426,293.945,40.039,6.836,117089.957,297.13887053043214
714,1686015325.53,87.402,403.32,18.555,4.395,117089.961,303.92528145035135
715,1686015325.53,84.473,127.441,-11.23,-6.836,117089.965,298.5285424506872
716,1686015325.54,85.938,-599.121,18.066,-2.441,117089.969,306.2046855889065
717,1686015325.54,87.402,246.094,83.984,-13.672,117089.973,309.74291253879085
718,1686015325.54,83.008,976.074,4.883,-20.996,117089.977,303.5668053190818
719,1686015325.55,81.543,291.992,-48.34,-11.719,117089.981,307.33859035552274
720,1686015325.55,80.566,326.66,45.898,-2.93,117089.991,307.7349772070083
721,1686015325.55,80.078,886.719,44.922,0.977,117089.995,301.6222864271423
722,1686015325.56,76.172,833.496,-4.395,-2.441,117089.999,304.69889612939505
723,1686015325.56,73.73,444.336,22.461,-9.277,117090.003,308.55125685805154
724,1686015325.56,79.102,372.07,11.23,-11.23,117090.007,318.27272019408605
725,1686015325.57,87.402,396.973,5.371,-0.977,117090.011,304.2421353233805
726,1686015325.57,95.215,397.461,-3.418,11.23,117090.015,313.51183579353886
727,1686015325.58,98.145,-312.988,-16.602,10.254,117090.019,316.36667566495555
728,1686015325.58,98.145,-362.793,89.844,0.0,117090.023,322.8623720828982
729,1686015325.58,97.168,622.07,70.801,6.836,117090.027,319.6160059002434
730,1686015325.59,96.191,753.906,-13.184,29.785,117090.031,318.72001223138227
731,1686015325.59,91.309,530.273,13.672,18.555,117090.034,313.9512225734075
732,1686015325.59,91.797,628.418,19.531,-3.906,117090.015,313.7512777681258
733,1686015325.6,99.609,719.238,-4.395,-3.906,117090.018,322.9125158260291
734,1686015325.6,102.539,607.422,-3.418,9.277,117090.022,324.38296300891426
735,1686015325.6,96.191,582.52,21.484,19.043,117090.026,319.23183140125514
736,1686015325.61,93.262,550.781,-0.488,14.648,117090.03,324.85593583487014
737,1686015325.61,93.262,336.914,-4.883,12.695,117090.034,317.28522321161853
738,1686015325.62,96.191,122.559,-1.465,32.227,117090.038,320.32203569589205
739,1686015325.62,96.68,-661.621,21.973,38.086,117090.042,317.43776632291485
740,1686015325.62,92.773,-229.98,88.867,23.438,117090.046,316.4418775889884
741,1686015325.63,89.844,698.73,37.598,16.602,117090.05,319.97627589246287
742,1686015325.63,103.516,434.082,-20.508,21.973,117090.054,314.1736943138074
743,1686015325.64,112.305,399.902,19.531,25.391,117090.058,326.07863011737027
744,1686015325.65,100.098,801.758,25.879,19.531,117090.073,315.3845215852031
745,1686015325.66,93.262,728.516,-12.207,13.672,117090.076,325.18500293992525
746,1686015325.66,104.004,393.066,2.93,19.043,117090.08,325.61327114143455
747,1686015325.66,106.934,609.375,35.156,27.832,117090.084,322.10804032369
748,1686015325.67,99.609,751.465,15.137,23.926,117090.088,327.9624697864702
749,1686015325.67,98.145,317.871,-14.648,15.625,117090.092,330.0003181246482
750,1686015325.68,110.352,-376.953,5.371,23.438,117090.096,326.38220547611786
751,1686015325.68,110.84,64.941,94.238,33.203,117090.1,320.80334809164367
752,1686015325.68,108.887,838.379,34.668,26.367,117090.104,319.059864207024
753,1686015325.68,127.93,833.008,-7.812,-19.043,117090.118,331.03833156382865
754,1686015325.69,117.676,519.043,-26.367,6.348,117090.108,318.13154578076995
755,1686015325.69,115.723,511.719,-30.273,-33.203,117090.122,323.0752737586056
756,1686015325.69,120.117,197.266,46.387,-18.555,117090.112,327.0622219966248
757,1686015325.69,108.887,263.672,29.297,-30.762,117090.126,328.4727908868947
758,1686015325.7,123.535,594.238,54.199,-20.508,117090.116,323.2219275288708
759,1686015325.7,122.559,562.012,42.48,-24.414,117090.13,322.64921767511953
760,1686015325.7,128.418,710.938,1.465,-25.391,117090.133,327.1397688318394
761,1686015325.7,118.652,193.359,-20.996,-24.902,117090.137,325.56773160254465
762,1686015325.71,120.117,-393.555,11.719,-21.973,117090.141,318.28504122816537
763,1686015325.71,121.582,62.5,64.453,-26.855,117090.145,316.4556338489942
764,1686015325.71,123.535,751.465,33.203,-30.273,117090.149,329.84501755306803
765,1686015325.72,125.0,270.02,-34.668,-24.414,117090.153,315.37491065444533
766,1686015325.72,118.652,-235.84,55.176,-16.113,117090.157,318.48111867117706
767,1686015325.73,120.117,436.523,87.402,-9.766,117090.161,322.3431428490916
768,1686015325.74,120.117,542.48,71.289,-5.859,117090.166,319.37823826515506
769,1686015325.75,118.652,80.566,65.918,-5.859,117090.17,312.0567292394179
770,1686015325.75,119.629,247.559,108.398,-15.625,117090.174,315.7893012147283
771,1686015325.76,120.605,642.578,124.023,-23.438,117090.178,332.6296128297825
772,1686015325.76,113.281,574.219,77.637,-13.184,117090.182,321.5330235270599
773,1686015325.76,112.793,88.379,61.035,-5.371,117090.186,326.0777017582551
774,1686015325.77,105.469,115.723,99.609,-7.324,117090.189,325.1488682268008
775,1686015325.77,103.516,588.379,95.703,-11.23,117090.193,315.98434159079574
776,1686015325.77,117.188,485.352,40.527,-0.488,117090.197,320.8436314623904
777,1686015325.78,118.652,-219.727,53.711,14.648,117090.201,317.82041851207913
778,1686015325.78,113.77,200.684,113.281,7.812,117090.205,323.662130139405
779,1686015325.79,105.957,661.621,58.594,1.465,117090.209,325.4782507488504
780,1686015325.79,99.121,436.523,20.02,10.742,117090.207,312.08436712429324
781,1686015325.79,107.91,451.66,61.035,10.742,117090.211,319.53964186044243
782,1686015325.8,113.281,530.273,36.621,0.0,117090.215,321.2450714625436
783,1686015325.8,100.586,336.914,-12.695,-11.719,117090.219,317.28243199426964
784,1686015325.8,96.191,62.012,5.371,0.488,117090.223,326.8922093667212
785,1686015325.81,98.633,-215.82,67.871,11.719,117090.227,319.496688419274
786,1686015325.81,99.609,-4.395,47.363,-1.953,117090.231,320.8371787216643
787,1686015325.81,101.074,263.672,9.277,-8.301,117090.235,320.60607077493063
788,1686015325.82,97.168,6.348,-12.695,-9.766,117090.239,322.07808282795605
789,1686015325.82,102.539,-659.668,19.531,1.953,117090.243,314.0895600546724
790,1686015325.83,102.051,223.633,74.219,2.441,117090.246,312.63688130119914
791,1686015325.83,94.238,777.832,6.348,-10.254,117090.25,321.7008723992541
792,1686015325.84,95.215,263.672,-11.23,-4.883,117090.26,323.3889509526086
793,1686015325.84,96.191,460.449,27.832,-0.977,117090.264,319.5010165940398
794,1686015325.84,92.773,770.996,21.484,-4.883,117090.268,326.6436978119257
795,1686015325.85,93.262,657.715,-8.789,4.395,117090.272,327.89640508622665
796,1686015325.85,97.656,250.977,22.949,13.184,117090.276,315.6843050477725
797,1686015325.86,105.957,156.738,33.691,19.531,117090.28,318.8803649195852
798,1686015325.86,109.863,275.879,9.277,21.484,117090.284,313.33996238006443
799,1686015325.86,104.004,251.465,-19.043,14.16,117090.288,324.66246910176005
800,1686015325.87,106.934,-437.5,-31.25,16.602,117090.291,314.7215054496048
801,1686015325.87,109.863,-365.723,79.59,18.555,117090.295,322.2207374705584
802,1686015325.88,116.699,585.449,54.199,22.461,117090.299,323.99868641001444
803,1686015325.88,116.699,613.77,-19.531,22.461,117090.303,325.8432185422073
804,1686015325.88,103.516,408.691,20.508,15.137,117090.298,317.46212443192445
805,1686015325.88,108.398,575.684,21.973,20.02,117090.302,313.7783591720976
806,1686015325.89,122.07,635.254,4.395,38.086,117090.306,321.9224421698976
807,1686015325.89,114.258,496.094,0.0,35.156,117090.31,326.36788944190835
808,1686015325.9,110.84,347.656,1.465,20.02,117090.314,323.53740225818325
809,1686015325.9,116.211,135.742,7.324,24.414,117090.318,320.8069765335107
810,1686015325.9,111.816,152.832,19.531,33.691,117090.322,327.0474686082292
811,1686015325.91,112.793,77.148,-4.883,31.738,117090.326,328.08643926278194
812,1686015325.91,117.188,-814.453,9.766,30.762,117090.33,328.19655271816134
813,1686015325.91,106.445,-464.355,105.469,22.949,117090.334,332.7891132732456
814,1686015325.92,102.539,510.742,44.434,20.02,117090.338,324.3346034118643
815,1686015325.92,113.281,356.445,-19.531,29.785,117090.341,336.49286528917105
816,1686015325.92,114.258,437.5,16.602,24.902,117090.347,334.9942555888735
817,1686015325.93,100.098,659.18,6.836,15.137,117090.351,335.2197203714052
818,1686015325.93,99.609,492.676,-9.766,19.531,117090.355,340.07270800741355
819,1686015325.94,103.027,277.344,15.137,29.297,117090.359,342.0402065237172
820,1686015325.94,101.074,461.914,10.254,23.926,117090.362,340.61368552028466
821,1686015325.94,92.285,342.773,-22.949,5.859,117090.366,341.8110008081066
822,1686015325.95,83.496,69.824,-28.809,6.836,117090.37,341.4098140791581
823,1686015325.95,98.145,-360.84,-16.113,33.691,117090.374,347.7439042906118
824,1686015325.96,99.609,50.781,19.043,30.762,117090.378,345.8883596303682
825,1686015325.96,94.727,692.383,-46.387,22.949,117090.382,341.81882211186297
826,1686015325.96,86.914,356.934,-71.777,24.414,117090.386,343.99446338363805
827,1686015325.97,75.684,114.258,-3.418,21.973,117090.39,345.73614861880964
828,1686015325.97,81.543,505.371,-0.977,21.973,117090.402,346.49809812524364
829,1686015325.97,77.637,706.543,-48.34,20.02,117090.406,353.6728839646325
830,1686015325.98,59.57,354.492,-66.895,-2.441,117090.41,356.4623414434837
831,1686015325.98,56.641,203.613,-1.465,-7.812,117090.414,343.94697298908955
832,1686015325.98,70.801,397.461,-6.348,11.719,117090.418,347.0511346574567
833,1686015325.99,67.871,291.504,-24.414,6.836,117090.422,357.68512300940216
834,1686015325.99,62.5,-81.055,-37.109,61.523,117090.426,358.48532217394427
835,1686015326.0,71.289,-834.961,-14.648,169.922,117090.43,365.24661064116367
836,1686015326.0,79.59,-130.859,67.383,196.289,117090.434,362.79191369525387
837,1686015326.0,84.473,668.457,11.719,183.105,117090.437,365.04123344103914
838,1686015326.01,75.684,305.176,-43.945,169.434,117090.441,358.31228189882756
839,1686015326.01,68.359,324.707,-3.906,156.738,117090.445,348.7301313978587
840,1686015326.03,72.754,535.645,6.836,159.18,117090.447,358.3937246088064
841,1686015326.03,74.707,339.844,-12.695,154.785,117090.451,360.712724348636
842,1686015326.04,76.66,-110.84,-56.152,144.531,117090.455,366.42306389070876
843,1686015326.04,62.5,110.352,-2.93,131.348,117090.459,362.3522735225241
844,1686015326.04,51.758,546.875,12.207,127.93,117090.463,360.106304504902
845,1686015326.05,62.988,195.801,-31.738,124.512,117090.467,366.032232446066
846,1686015326.05,67.871,-342.285,5.371,106.445,117090.471,356.5082321862948
847,1686015326.05,62.012,97.656,58.105,87.891,117090.475,362.7049100081561
848,1686015326.06,44.434,456.055,11.23,63.965,117090.492,365.67810095577886
849,1686015326.06,57.617,609.375,26.855,85.449,117090.479,358.71565540582486
850,1686015326.06,41.016,316.406,3.906,67.383,117090.496,361.76464264685677
851,1686015326.06,58.594,448.73,-11.719,89.355,117090.483,359.0127238416206
852,1686015326.06,61.523,307.617,35.156,84.473,117090.499,360.6200187523482
853,1686015326.07,61.035,-72.266,37.109,83.008,117090.486,363.3307506229132
854,1686015326.07,62.988,333.008,19.043,68.848,117090.503,363.3306042745155
855,1686015326.07,61.035,114.746,58.105,73.242,117090.49,360.75071747787047
856,1686015326.07,52.246,170.41,14.648,42.969,117090.507,360.47782154878126
857,1686015326.08,44.922,-92.285,-4.883,40.039,117090.511,362.02074317743006
858,1686015326.08,41.992,-829.102,-7.324,51.27,117090.515,361.53445671669476
859,1686015326.08,35.645,-388.184,99.609,39.062,117090.519,364.777688257756
860,1686015326.09,31.738,517.578,57.129,30.273,117090.523,351.70539331373755
861,1686015326.09,34.668,83.008,-21.484,39.551,117090.527,353.73476290012894
862,1686015326.1,34.668,-237.793,72.266,41.016,117090.531,349.6772233500547
863,1686015326.1,34.18,524.414,66.406,27.832,117090.535,360.4200711453263
864,1686015326.12,31.738,611.816,-12.695,12.207,117090.538,352.7384881057195
865,1686015326.12,29.297,162.109,0.488,12.695,117090.542,354.46961167842977
866,1686015326.13,33.203,413.086,40.527,17.09,117090.546,347.99090154555466
867,1686015326.13,24.414,743.652,27.344,14.16,117090.55,349.2433035155886
868,1686015326.13,15.137,528.32,-1.953,3.906,117090.554,355.8044768174711
869,1686015326.14,9.766,-84.961,15.137,3.906,117090.558,346.90102531190286
870,1686015326.14,14.16,-114.258,49.805,10.254,117090.562,348.19584378549524
871,1686015326.14,13.672,322.266,51.27,8.301,117090.566,345.4913024808948
872,1686015326.15,-4.395,421.387,-1.465,7.324,117090.57,345.4669033825451
873,1686015326.15,-7.324,-466.797,-13.184,7.324,117090.574,344.9182924757781
874,1686015326.16,4.883,-275.391,97.168,5.371,117090.577,340.76667974308157
875,1686015326.16,4.883,610.352,67.383,2.441,117090.581,344.53149719940694
876,1686015326.16,7.812,471.68,-3.906,5.371,117090.583,335.5699197804248
877,1686015326.17,2.441,236.816,31.738,12.695,117090.587,342.74963778954987
878,1686015326.17,5.371,419.434,45.898,10.742,117090.591,342.26911516452617
879,1686015326.17,10.742,564.453,23.438,3.906,117090.594,334.54950929301674
880,1686015326.18,2.441,316.406,13.184,0.977,117090.598,322.19004240243964
881,1686015326.18,-7.324,-64.453,26.855,-5.859,117090.602,329.50461542465524
882,1686015326.18,-12.695,-84.961,22.949,-9.277,117090.606,337.73397459677614
883,1686015326.19,-7.324,342.285,67.383,-6.836,117090.61,327.67201333230435
884,1686015326.19,-9.277,177.246,-0.488,-7.324,117090.614,328.00334259642835
885,1686015326.2,-15.625,-852.051,-11.23,-8.789,117090.618,322.1024041043415
886,1686015326.2,-12.695,-236.328,122.559,-11.23,117090.622,319.3816891601166
887,1686015326.2,-10.254,604.004,73.242,-4.395,117090.626,314.65472295673874
888,1686015326.21,0.977,342.285,15.137,5.371,117090.63,308.3350283176536
889,1686015326.21,-2.93,432.129,43.457,1.465,117090.634,310.85037009863646
890,1686015326.22,-18.555,604.492,23.438,-8.789,117090.638,299.44702507899893
891,1686015326.22,-17.09,501.953,7.324,-9.766,117090.642,303.7513750062388
892,1686015326.22,-8.789,286.621,47.363,-4.395,117090.646,288.96663808812076
893,1686015326.23,-5.371,109.375,37.598,-7.812,117090.65,300.1450402879208
894,1686015326.23,-14.648,229.492,53.711,-12.207,117090.654,292.3187317760208
895,1686015326.24,-15.137,404.297,29.297,-3.418,117090.657,292.68595225335963
896,1686015326.24,-11.719,-292.969,4.883,11.23,117090.661,292.8827565509678
897,1686015326.24,-14.648,17.578,107.91,11.23,117090.665,290.33658679661386
898,1686015326.25,-33.691,667.48,46.875,1.953,117090.669,282.25752404341233
899,1686015326.25,-43.457,326.172,1.465,-0.977,117090.673,269.86779121069173
900,1686015326.25,-36.133,183.594,82.031,0.977,117090.674,274.9664228417108
901,1686015326.26,-33.691,572.754,64.453,-4.395,117090.677,278.9933014931035
902,1686015326.26,-39.062,635.254,8.301,-12.695,117090.681,261.0746875073624
903,1686015326.26,-41.504,313.965,13.184,-5.371,117090.685,272.40512528840804
904,1686015326.27,-40.039,144.043,50.781,-6.348,117090.689,271.14006891685756
905,1686015326.27,-34.668,129.883,37.109,-7.812,117090.693,275.0005592588988
906,1686015326.28,-34.18,193.359,32.715,-9.277,117090.697,266.7095834298134
907,1686015326.28,-32.227,-24.414,3.418,-11.23,117090.701,267.0714591483369
908,1686015326.28,-26.855,-811.035,24.902,3.906,117090.705,262.79827039185636
909,1686015326.29,-30.762,-26.855,127.93,8.789,117090.709,266.55159991918725
910,1686015326.29,-46.875,742.676,47.852,-4.395,117090.713,275.3256303969599
911,1686015326.3,-63.477,266.602,-10.742,-15.625,117090.716,268.03436729124155
912,1686015326.3,-57.617,370.117,44.434,-13.184,117090.723,265.7658429976687
913,1686015326.3,-34.668,654.785,51.758,-13.184,117090.727,267.94548780208135
914,1686015326.31,-48.828,395.508,9.766,-42.969,117090.731,274.7225339452888
915,1686015326.31,-79.102,-52.734,-20.02,-82.52,117090.735,268.8875237362641
916,1686015326.32,-84.473,186.523,45.898,-106.445,117090.739,266.8148034973771
917,1686015326.32,-68.359,364.746,51.27,-104.004,117090.743,273.5341353776032
918,1686015326.32,-63.965,208.008,17.09,-104.492,117090.747,268.6101283160761
919,1686015326.33,-80.566,-298.34,9.277,-118.164,117090.751,274.22179309874906
920,1686015326.33,-85.938,-56.641,89.355,-126.953,117090.754,270.63385473211395
921,1686015326.34,-73.242,666.504,76.66,-115.723,117090.758,282.80852620544437
922,1686015326.34,-69.824,623.535,26.367,-92.285,117090.762,286.6731964735969
923,1686015326.34,-72.266,585.449,55.176,-86.426,117090.763,285.6487036802056
924,1686015326.34,-69.336,444.824,53.711,-84.961,117090.766,290.72883892507474
925,1686015326.35,-71.289,669.922,34.18,-80.078,117090.767,284.4892614162581
926,1686015326.35,-63.965,503.418,20.996,-69.336,117090.771,281.07921994952756
927,1686015326.35,-60.547,482.422,49.316,-68.848,117090.775,290.22944433923533
928,1686015326.36,-67.871,422.363,28.809,-71.777,117090.779,287.65556159801986
929,1686015326.36,-75.684,192.383,23.438,-70.801,117090.783,293.0914397012936
930,1686015326.36,-72.754,78.613,35.156,-77.637,117090.787,292.3220012670953
931,1686015326.37,-61.035,-777.344,9.277,-68.359,117090.791,295.1442891724498
932,1686015326.37,-69.336,-663.086,111.816,-69.824,117090.794,295.99630236470307
933,1686015326.38,-70.801,381.836,95.703,-82.52,117090.798,293.7676197930243
934,1686015326.38,-47.363,393.555,11.23,-71.777,117090.802,297.41071340227006
935,1686015326.38,-39.062,508.789,50.781,-61.035,117090.806,305.83146635239547
936,1686015326.49,-51.758,765.137,34.668,-62.012,117090.916,308.3873907793402
937,1686015326.5,-59.57,534.668,-0.488,-67.871,117090.92,304.90725518491973
938,1686015326.5,-61.523,221.191,28.809,-58.105,117090.924,316.14383701145687
939,1686015326.51,-68.848,529.785,66.895,-59.57,117090.928,301.2773363977202
940,1686015326.51,-58.594,742.188,36.621,-56.641,117090.932,308.87811443082677
941,1686015326.51,-67.383,728.027,35.156,-78.125,117090.931,311.25187055290655
942,1686015326.51,-64.453,508.789,5.859,-58.594,117090.936,305.2763174365285
943,1686015326.51,-74.219,288.086,-16.602,-75.195,117090.935,308.81297420084144
944,1686015326.52,-65.43,354.492,39.551,-70.801,117090.94,316.35824714102654
945,1686015326.52,-71.289,-458.984,-18.066,-56.641,117090.939,311.7847845257838
946,1686015326.52,-53.711,585.449,59.082,-62.988,117090.943,313.226574743314
947,1686015326.52,-60.547,-293.945,67.871,-49.316,117090.943,308.46542392718897
948,1686015326.52,-50.781,544.434,127.93,-54.199,117090.956,305.9351768533965
949,1686015326.52,-48.34,571.289,32.227,-51.758,117090.947,321.65187209483184
950,1686015326.52,-63.477,568.359,74.219,-53.223,117090.947,318.6952543438167
951,1686015326.53,-54.199,216.797,26.367,-50.781,117090.951,323.461046932696
952,1686015326.53,-53.223,165.527,53.711,-43.457,117090.96,309.1472790204987
953,1686015326.53,-59.082,492.188,-2.441,-62.5,117090.951,309.6691222563394
954,1686015326.53,-55.664,-16.602,90.82,-47.852,117090.955,313.03989108784793
955,1686015326.53,-62.988,168.457,105.469,-42.48,117090.964,315.7372863755402
956,1686015326.53,-59.082,-60.059,58.105,-51.758,117090.955,310.6498464951453
957,1686015326.54,-58.105,126.953,166.016,-47.852,117090.959,311.0666449870058
958,1686015326.54,-61.523,539.551,122.559,-37.109,117090.968,318.90478331816786
959,1686015326.54,-59.082,347.656,95.703,-47.852,117090.959,307.84477688843094
960,1686015326.54,-136.23,120.605,20.508,-115.723,117090.961,312.99447512635726
961,1686015326.54,-60.059,511.719,176.27,-46.875,117090.963,323.1652457474433
962,1686015326.54,-51.27,499.512,89.844,-31.738,117090.972,319.4928487613399
963,1686015326.54,-49.805,269.531,105.469,-43.945,117090.967,308.2552153822393
964,1686015326.54,-130.371,28.809,87.891,-106.445,117090.965,314.0395862417912
965,1686015326.54,-52.246,45.898,75.684,-28.809,117090.976,314.97943848974353
966,1686015326.55,-121.582,432.129,56.641,-91.309,117090.969,315.5223828282647
967,1686015326.55,-53.223,8.301,115.234,-53.223,117090.971,319.72785293755624
968,1686015326.55,-66.895,105.469,104.004,-39.062,117090.98,312.49629905019657
969,1686015326.55,-55.176,315.918,169.922,-62.012,117090.975,314.03389188333523
970,1686015326.55,-117.676,552.246,3.418,-91.309,117090.973,314.97214803386026
971,1686015326.55,-66.895,504.883,110.84,-46.387,117090.984,312.9726324484231
972,1686015326.56,-61.035,407.715,84.961,-42.48,117090.988,312.3731196209788
973,1686015326.56,-125.0,174.316,2.441,-94.727,117090.977,313.9460723489084
974,1686015326.56,-62.988,158.691,112.793,-46.387,117090.991,314.5090773178227
975,1686015326.56,-131.836,-114.746,42.969,-89.844,117090.981,314.78099780288596
976,1686015326.56,-120.605,-15.137,11.23,-95.215,117090.985,308.99920554251486
977,1686015326.56,-63.965,407.227,124.512,-49.805,117090.995,319.6418815387174
978,1686015326.57,-125.488,77.637,-3.418,-107.422,117090.989,322.4519732168853
979,1686015326.57,-98.145,477.539,34.668,-85.938,117090.999,320.1363063725848
980,1686015326.57,-118.164,-112.793,-18.555,-98.633,117090.993,311.56837910976896
981,1686015326.57,-104.004,-851.074,7.812,-75.684,117090.997,308.08423090176103
982,1686015326.58,-101.074,-240.723,124.023,-74.219,117091.0,304.3022765252633
983,1686015326.58,-99.609,676.27,49.805,-71.777,117091.004,305.63304903768363
984,1686015326.58,-96.68,30.273,-57.617,-62.5,117091.005,306.50142503493595
985,1686015326.59,-88.867,-928.711,30.273,-45.41,117091.009,315.73944322450916
986,1686015326.59,-81.055,-300.781,140.137,-41.016,117091.013,312.0995904925007
987,1686015326.6,-86.914,439.941,52.734,-62.012,117091.017,306.24134220200716
988,1686015326.6,-80.078,-233.887,-41.016,-72.754,117091.02,308.43088228780687
989,1686015326.6,-79.102,-897.461,46.387,-64.453,117091.024,305.1239463662634
990,1686015326.61,-76.172,40.039,142.578,-57.617,117091.028,305.8948124678577
991,1686015326.61,-74.219,735.84,43.945,-56.641,117091.032,312.2902608108007
992,1686015326.62,-86.426,-303.711,-19.531,-54.199,117091.036,310.2392855528982
993,1686015326.62,-85.449,-550.293,134.766,-52.246,117091.04,307.57831873232624
994,1686015326.62,-76.66,606.934,130.371,-54.688,117091.044,310.911370747298
995,1686015326.63,-73.73,753.906,24.902,0.0,117091.048,299.0464041951382
996,1686015326.63,-81.055,485.84,63.965,83.984,117091.048,302.1086337289356
997,1686015326.63,-81.543,659.668,63.965,99.121,117091.052,309.01151290437497
998,1686015326.64,-71.289,760.742,47.852,87.891,117091.056,310.1878215713863
999,1686015326.64,-70.801,645.508,35.156,81.055,117091.06,306.7402121518408
1000,1686015326.64,-80.078,453.125,31.25,75.195,117091.064,310.6956575914742
1001,1686015326.65,-85.449,230.957,40.039,62.988,117091.067,305.875925526927
1002,1686015326.65,-82.52,295.41,69.824,61.035,117091.071,305.84321269090475
1003,1686015326.65,-74.219,247.07,46.387,79.59,117091.075,306.01862003168145
1004,1686015326.66,-74.707,-698.242,43.945,88.867,117091.079,307.1637316944109
1005,1686015326.66,-83.984,-432.617,167.969,58.594,117091.083,304.3203157898344
1006,1686015326.67,-89.844,536.133,126.953,39.062,117091.087,301.32967294482876
1007,1686015326.67,-82.031,464.355,53.711,43.945,117091.091,303.7576856321677
1008,1686015326.67,-83.496,606.934,94.727,41.016,117091.095,306.3947780865354
1009,1686015326.68,-89.844,814.941,69.336,30.273,117091.099,305.70593643955135
1010,1686015326.68,-89.355,625.488,36.621,25.391,117091.103,310.12739405791706
1011,1686015326.69,-80.566,401.367,71.289,26.855,117091.107,310.1796030755668
1012,1686015326.69,-77.148,624.512,94.238,24.414,117091.11,303.47852846562733
1013,1686015326.69,-85.938,521.973,55.176,16.602,117091.114,308.73113257789043
1014,1686015326.7,-80.566,209.473,45.898,13.672,117091.118,298.4607159204297
1015,1686015326.7,-70.801,-345.703,35.156,19.043,117091.122,305.59604606177913
1016,1686015326.7,-91.309,-169.434,118.164,-12.695,117091.126,298.01927252249
1017,1686015326.71,-110.84,722.168,103.516,-53.711,117091.13,305.5138645652994
1018,1686015326.71,-104.492,587.891,20.02,-49.805,117091.134,299.9182937407679
1019,1686015326.72,-96.191,59.082,102.051,-32.227,117091.138,304.7494664490957
1020,1686015326.72,-99.121,520.996,124.023,-40.527,117091.138,305.82631117305584
1021,1686015326.72,-104.492,887.207,62.012,-50.293,117091.142,298.50524759436877
1022,1686015326.72,-113.77,569.824,17.09,-50.293,117091.146,304.5568259788513
1023,1686015326.73,-109.375,479.492,58.594,-36.133,117091.15,295.14964490768097
1024,1686015326.73,-97.656,569.824,62.988,-17.09,117091.154,296.51648911956
1025,1686015326.74,-95.703,415.527,42.48,-25.391,117091.158,292.1525007744961
1026,1686015326.74,-102.051,120.605,23.438,-47.363,117091.161,302.9800496744413
1027,1686015326.74,-96.191,-711.914,37.598,-37.598,117091.165,302.20622527884046
1028,1686015326.75,-86.426,-35.645,145.996,-30.273,117091.169,313.0651684845377
1029,1686015326.75,-77.148,873.535,89.844,-31.25,117091.173,308.32890172887437
1030,1686015326.76,-75.684,436.035,2.441,-36.621,117091.177,304.4668236324957
1031,1686015326.76,-84.961,309.57,55.176,-55.664,117091.181,302.80783667336397
1032,1686015326.76,-89.355,700.195,99.609,-53.223,117091.198,307.9588149499008
1033,1686015326.77,-86.426,817.871,58.105,-49.805,117091.202,302.2657129038014
1034,1686015326.77,-90.332,229.98,-19.531,-56.152,117091.206,301.46548313537596
1035,1686015326.78,-100.098,246.094,51.27,-59.57,117091.21,312.04280289947053
1036,1686015326.78,-91.797,726.074,83.496,-48.34,117091.214,305.6276098652584
1037,1686015326.78,-84.961,511.719,24.902,-37.598,117091.217,303.45010644892045
1038,1686015326.79,-87.402,-120.117,14.648,-40.039,117091.221,310.36335616171124
1039,1686015326.79,-88.379,76.66,76.66,-43.945,117091.225,309.2299931859156
1040,1686015326.8,-82.031,696.289,72.266,-49.805,117091.229,310.09349710772847
1041,1686015326.8,-81.055,648.438,50.293,-51.27,117091.233,308.87184506563966
1042,1686015326.8,-86.426,510.742,76.172,-50.293,117091.237,307.1652108382911
1043,1686015326.81,-84.961,667.969,64.941,-59.57,117091.241,307.2129006842842
1044,1686015326.81,-91.797,718.262,24.414,-84.961,117091.242,298.64187594196903
1045,1686015326.81,-95.215,361.328,20.02,-97.656,117091.246,304.58936154730543
1046,1686015326.82,-84.473,183.105,93.75,-90.82,117091.25,312.4924597379077
1047,1686015326.82,-83.984,607.91,78.613,-99.121,117091.254,315.2419933962336
1048,1686015326.82,-98.633,650.879,8.789,-117.676,117091.258,314.2573932363561
1049,1686015326.83,-101.074,112.793,6.836,-111.328,117091.261,299.84417385366527
1050,1686015326.83,-88.379,-408.691,75.684,-94.238,117091.265,313.0505638205271
1051,1686015326.84,-83.496,202.148,117.188,-98.145,117091.269,310.81952422039336
1052,1686015326.84,-79.59,780.762,51.27,-104.98,117091.273,304.9963977069375
1053,1686015326.84,-74.219,289.551,11.23,-107.422,117091.277,315.6820487729226
1054,1686015326.85,-74.219,71.777,105.469,-102.539,117091.281,307.8362341611484
1055,1686015326.85,-73.242,711.426,104.98,-96.68,117091.285,310.24119120994783
1056,1686015326.87,-67.871,770.996,26.367,-103.516,117091.29,304.37099342165027
1057,1686015326.87,-71.777,341.309,17.578,-110.84,117091.294,312.90034177917437
1058,1686015326.88,-76.172,557.617,69.824,-106.445,117091.298,319.2634362324217
1059,1686015326.88,-78.125,787.598,67.871,-108.887,117091.302,317.2469871652605
1060,1686015326.88,-83.496,483.398,13.672,-121.094,117091.306,314.6383130250709
1061,1686015326.89,-92.285,-333.984,7.324,-124.023,117091.31,303.5182923987327
1062,1686015326.89,-87.402,-270.02,148.926,-117.188,117091.313,320.23162822713016
1063,1686015326.9,-71.289,734.863,135.742,-105.957,117091.317,320.26094297231487
1064,1686015326.9,-78.613,686.035,33.691,-104.98,117091.321,310.88841610184744
1065,1686015326.9,-83.984,323.73,83.984,-109.863,117091.325,316.53035242372806
1066,1686015326.91,-71.777,572.754,101.562,-108.398,117091.329,313.5054066319274
1067,1686015326.91,-63.965,721.68,86.914,-100.098,117091.333,313.80386270381314
1068,1686015326.91,-63.477,637.207,57.617,-100.586,117091.334,315.59069782271115
1069,1686015326.92,-76.66,461.914,51.27,-111.816,117091.337,318.2200694944506
1070,1686015326.92,-84.473,621.094,60.059,-107.422,117091.341,320.3354638466227
1071,1686015326.92,-83.496,799.805,49.316,-87.402,117091.345,321.596260036471
1072,1686015326.93,-81.055,605.469,20.996,-76.172,117091.349,315.47152282423593
1073,1686015326.93,-86.914,221.68,23.926,-89.844,117091.353,316.46409260775255
1074,1686015326.94,-104.004,165.039,53.223,-97.168,117091.357,314.9844217578863
1075,1686015326.94,-108.398,352.051,56.641,-87.402,117091.361,309.61644219742874
1076,1686015326.94,-107.422,212.891,12.695,-82.031,117091.365,322.5792950618424
1077,1686015326.95,-119.629,-716.309,9.277,-80.566,117091.369,327.18706373535724
1078,1686015326.95,-115.234,-375.488,108.887,-87.402,117091.373,320.8805249049347
1079,1686015326.96,-102.051,610.84,76.172,-87.891,117091.377,323.6688015140545
1080,1686015326.96,-99.121,533.203,11.23,-82.031,117091.384,326.4461455988789
1081,1686015326.96,-96.191,656.738,37.598,-90.332,117091.387,315.14434033356395
1082,1686015326.97,-94.238,809.57,47.363,-95.215,117091.391,316.18920367638543
1083,1686015326.97,-85.938,631.348,29.785,-86.426,117091.395,322.7963876285375
1084,1686015326.98,-81.543,435.059,47.852,-80.566,117091.399,319.78149043822384
1085,1686015326.98,-91.309,333.008,38.086,-79.102,117091.403,317.4849161693997
1086,1686015326.98,-105.469,423.828,41.992,-84.961,117091.407,319.9704700735717
1087,1686015326.99,-109.375,602.051,33.691,-87.891,117091.411,324.9929388066985
1088,1686015326.99,-97.656,-127.441,-1.465,-78.613,117091.415,316.8918604583993
1089,1686015326.99,-89.844,-152.832,84.961,-77.637,117091.419,328.6656708245673
1090,1686015327.0,-101.074,729.004,72.754,-87.891,117091.423,327.959095625267
1091,1686015327.0,-100.098,589.844,5.859,-91.797,117091.427,320.5503322609874
1092,1686015327.0,-80.566,148.438,94.238,-77.637,117091.423,327.7887378239596
1093,1686015327.01,-85.449,592.285,110.84,-79.102,117091.427,324.07521268754016
1094,1686015327.01,-94.727,839.844,43.945,-93.75,117091.431,320.4918565288773
1095,1686015327.01,-85.449,574.219,32.715,-97.656,117091.435,324.0140108816983
1096,1686015327.02,-79.59,454.102,62.5,-93.262,117091.439,331.63637289882143
1097,1686015327.02,-77.148,362.793,55.664,-85.449,117091.443,323.1594663860019
1098,1686015327.02,-83.496,427.246,56.152,-85.938,117091.447,324.78720457234374
1099,1686015327.03,-89.355,189.941,11.23,-82.031,117091.45,326.0489073636004
1100,1686015327.03,-81.543,-639.648,21.484,-75.195,117091.454,314.61328756612056
1101,1686015327.04,-72.754,107.422,115.234,-80.566,117091.458,330.2750948856697
1102,1686015327.04,-71.777,940.918,52.246,-89.844,117091.462,324.6080774309123
1103,1686015327.04,-79.102,473.633,-16.602,-94.727,117091.466,317.1637786219596
1104,1686015327.05,-80.566,449.707,59.082,-90.82,117091.471,319.1024719917863
1105,1686015327.05,-76.172,896.973,89.844,-74.219,117091.475,322.1780930454332
1106,1686015327.06,-76.172,904.297,29.297,-70.801,117091.478,316.20000035827593
1107,1686015327.06,-79.59,289.062,-27.832,-79.102,117091.482,312.2003709092251
1108,1686015327.06,-83.008,321.289,42.48,-80.078,117091.486,317.20271696369895
1109,1686015327.07,-77.148,552.734,52.246,-74.219,117091.49,320.51522935851466
1110,1686015327.07,-68.848,442.383,13.672,-75.195,117091.494,316.51326423632764
1111,1686015327.08,-74.707,-55.176,9.277,-82.52,117091.498,323.14147706303714
1112,1686015327.08,-77.148,104.492,61.523,-80.566,117091.502,316.2369981010375
1113,1686015327.08,-63.477,780.762,48.34,-80.566,117091.506,315.903051742026
1114,1686015327.09,-53.223,750.0,12.207,-77.637,117091.51,318.20827657574586
1115,1686015327.09,-54.199,567.383,37.598,-72.266,117091.514,313.2828193155707
1116,1686015327.09,-63.965,682.617,29.297,-83.496,117091.517,315.5528622081837
1117,1686015327.1,-69.824,741.699,7.324,-84.473,117091.521,325.89666325572836
1118,1686015327.1,-66.895,377.441,15.625,-73.242,117091.525,315.20751226201935
1119,1686015327.1,-66.406,243.652,72.266,-74.707,117091.529,323.41815991413347
1120,1686015327.11,-74.219,563.965,33.203,-93.75,117091.533,324.3005470945489
1121,1686015327.11,-79.102,463.867,11.23,-96.191,117091.537,313.78739535949205
1122,1686015327.12,-77.637,137.695,20.02,-80.078,117091.541,315.20076301803533
1123,1686015327.12,-88.379,-579.59,20.02,-71.289,117091.545,320.57720025358094
1124,1686015327.12,-94.727,26.367,90.332,-83.984,117091.549,313.91342819908306
1125,1686015327.13,-97.656,801.758,33.691,-93.262,117091.552,315.52773595214626
1126,1686015327.13,-95.215,515.137,-9.277,-83.984,117091.556,326.4699317709033
1127,1686015327.14,-83.008,630.859,43.457,-67.871,117091.56,318.15318950141443
1128,1686015327.14,-89.355,883.789,39.062,-69.824,117091.572,315.16272438247944
1129,1686015327.14,-98.633,730.469,-1.953,-81.543,117091.576,316.47929991112704
1130,1686015327.15,-96.68,407.227,11.23,-71.777,117091.58,328.1903119231455
1131,1686015327.15,-102.051,640.625,47.852,-59.57,117091.584,322.80325530837604
1132,1686015327.16,-108.398,750.977,26.367,-58.105,117091.588,316.4437835961749
1133,1686015327.16,-102.539,437.012,-9.766,-54.199,117091.592,316.7696370031874
1134,1686015327.16,-95.215,-359.375,-37.598,-44.434,117091.596,307.89571689610784
1135,1686015327.17,-91.797,-372.07,102.051,-42.48,117091.6,314.5691228782363
1136,1686015327.17,-85.938,692.871,86.426,-43.945,117091.604,314.94445577032036
1137,1686015327.17,-80.078,665.039,-20.508,-49.316,117091.608,318.3878642139494
1138,1686015327.18,-77.637,380.859,46.387,-61.523,117091.611,316.80368103223196
1139,1686015327.18,-80.078,703.613,63.477,-59.57,117091.615,312.87538467782423
1140,1686015327.18,-82.031,871.582,17.578,-56.641,117091.618,318.67450614383887
1141,1686015327.19,-89.355,611.816,-10.254,-64.453,117091.622,326.36079901810564
1142,1686015327.19,-88.379,415.039,27.832,-60.547,117091.625,321.1943153618897
1143,1686015327.19,-76.66,638.672,48.828,-55.176,117091.629,318.09971861256105
1144,1686015327.2,-71.289,770.508,29.297,-50.781,117091.633,318.6684994494284
1145,1686015327.2,-67.383,206.055,-6.836,-49.316,117091.637,314.73549117298165
1146,1686015327.2,-68.848,-531.738,40.527,-56.641,117091.641,316.0092885038234
1147,1686015327.21,-76.172,-117.188,82.52,-51.758,117091.645,321.0977033865806
1148,1686015327.21,-78.613,553.711,60.059,-44.922,117091.649,321.3127212477648
1149,1686015327.22,-87.891,301.758,-3.906,-49.805,117091.653,319.0311633381559
1150,1686015327.22,-88.379,-411.133,45.898,-42.969,117091.657,320.7369385563555
1151,1686015327.22,-78.125,287.109,94.238,-49.316,117091.661,317.32857426821624
1152,1686015327.24,-72.754,754.395,31.25,13.672,117091.665,316.9017290342273
1153,1686015327.25,-64.941,429.199,0.977,116.211,117091.669,315.7614309277419
1154,1686015327.25,-69.336,557.617,20.996,122.559,117091.672,316.6035165725664
1155,1686015327.26,-70.801,729.004,36.621,109.863,117091.676,319.3972071011756
1156,1686015327.26,-62.5,600.586,21.973,109.375,117091.68,319.74717529620636
1157,1686015327.26,-63.477,155.762,22.949,96.68,117091.684,315.43491235434675
1158,1686015327.27,-70.801,201.172,52.246,65.43,117091.688,316.359536693507
1159,1686015327.27,-77.637,655.762,44.434,50.293,117091.692,315.31867857630726
1160,1686015327.27,-82.031,564.453,17.578,54.199,117091.696,319.5502517513916
1161,1686015327.28,-75.684,-192.383,28.809,50.293,117091.7,313.6058550479088
1162,1686015327.28,-62.5,20.996,94.238,35.645,117091.704,312.64838869653414
1163,1686015327.29,-63.477,674.316,41.992,17.09,117091.708,314.85022863022476
1164,1686015327.29,-63.477,430.664,0.488,26.367,117091.708,312.4819513080151
1165,1686015327.29,-60.059,87.402,86.426,30.273,117091.712,312.4261095588128
1166,1686015327.3,-62.012,458.984,63.477,15.625,117091.716,311.2361932639634
1167,1686015327.3,-61.523,655.762,-4.883,8.301,117091.72,314.3575547683068
1168,1686015327.3,-58.594,332.52,0.977,13.672,117091.724,313.902345863919
1169,1686015327.31,-50.781,51.27,47.852,15.625,117091.728,309.6654270231968
1170,1686015327.31,-52.734,100.586,39.551,0.0,117091.732,319.6054955200369
1171,1686015327.31,-70.801,367.188,34.668,-20.508,117091.735,315.9653311475184
1172,1686015327.32,-85.938,157.227,-13.184,-24.414,117091.739,319.9757533435499
1173,1686015327.32,-85.938,-666.504,11.23,-15.137,117091.743,319.27833926681745
1174,1686015327.33,-83.008,128.418,80.078,-16.602,117091.747,316.9555128048408
1175,1686015327.33,-83.496,657.715,3.418,-21.973,117091.751,320.2208790583228
1176,1686015327.33,-90.82,167.969,-29.297,-23.438,117091.755,322.9072806605435
1177,1686015327.34,-86.426,253.906,45.41,-16.113,117091.759,310.3542862878612
1178,1686015327.34,-72.266,690.43,56.152,-11.719,117091.763,315.8174446838603
1179,1686015327.35,-83.984,708.008,-8.789,-24.902,117091.767,304.99984041371465
1180,1686015327.35,-91.797,29.297,-37.598,-36.621,117091.771,319.56582751922883
1181,1686015327.35,-73.73,-101.562,15.625,-24.902,117091.775,316.3959437558392
1182,1686015327.36,-52.246,335.938,36.621,-12.207,117091.779,315.17897695381805
1183,1686015327.36,-58.594,543.457,7.812,-32.715,117091.783,318.24549676078567
1184,1686015327.36,-70.312,-167.48,2.441,-50.293,117091.786,318.5229206969926
1185,1686015327.37,-66.406,-52.734,74.707,-56.152,117091.79,315.98269306865467
1186,1686015327.37,-65.43,713.379,45.41,-51.758,117091.794,310.69612225262034
1187,1686015327.38,-86.426,437.988,17.09,-59.082,117091.797,321.2698790279329
1188,1686015327.38,-78.125,627.93,-9.766,-41.504,117091.798,319.08553749334027
1189,1686015327.38,-88.379,562.988,23.438,-78.613,117091.8,317.2840049826326
1190,1686015327.38,-88.379,608.398,-7.324,-75.195,117091.804,318.84534685096423
1191,1686015327.39,-81.543,322.266,7.812,-71.777,117091.808,315.5672540129338
1192,1686015327.39,-84.961,18.066,36.621,-79.102,117091.812,318.0396399537782
1193,1686015327.4,-94.238,23.926,0.977,-88.379,117091.816,317.88137181723886
1194,1686015327.4,-93.262,168.945,9.277,-84.961,117091.82,313.44020781654564
1195,1686015327.4,-93.75,61.035,16.113,-74.219,117091.824,322.4423981084721
1196,1686015327.41,-90.82,-663.574,11.719,-76.172,117091.828,312.3623120645246
1197,1686015327.41,-93.262,-96.68,72.754,-91.309,117091.832,315.2689300381336
1198,1686015327.42,-88.867,621.094,31.738,-84.473,117091.836,313.31162771613975
1199,1686015327.42,-70.801,359.863,-4.883,-63.477,117091.84,311.72758427692725
1200,1686015327.44,-67.871,515.625,32.227,-61.035,117091.857,314.0953029098176
1201,1686015327.44,-73.242,751.953,23.438,-74.707,117091.861,316.96631674013884
1202,1686015327.44,-81.543,604.004,1.465,-82.031,117091.865,315.27253317708795
1203,1686015327.45,-74.219,314.941,15.625,-69.824,117091.869,316.32494741685804
1204,1686015327.45,-67.871,487.793,33.203,-67.383,117091.873,314.8984947625198
1205,1686015327.46,-73.242,414.062,19.531,-85.938,117091.877,319.2915778231099
1206,1686015327.46,-65.43,164.551,6.348,-89.844,117091.881,313.4040362502545
1207,1686015327.46,-54.688,-457.52,-0.977,-69.824,117091.885,313.63474580659545
1208,1686015327.47,-56.641,645.996,67.871,-62.988,117091.887,312.3095591288435
1209,1686015327.47,-51.27,-381.348,123.535,-52.734,117091.889,323.6990114051784
1210,1686015327.47,-59.57,770.02,31.25,-74.707,117091.891,311.15031726224936
1211,1686015327.47,-56.641,574.219,75.195,-68.359,117091.892,315.65295216869487
1212,1686015327.47,-68.359,456.543,0.0,-89.355,117091.895,319.9163472726346
1213,1686015327.48,-66.406,522.461,-2.441,-82.031,117091.896,309.3111883425101
1214,1686015327.48,-67.383,313.477,47.852,-93.262,117091.899,313.3876430101289
1215,1686015327.48,-63.477,336.426,62.5,-72.266,117091.9,324.2009068908045
1216,1686015327.48,-68.359,432.617,38.086,-84.961,117091.903,314.6554737707455
1217,1686015327.49,-71.289,359.863,9.277,-83.984,117091.906,319.25884938451827
1218,1686015327.49,-76.66,-9.766,0.488,-93.75,117091.91,322.5540826342836
1219,1686015327.49,-76.172,-415.039,62.5,-83.008,117091.914,327.48047004603376
1220,1686015327.5,-63.477,1.465,77.148,-76.66,117091.918,320.1064406168166
1221,1686015327.5,-65.43,537.109,51.27,-76.172,117091.922,303.5497324712125
1222,1686015327.5,-77.637,182.129,-14.648,-81.055,117091.926,321.43783368312506
1223,1686015327.51,-79.59,-809.57,-2.93,-78.613,117091.93,314.655507626562
1224,1686015327.51,-73.242,-70.801,93.75,-72.754,117091.946,312.9961311711259
1225,1686015327.52,-64.941,683.594,37.109,-69.336,117091.95,314.37755643114195
1226,1686015327.52,-65.918,326.66,-2.93,-62.988,117091.954,316.72005502676853
1227,1686015327.52,-75.195,438.965,27.832,-80.078,117091.958,319.5147435895821
1228,1686015327.53,-69.336,619.141,28.32,-109.863,117091.962,314.6309777653325
1229,1686015327.53,-56.641,316.406,0.0,-119.629,117091.966,311.0715516561884
1230,1686015327.54,-63.965,-306.641,-0.977,-131.348,117091.97,319.5915225426644
1231,1686015327.54,-81.543,-83.496,77.148,-154.785,117091.974,316.88350916838704
1232,1686015327.54,-80.078,553.223,44.922,-162.598,117091.977,318.05428929451244
1233,1686015327.55,-70.801,500.977,3.906,-151.855,117091.981,319.6791486301823
1234,1686015327.55,-63.477,227.539,20.996,-149.902,117091.985,313.05496957482467
1235,1686015327.56,-69.336,225.586,41.016,-165.039,117091.989,313.4228417179677
1236,1686015327.56,-83.496,513.672,34.668,-171.875,117091.99,323.82123862206663
1237,1686015327.56,-81.055,350.586,-0.977,-160.645,117091.994,326.0158706264163
1238,1686015327.57,-74.219,20.02,57.617,-148.926,117091.998,308.1621794590008
1239,1686015327.57,-69.336,369.629,50.781,-151.855,117092.002,316.17611691451117
1240,1686015327.57,-65.43,499.512,1.953,-151.855,117092.006,323.03008126888335
1241,1686015327.58,-69.336,-3.906,1.953,-147.461,117092.01,317.6912873972532
1242,1686015327.58,-62.012,-594.238,52.734,-138.672,117092.014,312.5367830928801
1243,1686015327.58,-61.035,-41.016,83.496,-146.973,117092.018,314.4113784837525
1244,1686015327.59,-62.988,523.926,1.465,-166.016,117092.022,309.92577957445064
1245,1686015327.59,-57.129,93.75,-17.578,-162.109,117092.026,307.76626728973235
1246,1686015327.6,-56.152,-109.863,80.566,-143.555,117092.029,317.1336970250538
1247,1686015327.6,-57.129,484.375,60.547,-145.508,117092.033,322.7393023485155
1248,1686015327.62,-53.223,526.855,-2.93,-154.785,117092.038,314.99556010145614
1249,1686015327.62,-57.617,20.508,-1.465,-147.949,117092.042,310.41216598866356
1250,1686015327.63,-66.406,145.02,40.527,-134.766,117092.046,316.3578805145931
1251,1686015327.63,-69.336,515.625,39.551,-137.207,117092.05,319.1166732280699
1252,1686015327.63,-78.125,450.684,-14.648,-148.438,117092.054,324.9154026520592
1253,1686015327.64,-83.008,-484.863,-47.852,-151.367,117092.058,306.8890187904537
1254,1686015327.64,-79.102,-607.422,92.285,-146.484,117092.062,318.1700358150013
1255,1686015327.64,-80.566,410.645,59.57,-138.184,117092.066,313.4692282533923
1256,1686015327.65,-87.891,435.059,-30.762,-136.23,117092.07,313.83853495253817
1257,1686015327.65,-83.496,30.273,43.457,-130.859,117092.074,306.88435892128945
1258,1686015327.66,-62.012,245.117,48.828,-117.188,117092.077,320.3689302226878
1259,1686015327.66,-54.199,539.551,18.066,-119.629,117092.081,310.99219263867656
1260,1686015327.66,-69.824,412.109,-0.977,-127.441,117092.082,304.98431084891547
1261,1686015327.67,-75.684,191.895,13.184,-125.488,117092.086,311.0123726624784
1262,1686015327.67,-68.359,295.898,12.695,-131.348,117092.09,304.3756237662302
1263,1686015327.67,-66.406,427.734,-0.977,-129.883,117092.094,315.9651762941793
1264,1686015327.68,-60.547,65.43,-0.977,-122.07,117092.098,308.75570680717357
1265,1686015327.68,-57.617,-516.602,59.082,-131.348,117092.102,311.1093859269399
1266,1686015327.68,-65.918,-310.547,36.621,-138.672,117092.106,305.85277165354967
1267,1686015327.69,-60.547,45.898,15.137,-124.023,117092.11,313.219216903491
1268,1686015327.69,-53.223,-127.441,1.465,-107.91,117092.114,305.9216910618817
1269,1686015327.7,-63.965,-800.293,15.625,-98.145,117092.118,307.53290667764475
1270,1686015327.7,-73.242,-151.855,72.266,-107.91,117092.121,316.2932734318726
1271,1686015327.7,-64.453,469.238,15.625,-106.445,117092.125,311.22648838378365
1272,1686015327.71,-51.27,179.688,-23.438,-93.262,117092.13,320.741709498497
1273,1686015327.71,-61.035,290.039,8.789,-94.238,117092.133,309.47374151954193
1274,1686015327.72,-69.336,443.359,20.02,-101.562,117092.137,311.4572653918203
1275,1686015327.72,-63.965,354.492,10.742,-98.145,117092.141,312.3609920318311
1276,1686015327.72,-54.688,133.301,15.625,-87.402,117092.145,308.6065776804291
1277,1686015327.73,-61.035,24.902,11.23,-87.402,117092.149,318.25325203974836
1278,1686015327.73,-73.73,-16.602,16.602,-100.586,117092.153,310.6919698362061
1279,1686015327.74,-75.195,-2.93,-4.395,-104.004,117092.157,313.49481920670826
1280,1686015327.74,-75.684,-582.031,-31.738,-98.145,117092.161,313.86285064637303
1281,1686015327.74,-82.52,-486.816,38.086,-101.562,117092.165,316.297170693028
1282,1686015327.75,-85.938,345.703,-27.344,-109.863,117092.169,311.1384137073441
1283,1686015327.75,-83.008,73.73,-51.758,-104.492,117092.173,314.6189184892155
1284,1686015327.75,-68.848,-30.762,10.742,-91.309,117092.172,310.95960593229313
1285,1686015327.76,-67.871,422.363,-7.812,-96.68,117092.176,305.8862987264684
1286,1686015327.76,-71.289,495.117,-34.668,-91.797,117092.18,313.097143937899
1287,1686015327.76,-77.637,192.383,-40.527,-94.238,117092.184,306.3522655621914
1288,1686015327.77,-78.125,65.918,-14.16,-99.609,117092.188,310.51105801128193
1289,1686015327.77,-62.988,63.477,-1.953,-94.238,117092.192,302.6910609398525
1290,1686015327.78,-63.965,103.027,-21.973,-99.609,117092.196,306.6529913355775
1291,1686015327.78,-71.289,-115.723,-25.391,-100.586,117092.2,311.9184240395614
1292,1686015327.78,-60.547,-869.141,0.0,-89.844,117092.204,313.89599237519224
1293,1686015327.79,-51.27,-401.367,58.105,-94.238,117092.208,312.70587020967616
1294,1686015327.79,-51.758,485.84,18.555,-97.656,117092.211,310.2233031713138
1295,1686015327.8,-55.664,126.465,-30.762,-93.75,117092.215,313.51028573597483
