timestamps,TP9,AF7,AF8,TP10,Secondary Timestamp
1686197608.668,20.020,204.590,-26.367,-1.953,1013.565
1686197608.672,-29.297,-134.277,-10.742,-48.828,1013.569
1686197608.676,-46.875,-68.359,12.207,-37.109,1013.572
1686197608.680,1.465,67.383,-13.672,18.555,1013.576
1686197608.684,19.043,-119.629,-21.484,12.695,1013.580
1686197608.688,-35.645,-366.211,-18.555,-42.969,1013.584
1686197608.692,-65.430,-302.734,4.395,-53.711,1013.588
1686197608.695,-20.996,146.484,19.043,-8.789,1013.592
1686197608.699,10.254,326.172,-17.090,1.953,1013.596
1686197608.703,-28.320,-521.973,-55.176,-34.668,1013.600
1686197608.707,-73.730,-922.363,23.438,-54.688,1013.604
1686197608.711,-44.922,208.008,67.871,-31.738,1013.608
1686197608.714,11.230,429.688,-29.297,-1.465,1013.611
1686197608.718,-1.953,118.652,-37.109,-21.484,1013.615
1686197608.722,-57.617,292.969,-13.672,-61.523,1013.619
1686197608.726,-59.082,308.105,-22.949,-45.898,1013.623
1686197608.730,-4.395,38.574,-27.344,0.488,1013.627
1686197608.734,-3.418,-263.184,-27.344,-16.113,1013.630
1686197608.738,-55.664,-251.465,-17.578,-65.430,1013.634
1686197608.741,-61.523,8.301,7.324,-59.082,1013.638
1686197608.745,-10.742,-132.812,-34.180,-4.395,1013.642
1686197608.749,3.906,-779.297,-8.789,6.836,1013.646
1686197608.753,-36.133,-70.312,45.898,-50.293,1013.650
1686197608.757,-59.570,465.332,-21.484,-73.242,1013.654
1686197608.758,-20.996,165.039,1.465,-29.297,1013.655
1686197608.762,19.043,238.770,16.602,0.000,1013.659
1686197608.766,-15.625,301.270,-27.344,-35.645,1013.662
1686197608.770,-64.941,80.078,-48.340,-67.383,1013.666
1686197608.774,-43.945,-232.422,-18.066,-42.969,1013.670
1686197608.778,8.789,-232.910,-1.465,-11.719,1013.674
1686197608.782,1.953,-55.664,-0.977,-21.973,1013.678
1686197608.785,-53.223,119.629,-9.277,-56.641,1013.682
1686197608.789,-62.988,-568.359,-35.645,-39.551,1013.686
1686197608.793,-9.766,-741.211,42.969,3.906,1013.690
1686197608.797,20.508,416.992,42.969,-7.812,1013.694
1686197608.801,-16.113,383.789,-39.551,-40.527,1013.698
1686197608.805,-36.133,35.645,-17.578,-33.691,1013.706
1686197608.809,7.324,308.594,5.859,-0.977,1013.710
1686197608.813,41.504,384.766,-15.137,7.812,1013.714
1686197608.817,2.441,2.441,-30.273,-19.043,1013.717
1686197608.821,-38.574,-150.879,-18.066,-49.316,1013.721
1686197608.825,-15.625,-132.324,-4.395,-20.508,1013.725
1686197608.829,27.832,-111.328,-7.324,11.230,1013.729
1686197608.832,1.953,-334.473,-47.363,-16.113,1013.733
1686197608.836,-55.176,-562.500,-2.930,-53.711,1013.737
1686197608.840,-43.945,243.164,36.133,-40.527,1013.741
1686197608.844,4.883,333.496,-17.090,3.906,1013.745
1686197608.848,2.930,-160.645,-11.719,-12.695,1013.749
1686197608.848,-42.969,13.672,1.465,-63.477,1013.745
1686197608.852,-48.828,305.176,-11.719,-62.988,1013.749
1686197608.856,-9.277,232.422,-19.531,-16.602,1013.753
1686197608.860,8.789,-48.828,-33.203,-8.789,1013.756
1686197608.864,-39.062,-212.402,-25.391,-55.176,1013.760
1686197608.868,-71.777,-194.824,-16.113,-76.660,1013.764
1686197608.872,-19.531,59.082,0.000,-25.879,1013.768
1686197608.875,10.254,-426.270,-40.039,0.488,1013.772
1686197608.879,-37.109,-645.508,-11.719,-43.457,1013.776
1686197608.883,-64.453,395.996,22.461,-70.801,1013.780
1686197608.887,-27.832,409.180,-28.809,-32.227,1013.784
1686197608.891,15.625,118.164,-14.160,2.930,1013.788
1686197608.896,-7.324,194.824,-21.484,-28.320,1013.795
1686197608.900,-57.617,39.551,-42.480,-65.430,1013.799
1686197608.904,-47.852,-323.242,-46.875,-35.645,1013.803
1686197608.908,0.488,-326.172,-21.484,11.719,1013.807
1686197608.912,4.395,98.145,-19.043,-7.812,1013.811
1686197608.916,-49.316,-88.867,-45.898,-60.547,1013.815
1686197608.920,-72.754,-562.988,-40.039,-50.293,1013.819
1686197608.923,-16.602,-522.949,9.766,-4.395,1013.822
1686197608.927,23.438,234.863,16.113,-0.977,1013.826
1686197608.931,-23.438,361.328,-41.504,-39.551,1013.830
1686197608.935,-58.594,-83.008,-22.461,-58.594,1013.834
1686197608.939,-20.508,-10.254,-1.465,-23.438,1013.838
1686197608.938,14.160,323.242,-9.277,-2.441,1013.847
1686197608.942,-11.719,161.621,-36.621,-35.645,1013.851
1686197608.946,-60.059,-120.117,-18.066,-67.383,1013.855
1686197608.950,-37.109,-34.668,-16.602,-35.645,1013.859
1686197608.954,18.066,-39.551,-33.691,3.418,1013.863
1686197608.958,-0.977,-132.812,-23.926,-30.273,1013.867
1686197608.962,-61.523,-579.590,-52.734,-63.965,1013.871
1686197608.965,-66.895,-1000.000,3.418,-36.621,1013.875
1686197608.969,-4.883,-52.734,49.316,-3.906,1013.879
1686197608.973,8.301,488.770,-34.180,-25.879,1013.882
1686197608.977,-47.852,144.531,-54.688,-65.918,1013.886
1686197608.981,-51.758,283.203,-8.301,-55.664,1013.890
1686197608.998,3.418,421.387,-0.977,-6.836,1013.894
1686197609.002,26.367,86.426,-40.039,3.906,1013.898
1686197609.006,-16.602,-157.715,-44.922,-39.551,1013.902
1686197609.010,-50.781,104.004,-8.301,-57.617,1013.906
1686197609.014,-18.555,208.008,-20.996,-24.902,1013.910
1686197609.018,9.277,-284.668,-67.383,-1.953,1013.914
1686197609.022,-23.926,-597.168,-35.645,-41.992,1013.918
1686197609.025,-63.965,-107.422,0.977,-81.055,1013.922
1686197609.029,-41.016,331.543,-11.719,-44.922,1013.925
1686197609.033,-2.930,-153.809,-24.902,-10.742,1013.929
1686197609.037,-19.043,-459.473,-13.672,-37.109,1013.933
1686197609.041,-62.500,219.727,-21.484,-73.730,1013.937
1686197609.043,-66.406,252.441,-32.715,-58.594,1013.940
1686197609.047,-9.766,38.574,-13.184,-15.625,1013.944
1686197609.051,7.812,87.402,-13.184,-26.855,1013.948
1686197609.055,-36.133,106.445,-29.785,-61.035,1013.952
1686197609.059,-61.035,-118.652,-43.945,-58.105,1013.956
1686197609.063,-19.531,-488.281,-8.789,-22.949,1013.960
1686197609.067,12.207,-425.781,15.625,-16.602,1013.963
1686197609.070,-19.043,60.547,-26.855,-50.293,1013.967
1686197609.074,-48.340,211.914,-35.645,-56.152,1013.971
1686197609.078,-27.344,-556.641,-5.371,-11.719,1013.975
1686197609.082,1.953,-371.582,52.734,11.230,1013.979
1686197609.086,-17.578,559.082,4.883,-31.250,1013.983
1686197609.089,-60.547,168.457,-53.711,-67.871,1013.986
1686197609.093,-41.016,-132.324,-29.297,-43.945,1013.990
1686197609.097,8.789,237.793,-0.977,-9.766,1013.994
1686197609.101,6.348,347.656,-30.762,-27.832,1013.997
1686197609.105,-45.410,-72.754,-43.945,-72.754,1014.001
1686197609.109,-63.477,-400.391,-28.320,-59.570,1014.005
1686197609.113,-17.090,-104.492,3.418,-11.230,1014.009
1686197609.116,3.418,325.195,-6.348,-20.020,1014.013
1686197609.120,-40.039,-231.934,-51.758,-57.129,1014.017
1686197609.124,-67.871,-621.582,1.465,-57.129,1014.021
1686197609.128,-29.785,248.047,28.320,-26.855,1014.025
1686197609.132,2.930,374.512,-34.668,-15.625,1014.029
1686197609.133,-32.227,-140.137,-31.250,-57.129,1014.030
1686197609.137,-77.148,-102.539,-8.789,-70.801,1014.034
1686197609.141,-51.758,266.113,-2.930,-18.066,1014.038
1686197609.145,-3.418,213.379,-33.691,12.695,1014.042
1686197609.149,-35.156,-345.215,-52.246,-34.180,1014.045
1686197609.153,-77.637,-439.941,-22.949,-71.289,1014.049
1686197609.157,-56.152,-169.434,-31.250,-49.316,1014.053
1686197609.160,0.488,54.199,-20.996,-6.836,1014.057
1686197609.164,2.441,-500.977,-31.250,-10.742,1014.061
1686197609.168,-53.223,-625.977,-3.418,-53.223,1014.065
1686197609.172,-54.688,417.969,6.348,-59.082,1014.069
1686197609.176,-7.812,330.078,-31.738,-25.391,1014.073
1686197609.180,12.207,85.449,-34.668,-8.789,1014.077
1686197609.184,-32.715,218.750,-28.320,-44.922,1014.081
1686197609.188,-61.523,96.191,-34.668,-64.941,1014.085
1686197609.192,-27.832,-212.891,-45.898,-27.344,1014.089
1686197609.196,-1.465,-263.184,-63.965,-12.695,1014.093
1686197609.200,-30.762,-133.301,-40.039,-60.547,1014.097
1686197609.204,-58.105,70.312,-12.207,-83.008,1014.101
1686197609.207,-20.996,-155.273,-47.852,-25.391,1014.105
1686197609.211,5.859,-437.988,-11.230,-3.418,1014.109
1686197609.215,-30.273,325.684,12.207,-53.223,1014.113
1686197609.219,-75.195,412.598,-44.922,-73.730,1014.116
1686197609.223,-65.918,16.113,-30.762,-52.246,1014.120
1686197609.238,-19.531,101.562,-12.207,-16.602,1014.135
1686197609.242,-13.184,293.457,-36.133,-14.648,1014.139
1686197609.246,-62.988,70.312,-52.246,-53.711,1014.143
1686197609.250,-86.426,-146.484,-25.391,-50.781,1014.147
1686197609.254,-36.133,-135.742,7.324,5.371,1014.150
1686197609.258,-2.930,-169.434,-8.301,22.461,1014.154
1686197609.262,-40.039,-115.723,-26.367,-19.043,1014.158
1686197609.265,-70.801,-614.258,-47.363,-14.648,1014.162
1686197609.269,-28.320,-899.414,27.832,36.621,1014.166
1686197609.273,19.043,235.840,58.594,41.016,1014.170
1686197609.277,-13.184,496.094,-36.621,6.836,1014.174
1686197609.281,-53.223,113.281,-25.391,-19.531,1014.178
1686197609.269,-28.320,355.957,0.977,1.953,1014.167
1686197609.273,19.043,460.449,-19.531,37.109,1014.171
1686197609.277,3.418,51.270,-42.969,17.090,1014.174
1686197609.281,-39.551,-149.414,-23.926,-10.254,1014.178
1686197609.285,-22.949,107.910,-7.812,10.742,1014.182
1686197609.289,25.879,-13.184,-21.484,51.758,1014.186
1686197609.293,35.645,-301.270,-13.184,46.387,1014.190
1686197609.296,-9.277,-311.523,-13.184,11.719,1014.194
1686197609.300,-24.414,-15.137,6.836,20.996,1014.198
1686197609.304,22.461,369.141,13.672,61.035,1014.202
1686197609.308,39.551,-149.414,-55.176,50.781,1014.206
1686197609.312,-14.648,-822.754,-14.160,-1.465,1014.210
1686197609.313,-42.969,29.785,24.414,-21.973,1014.223
1686197609.317,-16.113,463.867,-29.297,8.301,1014.227
1686197609.321,16.113,156.738,-17.090,24.414,1014.231
1686197609.325,0.000,160.645,-21.484,-11.719,1014.235
1686197609.329,-52.246,-48.828,-40.039,-42.969,1014.239
1686197609.333,-41.992,-114.258,-10.742,-22.949,1014.243
1686197609.337,-0.488,-512.207,-30.273,22.461,1014.247
1686197609.340,-8.789,-675.293,0.488,1.953,1014.251
1686197609.344,-46.387,342.285,8.301,-57.617,1014.254
1686197609.348,-48.340,367.676,-29.785,-39.062,1014.258
1686197609.352,5.859,-31.738,-26.855,12.695,1014.262
1686197609.356,30.273,162.598,-21.973,20.020,1014.266
1686197609.360,-8.301,386.719,-23.438,-26.367,1014.283
1686197609.364,-44.434,41.016,-58.105,-37.598,1014.287
1686197609.368,-10.742,-271.973,-23.926,7.812,1014.291
1686197609.372,34.180,161.621,11.230,20.996,1014.295
1686197609.376,8.789,319.824,-39.062,-20.508,1014.299
1686197609.380,-42.480,-358.887,-71.777,-51.270,1014.303
1686197609.384,-25.391,-513.672,-23.438,-25.879,1014.306
1686197609.387,21.973,208.008,17.578,-3.906,1014.310
1686197609.391,-2.441,332.520,-42.969,-34.180,1014.314
1686197609.395,-62.988,-317.871,-41.504,-71.289,1014.318
1686197609.399,-55.176,-387.207,22.949,-48.340,1014.322
1686197609.403,9.766,296.387,-10.254,-3.906,1014.326
1686197609.418,9.766,194.336,-52.734,-25.879,1014.315
1686197609.422,-44.922,-289.551,-22.949,-69.824,1014.318
1686197609.426,-48.828,-125.000,17.090,-48.828,1014.322
1686197609.430,2.930,243.652,-14.648,-6.348,1014.326
1686197609.434,16.602,52.246,-48.828,-11.719,1014.330
1686197609.438,-33.203,-668.457,-48.340,-46.387,1014.334
1686197609.442,-62.012,-744.141,28.809,-48.828,1014.338
1686197609.445,-9.766,291.992,56.152,-14.648,1014.342
1686197609.449,22.949,418.457,-29.785,-0.488,1014.346
1686197609.453,-12.695,-69.824,-29.785,-37.109,1014.350
1686197609.457,-56.152,45.898,-3.906,-64.941,1014.354
1686197609.461,-32.715,315.918,-1.953,-25.391,1014.358
1686197609.464,27.832,69.336,-28.809,23.438,1014.361
1686197609.468,3.418,-284.668,-28.320,-13.672,1014.365
1686197609.472,-63.965,1.465,-5.371,-82.520,1014.369
1686197609.476,-63.965,78.125,-13.184,-67.871,1014.373
1686197609.480,-22.949,-279.297,-47.852,-26.367,1014.377
1686197609.484,-17.090,-464.355,-62.988,-46.387,1014.381
1686197609.488,-53.223,-72.754,-4.883,-83.008,1014.385
1686197609.491,-62.988,317.383,-10.742,-76.172,1014.389
1686197609.495,-24.414,-177.734,-39.062,-38.086,1014.392
1686197609.499,-5.859,-520.508,-6.836,-24.902,1014.396
1686197609.503,-41.504,192.871,5.859,-62.012,1014.400
1686197609.507,-73.730,303.711,-34.668,-81.055,1014.404
1686197609.508,-36.621,0.488,-0.488,-42.480,1014.405
1686197609.512,8.301,107.422,1.465,-17.090,1014.409
1686197609.516,-13.672,246.582,-29.785,-47.852,1014.413
1686197609.520,-63.965,65.918,-34.668,-70.801,1014.417
1686197609.524,-47.852,-268.555,-24.414,-47.363,1014.420
1686197609.528,4.395,-250.000,9.277,-13.672,1014.424
1686197609.532,-4.395,-86.426,-10.254,-31.738,1014.428
1686197609.535,-53.223,-33.203,-29.297,-70.801,1014.432
1686197609.539,-65.918,-568.359,-19.531,-41.992,1014.436
1686197609.543,-17.578,-664.062,47.363,3.906,1014.440
1686197609.547,11.230,432.617,40.039,-18.066,1014.444
1686197609.551,-37.598,394.531,-41.992,-57.129,1014.448
1686197609.554,-62.988,121.582,-20.508,-63.965,1014.452
1686197609.558,-13.672,413.574,7.324,-21.484,1014.455
1686197609.562,18.555,453.125,-24.902,9.766,1014.459
1686197609.566,-24.414,32.715,-36.133,-37.109,1014.463
1686197609.570,-59.082,-156.250,-28.320,-70.801,1014.467
1686197609.574,-20.996,-86.426,-20.508,-24.902,1014.471
1686197609.578,19.043,98.145,2.930,2.930,1014.475
1686197609.581,-11.230,-132.324,-48.828,-32.715,1014.479
1686197609.585,-69.824,-687.500,-25.879,-64.941,1014.483
1686197609.589,-53.223,-12.207,41.992,-47.363,1014.487
1686197609.593,10.742,520.996,-11.719,-1.953,1014.491
1686197609.597,10.742,-79.102,-27.344,-6.348,1014.495
1686197609.598,-42.969,-258.301,14.648,-46.387,1014.495
1686197609.602,-48.340,253.906,-1.465,-41.992,1014.499
1686197609.606,3.418,275.879,-12.695,-3.418,1014.502
1686197609.610,12.695,50.293,-22.461,-10.254,1014.506
1686197609.614,-41.504,-187.012,-29.297,-56.152,1014.510
1686197609.618,-69.336,-257.324,-15.625,-60.547,1014.514
1686197609.622,-25.391,12.695,3.906,-21.484,1014.518
1686197609.625,4.883,-425.293,-33.203,-7.812,1014.522
1686197609.629,-30.273,-644.043,5.371,-53.711,1014.526
1686197609.633,-63.965,351.074,42.969,-87.402,1014.530
1686197609.637,-38.086,400.879,-15.625,-53.711,1014.534
1686197609.641,14.160,0.000,-7.812,-19.043,1014.538
1686197609.661,9.766,167.480,8.301,-41.992,1014.558
1686197609.665,-46.875,356.934,-7.324,-78.613,1014.562
1686197609.669,-54.199,-9.277,-36.133,-51.270,1014.565
1686197609.673,-14.648,-254.883,-20.508,-12.695,1014.569
1686197609.677,-11.719,104.980,-9.766,-33.691,1014.573
1686197609.681,-61.035,-6.348,-40.527,-73.242,1014.577
1686197609.685,-77.148,-442.871,-30.273,-66.895,1014.581
1686197609.688,-30.273,-479.004,2.441,-22.949,1014.585
1686197609.692,-9.766,233.398,20.996,-24.902,1014.589
1686197609.696,-52.734,391.113,-37.598,-66.406,1014.593
1686197609.700,-89.355,-25.391,-29.297,-73.242,1014.597
1686197609.704,-47.363,56.152,8.789,-34.668,1014.601
1686197609.689,-7.812,314.453,-16.602,-17.090,1014.588
1686197609.693,-38.086,75.195,-51.758,-52.246,1014.592
1686197609.697,-83.984,-270.020,-6.348,-89.844,1014.596
1686197609.701,-63.477,-62.012,20.508,-65.918,1014.600
1686197609.705,-8.301,39.551,-24.414,-20.020,1014.604
1686197609.709,-19.531,-220.215,-49.316,-41.992,1014.608
1686197609.713,-65.430,-334.961,0.977,-73.242,1014.612
1686197609.716,-57.129,41.992,37.598,-53.223,1014.615
1686197609.720,-6.836,394.531,-1.465,-16.113,1014.619
1686197609.724,-1.465,281.250,-31.738,-27.344,1014.623
1686197609.728,-61.035,-612.793,-54.688,-64.941,1014.627
1686197609.732,-80.078,-729.492,41.504,-67.383,1014.631
1686197609.735,-15.625,429.688,56.152,-33.203,1014.644
1686197609.739,13.184,388.672,-46.387,-20.020,1014.648
1686197609.743,-27.344,7.324,-47.852,-65.918,1014.652
1686197609.747,-55.176,174.316,-13.184,-86.426,1014.656
1686197609.751,-20.996,161.621,2.930,-37.598,1014.660
1686197609.755,9.277,-211.426,-51.270,-3.906,1014.663
1686197609.759,-26.855,-757.324,-26.855,-30.762,1014.667
1686197609.762,-58.594,-102.051,61.523,-74.219,1014.671
1686197609.766,-32.715,542.480,-6.836,-49.316,1014.675
1686197609.770,10.742,212.891,-4.395,-4.395,1014.679
1686197609.774,-0.977,141.602,8.301,-32.227,1014.683
1686197609.778,-59.570,237.305,-17.578,-79.102,1014.687
1686197609.793,-60.059,154.785,-25.879,-61.523,1014.690
1686197609.797,-5.859,-45.410,-5.371,-14.160,1014.694
1686197609.801,1.953,7.812,7.324,-20.508,1014.698
1686197609.805,-46.387,109.375,-15.137,-63.965,1014.702
1686197609.809,-64.453,-57.617,-13.184,-71.777,1014.705
1686197609.813,-27.344,-610.352,-7.812,-27.832,1014.709
1686197609.817,8.789,-613.281,15.625,-9.277,1014.713
1686197609.820,-12.207,-15.137,13.184,-44.922,1014.717
1686197609.824,-46.387,187.500,-13.672,-71.289,1014.721
1686197609.828,-22.949,-453.125,-14.160,-42.969,1014.725
1686197609.832,11.719,-328.125,35.645,-14.160,1014.729
1686197609.836,-11.719,498.047,-2.930,-51.758,1014.733
1686197609.839,-61.035,119.141,-49.805,-74.219,1014.736
1686197609.843,-45.898,-20.020,-18.555,-46.875,1014.740
1686197609.847,13.184,287.598,7.812,-5.859,1014.744
1686197609.851,14.648,296.387,-19.531,-19.531,1014.748
1686197609.855,-46.387,-112.793,-44.922,-74.219,1014.752
1686197609.859,-61.035,-432.617,-33.203,-63.477,1014.756
1686197609.863,-11.230,-37.598,8.301,-22.949,1014.760
1686197609.866,10.742,384.277,-2.930,-25.879,1014.764
1686197609.870,-38.574,-257.812,-62.012,-63.477,1014.767
1686197609.874,-62.988,-780.762,-11.230,-69.824,1014.771
1686197609.878,-13.184,10.254,42.480,-25.879,1014.775
1686197609.882,24.902,445.312,-31.250,-3.418,1014.779
1686197609.884,-15.625,-149.902,-25.879,-43.945,1014.783
1686197609.888,-59.570,-269.043,21.484,-65.918,1014.786
1686197609.892,-29.785,271.484,-7.812,-32.227,1014.790
1686197609.896,7.324,288.574,-28.320,-1.953,1014.794
1686197609.900,-11.719,-175.781,-58.594,-26.855,1014.798
1686197609.904,-52.734,-364.746,-31.250,-53.711,1014.802
1686197609.908,-41.504,-173.828,-0.488,-37.598,1014.806
1686197609.911,10.742,98.633,-15.137,-5.859,1014.810
1686197609.915,4.395,-443.359,-54.199,-12.207,1014.814
1686197609.919,-45.898,-574.707,-14.160,-59.082,1014.818
1686197609.923,-49.316,460.938,8.789,-61.035,1014.822
1686197609.927,0.488,369.141,-38.086,-12.695,1014.826
1686197609.930,23.926,-1.465,-34.668,-16.602,1014.827
1686197609.934,-28.809,160.156,-18.066,-66.406,1014.831
1686197609.938,-55.176,314.453,-30.762,-71.289,1014.835
1686197609.942,-19.531,-14.160,-57.129,-24.902,1014.839
1686197609.946,9.277,-243.164,-57.129,0.977,1014.843
1686197609.950,-14.648,-154.785,-41.992,-39.551,1014.847
1686197609.954,-58.105,-6.836,-23.926,-81.543,1014.851
1686197609.957,-41.992,-95.703,-44.434,-44.922,1014.854
1686197609.961,0.488,-719.238,-23.438,4.883,1014.858
1686197609.965,-2.930,-75.195,19.531,-28.320,1014.862
1686197609.969,-55.176,412.109,-48.340,-74.219,1014.866
1686197609.973,-62.988,56.641,-24.414,-54.688,1014.870
1686197609.972,-11.230,173.828,0.488,-17.090,1014.869
1686197609.976,-5.859,318.848,-40.039,-30.762,1014.872
1686197609.980,-52.734,76.660,-60.547,-76.660,1014.876
1686197609.984,-67.871,-174.805,-29.297,-73.242,1014.880
1686197609.988,-19.531,-98.145,-9.277,-21.973,1014.884
1686197609.992,12.207,-31.738,-35.645,0.000,1014.888
1686197609.996,-22.949,-83.008,-41.016,-45.898,1014.892
1686197609.999,-65.430,-627.930,-55.176,-71.777,1014.896
1686197610.003,-35.645,-733.398,7.812,-22.949,1014.900
1686197610.007,20.020,405.762,21.973,-2.441,1014.904
1686197610.011,-2.441,496.094,-60.059,-44.434,1014.908
1686197610.015,-54.199,84.961,-46.387,-78.125,1014.912
1686197610.019,-34.668,291.504,-12.207,-52.734,1014.916
1686197610.023,19.043,455.566,-14.160,-11.719,1014.919
1686197610.027,9.766,125.000,-49.316,-26.855,1014.923
1686197610.031,-35.156,-104.980,-47.852,-62.500,1014.927
1686197610.035,-35.645,68.848,-36.133,-52.734,1014.931
1686197610.039,5.371,49.316,-39.062,-12.695,1014.935
1686197610.043,12.695,-307.129,-57.617,-17.090,1014.939
1686197610.046,-34.180,-830.078,-12.695,-58.594,1014.943
1686197610.050,-53.223,-80.078,58.105,-69.336,1014.947
1686197610.054,-15.625,542.480,-7.324,-34.668,1014.951
1686197610.058,10.742,165.527,-24.414,-28.809,1014.955
1686197610.062,-18.555,96.680,-6.836,-69.824,1014.959
1686197610.062,-55.176,229.492,-10.254,-87.891,1014.972
1686197610.066,-31.738,184.570,-27.832,-49.316,1014.976
1686197610.070,9.766,-1.953,-19.531,-13.672,1014.980
1686197610.074,-7.324,27.344,-18.066,-34.668,1014.984
1686197610.078,-50.293,-114.746,-31.250,-74.707,1014.988
1686197610.082,-41.504,-184.570,-12.695,-57.129,1014.992
1686197610.086,-0.977,-562.500,-33.691,-3.418,1014.996
1686197610.089,-9.277,-757.324,-4.883,-15.625,1015.000
1686197610.093,-58.105,83.008,12.695,-70.312,1015.004
1686197610.097,-62.012,318.848,-22.949,-67.383,1015.008
1686197610.101,-9.766,64.941,9.277,-23.926,1015.011
1686197610.105,6.836,257.324,15.137,-26.367,1015.015
1686197610.109,-37.109,406.250,-24.414,-73.730,1015.017
1686197610.113,-64.941,70.312,-28.320,-79.590,1015.021
1686197610.117,-20.996,11.230,-22.949,-29.297,1015.025
1686197610.121,11.719,296.875,-2.441,-14.648,1015.029
1686197610.125,-20.996,241.699,-38.574,-54.199,1015.033
1686197610.129,-62.012,-377.441,-70.801,-74.219,1015.037
1686197610.133,-49.316,-564.453,-3.418,-41.016,1015.041
1686197610.136,6.836,165.527,33.203,-13.672,1015.045
1686197610.140,-2.441,374.512,-33.203,-39.551,1015.049
1686197610.144,-60.059,-293.457,-18.555,-68.359,1015.053
1686197610.148,-53.711,-539.062,45.898,-50.293,1015.057
1686197610.152,3.906,138.672,36.133,-15.137,1015.060
1686197610.167,15.625,355.957,-26.855,-16.602,1015.063
1686197610.171,-26.855,-251.465,-9.766,-50.781,1015.067
1686197610.175,-40.527,-253.418,70.312,-43.945,1015.071
1686197610.179,8.789,284.180,30.762,2.930,1015.075
1686197610.183,41.992,172.852,-16.113,17.090,1015.079
1686197610.187,-7.812,-589.355,-38.086,-23.926,1015.083
1686197610.191,-50.781,-675.293,34.668,-50.293,1015.087
1686197610.194,-1.465,348.633,61.523,-19.531,1015.091
1686197610.198,37.109,386.230,-14.648,11.719,1015.095
1686197610.202,-2.441,-127.930,-4.883,-20.996,1015.099
1686197610.206,-40.527,72.266,25.879,-62.012,1015.102
1686197610.210,-21.484,432.617,7.812,-36.133,1015.106
1686197610.222,20.996,168.457,-25.391,3.418,1015.122
1686197610.226,21.973,-170.410,-29.297,-14.160,1015.126
1686197610.230,-27.344,19.531,-6.836,-43.457,1015.130
1686197610.234,-26.855,260.254,-3.418,-20.020,1015.134
1686197610.238,22.461,-36.133,-47.363,22.949,1015.138
1686197610.242,20.508,-533.203,-50.293,11.230,1015.142
1686197610.246,-24.414,-190.430,12.207,-39.062,1015.146
1686197610.249,-38.086,312.988,-2.930,-51.758,1015.149
1686197610.253,-0.488,-129.395,-30.762,-6.836,1015.153
1686197610.257,21.484,-518.555,-8.301,11.230,1015.157
1686197610.261,-5.859,173.828,3.906,-40.527,1015.161
1686197610.265,-42.480,317.871,-26.855,-57.617,1015.165
1686197610.258,-17.090,-38.574,3.418,-15.625,1015.155
1686197610.262,31.738,49.805,28.809,16.602,1015.158
1686197610.266,4.883,233.398,-18.555,-23.926,1015.162
1686197610.270,-50.781,-24.902,-36.133,-67.871,1015.166
1686197610.274,-39.062,-343.750,7.812,-38.086,1015.170
1686197610.278,5.371,-224.121,21.973,8.789,1015.174
1686197610.282,9.277,-63.965,-16.602,-11.230,1015.178
1686197610.285,-35.645,-32.227,-24.414,-64.453,1015.182
1686197610.289,-49.805,-545.898,-26.855,-42.480,1015.186
1686197610.293,-4.395,-859.375,36.133,11.719,1015.190
1686197610.297,13.184,250.000,48.340,1.465,1015.194
1686197610.301,-30.762,451.660,-50.781,-49.805,1015.197
1686197610.304,-57.617,47.363,-38.574,-58.594,1015.202
1686197610.308,-11.230,312.500,13.184,-11.230,1015.206
1686197610.312,34.668,455.566,2.441,11.230,1015.210
1686197610.316,-4.395,72.266,-25.879,-33.691,1015.214
1686197610.320,-59.570,-301.758,-28.809,-78.125,1015.218
1686197610.324,-25.879,-209.473,0.000,-22.949,1015.222
1686197610.328,23.438,26.367,13.672,23.926,1015.226
1686197610.331,-0.488,-238.281,-43.457,-20.508,1015.230
1686197610.335,-56.641,-782.227,-4.395,-61.035,1015.233
1686197610.339,-42.969,20.020,65.918,-45.898,1015.237
1686197610.343,16.602,582.520,0.977,3.418,1015.241
1686197610.347,18.555,146.973,-15.625,-2.930,1015.245
1686197610.348,-33.691,85.449,-3.418,-58.105,1015.245
1686197610.352,-45.898,257.324,-5.371,-57.617,1015.249
1686197610.356,-0.977,232.910,-11.230,-10.254,1015.253
1686197610.360,10.742,-3.418,-21.484,-8.301,1015.256
1686197610.364,-37.109,-202.148,-26.855,-53.223,1015.260
1686197610.368,-61.035,-230.957,-20.996,-65.430,1015.264
1686197610.372,-12.695,-41.016,-9.277,-23.438,1015.268
1686197610.375,7.812,-469.238,-33.691,-3.906,1015.272
1686197610.379,-40.039,-752.441,-10.254,-55.176,1015.276
1686197610.383,-68.848,134.766,20.020,-87.402,1015.280
1686197610.387,-39.062,403.809,-20.020,-42.969,1015.284
1686197610.391,6.348,187.012,-6.836,-9.766,1015.288
1686197610.395,-6.836,326.660,-0.977,-41.504,1015.292
1686197610.399,-53.711,368.164,-23.926,-80.566,1015.296
1686197610.403,-51.758,19.531,-38.574,-56.641,1015.300
1686197610.407,0.000,-193.848,-19.043,-12.695,1015.304
1686197610.411,11.719,172.852,-6.836,-27.832,1015.308
1686197610.415,-34.180,21.484,-39.062,-72.266,1015.312
1686197610.419,-52.246,-461.914,-33.203,-63.477,1015.315
1686197610.422,-9.766,-435.547,14.648,-12.695,1015.319
1686197610.426,17.578,306.152,26.855,-11.719,1015.323
1686197610.430,-26.367,389.648,-39.062,-58.105,1015.327
1686197610.434,-60.547,-55.664,-18.555,-72.266,1015.331
1686197610.438,-23.438,-129.395,12.207,-32.715,1015.335
1686197610.439,11.719,149.902,-0.488,-14.648,1015.336
1686197610.443,-15.625,232.910,-62.012,-50.781,1015.340
1686197610.447,-58.594,-319.824,-23.926,-76.660,1015.344
1686197610.451,-37.109,-273.438,33.691,-49.805,1015.347
1686197610.455,16.602,55.664,-27.832,-9.766,1015.351
1686197610.459,-0.977,-25.879,-45.898,-38.086,1015.355
1686197610.463,-61.035,-618.164,-56.641,-81.055,1015.359
1686197610.466,-58.594,-701.660,30.273,-56.152,1015.363
1686197610.470,10.742,390.625,48.828,-18.066,1015.367
1686197610.474,28.320,420.898,-39.062,-21.973,1015.371
1686197610.478,-21.484,26.855,-32.227,-60.059,1015.375
1686197610.482,-41.992,152.344,-5.371,-64.453,1015.379
1686197610.498,-0.977,326.172,0.000,-24.414,1015.394
1686197610.502,26.367,30.762,-41.016,-12.207,1015.398
1686197610.506,-15.137,-354.980,-47.363,-57.129,1015.402
1686197610.510,-51.758,-55.664,-4.395,-90.332,1015.406
1686197610.514,-16.113,161.621,-22.949,-55.176,1015.410
1686197610.518,20.020,-229.492,-75.684,-25.879,1015.414
1686197610.522,-17.090,-930.664,-42.480,-53.711,1015.418
1686197610.525,-61.035,-399.414,51.270,-83.496,1015.422
1686197610.529,-33.203,399.414,8.789,-60.547,1015.426
1686197610.533,17.578,111.816,-8.301,-21.484,1015.429
1686197610.537,9.277,-114.746,-6.836,-40.039,1015.433
1686197610.541,-35.645,-0.488,-33.203,-79.102,1015.437
1686197610.558,-40.039,60.547,-20.508,-69.336,1015.454
1686197610.562,6.836,-54.199,-1.953,-19.531,1015.458
1686197610.566,26.855,37.598,-5.371,-10.254,1015.462
1686197610.570,-23.926,54.199,-40.039,-57.129,1015.466
1686197610.574,-53.223,-143.555,-34.180,-72.266,1015.470
1686197610.578,-14.160,-628.906,-27.832,-18.555,1015.474
1686197610.582,13.672,-649.414,-6.836,-5.371,1015.478
1686197610.585,-25.391,-48.340,-2.930,-57.617,1015.482
1686197610.589,-61.523,135.254,-28.320,-76.660,1015.485
1686197610.593,-37.109,-520.020,-24.902,-34.668,1015.489
1686197610.597,2.441,-360.840,24.902,-14.160,1015.493
1686197610.601,-6.836,502.441,-17.090,-44.434,1015.497
1686197610.589,-46.387,117.676,-62.500,-64.453,1015.485
1686197610.593,-35.156,-130.371,-38.574,-45.410,1015.489
1686197610.597,11.230,166.016,-10.254,-23.438,1015.493
1686197610.601,10.742,244.629,-39.551,-43.945,1015.497
1686197610.605,-33.691,-153.320,-65.918,-72.266,1015.501
1686197610.609,-42.480,-461.426,-32.227,-60.059,1015.505
1686197610.613,-4.883,-119.629,-8.301,-13.184,1015.509
1686197610.616,13.184,0.977,-32.227,-14.160,1015.513
1686197610.620,-27.344,-326.172,-23.926,-51.758,1015.517
1686197610.624,-57.617,-212.891,-2.441,-52.734,1015.520
1686197610.628,-19.531,174.316,-15.625,-19.043,1015.524
1686197610.632,13.672,245.117,-29.297,-6.836,1015.528
1686197610.633,-20.020,-419.922,-68.359,-46.387,1015.530
1686197610.637,-72.754,-926.758,-2.441,-76.660,1015.534
1686197610.641,-35.645,17.578,39.551,-44.922,1015.538
1686197610.645,27.832,438.965,-52.246,-0.488,1015.542
1686197610.649,2.930,-80.566,-47.852,-22.461,1015.545
1686197610.653,-45.898,-256.348,-19.531,-59.082,1015.549
1686197610.657,-41.016,-158.691,-10.254,-40.039,1015.553
1686197610.660,7.324,176.270,-5.371,-5.371,1015.557
1686197610.664,8.789,-362.305,-59.082,-8.301,1015.561
1686197610.668,-42.969,-704.590,-40.039,-51.270,1015.565
1686197610.672,-46.387,206.543,5.859,-53.711,1015.569
1686197610.676,-2.930,344.238,-20.996,-7.812,1015.573
1686197610.680,8.301,-2.930,-24.902,-5.371,1015.577
1686197610.684,-30.762,149.902,-14.160,-46.387,1015.581
1686197610.688,-61.523,288.086,-30.762,-58.594,1015.585
1686197610.692,-29.297,76.172,-25.879,-20.508,1015.589
1686197610.696,7.324,-23.926,-46.875,-5.371,1015.593
1686197610.700,-22.461,-125.488,-48.828,-44.922,1015.596
1686197610.704,-66.406,-54.199,-21.484,-77.637,1015.600
1686197610.707,-49.316,-198.242,-38.086,-45.898,1015.604
1686197610.711,-0.977,-482.422,-7.812,-10.254,1015.608
1686197610.715,5.371,164.062,7.324,-34.668,1015.612
1686197610.719,-44.434,267.578,-41.504,-78.125,1015.616
1686197610.723,-51.758,-124.023,-16.602,-71.289,1015.620
1686197610.724,5.371,-191.895,7.324,-19.043,1015.622
1686197610.728,16.602,99.121,-18.066,-20.020,1015.625
1686197610.732,-31.738,139.160,-50.781,-64.453,1015.629
1686197610.736,-62.500,-333.496,-7.812,-63.477,1015.633
1686197610.740,-21.484,-358.887,27.832,-13.184,1015.637
1686197610.744,17.578,-72.266,-20.508,7.812,1015.641
1686197610.748,-29.785,-43.945,-36.621,-36.133,1015.645
1686197610.751,-65.430,-644.531,-56.152,-48.340,1015.649
1686197610.755,-27.832,-658.203,20.508,-8.789,1015.653
1686197610.759,17.090,441.406,21.484,2.441,1015.657
1686197610.763,-0.977,369.141,-66.895,-36.133,1015.661
1686197610.767,-40.039,-4.395,-35.645,-59.570,1015.664
1686197610.770,-20.996,225.098,2.930,-36.621,1015.666
1686197610.774,24.414,375.000,-25.391,-7.324,1015.670
1686197610.778,15.137,-11.230,-66.406,-21.484,1015.674
1686197610.782,-41.504,-289.551,-37.109,-75.684,1015.678
1686197610.786,-38.086,-21.484,-20.508,-71.289,1015.682
1686197610.790,17.090,-40.039,-23.926,-23.438,1015.686
1686197610.794,20.508,-358.887,-58.105,-20.020,1015.690
1686197610.797,-35.156,-802.246,-26.367,-63.965,1015.694
1686197610.801,-53.223,-150.879,56.152,-76.660,1015.698
1686197610.805,-9.277,498.047,-15.625,-31.738,1015.702
1686197610.809,16.602,144.531,-27.832,-18.066,1015.705
1686197610.813,-20.508,-17.090,-17.090,-55.664,1015.709
1686197610.813,-62.988,109.863,-28.320,-76.172,1015.710
1686197610.817,-39.551,96.680,-30.273,-43.457,1015.714
1686197610.821,0.977,-63.477,-15.137,-14.160,1015.718
1686197610.825,-16.113,-47.363,-18.555,-46.875,1015.722
1686197610.829,-62.012,-227.539,-39.062,-87.891,1015.725
1686197610.833,-56.641,-265.137,-4.883,-59.570,1015.729
1686197610.837,-11.719,-556.641,-26.367,-12.207,1015.733
1686197610.840,-16.602,-881.348,19.043,-32.227,1015.737
1686197610.844,-60.059,95.703,34.668,-83.008,1015.741
1686197610.848,-62.500,318.359,-30.762,-81.543,1015.745
1686197610.852,-9.277,22.461,6.836,-40.039,1015.749
1686197610.856,14.648,289.062,4.395,-36.621,1015.753
1686197610.875,-27.832,291.016,-38.574,-75.195,1015.772
1686197610.879,-50.293,-68.359,-46.387,-79.102,1015.776
1686197610.883,-18.066,-165.527,-17.578,-40.527,1015.780
1686197610.887,8.789,152.344,-4.883,-25.391,1015.784
1686197610.891,-19.043,173.828,-40.039,-68.848,1015.788
1686197610.895,-63.965,-458.984,-87.402,-88.867,1015.791
1686197610.899,-48.828,-658.203,-19.043,-45.898,1015.795
1686197610.902,0.488,105.469,12.695,-17.090,1015.799
1686197610.906,-1.953,147.461,-74.219,-48.828,1015.803
1686197610.910,-49.316,-421.387,-50.781,-88.867,1015.807
1686197610.914,-42.480,-289.551,20.020,-64.453,1015.811
1686197610.918,15.137,349.121,2.441,-14.648,1015.815
1686197610.918,22.461,244.141,-40.527,-19.531,1015.815
1686197610.922,-28.320,-142.090,-27.344,-62.012,1015.819
1686197610.926,-51.270,-76.660,-12.695,-64.941,1015.823
1686197610.930,0.488,197.266,-32.227,-14.648,1015.827
1686197610.934,23.438,-60.547,-48.340,-4.883,1015.830
1686197610.938,-27.832,-541.016,-33.203,-43.945,1015.834
1686197610.942,-58.105,-428.223,-9.766,-63.477,1015.838
1686197610.945,-26.855,92.773,-2.930,-45.410,1015.842
1686197610.949,18.066,313.965,-35.645,-18.066,1015.846
1686197610.953,-15.137,-510.254,-68.359,-41.016,1015.850
1686197610.957,-73.242,-840.820,-25.391,-77.148,1015.854
1686197610.961,-41.992,98.633,25.391,-60.059,1015.858
1686197610.963,15.137,316.406,-27.344,-18.066,1015.860
1686197610.967,-5.859,-62.012,-43.945,-26.855,1015.864
1686197610.971,-54.688,92.285,-19.043,-61.523,1015.868
1686197610.975,-53.223,299.805,-26.367,-52.246,1015.872
1686197610.979,-9.766,94.238,-28.320,-16.113,1015.876
1686197610.983,6.836,-277.832,-39.062,-23.438,1015.879
1686197610.987,-37.109,-182.129,-29.297,-75.684,1015.883
1686197610.990,-61.523,195.801,-22.461,-90.332,1015.887
1686197610.994,-20.508,-178.223,-36.621,-43.945,1015.891
1686197610.998,15.137,-534.668,-22.461,-16.602,1015.895
1686197611.002,-20.996,100.586,4.395,-62.012,1015.899
1686197611.006,-65.918,250.977,-23.926,-95.215,1015.903
1686197611.008,-38.574,-20.508,-27.344,-59.082,1015.905
1686197611.012,0.488,-109.863,-9.277,-31.738,1015.909
1686197611.016,-7.812,22.461,-20.996,-66.895,1015.913
1686197611.020,-48.828,144.531,-47.363,-96.680,1015.917
1686197611.024,-44.434,-510.254,-47.363,-59.082,1015.921
1686197611.028,0.977,-751.465,-3.418,-14.648,1015.925
1686197611.032,8.789,57.129,4.395,-40.039,1015.929
1686197611.035,-29.297,298.340,-42.969,-87.402,1015.933
1686197611.039,-41.992,-381.348,-19.531,-67.383,1015.937
1686197611.043,6.348,-235.352,41.504,-16.113,1015.941
1686197611.047,30.762,508.301,-18.555,-13.672,1015.944
1686197611.051,-8.789,185.059,-51.758,-49.805,1015.948
1686197611.055,-33.203,-56.641,-22.461,-54.199,1015.952
1686197611.059,2.930,191.406,1.465,-13.184,1015.956
1686197611.063,34.180,316.895,-15.625,-3.906,1015.960
1686197611.067,-1.953,-161.621,-56.152,-39.551,1015.964
1686197611.071,-52.734,-436.523,-54.688,-60.059,1015.968
1686197611.075,-25.391,-224.121,-17.578,-34.180,1015.971
1686197611.079,27.344,33.691,-8.301,-8.301,1015.975
1686197611.082,2.930,-175.781,-63.477,-32.227,1015.979
1686197611.086,-45.898,-757.324,-12.695,-61.523,1015.983
1686197611.090,-26.367,20.996,55.176,-46.387,1015.987
1686197611.094,23.926,497.559,-16.113,-4.395,1015.991
1686197611.098,22.461,71.289,-22.461,-12.695,1015.995
1686197611.098,-28.809,-42.969,-7.812,-64.453,1015.995
1686197611.102,-38.574,148.926,-6.836,-65.918,1015.999
1686197611.106,5.371,184.570,-15.625,-14.160,1016.002
1686197611.110,25.879,-10.742,-29.297,-0.488,1016.006
1686197611.114,-16.602,-208.984,-32.227,-45.898,1016.010
1686197611.118,-54.199,-329.590,-31.738,-73.730,1016.014
1686197611.122,-21.973,-109.863,-9.766,-35.645,1016.018
1686197611.125,15.137,-452.637,-46.875,-4.883,1016.022
1686197611.129,-23.438,-978.516,-9.277,-40.039,1016.026
1686197611.133,-58.105,30.273,48.340,-73.242,1016.030
1686197611.137,-22.949,481.445,-24.414,-39.062,1016.034
1686197611.141,18.555,198.730,-26.367,-2.441,1016.038
1686197611.160,6.348,289.551,-27.832,-31.738,1016.057
1686197611.164,-34.668,254.883,-40.527,-69.336,1016.061
1686197611.168,-25.391,-26.855,-40.527,-41.504,1016.064
1686197611.172,14.160,-70.312,-20.020,6.836,1016.068
1686197611.176,11.230,29.785,-29.785,-10.254,1016.072
1686197611.180,-37.109,-202.637,-38.086,-72.266,1016.076
1686197611.184,-55.664,-430.664,-47.852,-73.242,1016.080
1686197611.187,-16.113,-450.684,-3.906,-24.414,1016.084
1686197611.191,17.090,172.852,13.672,-20.996,1016.088
1686197611.195,-17.090,140.137,-58.105,-59.570,1016.092
1686197611.199,-57.129,-324.707,2.441,-61.523,1016.096
1686197611.203,-9.766,-57.129,49.316,-20.020,1016.100
1686197611.188,38.086,371.582,0.000,-6.348,1016.097
1686197611.192,4.883,193.359,-55.664,-47.852,1016.101
1686197611.196,-50.781,-370.605,-5.859,-71.777,1016.105
1686197611.200,-47.363,-252.930,51.270,-44.922,1016.109
1686197611.204,7.812,77.148,-32.227,-14.648,1016.113
1686197611.208,7.812,-209.473,-43.945,-23.926,1016.117
1686197611.212,-45.410,-324.707,-5.859,-65.430,1016.121
1686197611.215,-44.434,33.691,15.137,-63.477,1016.124
1686197611.219,9.766,348.145,-3.418,-27.832,1016.128
1686197611.223,13.184,230.957,-36.621,-31.738,1016.132
1686197611.227,-50.293,-566.406,-55.176,-66.895,1016.136
1686197611.231,-72.266,-781.250,4.883,-71.289,1016.140
1686197611.248,-19.531,280.273,34.668,-34.180,1016.146
1686197611.252,0.000,347.168,-30.762,-21.973,1016.149
1686197611.256,-38.086,-162.598,-32.715,-59.082,1016.153
1686197611.260,-59.570,101.074,-2.441,-73.730,1016.157
1686197611.264,-19.043,307.129,-13.672,-36.133,1016.161
1686197611.268,11.230,-170.410,-57.617,-10.742,1016.165
1686197611.272,-9.766,-484.375,-32.715,-39.062,1016.169
1686197611.275,-45.410,110.840,12.207,-79.590,1016.173
1686197611.279,-23.926,296.387,-22.461,-55.176,1016.177
1686197611.283,34.180,-54.199,14.648,7.324,1016.181
1686197611.287,4.883,-69.824,38.086,-28.809,1016.185
1686197611.291,-68.359,146.484,-20.508,-97.656,1016.189
1686197611.294,-69.336,98.633,-29.785,-78.125,1016.192
1686197611.298,-31.738,-137.207,-29.297,-38.574,1016.196
1686197611.302,-28.809,-249.512,-13.184,-45.410,1016.200
1686197611.306,-65.430,-74.707,-25.391,-85.449,1016.204
1686197611.310,-94.727,-102.051,-30.273,-94.238,1016.208
1686197611.314,-66.895,-673.828,-21.973,-47.852,1016.212
1686197611.318,-30.762,-639.160,5.859,-30.762,1016.216
1686197611.321,-51.758,268.066,3.906,-71.777,1016.220
1686197611.325,-87.402,350.586,-39.062,-92.285,1016.223
1686197611.329,-71.289,-519.531,-28.809,-58.594,1016.227
1686197611.333,-21.484,-401.367,11.719,-25.391,1016.231
1686197611.337,-17.090,472.168,-13.672,-55.664,1016.235
1686197611.339,-61.035,87.891,-56.152,-91.797,1016.236
1686197611.343,-57.617,-73.730,-16.602,-68.359,1016.240
1686197611.347,2.441,285.645,4.395,-11.230,1016.244
1686197611.351,13.184,290.039,-37.109,-19.531,1016.248
1686197611.355,-39.062,-163.086,-63.477,-62.500,1016.252
1686197611.359,-53.711,-464.844,-40.527,-52.734,1016.255
1686197611.363,-0.488,-206.055,1.465,-4.883,1016.259
1686197611.366,32.715,249.512,-3.418,-1.465,1016.263
1686197611.370,-16.113,-182.129,-71.289,-41.016,1016.267
1686197611.374,-62.012,-882.812,-9.766,-51.758,1016.271
1686197611.378,-16.602,-82.520,74.219,-15.625,1016.275
1686197611.382,32.227,455.566,-11.719,12.207,1016.279
1686197611.383,5.859,78.125,-34.668,-25.391,1016.280
1686197611.387,-36.621,-1.465,-1.465,-65.430,1016.284
1686197611.391,-16.602,205.078,-6.836,-38.574,1016.288
1686197611.395,27.344,190.430,-37.598,2.930,1016.292
1686197611.399,10.742,-219.727,-39.062,-23.438,1016.296
1686197611.403,-36.621,-402.344,-13.672,-61.035,1016.300
1686197611.407,-28.320,-235.840,2.441,-39.062,1016.304
1686197611.410,28.320,21.973,15.625,1.953,1016.307
1686197611.414,32.715,-474.609,-38.086,-3.418,1016.311
1686197611.418,-21.484,-851.074,-3.418,-44.434,1016.315
1686197611.422,-28.320,205.566,46.875,-48.828,1016.319
1686197611.426,12.695,427.734,-17.090,-11.719,1016.323
1686197611.429,28.809,134.766,-31.738,-9.766,1016.327
1686197611.433,0.000,238.770,-4.395,-54.199,1016.331
1686197611.437,-31.250,223.633,0.000,-56.152,1016.335
1686197611.441,-4.395,9.277,-15.625,-10.742,1016.338
1686197611.445,34.668,-97.168,-12.695,7.812,1016.342
1686197611.449,3.906,-173.828,-26.367,-35.645,1016.346
1686197611.453,-44.922,-105.957,-6.348,-77.637,1016.350
1686197611.456,-30.762,-212.891,-13.184,-43.945,1016.354
1686197611.460,13.672,-498.535,8.789,4.883,1016.358
1686197611.464,22.949,28.320,22.461,-11.719,1016.362
1686197611.468,-25.391,14.160,-37.109,-55.664,1016.366
1686197611.472,-45.898,-414.551,-0.488,-45.410,1016.370
1686197611.488,5.859,-124.512,44.434,-6.348,1016.385
1686197611.492,28.320,368.652,0.488,-20.508,1016.389
1686197611.496,-20.508,113.770,-41.016,-69.824,1016.393
1686197611.500,-42.969,-107.910,-11.230,-78.613,1016.397
1686197611.504,-0.977,-113.770,20.020,-26.855,1016.400
1686197611.508,25.879,-152.832,3.418,-6.836,1016.404
1686197611.512,-16.113,-117.188,-21.484,-47.363,1016.408
1686197611.515,-53.711,-660.645,-41.504,-61.523,1016.412
1686197611.519,-30.762,-684.082,30.762,-37.598,1016.416
1686197611.523,24.414,416.992,35.645,-19.043,1016.420
1686197611.527,18.066,369.629,-45.898,-48.340,1016.424
1686197611.531,-28.320,1.953,-27.832,-75.684,1016.428
1686197611.521,-19.531,61.035,-8.789,-43.945,1016.419
1686197611.525,29.785,232.910,-11.230,-0.488,1016.422
1686197611.529,30.273,58.105,-66.406,-10.254,1016.426
1686197611.533,-27.832,-366.211,-36.133,-56.641,1016.430
1686197611.537,-36.621,-35.156,12.207,-55.176,1016.434
1686197611.541,19.531,27.832,-22.461,-6.836,1016.438
1686197611.545,32.715,-313.965,-37.109,-11.230,1016.442
1686197611.548,-20.996,-270.508,-28.320,-56.152,1016.446
1686197611.552,-40.527,154.785,-0.977,-56.641,1016.450
1686197611.556,13.184,340.332,-10.742,0.000,1016.454
1686197611.560,32.227,-242.676,-42.480,19.043,1016.458
1686197611.564,-27.344,-641.602,-12.695,-49.805,1016.462
1686197611.563,-64.453,104.004,19.531,-89.355,1016.472
1686197611.567,-30.273,290.527,-2.441,-37.109,1016.476
1686197611.571,23.926,1.465,-7.324,4.395,1016.480
1686197611.575,0.000,-119.141,-22.461,-25.879,1016.484
1686197611.579,-53.711,-171.875,-14.160,-61.035,1016.488
1686197611.583,-35.645,-113.281,18.066,-34.180,1016.492
1686197611.587,11.230,-464.844,-28.809,18.066,1016.496
1686197611.590,10.742,-1000.000,5.859,14.160,1016.500
1686197611.594,-27.832,-33.691,64.941,-36.133,1016.503
1686197611.598,-33.691,493.164,-15.625,-33.691,1016.507
1686197611.602,17.090,188.477,10.742,5.859,1016.511
1686197611.606,38.086,353.027,20.996,-1.953,1016.515
1686197611.609,-0.488,347.168,-24.902,-53.223,1016.518
1686197611.613,-30.273,5.371,-35.156,-58.594,1016.522
1686197611.617,-0.977,-133.301,-10.254,-13.672,1016.526
1686197611.621,36.133,207.520,17.090,3.418,1016.530
1686197611.625,6.348,170.410,-27.344,-27.344,1016.534
1686197611.629,-44.434,-424.805,-73.242,-43.945,1016.538
1686197611.633,-37.109,-674.805,-22.949,-19.043,1016.542
1686197611.636,12.207,-14.648,35.645,3.418,1016.546
1686197611.640,16.602,438.965,-12.207,-21.484,1016.550
1686197611.644,-31.738,-246.094,-41.992,-57.617,1016.553
1686197611.648,-32.715,-549.316,17.090,-38.086,1016.557
1686197611.652,23.926,288.574,31.250,4.883,1016.561
1686197611.683,32.227,319.336,-39.062,0.977,1016.580
1686197611.687,-22.949,-112.793,-26.367,-41.016,1016.584
1686197611.691,-41.016,-78.613,11.230,-45.410,1016.588
1686197611.695,5.859,161.621,0.488,-4.395,1016.592
1686197611.699,29.785,49.316,-29.297,0.000,1016.596
1686197611.703,-24.414,-659.668,-50.293,-38.086,1016.600
1686197611.707,-59.570,-709.961,18.066,-57.129,1016.604
1686197611.710,-7.324,238.770,42.480,-38.574,1016.608
1686197611.714,37.109,332.031,-29.785,-6.348,1016.612
1686197611.718,10.254,-447.754,-20.020,-22.949,1016.616
1686197611.722,-27.832,-315.430,22.949,-55.664,1016.620
1686197611.726,-7.812,461.914,4.395,-26.855,1016.623
1686197611.714,35.645,203.613,-25.879,16.113,1016.612
1686197611.718,23.438,-50.781,-35.156,-12.207,1016.615
1686197611.722,-24.414,116.699,-16.113,-55.664,1016.619
1686197611.726,-20.996,194.336,-14.648,-37.598,1016.623
1686197611.730,20.020,-15.137,-24.902,1.953,1016.627
1686197611.734,30.762,-369.141,-43.457,-1.953,1016.631
1686197611.738,-16.602,-238.770,-22.461,-41.504,1016.635
1686197611.741,-45.898,83.496,-5.371,-56.152,1016.639
1686197611.745,-3.418,-140.137,5.859,-14.160,1016.643
1686197611.749,19.531,-152.344,11.719,-4.395,1016.647
1686197611.753,-17.578,-37.109,-41.504,-48.340,1016.651
1686197611.757,-49.316,-173.828,-16.113,-68.359,1016.654
1686197611.758,-25.391,-436.035,-28.809,-28.809,1016.655
1686197611.762,18.066,-819.824,10.742,15.137,1016.659
1686197611.766,11.719,-16.602,34.668,-17.578,1016.663
1686197611.770,-30.762,343.750,-33.203,-55.176,1016.667
1686197611.774,-29.297,-102.051,-7.324,-30.762,1016.670
1686197611.778,17.090,-117.676,5.859,8.301,1016.674
1686197611.782,19.531,29.785,-9.277,-13.184,1016.678
1686197611.785,-29.297,156.738,-12.207,-65.430,1016.682
1686197611.789,-44.922,-534.668,-30.273,-56.641,1016.686
1686197611.793,4.883,-566.895,15.625,-4.883,1016.690
1686197611.797,36.621,400.879,17.578,-6.836,1016.694
1686197611.801,-4.883,225.098,-41.992,-50.293,1016.698
1686197611.806,-40.527,-11.719,-39.551,-59.082,1016.704
1686197611.810,-6.348,4.395,-2.930,-24.414,1016.708
1686197611.814,32.715,203.613,2.441,-10.254,1016.712
1686197611.818,0.977,19.531,-43.945,-47.363,1016.715
1686197611.822,-47.363,-383.789,-41.992,-71.777,1016.719
1686197611.826,-23.438,-159.180,-6.348,-39.062,1016.723
1686197611.830,21.484,36.621,-1.465,-8.301,1016.727
1686197611.833,2.930,-209.961,-44.434,-31.250,1016.731
1686197611.837,-53.711,-541.992,-20.508,-69.824,1016.735
1686197611.841,-48.828,133.301,25.879,-61.035,1016.739
1686197611.845,9.277,452.637,-29.297,-20.020,1016.743
1686197611.849,13.184,64.453,-23.438,-40.039,1016.747
1686197611.848,-36.621,-37.109,-10.742,-85.938,1016.745
1686197611.852,-42.969,133.301,-17.090,-76.660,1016.748
1686197611.856,3.418,135.742,-18.066,-24.414,1016.752
1686197611.860,13.184,-146.973,-42.480,-17.090,1016.756
1686197611.864,-35.645,-340.332,-36.133,-65.430,1016.760
1686197611.868,-59.570,-294.434,-22.949,-72.754,1016.764
1686197611.872,-19.531,-101.562,-3.418,-22.949,1016.768
1686197611.875,16.602,-480.469,-30.762,6.836,1016.772
1686197611.879,-14.648,-984.863,11.230,-23.438,1016.776
1686197611.883,-50.781,11.230,60.547,-67.383,1016.780
1686197611.887,-25.879,521.973,-20.996,-55.176,1016.784
1686197611.891,22.461,272.949,-16.602,-17.090,1016.788
1686197611.895,16.113,301.270,-14.160,-42.969,1016.792
1686197611.899,-36.621,221.680,-22.949,-86.914,1016.796
1686197611.903,-43.945,3.906,-27.832,-59.570,1016.800
1686197611.907,9.277,-30.762,-18.555,-12.207,1016.804
1686197611.911,23.926,164.551,-32.715,-19.043,1016.808
1686197611.915,-36.621,-146.973,-50.293,-82.520,1016.812
1686197611.919,-63.477,-531.250,-68.359,-100.098,1016.816
1686197611.922,-15.625,-827.637,-20.020,-37.109,1016.820
1686197611.926,28.320,-70.312,56.152,-15.137,1016.824
1686197611.930,-4.883,515.625,-43.945,-65.430,1016.828
1686197611.934,-51.270,-8.789,-27.832,-87.402,1016.831
1686197611.938,-16.113,16.113,32.715,-44.922,1016.835
1686197611.938,35.645,361.328,-13.184,-12.695,1016.835
1686197611.942,11.230,164.551,-44.922,-38.574,1016.839
1686197611.946,-32.227,-158.691,-28.809,-68.359,1016.843
1686197611.950,-20.508,-74.707,-9.766,-43.945,1016.847
1686197611.954,23.438,-64.453,-20.996,-5.371,1016.850
1686197611.958,17.090,-133.301,-30.273,-28.320,1016.854
1686197611.962,-37.109,-620.117,-53.223,-60.547,1016.858
1686197611.965,-39.062,-811.523,33.203,-41.504,1016.862
1686197611.969,22.461,261.230,42.480,-8.301,1016.866
1686197611.973,41.992,380.859,-50.293,-10.254,1016.870
1686197611.977,1.465,-86.426,-4.883,-49.805,1016.874
1686197611.981,-20.508,177.246,9.277,-57.617,1016.878
1686197611.985,14.160,480.957,-16.113,-20.996,1016.893
1686197611.989,37.109,168.945,-40.527,-3.418,1016.897
1686197611.993,3.906,-96.680,-49.805,-39.062,1016.901
1686197611.997,-30.273,91.797,-21.484,-69.824,1016.905
1686197612.001,-8.301,86.914,-11.230,-32.227,1016.909
1686197612.005,26.367,-335.938,-66.895,11.230,1016.913
1686197612.009,6.348,-639.648,-47.363,-21.973,1016.917
1686197612.012,-34.668,-4.883,22.461,-65.918,1016.921
1686197612.016,-22.461,385.254,-27.832,-35.156,1016.924
1686197612.020,19.043,55.176,-9.277,7.324,1016.928
1686197612.024,15.625,-3.418,-0.488,-11.230,1016.932
1686197612.028,-27.832,-9.766,-34.668,-55.664,1016.936
1686197612.029,-32.715,-179.199,-26.367,-53.223,1016.954
1686197612.033,7.812,-401.855,-16.113,-4.395,1016.958
1686197612.037,24.902,-196.777,6.348,0.977,1016.962
1686197612.041,-7.324,119.629,-45.898,-44.434,1016.966
1686197612.045,-37.598,-71.777,-41.016,-53.711,1016.970
1686197612.049,-4.395,-590.820,-30.273,-6.348,1016.974
1686197612.053,33.203,-638.184,-5.859,15.137,1016.977
1686197612.056,4.395,291.016,-10.742,-34.180,1016.981
1686197612.060,-40.527,253.418,-54.199,-63.965,1016.985
1686197612.064,-20.996,-172.852,-0.977,-24.414,1016.989
1686197612.068,26.855,155.273,14.648,13.184,1016.993
1686197612.072,16.602,386.230,-26.855,-16.602,1016.997
1686197612.090,-23.438,-6.348,-52.734,-52.734,1016.989
1686197612.094,-17.090,-202.148,-38.086,-33.691,1016.993
1686197612.098,30.762,-56.152,-4.883,-0.977,1016.997
1686197612.102,30.762,177.246,-7.324,-13.672,1017.001
1686197612.106,-27.344,-82.031,-71.777,-51.758,1017.005
1686197612.110,-46.387,-626.953,-61.523,-49.805,1017.009
1686197612.114,8.301,-118.652,18.066,-6.348,1017.012
1686197612.117,34.180,404.297,-25.391,-5.859,1017.016
1686197612.121,-8.789,-108.398,-42.969,-42.480,1017.020
1686197612.125,-46.875,-332.031,0.488,-56.641,1017.024
1686197612.129,-9.277,160.645,-7.324,-24.414,1017.028
1686197612.133,36.133,282.227,-44.922,-4.395,1017.032
1686197612.133,-0.977,-404.297,-31.738,-35.156,1017.029
1686197612.137,-45.410,-615.234,16.602,-63.965,1017.033
1686197612.141,-23.438,173.828,-1.465,-43.945,1017.037
1686197612.145,20.508,251.465,-41.504,-3.906,1017.041
1686197612.149,10.742,-243.164,-42.480,-21.484,1017.045
1686197612.153,-38.086,-433.594,-22.949,-69.336,1017.049
1686197612.157,-38.574,-188.965,-26.855,-62.988,1017.053
1686197612.160,5.859,44.434,-23.926,-22.949,1017.057
1686197612.164,13.184,-476.074,-58.594,-25.879,1017.060
1686197612.168,-29.785,-839.355,-6.836,-56.641,1017.064
1686197612.172,-41.504,216.309,29.785,-62.988,1017.068
1686197612.176,-5.859,475.098,-39.062,-28.809,1017.072
1686197612.179,20.020,187.988,-35.156,-18.555,1017.076
1686197612.183,-11.230,259.766,-33.691,-48.828,1017.080
1686197612.187,-43.945,171.875,-41.504,-62.988,1017.084
1686197612.191,-5.859,-38.574,-25.391,-24.414,1017.088
1686197612.195,39.551,-95.215,-41.016,2.930,1017.092
1686197612.199,12.207,-181.641,-52.734,-35.156,1017.096
1686197612.203,-41.992,-122.559,-17.578,-72.266,1017.100
1686197612.206,-37.109,-241.211,-49.316,-46.875,1017.103
1686197612.210,3.906,-797.363,2.441,2.441,1017.107
1686197612.214,8.789,-70.801,57.129,-18.555,1017.111
1686197612.218,-25.879,287.109,-51.270,-65.918,1017.115
1686197612.222,-31.738,-239.746,-23.926,-52.246,1017.119
1686197612.238,15.137,25.391,20.020,-9.766,1017.135
1686197612.242,35.645,371.094,-13.184,-5.371,1017.139
1686197612.246,-3.906,125.488,-47.852,-41.992,1017.143
1686197612.250,-32.227,-163.086,-38.086,-56.641,1017.147
1686197612.254,-0.488,-187.012,-2.930,-23.438,1017.151
1686197612.258,23.926,-157.715,-8.301,-4.395,1017.155
1686197612.262,-11.230,-125.488,-38.574,-41.504,1017.158
1686197612.265,-53.711,-672.363,-58.594,-59.570,1017.162
1686197612.269,-30.762,-669.922,12.695,-27.832,1017.166
1686197612.273,21.973,308.105,0.488,-8.789,1017.170
1686197612.277,3.418,180.664,-62.012,-37.109,1017.174
1686197612.281,-44.434,-168.945,0.977,-77.148,1017.178
1686197612.269,-36.133,150.879,26.855,-60.059,1017.167
1686197612.273,20.020,430.176,-23.926,-6.836,1017.171
1686197612.277,26.855,56.152,-59.570,-9.766,1017.175
1686197612.281,-24.414,-212.891,-52.246,-56.641,1017.179
1686197612.285,-34.668,31.250,-30.762,-52.734,1017.182
1686197612.289,13.184,-4.883,-33.691,-6.348,1017.186
1686197612.293,31.250,-339.844,-45.410,8.789,1017.190
1686197612.296,-19.043,-340.820,-41.016,-37.109,1017.194
1686197612.300,-51.270,100.098,-10.742,-68.359,1017.198
1686197612.304,0.977,301.758,-16.602,-23.926,1017.202
1686197612.308,40.527,-280.762,-32.227,18.066,1017.206
1686197612.312,-2.441,-640.625,-13.672,-20.508,1017.210
1686197612.314,-41.504,-57.129,0.488,-55.176,1017.212
1686197612.318,-9.766,144.043,-26.855,-15.137,1017.216
1686197612.322,37.109,-148.438,-1.953,20.020,1017.220
1686197612.326,27.344,-116.699,20.508,-14.160,1017.224
1686197612.330,-25.391,-21.484,-31.738,-61.035,1017.228
1686197612.334,-32.715,-107.422,-8.301,-49.805,1017.232
1686197612.338,8.301,-478.516,-26.855,-2.441,1017.236
1686197612.341,12.207,-733.887,-8.789,-9.766,1017.240
1686197612.345,-28.809,249.512,4.883,-66.895,1017.243
1686197612.349,-47.852,328.613,-37.109,-67.871,1017.247
1686197612.353,4.883,67.871,2.441,-19.531,1017.251
1686197612.357,33.203,285.645,0.977,-12.207,1017.255
1686197612.372,-14.648,228.027,-38.086,-54.199,1017.269
1686197612.376,-46.387,-77.148,-46.875,-73.242,1017.273
1686197612.380,-12.695,-195.801,-41.992,-35.645,1017.276
1686197612.384,21.973,-83.008,-14.160,-2.930,1017.280
1686197612.388,0.000,40.527,-14.160,-37.598,1017.284
1686197612.392,-42.969,-288.086,-83.008,-65.430,1017.288
1686197612.396,-43.945,-906.250,-39.551,-34.668,1017.292
1686197612.399,8.301,-224.609,49.316,-11.230,1017.296
1686197612.403,10.742,455.566,-20.508,-36.133,1017.300
1686197612.407,-44.434,-16.113,-14.160,-69.336,1017.304
1686197612.411,-44.434,-64.453,49.805,-53.223,1017.308
1686197612.415,13.672,274.414,6.836,-7.324,1017.312
1686197612.418,28.320,182.617,-41.992,-3.906,1017.314
1686197612.422,-21.484,-182.129,-27.832,-44.434,1017.318
1686197612.426,-41.504,-175.781,2.441,-60.059,1017.322
1686197612.430,8.301,137.695,-9.766,-9.766,1017.326
1686197612.434,27.832,-90.332,-35.156,7.324,1017.330
1686197612.438,-19.531,-691.895,-14.648,-40.039,1017.334
1686197612.442,-41.016,-548.340,24.902,-56.641,1017.338
1686197612.445,-1.953,-67.871,12.695,-13.672,1017.341
1686197612.449,33.203,143.555,0.977,11.230,1017.345
1686197612.453,3.418,-496.094,-40.039,-22.461,1017.349
1686197612.457,-40.039,-600.586,5.859,-58.594,1017.353
1686197612.461,-8.789,474.609,32.227,-39.551,1017.357
1686197612.464,41.016,396.973,-25.879,-0.977,1017.361
1686197612.468,27.832,111.328,-36.621,-17.090,1017.364
1686197612.472,-25.879,147.461,-26.855,-64.941,1017.368
1686197612.476,-32.227,213.379,-2.930,-62.500,1017.372
1686197612.480,23.438,67.383,-23.926,-1.465,1017.376
1686197612.484,40.527,-292.969,-39.062,4.395,1017.380
1686197612.488,-7.812,-158.691,-11.230,-46.387,1017.384
1686197612.491,-30.273,140.625,4.395,-58.105,1017.388
1686197612.495,15.137,-150.879,-26.855,-14.160,1017.392
1686197612.499,37.109,-856.445,-21.973,6.836,1017.396
1686197612.503,3.906,-251.465,36.133,-35.156,1017.400
1686197612.507,-30.273,424.316,-23.438,-57.617,1017.403
1686197612.508,-4.395,55.664,-6.836,-18.555,1017.404
1686197612.512,43.457,92.773,27.832,10.742,1017.408
1686197612.516,25.391,246.582,-17.578,-19.531,1017.412
1686197612.520,-22.949,85.938,-31.250,-57.129,1017.416
1686197612.524,-27.344,-260.254,-13.672,-36.133,1017.420
1686197612.528,17.578,-326.172,10.742,12.207,1017.424
1686197612.532,25.391,-125.488,4.883,-8.301,1017.428
1686197612.535,-27.344,45.898,-8.301,-64.941,1017.432
1686197612.539,-46.875,-554.199,-31.250,-45.898,1017.436
1686197612.543,1.953,-595.703,20.508,5.371,1017.439
1686197612.547,32.715,293.945,16.113,4.395,1017.443
1686197612.551,-17.090,25.391,-41.016,-32.227,1017.447
1686197612.555,-53.711,-200.684,10.254,-60.059,1017.452
1686197612.559,-4.395,184.570,40.527,-24.902,1017.456
1686197612.563,39.551,388.672,-18.555,11.719,1017.460
1686197612.567,12.207,-30.762,-53.711,-22.949,1017.464
1686197612.571,-26.855,-232.422,-33.691,-51.270,1017.467
1686197612.575,-11.719,-105.469,-8.301,-16.113,1017.471
1686197612.579,24.414,-26.367,-0.488,13.672,1017.475
1686197612.582,6.836,-294.434,-62.988,-11.719,1017.479
1686197612.586,-46.387,-614.258,-26.367,-49.316,1017.483
1686197612.590,-34.180,109.863,48.340,-31.250,1017.487
1686197612.594,22.949,436.035,-8.301,17.090,1017.491
1686197612.598,34.668,-12.207,-6.348,9.277,1017.495
1686197612.599,-4.883,-108.398,6.348,-35.156,1017.497
1686197612.603,-20.020,-79.590,-4.395,-38.574,1017.501
1686197612.607,26.367,-36.621,-11.230,-2.441,1017.505
1686197612.611,57.129,-249.023,-10.254,15.625,1017.509
1686197612.615,8.301,-452.637,11.719,-13.672,1017.513
1686197612.619,-40.039,-269.531,-8.789,-35.645,1017.517
1686197612.623,-2.930,-22.949,14.160,-3.418,1017.521
1686197612.626,32.227,-384.277,-20.996,27.832,1017.525
1686197612.630,-1.465,-695.312,2.930,0.000,1017.528
1686197612.634,-32.227,250.488,23.926,-44.922,1017.532
1686197612.638,-10.254,312.988,-20.508,-21.484,1017.536
1686197612.642,29.785,81.055,-4.883,6.836,1017.540
1686197612.659,18.066,270.020,-13.184,-24.414,1017.557
1686197612.663,-35.645,218.750,-20.020,-54.688,1017.561
1686197612.667,-35.645,-38.086,-21.973,-35.645,1017.565
1686197612.671,17.090,-138.184,-26.855,-0.488,1017.569
1686197612.675,25.391,-99.121,-26.855,-6.836,1017.572
1686197612.679,-24.414,-230.469,-10.742,-48.828,1017.576
1686197612.683,-44.922,-352.051,-39.062,-58.105,1017.580
1686197612.686,4.395,-769.043,-20.020,-12.207,1017.584
1686197612.690,35.156,-145.508,49.316,5.371,1017.588
1686197612.694,-8.301,500.000,-33.203,-42.969,1017.592
1686197612.698,-56.152,10.742,-7.324,-66.406,1017.596
1686197612.702,-17.090,12.695,36.621,-15.137,1017.600
1686197612.688,35.156,297.852,-21.484,10.742,1017.598
1686197612.692,7.812,85.449,-53.711,-30.762,1017.602
1686197612.696,-44.922,-243.652,-19.531,-67.383,1017.606
1686197612.700,-38.086,-112.305,1.953,-44.922,1017.610
1686197612.704,19.531,-39.551,-31.250,-1.465,1017.614
1686197612.708,20.508,-253.418,-32.227,-7.324,1017.618
1686197612.712,-38.574,-499.023,-27.344,-51.270,1017.621
1686197612.715,-43.945,-348.633,6.348,-50.781,1017.625
1686197612.719,13.184,200.684,4.395,-2.930,1017.629
1686197612.723,33.203,242.188,-39.551,-5.859,1017.633
1686197612.727,-20.020,-594.727,-66.406,-45.898,1017.637
1686197612.731,-55.176,-963.379,21.973,-56.641,1017.641
1686197612.763,-0.488,122.559,74.219,-25.879,1017.660
1686197612.767,39.551,430.664,-34.180,-4.395,1017.664
1686197612.771,-0.977,32.715,-60.059,-32.227,1017.668
1686197612.775,-39.551,100.586,-23.926,-50.293,1017.672
1686197612.779,-17.578,201.660,-16.113,-28.320,1017.676
1686197612.783,25.391,-184.570,-62.012,6.348,1017.680
1686197612.787,9.766,-533.691,-42.969,-9.766,1017.684
1686197612.790,-32.227,-4.883,10.254,-53.223,1017.688
1686197612.794,-21.484,305.664,0.977,-32.227,1017.692
1686197612.798,22.949,-252.930,-23.926,15.137,1017.695
1686197612.802,24.414,-540.039,-10.742,0.488,1017.699
1686197612.806,-20.508,135.254,6.348,-49.805,1017.703
1686197612.793,-26.855,200.195,-20.996,-38.086,1017.691
1686197612.797,20.020,-102.051,-2.441,16.602,1017.694
1686197612.801,41.992,-0.488,16.602,14.648,1017.698
1686197612.805,-3.418,106.934,-28.809,-47.852,1017.702
1686197612.809,-38.574,-229.492,-40.039,-62.012,1017.706
1686197612.813,2.930,-379.395,-5.371,-5.371,1017.710
1686197612.817,42.480,-227.051,-0.488,13.672,1017.714
1686197612.820,20.996,43.945,-4.883,-31.738,1017.718
1686197612.824,-21.973,79.590,-34.180,-60.059,1017.722
1686197612.828,-12.695,-587.891,-18.066,-28.809,1017.726
1686197612.832,24.902,-399.414,26.855,-4.395,1017.730
1686197612.836,17.578,179.199,-26.367,-27.832,1017.734
1686197612.838,-33.691,-72.754,-54.199,-63.477,1017.735
1686197612.842,-48.828,-725.586,-39.062,-48.828,1017.739
1686197612.846,5.859,-535.156,25.391,-1.465,1017.743
1686197612.850,29.297,495.117,4.395,-18.066,1017.747
1686197612.854,-17.578,89.844,-68.848,-60.547,1017.750
1686197612.858,-44.434,-399.902,-50.293,-57.129,1017.754
1686197612.862,-2.441,42.480,0.488,-16.602,1017.758
1686197612.865,29.297,459.961,-12.207,-1.953,1017.762
1686197612.869,-19.531,-138.184,-64.941,-41.016,1017.766
1686197612.873,-57.617,-785.156,-15.137,-59.570,1017.770
1686197612.877,-4.395,35.645,42.969,-24.902,1017.774
1686197612.881,40.039,467.773,-30.273,4.395,1017.778
1686197612.884,0.977,-21.484,-30.273,-22.461,1017.782
1686197612.888,-35.645,-105.469,-6.836,-45.898,1017.786
1686197612.892,-20.020,-66.406,-0.977,-20.508,1017.790
1686197612.896,20.996,37.598,-4.883,0.977,1017.794
1686197612.900,17.090,-451.172,-64.453,-20.996,1017.798
1686197612.904,-38.574,-789.062,-16.602,-56.641,1017.802
1686197612.908,-41.016,-57.129,35.156,-60.547,1017.806
1686197612.911,16.113,370.117,-18.066,-19.531,1017.810
1686197612.915,18.066,-279.297,-28.320,-11.230,1017.814
1686197612.919,-40.527,-391.602,32.715,-62.500,1017.818
1686197612.923,-51.270,401.367,4.883,-69.824,1017.822
1686197612.927,-3.418,235.352,-20.508,-18.555,1017.825
1686197612.944,23.926,22.949,-19.043,-9.766,1017.842
1686197612.948,-13.672,126.465,-23.438,-54.688,1017.845
1686197612.952,-49.316,128.418,-22.461,-72.266,1017.849
1686197612.956,-21.484,-87.891,-33.691,-32.715,1017.853
1686197612.960,28.809,-195.312,-43.945,-2.441,1017.857
1686197612.964,12.207,-209.473,-37.109,-25.391,1017.861
1686197612.968,-37.109,-279.785,-8.301,-59.082,1017.865
1686197612.971,-26.367,-386.719,-47.852,-37.598,1017.869
1686197612.975,12.207,-791.992,-13.184,2.441,1017.873
1686197612.979,16.602,-150.879,56.641,-22.949,1017.877
1686197612.983,-26.855,415.527,-30.762,-59.570,1017.881
1686197612.987,-33.203,12.695,-17.090,-54.688,1017.884
1686197612.977,22.949,81.055,33.203,-15.625,1017.872
1686197612.981,39.062,268.555,-12.695,-8.789,1017.876
1686197612.985,-6.836,0.488,-42.969,-54.199,1017.880
1686197612.989,-32.227,-215.820,-9.277,-65.430,1017.884
1686197612.993,-1.465,-200.684,7.812,-19.531,1017.888
1686197612.997,30.273,-161.133,-8.301,1.953,1017.891
1686197613.001,-1.465,-260.742,-20.508,-37.598,1017.895
1686197613.004,-41.992,-448.242,-7.324,-63.477,1017.899
1686197613.008,-4.883,-104.980,24.902,-36.133,1017.903
1686197613.012,42.480,344.727,-7.324,-9.766,1017.907
1686197613.016,20.996,211.914,-45.410,-39.551,1017.911
1686197613.020,-38.086,-607.422,-52.734,-74.707,1017.915
1686197613.019,-42.969,-912.598,34.668,-52.246,1017.916
1686197613.023,24.414,222.656,74.219,-15.625,1017.919
1686197613.027,26.367,399.902,-34.668,-23.926,1017.923
1686197613.031,-24.414,22.461,-32.227,-62.988,1017.927
1686197613.035,-27.832,145.996,-19.043,-52.246,1017.931
1686197613.039,13.184,78.613,-20.996,-8.789,1017.935
1686197613.043,23.926,-192.383,-56.152,-10.742,1017.939
1686197613.046,-22.949,-537.109,-39.551,-53.223,1017.943
1686197613.050,-48.828,0.000,21.484,-58.105,1017.947
1686197613.054,-5.371,434.570,-19.043,-18.555,1017.951
1686197613.058,27.344,-205.566,-26.855,-0.488,1017.955
1686197613.062,-2.441,-391.602,7.324,-29.297,1017.959
1686197613.062,-33.691,199.219,2.930,-58.594,1017.972
1686197613.066,-18.066,205.566,-12.695,-25.391,1017.976
1686197613.070,21.973,-83.984,0.977,10.254,1017.980
1686197613.074,12.695,-34.668,-9.766,-10.742,1017.984
1686197613.078,-41.016,-96.680,-37.109,-46.387,1017.987
1686197613.082,-41.992,-189.453,-6.836,-39.062,1017.991
1686197613.086,4.883,-552.246,-23.926,6.348,1017.995
1686197613.089,13.184,-767.578,13.184,6.836,1017.999
1686197613.093,-20.020,192.871,30.273,-48.340,1018.003
1686197613.097,-39.062,344.727,-16.113,-55.664,1018.007
1686197613.101,-0.977,119.141,13.672,-13.184,1018.011
1686197613.105,21.973,273.926,3.906,-7.324,1018.015
1686197613.111,-15.137,79.590,-24.902,-46.875,1018.008
1686197613.115,-43.945,-299.805,-32.227,-62.500,1018.012
1686197613.119,-7.324,-325.684,-3.418,-21.484,1018.016
1686197613.123,34.668,163.086,13.672,3.418,1018.020
1686197613.127,10.742,238.770,-34.668,-32.715,1018.024
1686197613.131,-35.156,-409.668,-67.871,-60.059,1018.028
1686197613.135,-25.391,-546.875,-16.113,-37.109,1018.032
1686197613.138,35.156,183.594,44.434,1.953,1018.036
1686197613.142,35.645,393.555,-21.484,-10.742,1018.040
1686197613.146,-29.297,-184.570,-9.277,-57.129,1018.043
1686197613.150,-40.039,-283.691,48.340,-45.410,1018.047
1686197613.154,10.254,234.863,18.555,-9.277,1018.051
1686197613.168,23.926,245.117,-35.156,-15.137,1018.065
1686197613.172,-35.156,-307.129,-11.719,-58.594,1018.069
1686197613.176,-58.105,-338.867,32.715,-68.359,1018.073
1686197613.180,6.348,-35.645,-6.348,-10.254,1018.077
1686197613.184,34.180,-58.594,-17.578,-1.953,1018.080
1686197613.188,-16.113,-487.305,-47.852,-58.105,1018.084
1686197613.192,-56.152,-1000.000,-18.555,-69.824,1018.088
1686197613.195,-20.020,-126.465,57.129,-31.250,1018.092
1686197613.199,29.785,610.840,1.465,-9.766,1018.096
1686197613.203,1.953,236.816,-20.996,-48.828,1018.100
1686197613.207,-49.805,206.055,-0.977,-78.125,1018.104
1686197613.211,-32.227,349.609,-4.395,-41.504,1018.108
1686197613.214,21.484,144.043,-25.391,5.371,1018.112
1686197613.218,21.484,-93.262,-31.738,-12.207,1018.116
1686197613.222,-28.320,21.973,-19.531,-52.734,1018.120
1686197613.226,-41.016,134.277,-6.348,-51.270,1018.124
1686197613.230,-0.488,-54.199,-26.855,-24.414,1018.128
1686197613.234,16.113,-365.234,-49.805,-23.926,1018.131
1686197613.238,-15.137,-365.234,-15.625,-57.129,1018.135
1686197613.241,-33.203,-84.961,21.484,-61.523,1018.139
1686197613.245,2.441,-87.891,-20.508,-14.648,1018.143
1686197613.249,32.227,-741.211,-9.766,16.602,1018.147
1686197613.253,1.465,-181.152,47.852,-29.785,1018.151
1686197613.257,-37.109,395.020,-18.066,-62.500,1018.155
1686197613.258,-24.902,71.289,-4.395,-28.809,1018.155
1686197613.262,14.160,165.039,14.160,2.441,1018.159
1686197613.266,3.906,268.555,-20.020,-17.578,1018.163
1686197613.270,-46.387,54.688,-31.250,-59.570,1018.167
1686197613.274,-42.969,-264.160,-14.160,-44.434,1018.171
1686197613.278,10.742,-308.105,4.395,3.906,1018.175
1686197613.282,17.090,-113.770,-10.742,-11.719,1018.179
1686197613.285,-27.344,-28.320,-22.949,-62.988,1018.182
1686197613.289,-48.828,-561.035,-31.738,-57.129,1018.186
1686197613.293,-8.301,-783.691,39.062,-5.371,1018.190
1686197613.297,32.227,349.121,56.152,1.465,1018.194
1686197613.301,-2.930,469.238,-35.156,-46.387,1018.198
1686197613.305,-41.504,21.484,-23.926,-70.312,1018.202
1686197613.309,-13.672,264.160,7.324,-36.621,1018.206
1686197613.313,24.902,393.555,-16.602,-21.484,1018.210
1686197613.317,-7.812,34.180,-49.316,-58.594,1018.214
1686197613.321,-51.270,-250.977,-62.988,-79.590,1018.217
1686197613.325,-29.297,-256.836,-19.531,-41.992,1018.221
1686197613.329,17.090,42.969,25.391,-7.812,1018.225
1686197613.332,4.395,-84.473,-54.199,-28.809,1018.229
1686197613.336,-51.758,-613.281,-32.227,-66.895,1018.233
1686197613.340,-50.293,45.410,49.316,-57.617,1018.237
1686197613.344,4.883,405.762,-29.297,-21.973,1018.241
1686197613.348,11.719,-220.215,-15.137,-33.691,1018.245
1686197613.348,-36.133,-271.973,22.461,-73.242,1018.245
1686197613.352,-53.711,223.145,1.953,-73.730,1018.249
1686197613.356,-10.254,261.719,-24.902,-28.320,1018.253
1686197613.360,21.973,-283.203,-20.508,-14.160,1018.257
1686197613.364,-19.531,-497.559,20.996,-56.152,1018.260
1686197613.368,-58.594,-193.359,-23.438,-75.195,1018.264
1686197613.372,-28.320,35.156,-5.859,-43.945,1018.268
1686197613.375,10.254,-425.781,-32.227,-9.766,1018.272
1686197613.379,-7.324,-719.238,-1.953,-32.715,1018.276
1686197613.383,-40.527,277.344,31.250,-73.242,1018.280
1686197613.387,-27.344,410.156,-22.949,-51.758,1018.284
1686197613.391,16.113,166.016,6.836,-13.672,1018.288
1686197613.396,10.742,322.266,1.953,-39.551,1018.295
1686197613.400,-42.480,94.727,-25.879,-78.125,1018.299
1686197613.404,-62.012,-287.109,-30.273,-64.453,1018.303
1686197613.408,-10.254,-238.770,6.836,-23.926,1018.307
1686197613.412,15.625,168.457,5.859,-23.926,1018.311
1686197613.416,-36.133,28.809,-30.273,-65.430,1018.314
1686197613.420,-63.477,-409.180,-38.086,-62.988,1018.318
1686197613.423,-10.742,-486.328,2.930,-14.648,1018.322
1686197613.427,34.180,167.480,48.828,-6.348,1018.326
1686197613.431,-4.883,415.039,-32.227,-50.781,1018.330
1686197613.435,-49.316,-67.383,2.441,-70.312,1018.334
1686197613.439,-19.531,-31.738,54.688,-37.598,1018.338
1686197613.438,31.250,330.078,5.859,-7.324,1018.348
1686197613.442,16.113,194.336,-40.527,-27.344,1018.352
1686197613.446,-35.645,-177.246,-12.695,-61.523,1018.356
1686197613.450,-30.762,-160.156,22.949,-41.016,1018.360
1686197613.454,16.602,-84.961,0.000,6.348,1018.363
1686197613.458,22.461,-154.785,-1.953,-3.906,1018.367
1686197613.462,-35.645,-565.430,-43.457,-57.129,1018.371
1686197613.465,-62.012,-1000.000,-1.953,-52.734,1018.375
1686197613.469,-0.977,-61.035,72.754,-9.766,1018.379
1686197613.473,31.250,537.109,-18.066,-4.883,1018.383
1686197613.477,-18.066,73.242,-18.555,-45.410,1018.387
1686197613.481,-41.016,164.062,13.184,-59.570,1018.391
1686197613.529,-2.441,378.418,-3.906,-22.461,1018.427
1686197613.533,30.273,140.137,-19.531,-0.977,1018.431
1686197613.537,7.812,-123.535,-32.227,-32.227,1018.435
1686197613.541,-27.832,38.574,-2.930,-58.594,1018.439
1686197613.545,-4.395,155.273,-2.441,-28.809,1018.443
1686197613.549,43.457,-236.328,-61.523,8.301,1018.447
1686197613.553,27.832,-657.715,-38.086,-6.348,1018.450
1686197613.556,-28.320,-215.332,28.320,-52.734,1018.454
1686197613.560,-30.273,307.129,11.230,-36.133,1018.458
1686197613.564,26.367,-120.605,-20.508,22.949,1018.462
1686197613.568,29.297,-501.953,-19.043,2.930,1018.466
1686197613.572,-21.484,66.406,13.184,-54.199,1018.470
1686197613.534,-26.367,216.797,5.859,-38.086,1018.434
1686197613.538,12.207,0.000,8.789,7.324,1018.438
1686197613.542,22.949,33.203,14.648,0.488,1018.442
1686197613.546,-17.090,47.363,-31.250,-45.898,1018.445
1686197613.550,-49.316,-255.371,-31.250,-57.617,1018.449
1686197613.554,-17.090,-496.582,14.648,-17.090,1018.453
1686197613.558,27.832,-308.594,39.551,7.812,1018.457
1686197613.561,9.766,145.508,11.230,-28.320,1018.461
1686197613.565,-36.133,47.363,-23.926,-60.059,1018.465
1686197613.569,-17.578,-301.758,38.574,-26.855,1018.469
1686197613.573,39.062,15.625,58.594,12.207,1018.473
1686197613.577,25.879,264.648,-8.301,-16.602,1018.477
1686197613.589,-32.715,-100.098,-39.062,-54.199,1018.486
1686197613.593,-39.551,-391.113,3.906,-30.273,1018.490
1686197613.597,6.348,-46.387,38.086,7.324,1018.494
1686197613.601,19.531,161.133,-12.207,-5.859,1018.498
1686197613.605,-20.996,-180.176,-49.316,-50.293,1018.502
1686197613.609,-49.316,-815.430,-49.805,-57.129,1018.505
1686197613.613,-13.672,-1000.000,18.066,-17.090,1018.509
1686197613.616,27.832,-234.375,32.227,-7.812,1018.513
1686197613.620,2.930,372.070,-2.441,-45.898,1018.517
1686197613.624,-39.062,180.664,5.859,-65.430,1018.521
1686197613.628,-8.301,402.832,11.719,-35.156,1018.525
1686197613.632,38.574,362.793,-26.855,-8.789,1018.529
1686197613.633,6.348,-307.129,-33.203,-37.109,1018.530
1686197613.637,-42.969,-397.461,22.461,-73.730,1018.534
1686197613.641,-27.832,201.660,19.043,-52.734,1018.538
1686197613.645,16.602,223.633,-8.789,-11.719,1018.542
1686197613.649,10.742,-199.219,-25.391,-39.062,1018.546
1686197613.653,-36.621,-390.625,-17.578,-80.078,1018.549
1686197613.657,-34.180,-218.262,7.324,-62.988,1018.553
1686197613.660,18.555,148.926,12.207,-16.113,1018.557
1686197613.664,25.391,-409.180,-30.273,-0.977,1018.561
1686197613.668,-16.602,-701.172,6.836,-44.922,1018.565
1686197613.672,-26.367,276.367,27.344,-59.082,1018.569
1686197613.676,6.836,285.156,-8.789,-4.395,1018.573
1686197613.679,39.062,24.902,2.930,14.648,1018.577
1686197613.683,14.648,114.746,0.977,-20.508,1018.581
1686197613.687,-34.180,-50.781,-1.953,-47.363,1018.585
1686197613.691,-17.090,-346.191,-15.137,-22.461,1018.589
1686197613.695,24.414,-408.691,-7.812,15.137,1018.593
1686197613.699,9.277,-285.156,-2.930,-20.020,1018.597
1686197613.703,-34.180,-84.961,-3.418,-64.941,1018.600
1686197613.706,-27.344,-221.680,-41.992,-41.504,1018.604
1686197613.710,14.160,-548.828,-9.766,2.930,1018.608
1686197613.714,20.508,-0.488,42.480,-11.719,1018.612
1686197613.718,-22.461,208.008,-35.156,-55.664,1018.616
1686197613.722,-35.156,-205.078,8.789,-50.293,1018.620
