timestamps,TP9,AF7,AF8,TP10,Secondary Timestamp
1686879738.565,-12.207,-991.699,10.742,-37.109,966.476
1686879738.569,-58.105,935.547,-35.156,-107.910,966.480
1686879738.573,-55.176,908.691,5.371,-66.406,966.484
1686879738.577,-23.926,951.172,40.039,15.137,966.487
1686879738.581,-23.926,941.895,-9.277,-13.672,966.491
1686879738.585,-49.805,909.668,-35.156,-100.586,966.495
1686879738.588,-55.176,54.688,-46.387,-73.242,966.499
1686879738.592,-24.902,104.004,42.480,12.207,966.503
1686879738.596,-6.348,-944.824,50.781,8.301,966.507
1686879738.600,-38.086,905.762,-40.527,-67.383,966.511
1686879738.604,-65.918,852.539,-39.551,-98.633,966.515
1686879738.608,-36.621,949.707,14.648,-23.438,966.519
1686879738.614,-9.277,-965.820,32.715,17.090,966.521
1686879738.618,-36.133,722.168,-40.527,-58.594,966.525
1686879738.622,-63.965,595.215,-12.207,-111.816,966.529
1686879738.626,-45.410,971.680,38.574,-48.828,966.533
1686879738.630,-13.184,-959.961,-7.812,24.902,966.537
1686879738.634,-29.297,628.906,-39.062,-15.625,966.541
1686879738.637,-57.617,533.691,21.973,-96.191,966.545
1686879738.641,-46.387,992.188,25.879,-69.824,966.548
1686879738.645,-15.137,-994.629,-17.578,17.090,966.552
1686879738.649,-18.066,721.191,-1.953,3.418,966.556
1686879738.653,-55.176,747.070,42.480,-86.914,966.560
1686879738.657,-62.988,-991.699,24.414,-89.844,966.564
1686879738.671,-37.109,946.289,-2.441,1.953,966.569
1686879738.675,-29.785,802.734,-12.207,20.508,966.573
1686879738.679,-59.570,834.961,1.465,-63.965,966.576
1686879738.683,-76.660,958.496,-13.672,-111.328,966.580
1686879738.687,-40.039,984.375,-27.832,-20.996,966.584
1686879738.691,-18.066,124.023,-51.758,44.922,966.588
1686879738.694,-57.617,-176.758,4.883,-46.387,966.592
1686879738.698,-91.309,873.535,49.805,-126.465,966.596
1686879738.702,-79.590,910.156,-43.945,-65.430,966.600
1686879738.706,-46.387,598.633,-25.879,5.859,966.604
1686879738.710,-47.363,906.738,36.621,-39.551,966.608
1686879738.714,-81.543,-973.633,-25.879,-116.699,966.612
1686879738.717,-87.402,791.504,-22.949,-101.074,966.626
1686879738.721,-47.852,814.941,22.461,-8.789,966.630
1686879738.725,-26.855,978.027,6.836,4.395,966.634
1686879738.729,-60.059,-993.652,-34.180,-74.707,966.638
1686879738.733,-81.543,677.734,-28.809,-83.984,966.642
1686879738.737,-50.781,478.516,22.949,2.441,966.646
1686879738.740,-31.250,808.105,33.203,20.996,966.650
1686879738.744,-60.059,-897.949,-7.812,-68.848,966.654
1686879738.748,-87.891,350.098,-63.965,-104.004,966.658
1686879738.752,-60.059,-13.672,19.531,-29.785,966.662
1686879738.756,-30.762,951.660,61.035,18.555,966.666
1686879738.760,-54.688,969.727,-19.531,-38.574,966.669
1686879738.761,-87.402,782.227,-28.320,-99.121,966.657
1686879738.765,-78.125,908.691,7.812,-56.152,966.661
1686879738.769,-43.457,991.699,3.906,11.719,966.665
1686879738.773,-45.898,929.688,-50.293,-20.508,966.669
1686879738.777,-89.844,623.047,-49.805,-101.074,966.672
1686879738.781,-85.938,493.164,-7.324,-83.496,966.676
1686879738.784,-41.504,643.555,2.441,5.859,966.680
1686879738.788,-35.156,766.602,-34.668,2.930,966.684
1686879738.792,-63.477,-91.797,-72.754,-75.195,966.688
1686879738.796,-80.078,-168.457,28.809,-104.980,966.692
1686879738.800,-54.688,989.746,50.781,-33.203,966.696
1686879738.804,-32.715,829.590,-60.547,22.461,966.700
1686879738.808,-59.082,347.168,-35.645,-48.828,966.708
1686879738.812,-78.613,797.852,52.734,-110.352,966.712
1686879738.816,-51.758,-969.727,-1.465,-51.758,966.716
1686879738.820,-21.484,809.082,-8.301,14.648,966.720
1686879738.824,-38.086,866.211,2.441,-29.785,966.724
1686879738.828,-76.172,747.070,-32.715,-99.609,966.728
1686879738.831,-69.336,726.562,-5.371,-70.801,966.732
1686879738.835,-32.715,402.832,-11.719,11.230,966.736
1686879738.839,-41.992,289.062,11.230,-4.883,966.739
1686879738.843,-81.055,854.004,30.762,-94.727,966.743
1686879738.847,-76.172,873.047,-6.348,-91.797,966.747
1686879738.851,-41.992,820.312,8.789,-5.859,966.751
1686879738.851,-34.180,880.859,25.879,3.906,966.761
1686879738.855,-62.500,-992.676,-5.859,-80.566,966.765
1686879738.859,-82.031,895.508,-33.691,-103.516,966.769
1686879738.863,-57.129,713.867,-11.230,-28.320,966.773
1686879738.867,-19.043,789.062,19.531,22.949,966.777
1686879738.871,-38.574,760.254,-6.348,-37.598,966.781
1686879738.874,-76.172,636.230,-37.598,-102.051,966.785
1686879738.878,-56.152,-127.930,-60.059,-42.480,966.789
1686879738.882,-22.461,-234.863,54.199,31.738,966.793
1686879738.886,-28.809,855.957,81.055,-21.484,966.796
1686879738.890,-65.430,870.605,-28.320,-98.633,966.800
1686879738.894,-72.266,716.309,-24.414,-76.172,966.804
1686879738.913,-42.480,923.828,11.230,-4.395,966.820
1686879738.917,-38.086,-954.102,5.859,-14.648,966.824
1686879738.921,-64.941,621.582,-37.109,-94.238,966.828
1686879738.925,-72.754,436.035,8.301,-105.469,966.832
1686879738.929,-42.480,964.355,20.020,-30.762,966.836
1686879738.933,-32.715,926.270,-29.297,-13.672,966.840
1686879738.936,-62.500,348.145,-24.902,-90.332,966.843
1686879738.940,-81.543,380.371,34.668,-123.047,966.847
1686879738.944,-59.570,970.703,40.527,-54.688,966.851
1686879738.948,-36.133,-954.102,-26.855,-4.395,966.855
1686879738.952,-60.547,447.266,-32.227,-62.012,966.859
1686879738.956,-92.285,330.566,40.039,-131.836,966.863
1686879738.940,-78.125,989.746,30.273,-92.773,966.852
1686879738.944,-48.340,922.363,-19.043,-14.160,966.855
1686879738.948,-63.965,572.754,-30.273,-49.316,966.859
1686879738.952,-98.145,659.180,-4.883,-127.441,966.863
1686879738.956,-108.398,728.027,-23.926,-111.816,966.867
1686879738.960,-77.637,491.211,-32.715,-27.832,966.871
1686879738.963,-60.547,379.395,-10.254,-29.297,966.875
1686879738.967,-87.891,654.297,15.137,-122.070,966.879
1686879738.971,-99.609,963.379,13.184,-130.859,966.883
1686879738.975,-69.336,863.281,-31.250,-47.363,966.887
1686879738.979,-51.270,-168.457,-81.055,-8.789,966.891
1686879738.983,-66.895,-577.637,39.062,-83.008,966.895
1686879738.987,-92.773,579.590,77.148,-142.578,966.912
1686879738.991,-81.543,798.828,-0.488,-65.918,966.916
1686879738.995,-58.105,684.570,22.949,-2.441,966.920
1686879738.999,-83.984,989.258,8.789,-73.242,966.924
1686879739.003,-122.070,946.777,-28.809,-147.949,966.928
1686879739.007,-101.074,551.758,-27.344,-92.773,966.931
1686879739.010,-66.895,395.996,8.789,-13.672,966.935
1686879739.014,-72.754,729.492,11.719,-51.270,966.939
1686879739.018,-94.238,-943.359,-17.578,-120.605,966.943
1686879739.022,-105.469,247.070,-62.012,-102.539,966.947
1686879739.026,-79.590,-114.746,11.719,-25.391,966.951
1686879739.030,-74.219,923.340,33.691,-27.344,966.955
1686879739.046,-112.793,937.988,-41.992,-117.188,966.945
1686879739.050,-117.676,631.836,-19.531,-143.066,966.949
1686879739.054,-69.824,787.598,14.648,-59.082,966.953
1686879739.058,-48.340,995.605,-8.301,-11.230,966.957
1686879739.062,-73.242,748.535,-58.105,-79.102,966.961
1686879739.066,-95.215,-129.883,-26.855,-120.117,966.965
1686879739.069,-75.684,-25.391,62.500,-55.176,966.969
1686879739.073,-40.527,774.902,31.738,2.441,966.973
1686879739.077,-62.988,583.496,-43.945,-46.875,966.977
1686879739.081,-97.168,418.457,-21.484,-122.070,966.980
1686879739.085,-86.426,796.875,24.414,-91.309,966.984
1686879739.089,-49.805,-946.777,10.254,-8.301,966.988
1686879739.092,-50.293,685.547,-66.895,-24.414,966.989
1686879739.096,-85.449,-117.676,-29.297,-112.305,966.993
1686879739.100,-92.285,396.484,70.312,-115.723,966.997
1686879739.104,-52.734,-964.355,3.906,-27.832,967.001
1686879739.108,-45.898,698.730,-29.785,-15.625,967.005
1686879739.112,-88.867,408.203,-25.391,-96.191,967.009
1686879739.115,-109.375,456.543,4.883,-129.883,967.013
1686879739.119,-75.195,860.352,5.371,-57.617,967.017
1686879739.123,-38.574,384.277,-48.340,-0.977,967.020
1686879739.127,-65.430,-27.832,-10.254,-76.660,967.024
1686879739.131,-106.445,545.410,14.648,-154.785,967.028
1686879739.135,-94.238,723.145,-10.742,-87.891,967.032
1686879739.135,-60.547,563.477,0.000,-14.160,967.032
1686879739.139,-66.895,656.738,27.832,-65.918,967.036
1686879739.143,-93.262,923.828,-3.418,-138.184,967.040
1686879739.147,-90.332,740.234,-37.109,-111.328,967.044
1686879739.151,-65.918,498.047,-24.414,-30.762,967.048
1686879739.155,-56.152,438.477,-10.254,-44.434,967.052
1686879739.158,-87.891,423.828,-22.949,-128.906,967.055
1686879739.162,-112.305,439.941,-34.668,-134.766,967.059
1686879739.166,-78.613,-287.109,-63.477,-42.969,967.063
1686879739.170,-50.781,-158.203,17.578,-16.602,967.067
1686879739.174,-71.777,956.055,20.020,-105.469,967.071
1686879739.178,-94.727,713.867,-38.086,-137.207,967.075
1686879739.183,-70.312,462.402,-12.695,-53.223,967.082
1686879739.187,-47.363,727.051,11.719,-6.836,967.086
1686879739.191,-67.383,-980.957,-17.578,-80.566,967.090
1686879739.195,-91.309,484.375,-53.711,-133.789,967.094
1686879739.199,-82.520,186.523,3.906,-77.148,967.098
1686879739.203,-54.688,566.406,-8.789,-9.277,967.102
1686879739.206,-55.664,598.145,-23.438,-44.434,967.106
1686879739.210,-89.355,25.391,-44.922,-122.070,967.110
1686879739.214,-88.379,-128.906,5.859,-96.191,967.114
1686879739.218,-50.293,839.844,45.898,-18.066,967.118
1686879739.222,-52.246,958.496,-27.344,-33.691,967.122
1686879739.226,-76.660,649.414,-38.086,-120.605,967.125
1686879739.226,-79.102,667.969,-5.859,-133.301,967.122
1686879739.230,-61.035,887.695,-5.371,-55.664,967.126
1686879739.234,-48.828,794.434,-36.133,-31.738,967.130
1686879739.238,-64.941,361.816,-35.156,-103.516,967.134
1686879739.242,-91.797,177.246,-11.719,-144.531,967.137
1686879739.246,-76.172,263.184,-9.766,-74.219,967.141
1686879739.249,-37.598,463.867,-29.297,-17.578,967.145
1686879739.253,-65.430,-327.148,-78.613,-75.684,967.149
1686879739.257,-104.492,-750.488,8.789,-136.230,967.153
1686879739.261,-73.242,497.559,55.176,-83.984,967.157
1686879739.265,-33.203,806.152,-25.391,-3.418,967.161
1686879739.269,-61.523,636.719,-15.137,-45.410,967.165
1686879739.272,-99.609,837.891,6.348,-131.836,967.169
1686879739.276,-98.633,848.145,-28.320,-105.469,967.173
1686879739.280,-47.852,610.352,-14.648,-10.254,967.177
1686879739.284,-35.645,601.074,23.926,-12.695,967.181
1686879739.288,-90.332,714.844,-39.551,-106.934,967.185
1686879739.292,-90.332,451.660,-44.922,-120.117,967.189
1686879739.295,-44.922,-95.703,-43.945,-23.438,967.192
1686879739.299,-26.855,-405.762,8.789,20.996,967.196
1686879739.303,-50.293,455.078,60.059,-41.992,967.200
1686879739.307,-62.012,749.512,-25.879,-81.055,967.204
1686879739.311,-25.391,459.961,-0.488,-9.277,967.208
1686879739.315,3.906,685.547,34.668,62.500,967.212
1686879739.316,-7.812,894.531,-6.348,18.066,967.226
1686879739.320,-33.203,608.887,-39.551,-60.059,967.230
1686879739.324,-26.855,309.082,-6.348,-26.367,967.233
1686879739.328,2.930,522.461,15.625,54.688,967.237
1686879739.332,1.465,444.336,-24.414,22.461,967.241
1686879739.336,-34.668,163.086,-44.434,-71.289,967.245
1686879739.339,-45.898,-629.395,-53.223,-56.152,967.249
1686879739.343,-9.766,-561.035,41.504,28.320,967.253
1686879739.347,7.812,555.176,43.945,32.227,967.257
1686879739.351,-26.367,291.992,-58.594,-42.480,967.261
1686879739.355,-47.852,138.184,-18.555,-66.895,967.265
1686879739.359,-16.602,693.359,34.668,3.906,967.269
1686879739.363,17.578,896.973,-8.789,37.598,967.271
1686879739.367,-17.578,423.828,-31.250,-40.527,967.275
1686879739.371,-58.594,145.020,-7.812,-101.562,967.279
1686879739.375,-34.180,513.672,13.184,-44.434,967.283
1686879739.379,-10.254,732.422,-27.832,24.414,967.287
1686879739.383,-29.297,46.875,-52.246,-24.414,967.290
1686879739.386,-60.547,-257.324,39.062,-94.727,967.294
1686879739.390,-66.406,448.242,31.250,-67.871,967.298
1686879739.394,-40.039,663.574,-31.250,9.277,967.302
1686879739.398,-29.297,193.359,-11.719,5.371,967.306
1686879739.402,-68.359,52.734,12.207,-83.984,967.310
1686879739.406,-78.613,185.547,-26.367,-87.891,967.314
1686879739.421,-31.250,139.160,-15.137,10.254,967.317
1686879739.425,-13.184,72.754,9.766,32.715,967.321
1686879739.429,-47.852,165.039,11.230,-51.758,967.325
1686879739.433,-66.406,432.129,-10.742,-98.633,967.329
1686879739.437,-37.109,376.465,-33.203,-29.785,967.333
1686879739.441,-20.020,-464.355,-58.594,41.016,967.337
1686879739.444,-42.969,-624.512,9.277,-29.297,967.340
1686879739.448,-59.082,449.707,32.227,-107.910,967.344
1686879739.452,-52.246,384.766,-48.828,-51.758,967.348
1686879739.456,-23.438,94.727,-21.484,22.461,967.352
1686879739.460,-34.180,531.250,14.160,-24.902,967.356
1686879739.464,-70.312,651.855,-38.086,-117.676,967.360
1686879739.467,-69.336,286.621,-43.945,-90.332,967.368
1686879739.471,-31.250,99.609,-8.789,9.277,967.372
1686879739.475,-20.020,313.477,3.906,7.812,967.375
1686879739.479,-59.082,532.715,-31.250,-81.055,967.379
1686879739.483,-76.172,36.133,-41.504,-82.520,967.383
1686879739.487,-47.852,-387.207,7.812,-2.930,967.387
1686879739.490,-21.973,153.809,16.113,7.812,967.391
1686879739.494,-46.387,597.168,-30.273,-73.730,967.395
1686879739.498,-88.867,-190.918,-68.359,-112.793,967.399
1686879739.502,-68.359,-520.996,15.137,-36.621,967.403
1686879739.506,-28.320,452.148,38.574,11.230,967.407
1686879739.510,-48.828,500.977,-41.992,-54.688,967.411
1686879739.510,-83.984,48.340,-30.762,-123.047,967.407
1686879739.514,-77.148,126.953,21.484,-83.496,967.411
1686879739.518,-39.551,549.805,7.324,-2.930,967.415
1686879739.522,-42.969,428.711,-49.805,-28.809,967.419
1686879739.526,-81.055,-125.977,-48.828,-119.629,967.422
1686879739.530,-82.520,-209.473,-3.906,-111.328,967.426
1686879739.533,-37.598,13.672,-0.488,-17.578,967.430
1686879739.537,-21.484,123.047,-24.902,-9.277,967.434
1686879739.541,-58.594,-638.184,-80.078,-83.008,967.438
1686879739.545,-77.148,-714.844,9.766,-106.934,967.442
1686879739.549,-43.457,445.801,44.434,-40.527,967.446
1686879739.553,-25.391,480.957,-39.062,-2.441,967.450
1686879739.558,-54.688,269.531,-41.016,-81.543,967.455
1686879739.562,-82.520,439.453,-17.090,-140.625,967.459
1686879739.566,-65.918,495.605,-22.461,-75.195,967.463
1686879739.570,-31.250,313.477,-12.207,-0.488,967.467
1686879739.574,-34.668,215.820,-13.184,-43.457,967.471
1686879739.578,-79.102,4.883,-66.406,-124.512,967.475
1686879739.581,-85.449,-89.844,-19.531,-95.703,967.478
1686879739.585,-42.480,-363.770,-38.086,-5.371,967.482
1686879739.589,-36.133,-717.285,-1.465,-23.438,967.486
1686879739.593,-70.801,98.633,44.922,-115.723,967.490
1686879739.597,-75.195,395.508,-39.551,-116.699,967.494
1686879739.601,-38.574,167.969,-20.020,-36.133,967.498
1686879739.601,-17.090,382.812,-0.488,-23.926,967.497
1686879739.605,-42.480,512.695,-39.062,-104.980,967.501
1686879739.609,-64.941,272.461,-44.922,-130.859,967.505
1686879739.613,-31.738,60.547,-22.461,-47.852,967.509
1686879739.617,-1.465,51.270,-18.066,0.488,967.512
1686879739.621,-41.504,-35.645,-37.598,-66.406,967.516
1686879739.624,-75.195,-90.332,-45.898,-118.164,967.520
1686879739.628,-51.758,-731.445,-80.078,-52.246,967.524
1686879739.632,-22.949,-720.703,0.488,13.184,967.528
1686879739.636,-33.691,218.262,26.855,-34.668,967.532
1686879739.640,-73.242,5.371,-79.102,-113.770,967.536
1686879739.644,-76.172,-201.660,-47.363,-91.309,967.540
1686879739.647,-35.156,438.477,21.484,0.488,967.544
1686879739.651,-29.297,658.691,-34.668,-12.207,967.548
1686879739.655,-61.523,202.637,-38.086,-112.793,967.552
1686879739.659,-63.965,132.812,12.207,-130.371,967.556
1686879739.663,-31.250,411.133,-17.578,-46.387,967.560
1686879739.667,-19.043,297.852,-55.664,-25.879,967.564
1686879739.670,-59.570,-439.453,-68.359,-105.957,967.568
1686879739.674,-83.984,-646.484,-8.789,-138.672,967.571
1686879739.678,-50.293,285.645,24.414,-63.477,967.575
1686879739.682,-29.297,462.402,-43.457,-11.719,967.579
1686879739.686,-54.688,161.621,-39.062,-84.473,967.583
1686879739.690,-86.426,99.121,-40.039,-144.043,967.587
1686879739.691,-76.172,95.215,-39.551,-86.426,967.590
1686879739.695,-41.016,175.781,-34.180,-17.090,967.594
1686879739.699,-45.898,-54.688,-25.879,-49.805,967.598
1686879739.703,-73.242,-14.160,2.930,-119.629,967.602
1686879739.707,-72.754,62.012,-35.645,-102.539,967.606
1686879739.711,-39.551,-32.715,-31.250,-20.508,967.610
1686879739.714,-30.762,-631.348,-61.035,-11.719,967.614
1686879739.718,-51.758,-682.617,-8.301,-100.586,967.618
1686879739.722,-62.988,287.598,15.137,-130.859,967.622
1686879739.726,-41.504,142.090,-50.781,-44.922,967.626
1686879739.730,-15.137,96.191,-34.180,-15.625,967.629
1686879739.734,-46.875,429.199,-23.926,-101.562,967.633
1686879739.751,-69.336,402.344,-35.645,-138.672,967.647
1686879739.755,-47.363,135.742,-23.438,-62.500,967.651
1686879739.759,-20.996,-76.172,-7.812,3.418,967.655
1686879739.763,-27.344,140.625,-5.859,-55.664,967.659
1686879739.767,-64.941,342.773,-24.414,-140.625,967.663
1686879739.771,-70.312,-308.105,-83.496,-99.121,967.667
1686879739.774,-37.598,-853.516,7.324,-7.324,967.671
1686879739.778,-32.715,20.020,63.477,-44.922,967.675
1686879739.782,-69.824,401.855,-38.574,-139.648,967.679
1686879739.786,-77.637,79.102,-29.297,-126.465,967.682
1686879739.790,-41.016,269.043,5.371,-31.250,967.686
1686879739.794,-26.367,458.008,-18.555,-29.297,967.690
1686879739.796,-55.176,209.473,-53.223,-120.605,967.692
1686879739.800,-72.266,-40.527,-37.598,-141.602,967.696
1686879739.804,-31.250,135.254,0.488,-52.734,967.700
1686879739.808,-3.906,385.742,-23.438,-11.230,967.704
1686879739.812,-42.969,63.965,-58.594,-85.449,967.708
1686879739.816,-77.148,-626.953,-19.531,-134.277,967.712
1686879739.819,-54.688,-503.906,15.625,-82.031,967.716
1686879739.823,-26.367,-17.090,-10.254,-26.367,967.719
1686879739.827,-50.781,10.254,-68.848,-80.078,967.723
1686879739.831,-85.449,-693.359,-65.430,-154.297,967.727
1686879739.835,-70.312,-540.039,38.574,-117.188,967.731
1686879739.839,-26.367,389.160,0.000,-35.156,967.735
1686879739.842,-28.809,283.203,-40.039,-48.828,967.752
1686879739.846,-70.312,105.957,-30.762,-139.160,967.756
1686879739.850,-80.078,317.383,-20.508,-145.996,967.760
1686879739.854,-44.922,476.562,-20.020,-57.617,967.764
1686879739.858,-22.949,251.953,-37.109,-41.504,967.768
1686879739.862,-53.223,-182.129,-34.668,-130.859,967.772
1686879739.865,-68.848,-83.984,-28.809,-152.832,967.775
1686879739.869,-46.875,290.039,-27.344,-62.500,967.779
1686879739.873,-24.414,-271.973,-62.012,-14.648,967.783
1686879739.877,-39.062,-757.324,-0.977,-86.426,967.787
1686879739.881,-64.941,116.699,39.551,-158.691,967.791
1686879739.885,-54.688,377.441,-40.039,-99.121,967.795
1686879739.886,-22.949,164.062,-27.344,-21.484,967.782
1686879739.890,-28.320,327.148,-10.742,-59.570,967.786
1686879739.894,-78.613,397.461,-38.086,-136.230,967.790
1686879739.898,-73.242,229.004,-47.363,-112.793,967.793
1686879739.902,-29.297,-84.473,-41.992,-24.902,967.797
1686879739.906,-30.762,-119.141,-31.738,-35.645,967.801
1686879739.909,-59.570,-54.199,-32.227,-128.906,967.805
1686879739.913,-67.871,-127.441,-59.570,-141.113,967.809
1686879739.917,-38.574,-672.852,-28.320,-39.551,967.813
1686879739.921,-22.949,-352.051,52.246,-12.207,967.817
1686879739.925,-42.969,312.500,-5.371,-106.445,967.821
1686879739.929,-64.453,-114.746,-83.496,-141.113,967.825
1686879739.932,-45.898,-643.066,-20.020,-60.547,967.829
1686879739.936,-18.555,18.555,72.754,-8.789,967.833
1686879739.940,-31.738,617.676,-24.902,-70.801,967.837
1686879739.944,-57.129,177.246,-20.020,-134.277,967.841
1686879739.948,-46.875,149.902,24.414,-84.961,967.845
1686879739.952,-5.859,190.430,-22.461,0.488,967.849
1686879739.955,-1.953,187.500,-21.973,-35.645,967.853
1686879739.959,-56.152,-382.324,-53.711,-128.906,967.857
1686879739.963,-74.219,-602.051,-3.906,-114.258,967.861
1686879739.967,-36.133,400.391,34.180,-29.785,967.865
1686879739.971,-27.344,535.645,-42.969,-28.320,967.868
1686879739.975,-62.500,225.098,-34.668,-112.793,967.872
1686879739.976,-88.867,153.320,-16.113,-136.230,967.875
1686879739.980,-56.152,215.332,-6.348,-55.664,967.879
1686879739.984,-31.738,295.410,-27.344,-21.484,967.883
1686879739.988,-51.758,-18.066,-38.574,-91.797,967.887
1686879739.992,-77.148,-215.332,-15.137,-134.766,967.891
1686879739.996,-61.035,-100.586,-22.949,-63.965,967.895
1686879739.999,-22.949,56.641,-28.809,-5.859,967.898
1686879740.003,-35.156,-632.812,-82.520,-48.828,967.902
1686879740.007,-76.172,-701.660,-6.348,-117.188,967.906
1686879740.011,-64.941,349.609,28.320,-91.309,967.910
1686879740.015,-17.578,312.500,-42.480,-13.184,967.914
1686879740.019,-31.250,143.555,-26.855,-47.852,967.918
1686879740.022,-77.637,364.258,-13.672,-140.625,967.920
1686879740.026,-68.848,410.156,-39.551,-122.559,967.923
1686879740.030,-27.344,186.035,-23.926,-16.113,967.927
1686879740.034,-21.484,-12.695,-10.254,1.953,967.931
1686879740.038,-52.246,28.809,-47.852,-82.031,967.935
1686879740.042,-71.289,-2.441,-41.504,-115.723,967.939
1686879740.045,-47.852,-462.891,-58.105,-26.855,967.943
1686879740.049,-26.367,-821.777,-7.324,22.461,967.947
1686879740.053,-41.992,6.348,42.969,-62.500,967.951
1686879740.057,-66.895,393.066,-38.086,-112.793,967.955
1686879740.061,-54.199,88.379,-26.855,-51.758,967.959
1686879740.065,-20.020,260.742,11.230,7.812,967.963
1686879740.080,-32.715,447.266,-19.531,-52.734,967.977
1686879740.084,-62.500,185.547,-41.992,-125.977,967.981
1686879740.088,-63.965,-41.504,-16.113,-82.031,967.985
1686879740.092,-31.250,242.676,-3.906,2.441,967.989
1686879740.096,-22.461,141.113,-48.828,-14.648,967.993
1686879740.100,-62.012,-265.625,-49.805,-97.168,967.996
1686879740.103,-82.031,-799.805,-63.477,-84.961,968.000
1686879740.107,-48.828,-755.859,14.648,-9.277,968.004
1686879740.111,-24.414,280.273,62.012,-1.953,968.008
1686879740.115,-59.082,174.316,-60.547,-77.637,968.012
1686879740.119,-86.914,-364.746,-48.828,-107.422,968.016
1686879740.123,-46.875,164.062,30.762,-23.926,968.020
1686879740.112,-16.113,493.164,-18.066,22.461,968.021
1686879740.116,-49.805,111.328,-31.250,-47.363,968.025
1686879740.120,-78.613,-85.449,-12.695,-105.469,968.029
1686879740.124,-54.688,162.109,-25.391,-51.270,968.033
1686879740.128,-22.461,269.531,-46.387,20.020,968.037
1686879740.132,-27.832,-93.750,-60.059,-14.648,968.041
1686879740.135,-58.105,-228.516,-15.137,-97.168,968.045
1686879740.139,-53.711,136.719,-4.883,-75.195,968.049
1686879740.143,-19.531,213.867,-30.273,9.766,968.053
1686879740.147,-29.297,-468.750,-68.359,4.883,968.056
1686879740.151,-71.777,-806.641,-5.371,-80.566,968.060
1686879740.155,-81.543,8.789,39.062,-93.750,968.064
1686879740.171,-46.875,213.867,-41.504,-4.395,968.067
1686879740.175,-24.414,-19.531,-35.645,16.602,968.071
1686879740.179,-43.457,102.051,-17.578,-65.918,968.075
1686879740.183,-67.871,176.758,-33.203,-110.352,968.079
1686879740.187,-48.828,-30.762,-54.688,-32.227,968.083
1686879740.191,-19.531,-589.844,-33.203,26.367,968.087
1686879740.194,-32.715,-614.746,11.719,-45.410,968.091
1686879740.198,-56.152,47.852,-12.695,-119.141,968.094
1686879740.202,-47.852,25.391,-75.684,-62.500,968.098
1686879740.206,-18.066,-377.930,-31.250,26.855,968.102
1686879740.210,-19.043,-12.207,12.695,-12.695,968.106
1686879740.214,-57.129,55.664,-41.504,-107.422,968.110
1686879740.216,-49.805,-412.109,-56.641,-85.938,968.114
1686879740.220,-6.836,-363.281,-25.391,10.254,968.118
1686879740.224,5.859,229.004,11.230,4.395,968.122
1686879740.228,-30.762,270.508,-40.527,-78.613,968.126
1686879740.232,-46.875,-93.750,-38.086,-93.750,968.130
1686879740.236,-10.254,-286.621,-18.555,-14.648,968.133
1686879740.239,0.977,-111.816,-1.465,13.672,968.137
1686879740.243,-23.926,212.891,-21.484,-60.059,968.141
1686879740.247,-48.340,-439.941,-73.242,-96.191,968.145
1686879740.251,-37.598,-686.523,20.508,-28.809,968.149
1686879740.255,-11.719,180.176,3.418,33.691,968.153
1686879740.259,-24.414,-0.488,-74.707,-30.762,968.157
1686879740.261,-52.734,-226.074,-25.879,-106.445,968.161
1686879740.265,-48.340,-160.645,-41.504,-54.688,968.165
1686879740.269,-18.066,-40.039,-22.461,17.090,968.169
1686879740.273,-17.090,128.418,-34.180,-15.137,968.173
1686879740.277,-52.734,-475.586,-42.969,-95.703,968.177
1686879740.281,-63.477,-698.730,4.395,-89.355,968.181
1686879740.284,-23.926,-288.086,-13.184,-9.766,968.185
1686879740.288,-11.719,-96.680,-52.734,0.000,968.189
1686879740.292,-44.434,-721.680,-79.590,-66.895,968.193
1686879740.296,-60.059,-616.699,20.508,-92.285,968.197
1686879740.300,-21.484,314.453,10.254,-23.926,968.200
1686879740.304,1.953,121.582,-69.336,21.973,968.204
1686879740.307,-26.855,-51.270,-54.688,-52.246,968.205
1686879740.311,-47.852,165.527,-32.227,-105.957,968.209
1686879740.315,-32.227,233.398,-41.992,-39.551,968.212
1686879740.319,1.465,11.230,-28.809,28.320,968.216
1686879740.323,-3.906,-273.926,-17.090,-24.902,968.220
1686879740.327,-44.922,-369.629,-47.852,-104.980,968.224
1686879740.330,-48.828,-272.949,-35.645,-68.848,968.228
1686879740.334,-10.254,-531.738,-63.477,12.695,968.232
1686879740.338,-16.602,-859.375,-15.625,-7.812,968.236
1686879740.342,-51.758,-122.070,28.809,-101.074,968.240
1686879740.346,-52.246,168.945,-52.246,-100.586,968.244
1686879740.350,-18.555,4.395,-19.531,-2.930,968.248
1686879740.365,-3.418,168.945,-1.465,20.020,968.262
1686879740.369,-36.621,211.426,-41.504,-62.988,968.266
1686879740.373,-64.941,-35.156,-52.734,-105.469,968.270
1686879740.377,-26.855,-162.598,-31.738,-17.090,968.274
1686879740.381,1.465,-160.645,-26.367,32.227,968.278
1686879740.385,-22.949,-328.125,-39.551,-52.734,968.281
1686879740.388,-48.828,-422.363,-38.086,-107.910,968.285
1686879740.392,-37.598,-832.031,-71.289,-37.598,968.289
1686879740.396,-3.418,-907.715,17.090,41.016,968.293
1686879740.400,-5.371,7.812,55.664,-16.602,968.297
1686879740.404,-49.805,70.801,-50.293,-100.098,968.301
1686879740.408,-57.129,-195.801,-32.227,-72.754,968.305
1686879740.397,-16.113,213.867,0.000,5.859,968.294
1686879740.401,-8.301,342.285,-40.039,-1.953,968.298
1686879740.405,-43.945,-104.004,-38.086,-90.332,968.302
1686879740.409,-50.781,-279.297,8.301,-108.887,968.306
1686879740.413,-17.090,82.031,-8.301,-19.043,968.309
1686879740.417,-0.488,-94.727,-52.734,18.066,968.313
1686879740.420,-30.273,-445.312,-39.062,-60.547,968.317
1686879740.424,-48.828,-246.094,8.301,-101.562,968.321
1686879740.428,-17.090,62.500,-8.301,-29.297,968.325
1686879740.432,-0.977,23.926,-38.574,23.438,968.329
1686879740.436,-22.949,-603.027,-64.941,-32.227,968.333
1686879740.440,-53.223,-841.309,-11.719,-97.168,968.337
1686879740.474,-46.387,-39.062,30.762,-47.363,968.371
1686879740.478,-8.789,154.785,-32.227,35.645,968.374
1686879740.482,-14.160,-126.465,-35.156,-9.766,968.378
1686879740.486,-49.316,-47.852,-32.715,-100.098,968.382
1686879740.490,-48.340,-179.199,-41.504,-77.637,968.386
1686879740.494,-11.719,-270.996,-27.344,21.484,968.390
1686879740.497,-9.277,-738.281,-64.941,27.832,968.394
1686879740.501,-46.387,-755.859,5.371,-57.617,968.398
1686879740.505,-47.363,99.609,36.621,-78.125,968.402
1686879740.509,-22.949,37.109,-43.945,-20.020,968.406
1686879740.513,-15.625,-52.734,-33.203,3.906,968.410
1686879740.517,-28.809,158.691,-41.992,-51.758,968.414
1686879740.488,-45.410,-59.082,-58.105,-89.844,968.395
1686879740.492,-32.715,-446.777,-53.223,-20.020,968.399
1686879740.496,1.953,-391.113,-27.344,39.551,968.403
1686879740.500,-9.766,182.129,-7.812,-23.926,968.407
1686879740.504,-42.480,118.164,-63.477,-104.004,968.411
1686879740.508,-28.809,-523.926,-33.203,-59.082,968.415
1686879740.511,6.836,-494.629,43.945,24.902,968.419
1686879740.515,5.859,138.184,5.859,-3.906,968.423
1686879740.519,-35.156,123.047,-56.152,-85.449,968.427
1686879740.523,-37.598,-386.719,-33.691,-69.824,968.430
1686879740.527,0.488,-250.977,18.066,9.766,968.434
1686879740.531,16.602,198.242,-11.230,12.695,968.438
1686879740.546,-17.578,138.672,-52.734,-70.312,968.442
1686879740.550,-47.852,-562.500,-69.824,-93.262,968.446
1686879740.554,-18.555,-841.797,9.277,-9.766,968.450
1686879740.558,10.254,-138.672,6.348,32.227,968.454
1686879740.562,-18.066,-53.711,-61.035,-47.363,968.458
1686879740.566,-54.199,-760.742,-63.965,-107.910,968.462
1686879740.569,-34.668,-884.766,26.855,-43.945,968.465
1686879740.573,2.441,65.430,62.500,27.344,968.469
1686879740.577,-13.672,195.801,-46.875,-15.625,968.473
1686879740.581,-50.293,-188.477,-65.918,-96.680,968.477
1686879740.585,-35.645,106.445,-12.695,-74.707,968.481
1686879740.589,9.766,340.820,-25.391,13.184,968.485
1686879740.592,-2.930,64.941,-45.898,-5.859,968.489
1686879740.596,-48.340,-134.277,-25.391,-96.191,968.493
1686879740.600,-50.293,103.516,-4.395,-86.914,968.497
1686879740.604,-14.648,258.301,-26.855,-2.930,968.501
1686879740.608,0.488,-43.457,-41.016,13.184,968.505
1686879740.612,-27.832,-401.855,-31.738,-69.824,968.509
1686879740.615,-41.504,-418.945,-41.016,-92.285,968.513
1686879740.619,-17.090,-249.512,-24.902,-6.836,968.516
1686879740.623,2.930,-516.113,-52.246,29.785,968.520
1686879740.627,-11.719,-864.746,-10.254,-39.062,968.524
1686879740.631,-39.551,-121.582,31.738,-101.074,968.528
1686879740.635,-34.668,173.828,-40.039,-56.641,968.532
1686879740.636,0.977,8.301,-33.691,8.301,968.532
1686879740.640,-11.230,119.141,-20.996,-33.691,968.536
1686879740.644,-48.828,166.992,-35.156,-109.375,968.540
1686879740.648,-46.387,24.902,-48.340,-76.660,968.544
1686879740.652,-20.508,-234.375,-21.973,13.672,968.548
1686879740.656,-18.066,-304.199,-11.719,5.859,968.552
1686879740.659,-54.199,-223.633,-26.367,-83.496,968.555
1686879740.663,-65.430,-138.184,-41.016,-90.820,968.559
1686879740.667,-24.414,-747.070,-83.984,6.348,968.563
1686879740.671,-7.812,-873.535,29.785,23.926,968.567
1686879740.675,-38.574,-24.414,31.738,-64.453,968.571
1686879740.679,-57.617,-127.441,-70.312,-96.191,968.575
1686879740.682,-43.457,-150.879,-26.855,-26.367,968.579
1686879740.686,-11.230,387.207,-5.859,20.020,968.583
1686879740.690,-27.344,454.102,-56.152,-36.621,968.587
1686879740.694,-68.848,36.133,-41.016,-103.027,968.591
1686879740.698,-48.828,-120.605,-10.254,-48.828,968.595
1686879740.702,-1.953,-75.684,-48.340,37.109,968.599
1686879740.705,-9.766,-40.039,-37.598,-4.395,968.603
1686879740.709,-52.734,-506.348,-77.637,-92.773,968.607
1686879740.713,-51.758,-671.387,-25.879,-81.543,968.610
1686879740.717,-14.648,175.293,16.113,12.695,968.614
1686879740.721,-10.254,150.391,-59.082,18.555,968.618
1686879740.725,-48.828,-403.809,-38.086,-81.543,968.622
1686879740.740,-67.871,-231.934,11.719,-105.957,968.637
1686879740.744,-22.949,322.266,-6.348,-7.812,968.641
1686879740.748,3.418,264.160,-36.621,38.086,968.645
1686879740.752,-27.344,-132.812,-25.391,-47.852,968.649
1686879740.756,-55.664,-278.320,-23.438,-98.145,968.652
1686879740.760,-27.344,-232.422,-25.391,-24.902,968.656
1686879740.763,8.789,-48.828,-21.973,41.016,968.660
1686879740.767,-18.066,-634.277,-69.336,-1.465,968.664
1686879740.771,-47.363,-710.449,-1.953,-78.613,968.668
1686879740.775,-35.645,290.039,21.484,-46.875,968.672
1686879740.779,-14.648,237.793,-53.711,39.551,968.676
1686879740.783,-29.785,102.539,-41.016,11.230,968.680
1686879740.773,-63.477,275.879,-29.785,-78.125,968.672
1686879740.777,-67.383,82.520,-55.664,-69.336,968.676
1686879740.781,-36.621,-283.691,-58.105,21.484,968.680
1686879740.785,-26.855,-180.664,-15.137,23.926,968.684
1686879740.789,-48.340,252.441,-26.367,-69.824,968.688
1686879740.793,-64.941,-7.324,-75.684,-84.473,968.692
1686879740.796,-38.574,-511.719,-51.758,1.465,968.695
1686879740.800,-13.184,-331.543,8.301,40.039,968.699
1686879740.804,-19.531,334.961,-7.812,-28.809,968.703
1686879740.808,-49.805,364.746,-66.406,-88.379,968.707
1686879740.812,-53.711,-446.289,-77.148,-23.926,968.711
1686879740.816,-9.277,-590.332,1.953,56.152,968.715
1686879740.815,-15.625,334.473,9.766,-8.301,968.726
1686879740.819,-53.711,251.953,-60.547,-99.121,968.729
1686879740.823,-39.551,-19.531,-33.691,-68.848,968.733
1686879740.827,3.906,93.750,-0.488,18.066,968.737
1686879740.831,-0.977,22.949,-30.762,15.137,968.741
1686879740.835,-36.133,-112.305,-42.480,-65.918,968.745
1686879740.838,-41.016,-672.852,-62.012,-67.871,968.749
1686879740.842,-14.160,-954.590,29.785,15.137,968.753
1686879740.846,0.488,71.289,66.406,28.320,968.757
1686879740.850,-25.391,337.402,-57.617,-54.199,968.761
1686879740.854,-51.270,72.754,-49.805,-94.727,968.765
1686879740.858,-32.227,437.500,0.977,-19.043,968.768
1686879740.876,-1.953,577.637,-23.438,34.668,968.776
1686879740.880,-19.043,219.727,-47.852,-26.855,968.779
1686879740.884,-36.133,39.062,-24.414,-82.520,968.783
1686879740.888,-23.926,308.105,-11.719,-39.062,968.787
1686879740.892,-10.742,455.078,-32.227,9.277,968.791
1686879740.896,-36.621,-249.023,-62.988,-34.180,968.795
1686879740.899,-89.844,-792.969,-16.113,-117.188,968.799
1686879740.903,-92.285,-188.965,37.109,-98.633,968.803
1686879740.907,-56.641,354.004,6.348,-8.301,968.807
1686879740.911,-58.105,-157.715,-42.480,-15.137,968.811
1686879740.915,-90.332,-437.500,12.695,-106.445,968.815
1686879740.919,-100.098,289.062,26.855,-131.348,968.819
1686879740.921,-52.734,371.094,-25.879,-36.621,968.817
1686879740.925,-18.555,224.121,-32.227,4.883,968.821
1686879740.929,-45.898,263.184,-17.090,-81.543,968.825
1686879740.933,-67.383,316.895,-18.066,-127.930,968.828
1686879740.937,-41.016,162.598,-32.227,-44.922,968.832
1686879740.941,-19.043,-393.066,-17.090,27.344,968.836
1686879740.944,-34.668,-436.523,15.625,-36.133,968.840
1686879740.948,-68.359,124.512,18.555,-111.328,968.844
1686879740.952,-63.477,156.738,-46.387,-61.035,968.848
1686879740.956,-24.414,-713.379,-53.223,21.973,968.852
1686879740.960,-26.855,-495.117,45.410,-9.766,968.856
1686879740.964,-53.223,400.879,-0.488,-93.262,968.860
1686879740.967,-54.688,87.891,-45.410,-79.102,968.865
1686879740.971,-32.227,52.246,1.953,4.883,968.869
1686879740.975,-24.414,457.520,-1.953,0.977,968.872
1686879740.979,-52.734,422.852,-48.340,-86.914,968.876
1686879740.983,-71.289,27.832,-43.945,-100.586,968.880
1686879740.987,-46.387,-276.855,-30.762,-5.859,968.884
1686879740.990,-19.043,20.508,-8.789,31.250,968.888
1686879740.994,-36.621,444.336,-21.973,-53.711,968.892
1686879740.998,-66.406,-310.059,-73.730,-104.492,968.896
1686879741.002,-47.363,-644.531,7.812,-39.551,968.900
1686879741.006,-10.742,327.148,25.391,17.578,968.904
1686879741.010,-21.484,247.070,-53.223,-30.762,968.908
1686879741.011,-56.152,-306.641,-20.020,-97.168,968.907
1686879741.015,-42.969,-55.176,24.414,-52.734,968.911
1686879741.019,0.977,476.562,0.977,30.273,968.915
1686879741.023,-1.953,323.242,-36.621,-2.930,968.919
1686879741.027,-30.273,-114.258,-30.273,-88.379,968.923
1686879741.031,-44.434,-206.543,-13.672,-78.125,968.926
1686879741.034,-25.879,-77.637,-1.465,17.578,968.930
1686879741.038,-5.371,101.074,-26.855,31.250,968.934
1686879741.042,-39.551,-610.352,-79.590,-57.129,968.938
1686879741.046,-59.082,-677.246,16.113,-87.891,968.942
1686879741.050,-22.461,433.105,37.109,-8.301,968.946
1686879741.054,0.000,377.441,-36.133,39.062,968.950
1686879741.058,-28.809,178.711,-31.738,-38.574,968.958
1686879741.062,-49.805,304.199,-31.250,-100.098,968.962
1686879741.066,-31.738,161.133,-43.945,-34.180,968.965
1686879741.070,-2.441,-180.176,-41.504,37.598,968.969
1686879741.074,-15.625,-203.125,-8.789,-14.160,968.973
1686879741.078,-58.105,-29.297,-23.438,-99.609,968.977
1686879741.081,-58.105,19.531,-29.297,-75.684,968.981
1686879741.085,-19.043,-297.363,-60.547,17.090,968.985
1686879741.089,-12.207,-463.379,-23.438,4.883,968.989
1686879741.093,-53.711,352.051,17.090,-93.750,968.993
1686879741.097,-69.824,376.953,-49.316,-94.238,968.997
1686879741.101,-31.250,143.066,-20.020,-3.906,969.001
1686879741.101,-11.719,356.445,1.465,16.113,968.997
1686879741.105,-37.109,487.305,-35.645,-62.012,969.001
1686879741.109,-53.223,277.832,-38.086,-91.309,969.005
1686879741.113,-27.344,88.867,-10.742,-14.648,969.009
1686879741.117,-4.883,97.168,-19.043,38.086,969.012
1686879741.121,-26.367,-47.852,-30.762,-26.367,969.016
1686879741.124,-56.152,-136.719,-29.297,-90.820,969.020
1686879741.128,-48.340,-701.172,-68.359,-32.227,969.024
1686879741.132,-13.672,-924.316,29.785,45.410,969.028
1686879741.136,-20.020,130.371,64.941,-5.859,969.032
1686879741.140,-59.082,300.293,-55.176,-93.262,969.036
1686879741.144,-54.199,44.922,-32.227,-62.012,969.040
1686879741.147,-7.324,448.242,13.672,30.762,969.044
1686879741.151,3.906,523.926,-14.648,24.414,969.048
1686879741.155,-41.016,126.465,-20.020,-64.941,969.052
1686879741.159,-60.547,54.199,13.184,-87.891,969.056
1686879741.163,-24.414,358.398,-4.395,-4.883,969.060
1686879741.167,-10.742,271.484,-32.715,23.926,969.064
1686879741.170,-45.410,-412.109,-73.242,-58.105,969.068
1686879741.174,-71.777,-774.902,-12.695,-102.051,969.072
1686879741.178,-41.016,105.957,64.453,-35.645,969.075
1686879741.182,-4.395,538.574,-22.949,24.902,969.079
1686879741.186,-16.113,176.270,-37.598,-31.738,969.083
1686879741.190,-51.758,71.289,-3.906,-96.191,969.087
1686879741.191,-45.898,328.613,-9.277,-44.434,969.100
1686879741.195,-20.996,349.609,-43.945,42.480,969.104
1686879741.199,-32.227,156.738,-45.898,4.395,969.108
1686879741.203,-57.129,140.137,-27.344,-80.566,969.112
1686879741.207,-51.758,-22.949,-45.898,-56.152,969.116
1686879741.211,-22.949,-87.402,-45.898,22.949,969.119
1686879741.214,-17.578,-625.977,-61.035,27.832,969.123
1686879741.218,-55.664,-741.211,5.859,-64.453,969.127
1686879741.222,-71.777,222.168,26.367,-87.402,969.131
1686879741.226,-30.273,146.973,-62.988,2.441,969.135
1686879741.230,-6.348,-64.941,-54.688,29.297,969.139
1686879741.234,-25.391,270.020,-29.297,-49.316,969.143
1686879741.251,-58.105,395.020,-45.410,-96.680,969.147
1686879741.255,-40.527,-48.828,-70.312,-27.832,969.151
1686879741.259,-2.930,-208.496,-31.250,41.504,969.155
1686879741.263,-18.066,333.496,-2.930,-20.508,969.159
1686879741.267,-52.246,365.234,-57.129,-93.262,969.162
1686879741.271,-44.434,-396.484,-83.984,-41.504,969.166
1686879741.274,-11.230,-679.199,-8.301,38.574,969.170
1686879741.278,-15.625,194.336,30.273,0.000,969.174
1686879741.282,-48.828,352.539,-45.410,-79.590,969.178
1686879741.286,-54.688,-59.570,-34.668,-61.523,969.182
1686879741.290,-25.879,48.340,3.906,9.766,969.186
1686879741.294,-8.301,363.281,-29.297,27.344,969.190
1686879741.296,-32.715,53.711,-59.082,-46.875,969.192
1686879741.300,-58.105,-444.336,-28.809,-91.797,969.196
1686879741.304,-36.133,-165.039,16.602,-15.137,969.200
1686879741.308,-3.906,352.539,-17.090,23.438,969.204
1686879741.312,-19.531,52.246,-53.223,-42.969,969.207
1686879741.316,-45.898,-621.582,-20.020,-78.125,969.211
1686879741.319,-29.297,-604.980,24.414,-17.578,969.215
1686879741.323,3.906,56.152,20.508,39.551,969.219
1686879741.327,-4.883,158.691,-52.246,-6.348,969.223
1686879741.331,-43.945,-586.426,-41.504,-75.684,969.227
1686879741.335,-44.922,-333.984,47.852,-41.992,969.231
1686879741.339,-4.395,392.090,-4.883,44.434,969.235
1686879741.341,-2.441,125.000,-52.246,28.809,969.238
1686879741.345,-43.945,-90.820,-39.062,-60.547,969.242
1686879741.349,-54.688,-40.527,-39.062,-65.430,969.246
1686879741.353,-16.113,47.852,-18.066,27.344,969.250
1686879741.357,-1.465,-127.441,-33.691,46.387,969.254
1686879741.361,-39.062,-580.078,-41.992,-39.062,969.258
1686879741.364,-66.406,-274.414,-4.395,-67.383,969.261
1686879741.368,-37.598,209.473,-15.625,-1.465,969.265
1686879741.372,-3.906,-322.754,-57.129,47.363,969.269
1686879741.376,-33.203,-690.918,-21.973,-23.926,969.273
1686879741.380,-64.453,103.516,-0.488,-90.332,969.277
1686879741.384,-48.340,134.766,-45.410,-34.668,969.281
1686879741.386,-12.695,-84.961,-24.414,35.645,969.296
1686879741.390,-13.184,91.309,-3.906,5.859,969.300
1686879741.394,-50.781,202.637,-18.555,-64.941,969.304
1686879741.398,-43.945,64.941,-49.316,-28.809,969.308
1686879741.402,-5.371,-288.574,-44.434,59.082,969.312
1686879741.406,-1.953,-354.492,-16.113,45.410,969.315
1686879741.409,-35.156,-302.246,-42.969,-42.969,969.319
1686879741.413,-59.082,-344.238,-52.734,-62.012,969.323
1686879741.417,-36.133,-801.270,-67.871,25.879,969.327
1686879741.421,-11.230,-792.480,0.488,49.316,969.331
1686879741.425,-32.715,82.031,27.344,-31.250,969.335
1686879741.429,-57.129,-13.184,-59.570,-65.430,969.339
1686879741.461,-30.762,-154.297,-42.480,4.883,969.357
1686879741.465,-3.418,265.625,-16.602,52.734,969.361
1686879741.469,-12.207,281.738,-49.316,-5.859,969.365
1686879741.473,-48.340,-99.609,-34.668,-76.172,969.369
1686879741.477,-49.316,-136.719,-6.348,-39.062,969.373
1686879741.481,-0.488,-28.809,-30.273,52.734,969.377
1686879741.484,-3.418,-83.496,-34.668,22.949,969.380
1686879741.488,-48.340,-553.711,-75.684,-64.453,969.384
1686879741.492,-56.152,-761.230,-15.625,-53.711,969.388
1686879741.496,-9.766,62.012,48.340,20.996,969.392
1686879741.500,3.906,419.922,-30.273,26.855,969.396
1686879741.504,-34.668,-394.531,-74.707,-53.223,969.400
1686879741.475,-53.223,-690.918,0.000,-83.008,969.372
1686879741.479,-30.273,207.520,21.484,-9.277,969.376
1686879741.483,-15.625,310.059,-44.922,37.598,969.379
1686879741.487,-37.598,7.324,-39.551,-31.250,969.383
1686879741.491,-62.012,-199.707,-37.109,-93.750,969.387
1686879741.495,-34.180,-226.562,-40.039,-25.879,969.391
1686879741.498,-0.488,-189.941,-51.270,51.270,969.395
1686879741.502,-16.602,-270.508,-39.062,-7.324,969.399
1686879741.506,-48.340,-21.484,-0.488,-82.031,969.403
1686879741.510,-51.758,243.164,-18.066,-41.504,969.407
1686879741.514,-20.996,14.160,-72.266,43.457,969.411
1686879741.518,-28.320,-636.719,-45.898,17.090,969.415
1686879741.522,-61.035,-318.359,33.691,-74.707,969.419
1686879741.526,-53.711,305.176,-0.488,-68.848,969.423
1686879741.530,-16.113,-80.078,-70.801,21.973,969.427
1686879741.534,-16.602,-807.617,-37.109,32.715,969.431
1686879741.538,-53.223,-312.500,29.785,-57.617,969.435
1686879741.542,-55.176,40.527,-46.387,-85.449,969.439
1686879741.545,-24.414,-588.379,-79.590,-7.324,969.443
1686879741.549,-4.883,-641.113,-22.461,41.992,969.446
1686879741.553,-13.672,158.203,18.555,-28.809,969.450
1686879741.557,-40.039,233.887,-49.805,-85.449,969.454
1686879741.561,-41.016,-17.090,-26.367,-29.785,969.458
1686879741.565,-15.137,172.363,17.090,34.668,969.462
1686879741.566,-17.578,286.133,-29.297,-5.859,969.465
1686879741.570,-55.176,-92.773,-60.547,-86.426,969.469
1686879741.574,-56.152,-409.668,1.465,-55.176,969.473
1686879741.578,-6.348,-41.504,16.602,39.062,969.477
1686879741.582,2.930,71.777,-46.875,26.367,969.481
1686879741.586,-34.180,-246.094,-53.223,-70.801,969.485
1686879741.589,-44.922,-781.738,-52.246,-67.383,969.488
1686879741.593,-8.301,-699.707,20.996,24.414,969.492
1686879741.597,6.836,302.246,28.809,44.922,969.496
1686879741.601,-25.879,173.340,-76.172,-39.062,969.500
1686879741.605,-58.594,-155.273,-64.941,-93.750,969.504
1686879741.609,-39.062,193.359,-13.672,-24.414,969.508
1686879741.612,-8.789,414.551,-29.785,27.832,969.521
1686879741.616,-29.785,103.027,-46.875,-41.992,969.525
1686879741.620,-52.734,-109.863,-31.738,-98.633,969.529
1686879741.624,-35.156,-3.906,-36.621,-41.504,969.533
1686879741.628,0.488,-30.273,-30.762,37.109,969.537
1686879741.632,-8.301,-463.379,-53.711,0.488,969.540
1686879741.635,-49.805,-929.199,-13.672,-84.961,969.544
1686879741.639,-38.086,-247.070,44.922,-67.383,969.548
1686879741.643,-1.953,273.926,-27.344,20.020,969.552
1686879741.647,-4.883,76.172,-25.879,10.742,969.556
1686879741.651,-32.227,39.551,-18.066,-73.242,969.560
1686879741.655,-42.969,205.078,-29.785,-72.754,969.564
1686879741.671,-9.766,127.930,-41.992,13.672,969.567
1686879741.675,12.207,-57.617,-42.969,41.992,969.571
1686879741.679,-23.926,20.020,-19.043,-44.922,969.575
1686879741.683,-56.152,80.078,-42.480,-95.215,969.579
1686879741.687,-26.855,-123.047,-64.453,-18.555,969.582
1686879741.691,-1.953,-655.273,-42.480,42.969,969.586
1686879741.694,-29.785,-757.812,12.207,-23.926,969.590
1686879741.698,-56.152,-237.305,21.973,-96.191,969.594
1686879741.702,-46.875,-53.223,-40.527,-52.246,969.598
1686879741.706,-15.625,-536.621,-43.457,22.461,969.602
1686879741.710,-17.090,-290.039,22.949,-15.625,969.606
1686879741.714,-51.758,260.254,-27.344,-95.215,969.610
1686879741.717,-51.270,-32.715,-60.547,-62.500,969.613
1686879741.721,-3.418,-69.336,-18.555,41.016,969.617
1686879741.725,-4.395,308.105,-9.766,29.785,969.621
1686879741.729,-57.617,268.066,-62.988,-76.660,969.625
1686879741.733,-75.684,-180.176,-53.223,-106.445,969.629
1686879741.737,-41.504,-441.895,-17.578,-20.996,969.633
1686879741.740,-15.137,-248.535,-4.883,18.555,969.637
1686879741.744,-38.086,89.355,-25.391,-52.734,969.641
1686879741.748,-61.035,-431.641,-97.656,-86.914,969.644
1686879741.752,-43.945,-783.691,-21.484,-14.160,969.648
1686879741.756,-9.277,146.973,28.809,42.969,969.652
1686879741.760,-19.531,294.922,-68.848,-18.555,969.656
1686879741.761,-51.270,-206.543,-56.641,-91.797,969.657
1686879741.765,-38.574,-137.695,-2.441,-57.617,969.661
1686879741.769,-7.324,270.996,-20.508,16.113,969.665
1686879741.773,-15.137,210.449,-68.848,-6.348,969.669
1686879741.777,-54.199,-306.641,-65.918,-81.543,969.673
1686879741.781,-52.734,-516.113,-34.668,-68.848,969.676
1686879741.784,-4.883,-274.902,-7.324,11.230,969.680
1686879741.788,6.348,41.016,-30.273,16.113,969.684
1686879741.792,-31.738,-635.742,-91.797,-58.105,969.688
1686879741.796,-47.852,-740.723,3.906,-83.008,969.692
1686879741.800,-14.160,173.340,21.973,-15.137,969.696
1686879741.804,6.836,-13.184,-63.965,42.969,969.700
1686879741.807,-17.090,-237.305,-54.688,-29.297,969.704
1686879741.811,-45.410,106.934,-20.508,-98.145,969.708
1686879741.815,-25.879,244.629,-47.363,-32.227,969.712
1686879741.819,7.324,-85.938,-38.574,36.133,969.716
1686879741.823,-10.254,-226.074,-16.113,-17.090,969.720
1686879741.827,-42.969,-189.941,-51.758,-93.750,969.724
1686879741.830,-39.062,-232.910,-36.133,-61.523,969.728
1686879741.834,-13.184,-526.367,-60.059,22.949,969.732
1686879741.838,-11.230,-677.246,-20.020,16.602,969.735
1686879741.842,-32.715,59.082,16.113,-79.590,969.739
1686879741.846,-48.340,154.785,-53.223,-88.867,969.743
1686879741.850,-22.461,-41.504,-29.785,0.000,969.747
1686879741.855,0.000,120.605,-9.277,16.602,969.755
1686879741.859,-27.832,185.059,-52.246,-60.059,969.759
1686879741.863,-52.734,-152.344,-54.688,-92.773,969.763
1686879741.867,-25.879,-424.316,-15.625,-17.578,969.767
1686879741.871,4.883,-330.566,-21.484,31.250,969.771
1686879741.875,-23.438,-246.094,-44.434,-32.715,969.775
1686879741.878,-56.641,-292.969,-42.969,-97.168,969.779
1686879741.882,-45.410,-787.109,-75.195,-40.039,969.782
1686879741.886,-8.301,-680.176,-4.883,39.062,969.786
1686879741.890,-3.906,294.922,14.160,-8.301,969.790
1686879741.894,-40.039,116.211,-66.406,-88.379,969.794
1686879741.898,-39.551,-160.156,-35.156,-65.430,969.798
1686879741.897,3.418,252.930,-4.883,27.344,969.794
1686879741.901,7.324,399.902,-45.898,27.832,969.798
1686879741.905,-24.414,-30.762,-53.223,-65.430,969.802
1686879741.909,-37.598,-173.340,-9.766,-79.590,969.806
1686879741.913,-5.859,-0.977,-12.695,9.277,969.810
1686879741.917,14.648,-74.219,-20.020,29.297,969.814
1686879741.920,-15.625,-505.859,-51.758,-58.105,969.818
1686879741.924,-47.852,-930.176,3.906,-96.191,969.822
1686879741.928,-23.438,-197.754,50.293,-20.020,969.826
1686879741.932,-0.488,334.473,-33.691,34.668,969.829
1686879741.936,-26.367,49.805,-48.340,-28.809,969.833
1686879741.940,-62.988,-69.336,-21.973,-104.004,969.837
1686879741.955,-56.152,210.938,-9.766,-57.129,969.852
1686879741.959,-7.812,215.332,-35.156,29.297,969.856
1686879741.963,-9.277,-0.977,-36.621,-2.441,969.860
1686879741.967,-53.711,79.590,-20.020,-87.891,969.864
1686879741.971,-50.781,-26.367,-39.062,-75.195,969.868
1686879741.975,-15.625,-129.883,-40.039,13.672,969.872
1686879741.978,-12.207,-614.746,-56.152,24.902,969.875
1686879741.982,-41.504,-866.211,-5.859,-53.223,969.879
1686879741.986,-42.969,37.109,30.762,-68.359,969.883
1686879741.990,-8.789,160.645,-61.523,7.324,969.887
1686879741.994,4.395,-184.570,-61.035,23.926,969.891
1686879741.998,-24.902,130.859,5.371,-56.152,969.895
1686879742.001,-52.246,305.664,-27.344,-92.773,969.897
1686879742.005,-32.715,13.184,-56.152,-25.879,969.901
1686879742.009,-1.953,-19.043,-27.832,35.645,969.905
1686879742.013,-20.020,239.746,-26.367,-22.949,969.909
1686879742.017,-49.316,96.680,-69.824,-89.355,969.913
1686879742.021,-33.203,-492.188,-42.480,-24.902,969.917
1686879742.024,13.184,-483.887,28.320,54.688,969.921
1686879742.028,10.742,166.016,4.883,25.391,969.925
1686879742.032,-27.832,238.770,-34.668,-59.570,969.928
1686879742.036,-31.738,-496.094,-84.473,-49.805,969.932
1686879742.040,0.000,-866.211,10.742,41.992,969.936
1686879742.044,11.230,6.348,57.617,35.156,969.940
1686879742.046,-22.949,217.773,-47.363,-54.199,969.942
1686879742.050,-48.828,-158.691,-38.086,-78.613,969.946
1686879742.054,-23.438,-14.160,13.184,1.465,969.950
1686879742.058,5.371,302.246,-3.418,43.945,969.953
1686879742.062,-22.949,50.293,-50.781,-29.785,969.957
1686879742.066,-53.223,-619.141,-29.785,-87.402,969.961
1686879742.069,-29.785,-663.086,20.996,-25.391,969.965
1686879742.073,4.883,34.180,31.250,44.922,969.969
1686879742.077,-2.930,175.293,-49.316,1.465,969.973
1686879742.081,-42.480,-580.078,-44.434,-66.406,969.977
1686879742.085,-43.457,-351.074,59.570,-34.668,969.981
1686879742.089,5.859,329.102,15.137,45.898,969.985
1686879742.092,4.395,-133.301,-62.500,44.434,969.989
1686879742.096,-39.551,-536.133,-58.594,-46.387,969.993
1686879742.100,-47.852,-37.109,7.324,-62.012,969.997
1686879742.104,-10.742,266.602,-5.371,30.762,970.000
1686879742.108,0.977,-19.531,-25.391,47.852,970.004
1686879742.112,-34.668,-446.289,-33.691,-40.527,970.008
1686879742.115,-44.922,-326.660,-7.812,-80.566,970.012
1686879742.119,-5.371,184.570,2.930,0.488,970.016
1686879742.123,17.578,-293.945,-68.359,62.988,970.020
1686879742.127,-19.043,-727.539,-20.020,-4.883,970.024
1686879742.131,-46.875,38.086,30.273,-73.730,970.028
1686879742.135,-31.738,184.570,-23.926,-17.090,970.032
1686879742.136,3.418,-14.648,-12.695,58.594,970.032
1686879742.140,1.465,99.121,3.906,16.113,970.036
1686879742.144,-32.715,84.961,-43.945,-75.195,970.040
1686879742.148,-40.039,-223.633,-51.758,-61.035,970.044
1686879742.152,-6.348,-588.379,-4.883,36.133,970.048
1686879742.156,5.371,-524.414,18.066,39.062,970.052
1686879742.159,-21.973,-286.133,-9.766,-50.781,970.056
1686879742.163,-35.156,-251.953,-34.668,-67.383,970.059
1686879742.167,-7.324,-735.840,-45.410,29.785,970.063
1686879742.171,13.672,-574.707,32.227,59.082,970.067
1686879742.175,-14.160,363.281,14.648,-39.551,970.071
1686879742.179,-37.109,38.086,-55.176,-89.355,970.075
1686879742.197,-18.555,-151.367,-23.926,-18.555,970.094
1686879742.201,5.859,317.383,7.324,34.180,970.098
1686879742.205,-14.648,381.836,-42.969,-19.531,970.102
1686879742.209,-54.688,-44.922,-39.062,-83.984,970.105
1686879742.213,-46.875,-220.703,0.977,-34.180,970.109
1686879742.217,-5.859,-116.699,-31.250,62.012,970.113
1686879742.220,0.000,-115.234,-18.555,35.645,970.117
1686879742.224,-37.598,-518.066,-60.059,-66.406,970.121
1686879742.228,-48.828,-941.406,-15.625,-64.941,970.125
1686879742.232,-11.719,-161.621,83.008,21.484,970.129
1686879742.236,-2.930,331.055,-16.602,10.742,970.133
1686879742.240,-44.922,7.324,-45.410,-85.449,970.137
1686879742.226,-64.453,-34.180,-7.812,-94.727,970.122
1686879742.230,-27.344,212.402,-9.277,-3.906,970.126
1686879742.234,-0.977,171.387,-34.668,29.297,970.130
1686879742.238,-29.785,-61.523,-41.504,-62.500,970.133
1686879742.242,-60.059,-223.633,-29.785,-117.676,970.137
1686879742.246,-46.875,-296.875,-35.645,-57.617,970.141
1686879742.249,-18.555,-230.469,-45.410,4.883,970.145
1686879742.253,-24.902,-312.012,-33.691,-38.086,970.149
1686879742.257,-56.641,-263.184,-0.977,-115.234,970.153
1686879742.261,-52.246,51.270,9.277,-81.543,970.157
1686879742.265,-11.719,143.066,-43.457,12.207,970.161
1686879742.269,-14.648,-714.844,-97.656,4.395,970.165
1686879742.272,-47.363,-881.836,10.254,-83.008,970.169
1686879742.276,-46.387,25.879,52.734,-85.938,970.173
1686879742.280,-14.160,81.055,-20.508,7.324,970.177
1686879742.284,-2.930,76.660,10.742,25.879,970.181
1686879742.288,-34.180,212.402,-16.113,-58.105,970.185
1686879742.292,-57.129,-97.168,-48.828,-85.449,970.189
1686879742.295,-25.879,-562.500,-57.129,-7.324,970.193
1686879742.299,2.441,-615.234,-16.602,42.480,970.196
1686879742.303,-16.113,154.297,27.344,-38.086,970.200
1686879742.307,-41.016,245.605,-49.805,-114.258,970.204
1686879742.311,-33.691,-144.043,-49.805,-48.340,970.208
1686879742.315,1.465,-52.246,5.859,30.762,970.212
1686879742.316,-5.371,333.008,-4.883,-14.648,970.216
1686879742.320,-48.340,216.309,-57.129,-92.773,970.219
1686879742.324,-40.527,-347.168,-29.297,-51.758,970.223
1686879742.328,-0.488,-166.992,24.414,38.086,970.227
1686879742.332,-3.418,93.262,-37.109,13.672,970.231
1686879742.336,-41.504,-183.594,-71.289,-74.219,970.235
1686879742.339,-56.641,-742.188,-64.941,-75.195,970.239
1686879742.343,-26.855,-758.301,19.043,10.254,970.243
1686879742.347,1.465,193.359,37.109,25.879,970.247
1686879742.351,-31.250,168.457,-49.805,-50.293,970.251
1686879742.355,-60.059,-160.645,-52.246,-71.777,970.255
1686879742.359,-25.879,75.684,-19.043,-2.441,970.259
1686879742.364,5.371,389.160,-20.020,47.363,970.271
1686879742.368,-13.672,-70.801,-80.566,-11.719,970.275
1686879742.372,-48.340,-419.434,-53.223,-91.797,970.279
1686879742.376,-36.133,92.285,4.883,-37.109,970.283
1686879742.380,5.371,338.379,-26.367,52.246,970.287
1686879742.384,-4.395,-312.500,-95.703,20.996,970.291
1686879742.387,-50.781,-954.102,-22.949,-63.965,970.294
1686879742.391,-44.922,-201.660,55.176,-54.199,970.298
1686879742.395,-10.254,330.078,-23.926,25.391,970.302
1686879742.399,-5.859,84.961,-38.086,15.137,970.306
1686879742.403,-35.156,22.949,-17.578,-72.754,970.310
1686879742.407,-47.363,207.520,-17.090,-79.590,970.314
1686879742.421,-19.043,199.707,-44.434,6.348,970.317
1686879742.425,-4.883,43.945,-32.715,33.691,970.321
1686879742.429,-25.879,106.934,-24.414,-39.551,970.325
1686879742.433,-48.340,-20.020,-62.500,-80.078,970.329
1686879742.437,-24.902,-205.078,-46.387,-5.371,970.333
1686879742.441,9.766,-644.531,-57.617,69.336,970.337
1686879742.444,-7.812,-847.168,-18.066,12.695,970.341
1686879742.448,-42.480,-113.770,20.020,-85.938,970.344
1686879742.452,-28.809,56.152,-53.711,-52.734,970.348
1686879742.456,6.836,-333.984,-17.578,34.668,970.352
1686879742.460,0.000,-18.066,31.738,3.906,970.356
1686879742.464,-32.715,352.539,-26.855,-80.566,970.360
1686879742.466,-36.621,-30.273,-47.363,-61.035,970.364
1686879742.470,-5.371,-118.164,-24.414,26.367,970.367
1686879742.474,-5.371,288.086,-4.883,23.438,970.371
1686879742.478,-45.898,319.824,-40.039,-76.660,970.375
1686879742.482,-70.801,-66.895,-45.410,-103.027,970.379
1686879742.486,-39.551,-350.098,-11.230,-13.672,970.383
1686879742.489,-15.137,-196.777,-7.812,10.254,970.387
1686879742.493,-43.945,-100.098,-30.762,-72.754,970.391
1686879742.497,-74.707,-564.453,-79.102,-111.328,970.395
1686879742.501,-55.176,-864.746,-10.742,-41.504,970.399
1686879742.505,-26.855,-56.641,41.992,9.766,970.403
1686879742.509,-39.551,275.879,-41.504,-50.781,970.407
1686879742.511,-60.547,-33.203,-42.480,-119.629,970.407
1686879742.515,-42.969,27.344,-2.930,-74.707,970.411
1686879742.519,-2.441,321.777,-12.207,15.625,970.415
1686879742.523,-5.371,250.977,-49.316,-3.418,970.419
1686879742.527,-46.875,-271.973,-53.223,-90.332,970.423
1686879742.531,-54.199,-430.664,-20.020,-82.031,970.427
1686879742.534,-13.184,-104.004,4.395,17.578,970.430
1686879742.538,1.465,179.688,-34.180,29.785,970.434
1686879742.542,-39.062,-590.820,-98.145,-59.082,970.438
1686879742.546,-65.918,-777.832,-4.395,-100.586,970.442
1686879742.550,-24.902,241.699,33.691,-24.902,970.446
1686879742.554,6.836,151.367,-65.430,30.762,970.450
1686879742.557,-17.090,-285.645,-73.730,-35.156,970.454
1686879742.561,-43.457,57.617,-7.324,-91.797,970.458
1686879742.565,-25.879,317.383,-32.715,-21.484,970.462
1686879742.569,5.859,103.516,-29.297,52.734,970.466
1686879742.573,-1.465,28.320,-14.648,-0.977,970.470
1686879742.577,-30.762,-89.355,-51.758,-75.195,970.474
1686879742.580,-29.785,-258.789,-34.668,-46.875,970.478
1686879742.584,-1.953,-543.945,-54.199,37.598,970.482
1686879742.588,-1.465,-639.648,-20.020,23.926,970.485
1686879742.592,-34.668,55.664,6.348,-70.801,970.489
1686879742.596,-53.711,143.066,-56.641,-69.824,970.493
1686879742.600,-21.973,-178.711,-43.945,19.531,970.497
1686879742.600,2.930,-79.102,-9.277,31.738,970.497
1686879742.604,-22.461,223.145,-31.738,-55.664,970.501
1686879742.608,-47.363,79.590,-62.500,-82.520,970.505
1686879742.612,-22.461,-345.215,-30.273,-1.465,970.509
1686879742.616,0.977,-376.465,-8.301,37.598,970.513
1686879742.620,-36.133,-220.215,-40.039,-41.992,970.517
1686879742.623,-75.195,-269.043,-39.062,-112.305,970.521
1686879742.627,-58.594,-772.949,-56.152,-49.316,970.525
1686879742.631,-17.578,-725.586,0.000,25.391,970.528
1686879742.635,-4.395,225.586,10.254,-27.832,970.532
1686879742.639,-42.969,88.379,-64.453,-109.375,970.536
1686879742.643,-51.270,-152.832,-20.508,-79.102,970.540
1686879742.648,-5.859,229.004,5.371,17.090,970.555
1686879742.652,3.906,354.004,-36.621,7.324,970.559
1686879742.656,-37.109,-307.129,-92.285,-83.984,970.563
1686879742.660,-48.828,-595.215,-37.109,-91.797,970.567
1686879742.664,-9.766,41.992,-5.859,-6.348,970.570
1686879742.668,6.836,38.086,-75.195,18.555,970.574
1686879742.671,-23.926,-607.422,-90.332,-61.523,970.578
1686879742.675,-46.387,-743.652,-24.902,-103.027,970.582
1686879742.679,-24.902,19.531,14.160,-41.992,970.586
1686879742.683,3.906,277.344,-38.086,17.090,970.590
1686879742.687,-9.277,-30.762,-51.758,-31.250,970.594
1686879742.691,-42.480,-151.855,-31.250,-94.727,970.598
1686879742.690,-30.273,101.562,-16.602,-41.504,970.600
1686879742.694,10.254,111.816,-49.805,38.574,970.604
1686879742.698,-5.859,-89.355,-43.945,-1.953,970.608
1686879742.702,-42.969,-98.633,-43.457,-91.309,970.612
1686879742.706,-31.250,-278.809,-54.688,-77.148,970.616
1686879742.710,8.789,-324.219,-24.414,10.254,970.620
1686879742.713,8.301,-699.707,-70.801,17.090,970.624
1686879742.717,-35.645,-931.152,-10.742,-74.219,970.628
1686879742.721,-45.898,-215.820,43.945,-104.980,970.632
1686879742.725,-2.930,-61.035,-40.039,-2.930,970.635
1686879742.729,10.254,-159.180,-43.457,44.922,970.639
1686879742.733,-16.602,103.516,-16.113,-41.992,970.643
1686879742.737,-37.109,147.461,-38.086,-96.191,970.646
1686879742.741,-20.508,-171.387,-45.898,-24.902,970.650
1686879742.745,14.160,-206.055,-22.949,41.016,970.654
1686879742.749,-2.441,134.277,-23.926,-21.484,970.658
1686879742.753,-40.039,107.422,-60.059,-91.797,970.662
1686879742.757,-32.715,-530.273,-77.148,-48.828,970.666
1686879742.760,7.324,-729.004,-24.414,33.203,970.670
1686879742.764,9.277,-257.324,9.277,9.277,970.674
1686879742.768,-33.203,-52.246,-26.367,-83.008,970.677
1686879742.772,-36.621,-479.004,-67.383,-72.266,970.681
1686879742.776,-1.953,-656.250,-6.348,15.137,970.685
1686879742.780,0.000,-43.945,2.930,12.695,970.689
1686879742.795,-30.762,-19.043,-40.527,-76.660,970.692
1686879742.799,-51.758,-264.648,-41.504,-107.910,970.696
1686879742.803,-37.598,-90.332,-8.789,-25.879,970.700
1686879742.807,-8.301,185.059,-31.738,30.762,970.704
1686879742.811,-19.043,-169.922,-75.684,-32.227,970.707
1686879742.815,-54.688,-766.113,-52.734,-88.867,970.711
1686879742.818,-39.551,-698.242,20.508,-37.598,970.715
1686879742.822,-5.859,1.953,19.531,25.879,970.719
1686879742.826,-8.789,78.613,-66.406,-19.531,970.723
1686879742.830,-45.898,-620.605,-55.664,-97.656,970.727
1686879742.834,-49.316,-534.180,24.902,-66.895,970.731
1686879742.838,8.789,154.297,14.648,27.344,970.735
1686879742.845,28.809,-57.129,-57.129,26.855,970.751
1686879742.849,-13.184,-510.742,-67.871,-61.523,970.754
1686879742.853,-29.297,-154.297,-7.812,-68.359,970.758
1686879742.857,4.883,136.719,-16.602,23.438,970.762
1686879742.861,16.113,-101.562,-38.574,51.270,970.766
1686879742.865,-16.602,-476.074,-40.527,-17.578,970.770
1686879742.868,-41.016,-374.023,-24.414,-54.688,970.774
1686879742.872,-15.625,86.914,-18.066,2.930,970.778
1686879742.876,9.277,-354.492,-75.684,60.059,970.782
1686879742.880,-18.555,-757.812,-42.480,-1.465,970.786
1686879742.884,-46.387,-87.891,11.719,-75.195,970.790
1686879742.888,-31.250,20.508,-40.527,-19.043,970.793
1686879742.885,0.977,-232.422,-33.203,54.688,970.782
1686879742.889,-8.301,-120.605,-18.555,2.441,970.786
1686879742.893,-44.922,106.934,-47.852,-89.355,970.790
1686879742.897,-41.504,-5.859,-72.266,-57.617,970.794
1686879742.901,-12.695,-577.148,-51.270,41.992,970.798
1686879742.905,-4.883,-703.125,13.672,40.039,970.802
1686879742.908,-32.715,-333.496,-6.348,-49.805,970.806
1686879742.912,-47.363,-233.887,-49.805,-62.988,970.809
1686879742.916,-17.090,-620.117,-38.086,29.297,970.813
1686879742.920,-5.859,-400.879,27.832,56.152,970.817
1686879742.924,-30.762,270.508,-11.719,-25.879,970.821
1686879742.928,-49.805,-72.754,-70.801,-62.988,970.825
1686879742.932,-23.438,-312.988,-42.969,9.766,970.830
1686879742.936,-1.953,114.258,-0.977,62.012,970.834
1686879742.940,-23.926,210.449,-51.270,-4.883,970.838
1686879742.944,-48.340,-439.941,-83.008,-80.078,970.842
1686879742.948,-43.457,-654.785,-26.855,-46.387,970.846
1686879742.952,-8.301,-236.816,-15.625,27.344,970.850
1686879742.955,-3.906,-170.410,-35.645,3.906,970.854
1686879742.959,-38.574,-602.539,-70.801,-71.289,970.858
1686879742.963,-46.387,-732.910,-19.043,-53.223,970.862
1686879742.967,-10.254,72.266,29.297,24.902,970.865
1686879742.971,2.930,283.203,-43.457,29.297,970.869
1686879742.975,-28.809,-58.105,-53.711,-56.641,970.873
1686879742.976,-59.570,-114.746,-23.438,-83.008,970.872
1686879742.980,-38.574,191.406,-10.742,11.719,970.876
1686879742.984,-1.465,201.660,-49.316,58.105,970.880
1686879742.988,-21.973,-73.242,-64.453,-16.602,970.884
1686879742.992,-48.828,-321.289,-33.691,-73.242,970.888
1686879742.996,-28.320,-376.953,-21.484,-13.672,970.892
1686879742.999,-0.977,-202.637,-23.926,57.617,970.896
1686879743.003,-15.625,-673.340,-79.102,11.230,970.900
1686879743.007,-49.805,-989.746,0.977,-64.453,970.903
1686879743.011,-39.062,-210.449,57.129,-37.598,970.907
1686879743.015,-2.441,44.922,-54.688,43.945,970.911
1686879743.019,-4.883,-69.336,-55.664,12.695,970.915
1686879743.022,-32.227,132.324,-25.391,-76.660,970.920
1686879743.026,-36.621,199.219,-33.203,-68.848,970.924
1686879743.030,-6.836,-43.945,-33.691,26.855,970.927
1686879743.034,12.695,-89.355,-12.695,45.410,970.931
1686879743.038,-17.578,126.465,-34.180,-34.668,970.935
1686879743.042,-37.109,-134.277,-58.105,-56.641,970.939
1686879743.045,-14.160,-661.621,-57.129,18.555,970.943
1686879743.049,7.812,-715.820,-26.855,57.129,970.947
1686879743.053,-11.719,-196.289,6.348,-22.461,970.951
1686879743.057,-33.203,1.953,-38.086,-78.125,970.955
1686879743.061,-11.719,-377.441,-17.578,-6.348,970.959
1686879743.065,16.113,-289.551,33.691,65.430,970.963
1686879743.066,7.812,232.910,-19.043,8.301,970.976
1686879743.070,-26.367,50.293,-54.688,-70.801,970.979
1686879743.074,-26.367,-165.527,-37.109,-38.574,970.983
1686879743.078,14.648,63.965,-4.883,39.551,970.987
1686879743.082,9.766,31.250,-41.992,23.926,970.991
1686879743.086,-37.598,-290.039,-48.340,-59.570,970.995
1686879743.089,-51.758,-784.180,-62.500,-63.965,970.999
1686879743.093,-15.625,-754.883,-9.766,15.625,971.003
1686879743.097,13.184,151.855,27.832,29.785,971.007
1686879743.101,-16.113,124.023,-52.734,-50.293,971.011
1686879743.105,-41.504,-381.348,-66.895,-87.891,971.015
1686879743.109,-20.508,-220.703,-21.973,-3.418,971.019
1686879743.143,7.324,283.203,-13.184,57.129,971.040
1686879743.147,-12.207,-35.156,-93.262,-4.883,971.044
1686879743.151,-38.574,-541.016,-78.613,-60.059,971.048
1686879743.155,-15.625,-84.473,-2.441,-9.766,971.052
1686879743.159,9.277,266.113,-32.227,55.176,971.056
1686879743.163,-4.883,-379.395,-78.613,13.184,971.059
1686879743.166,-35.645,-725.098,-26.855,-72.266,971.063
1686879743.170,-28.809,-41.992,14.160,-54.688,971.067
1686879743.174,9.766,168.945,-37.598,26.855,971.071
1686879743.178,7.324,-130.371,-33.691,19.043,971.075
1686879743.182,-27.832,-184.082,-8.789,-59.082,971.079
1686879743.186,-39.551,77.637,-24.902,-71.777,971.083
1686879743.170,-11.719,67.383,-50.781,9.766,971.081
1686879743.174,9.277,-226.562,-52.734,39.062,971.084
1686879743.178,-15.137,-208.984,-21.484,-39.062,971.088
1686879743.182,-41.992,39.551,-35.156,-81.543,971.092
1686879743.186,-19.043,-176.758,-56.641,-15.625,971.096
1686879743.190,6.836,-569.336,-30.762,43.457,971.100
1686879743.193,-26.367,-538.574,-14.160,-28.809,971.104
1686879743.197,-69.824,-141.113,-21.484,-105.469,971.108
1686879743.201,-50.781,-134.766,-56.641,-41.504,971.112
1686879743.205,-0.488,-320.312,-45.410,49.805,971.116
1686879743.209,6.348,-117.188,-22.949,8.301,971.120
1686879743.213,-33.203,-65.918,-36.133,-79.102,971.124
1686879743.231,-41.992,-195.312,-51.270,-71.777,971.128
1686879743.235,-11.719,-904.785,-84.473,20.508,971.132
1686879743.239,-1.465,-712.402,7.812,33.691,971.136
1686879743.243,-23.926,67.871,-5.371,-56.641,971.140
1686879743.247,-44.922,-436.523,-83.008,-75.195,971.144
1686879743.251,-17.578,-786.621,-39.062,7.812,971.148
1686879743.254,12.207,-156.250,9.766,43.457,971.152
1686879743.258,-14.648,278.809,-37.109,-42.480,971.155
1686879743.262,-43.945,-431.152,-103.027,-95.215,971.159
1686879743.266,-26.367,-730.957,-34.668,-22.949,971.163
1686879743.270,0.488,132.812,13.672,42.480,971.167
1686879743.274,-13.672,245.605,-58.594,-5.859,971.171
1686879743.261,-50.781,-217.773,-49.805,-73.730,971.171
1686879743.265,-37.109,-172.363,-7.812,-37.598,971.175
1686879743.269,10.742,259.766,-22.949,41.504,971.179
1686879743.273,14.648,211.914,-56.641,13.184,971.183
1686879743.277,-27.344,-242.676,-52.246,-78.613,971.187
1686879743.281,-39.551,-495.117,-28.809,-73.242,971.191
1686879743.284,-7.324,-337.402,-29.297,14.648,971.194
1686879743.288,-1.465,-267.090,-50.293,35.156,971.198
1686879743.292,-34.180,-528.809,-24.902,-54.688,971.202
1686879743.296,-41.992,-258.301,13.184,-83.496,971.206
1686879743.300,-15.137,170.898,-10.742,7.324,971.210
1686879743.304,9.277,43.945,-56.152,49.805,971.214
1686879743.307,-16.113,-787.598,-90.820,-25.879,971.204
1686879743.311,-43.945,-749.512,7.324,-80.566,971.208
1686879743.315,-19.043,172.363,12.207,-22.949,971.212
1686879743.319,12.695,-3.906,-46.387,42.480,971.216
1686879743.323,10.254,-190.918,-42.969,-10.742,971.220
1686879743.327,-27.832,-199.219,-47.852,-100.098,971.224
1686879743.330,-31.250,-113.770,-15.625,-77.637,971.227
1686879743.334,5.859,-295.898,-51.270,19.043,971.231
1686879743.338,6.836,-662.109,-47.363,12.207,971.235
1686879743.342,-13.184,-280.762,0.000,-81.543,971.239
1686879743.346,-20.020,70.312,-7.324,-86.426,971.243
1686879743.350,-2.441,-410.156,-54.199,5.859,971.247
1686879743.350,6.836,-709.961,-9.766,32.227,971.247
1686879743.354,-26.855,97.168,22.949,-64.941,971.251
1686879743.358,-49.316,106.445,-44.434,-96.191,971.255
1686879743.362,-21.484,-73.730,-32.715,-12.207,971.259
1686879743.366,8.301,-70.801,-22.949,39.551,971.263
1686879743.370,-7.324,-213.867,-50.293,-20.508,971.267
1686879743.373,-41.504,-266.113,-38.086,-89.355,971.271
1686879743.377,-33.691,-763.672,-48.340,-41.992,971.275
1686879743.381,12.207,-701.172,12.207,29.297,971.278
1686879743.385,13.672,272.949,27.832,-17.090,971.282
1686879743.389,-28.320,178.223,-63.477,-94.238,971.286
1686879743.393,-29.785,-241.699,-52.246,-71.289,971.290
1686879743.398,5.859,26.367,-0.488,19.043,971.295
1686879743.402,7.324,488.281,6.836,25.879,971.299
1686879743.406,-21.484,32.715,-81.055,-56.641,971.303
1686879743.410,-28.320,-439.941,-57.617,-72.266,971.307
1686879743.414,8.789,70.801,1.465,13.184,971.311
1686879743.418,29.297,146.973,-44.922,57.617,971.315
1686879743.421,-5.859,-496.094,-72.754,-26.855,971.319
1686879743.425,-41.016,-705.566,-21.973,-91.309,971.323
1686879743.429,-21.973,36.621,32.227,-30.273,971.327
1686879743.433,-0.488,282.227,-23.438,24.414,971.330
1686879743.437,-25.391,41.992,-29.297,-34.668,971.334
1686879743.441,-44.434,10.254,-3.906,-102.539,971.338
1686879743.441,-31.250,256.348,-2.930,-51.758,971.351
1686879743.445,-5.859,240.723,-33.203,29.785,971.354
1686879743.449,-7.324,-114.746,-29.785,-4.883,971.358
1686879743.453,-35.645,-60.547,-4.883,-79.590,971.362
1686879743.457,-34.180,-58.594,-44.434,-53.711,971.366
1686879743.461,-2.930,-190.430,-41.016,32.227,971.370
1686879743.464,3.418,-646.484,-65.430,38.574,971.374
1686879743.468,-38.574,-896.973,2.930,-54.199,971.378
1686879743.472,-52.246,-64.941,45.410,-94.238,971.382
1686879743.476,-19.043,133.789,-40.039,-14.648,971.386
1686879743.480,-1.953,7.812,-45.898,23.438,971.390
1686879743.484,-25.391,223.633,-22.949,-52.734,971.394
1686879743.487,-56.152,285.645,-41.016,-105.469,971.397
1686879743.491,-42.969,27.344,-62.012,-36.133,971.400
1686879743.495,-13.184,-33.203,-29.297,28.809,971.404
1686879743.499,-25.879,229.492,-33.203,-27.832,971.408
1686879743.503,-62.988,107.422,-62.500,-107.910,971.412
1686879743.507,-59.082,-505.859,-79.590,-62.012,971.416
1686879743.510,-16.113,-785.156,-27.344,32.227,971.420
1686879743.514,-12.695,-42.969,33.203,-0.977,971.424
1686879743.518,-53.711,280.273,-50.781,-91.309,971.428
1686879743.522,-60.059,-368.652,-59.082,-80.566,971.432
1686879743.526,-15.625,-321.777,27.344,13.672,971.436
1686879743.530,3.418,363.770,-2.930,16.602,971.440
1686879743.546,-34.668,250.488,-64.453,-71.289,971.442
1686879743.550,-64.941,-139.648,-48.340,-94.238,971.446
1686879743.554,-31.250,-26.367,-2.930,-15.625,971.450
1686879743.558,0.977,291.016,-28.320,37.598,971.453
1686879743.562,-24.414,19.043,-78.613,-23.438,971.457
1686879743.566,-56.641,-684.570,-52.246,-74.219,971.461
1686879743.569,-37.109,-693.848,33.691,-10.254,971.465
1686879743.573,-5.371,-158.203,16.113,47.852,971.469
1686879743.577,-11.230,-124.023,-55.176,-21.484,971.473
1686879743.581,-41.992,-699.219,-40.527,-101.562,971.477
1686879743.585,-41.016,-497.559,40.527,-63.477,971.481
1686879743.589,-3.418,290.527,9.277,25.879,971.485
1686879743.591,-6.836,87.891,-45.898,20.020,971.488
1686879743.595,-42.969,-94.727,-45.898,-56.152,971.492
1686879743.599,-47.852,136.230,-17.578,-71.289,971.496
1686879743.603,-22.949,286.621,-26.855,10.742,971.500
1686879743.607,-6.836,10.254,-33.203,31.738,971.504
1686879743.611,-24.902,-410.645,-12.207,-53.711,971.508
1686879743.614,-33.691,-246.094,-11.719,-88.867,971.512
1686879743.618,-10.742,223.633,-15.625,-19.531,971.516
1686879743.622,7.324,-258.301,-57.617,36.621,971.519
1686879743.626,-7.812,-733.398,-41.504,-21.484,971.523
1686879743.630,-35.645,-251.953,-13.672,-83.984,971.527
1686879743.634,-30.273,-10.742,-42.969,-36.621,971.531
