timestamps,TP9,AF7,AF8,TP10,Secondary Timestamp
1686362379.697,-69.336,99.609,1.465,-83.984,1456.594
1686362379.701,-88.379,92.285,25.391,-99.121,1456.598
1686362379.705,-96.680,98.633,-0.488,-57.617,1456.602
1686362379.709,-72.754,-104.004,-13.672,-20.508,1456.606
1686362379.713,-58.105,77.637,41.992,-42.480,1456.610
1686362379.717,-74.707,151.367,30.762,-93.262,1456.614
1686362379.720,-95.215,-48.828,-13.672,-102.051,1456.618
1686362379.724,-77.148,-333.008,-36.621,-15.625,1456.622
1686362379.728,-45.410,-10.254,56.641,34.180,1456.625
1686362379.732,-53.223,502.930,33.691,5.859,1456.629
1686362379.736,-67.871,168.457,-26.855,15.625,1456.633
1686362379.740,-44.922,-60.059,30.762,58.594,1456.637
1686362379.741,-43.457,200.195,32.227,30.762,1456.637
1686362379.745,-70.312,197.754,-11.719,-30.273,1456.641
1686362379.749,-95.215,-335.449,-40.039,-39.062,1456.645
1686362379.753,-95.215,-681.641,6.348,0.000,1456.649
1686362379.757,-83.496,27.344,56.641,35.156,1456.653
1686362379.761,-78.125,200.684,-3.418,7.812,1456.657
1686362379.764,-83.496,-243.164,-32.227,-42.969,1456.660
1686362379.768,-69.336,-765.137,-23.926,-61.035,1456.664
1686362379.772,-33.691,8.301,69.336,-67.383,1456.668
1686362379.776,-17.578,600.098,24.902,-104.492,1456.672
1686362379.780,-33.691,34.180,-19.531,-144.531,1456.676
1686362379.784,-52.734,-45.410,36.133,-135.254,1456.680
1686362379.787,-43.457,131.348,18.555,-80.566,1456.695
1686362379.791,-23.438,82.031,-9.277,-41.016,1456.699
1686362379.795,-24.902,-283.203,-28.320,-57.617,1456.703
1686362379.799,-31.738,-202.637,-4.883,-86.426,1456.707
1686362379.803,-22.461,-55.664,4.883,-73.730,1456.711
1686362379.807,-31.738,-308.594,-26.367,-80.566,1456.714
1686362379.810,-64.941,-733.398,-66.406,-124.023,1456.718
1686362379.814,-72.266,-580.566,43.945,-140.137,1456.722
1686362379.818,-67.383,253.906,70.312,-95.215,1456.726
1686362379.822,-56.152,178.711,-2.930,-58.594,1456.730
1686362379.826,-62.500,-301.270,26.855,-91.797,1456.734
1686362379.830,-93.262,-120.117,20.020,-143.555,1456.738
1686362379.831,-90.332,51.270,-7.324,-164.551,1456.741
1686362379.835,-48.340,-167.969,-26.367,-157.227,1456.745
1686362379.839,-26.367,-479.492,-15.137,-145.020,1456.749
1686362379.843,-41.504,-192.871,8.301,-138.184,1456.753
1686362379.847,-53.223,16.602,-6.348,-105.469,1456.757
1686362379.851,-40.527,-368.164,-26.367,-61.523,1456.761
1686362379.854,-31.738,-862.793,-26.367,-51.270,1456.765
1686362379.858,-46.387,-142.090,41.992,-72.754,1456.769
1686362379.862,-53.711,234.375,-6.348,-48.340,1456.773
1686362379.866,-42.969,-166.992,-20.996,6.348,1456.777
1686362379.870,-31.250,49.316,35.645,-0.977,1456.780
1686362379.874,-30.762,237.793,7.812,-35.156,1456.784
1686362379.877,-52.734,69.824,-28.809,-52.734,1456.801
1686362379.881,-53.223,-318.359,-28.320,-27.344,1456.805
1686362379.885,-29.297,-182.129,35.645,21.973,1456.809
1686362379.889,-47.363,218.262,20.508,16.602,1456.813
1686362379.893,-81.543,57.129,-33.203,-42.969,1456.817
1686362379.897,-92.773,-380.371,-42.969,-57.617,1456.821
1686362379.900,-80.078,-230.469,1.465,-36.621,1456.825
1686362379.904,-63.965,263.672,14.648,-49.316,1456.829
1686362379.908,-73.242,31.738,-43.945,-74.707,1456.832
1686362379.912,-63.965,-553.223,-49.316,-32.227,1456.836
1686362379.916,-30.762,-136.230,6.836,14.160,1456.840
1686362379.920,-18.066,287.109,-2.441,-16.113,1456.844
1686362379.937,-23.438,136.230,-24.414,-88.379,1456.833
1686362379.941,-30.762,-343.262,-14.160,-140.137,1456.837
1686362379.945,-36.621,-163.086,-2.930,-131.836,1456.841
1686362379.949,-39.551,444.336,0.000,-115.234,1456.844
1686362379.953,-57.129,248.535,-43.945,-138.672,1456.848
1686362379.957,-85.449,-666.504,-62.012,-145.508,1456.852
1686362379.960,-77.148,-71.289,30.762,-88.379,1456.856
1686362379.964,-38.086,706.055,3.906,-2.930,1456.860
1686362379.968,-33.691,245.117,-30.273,9.277,1456.864
1686362379.972,-51.758,109.863,19.043,-13.672,1456.868
1686362379.976,-49.316,368.652,10.254,-22.461,1456.872
1686362379.980,-40.527,393.555,-17.090,-25.879,1456.876
1686362379.982,-32.227,81.055,-35.156,14.648,1456.879
1686362379.986,-36.621,-70.801,4.883,27.832,1456.883
1686362379.990,-58.105,209.961,11.719,13.184,1456.887
1686362379.994,-79.590,426.270,-9.277,24.902,1456.891
1686362379.998,-76.172,31.738,-56.152,33.203,1456.895
1686362380.002,-69.824,-117.676,-21.973,28.320,1456.899
1686362380.005,-77.148,293.457,25.879,17.090,1456.902
1686362380.009,-63.965,458.496,-16.602,19.531,1456.906
1686362380.013,-57.129,-112.305,-52.246,22.461,1456.910
1686362380.017,-71.777,92.773,32.715,-15.625,1456.914
1686362380.021,-68.359,627.441,0.488,-55.176,1456.918
1686362380.025,-42.969,312.988,-33.203,-28.320,1456.922
1686362380.026,-19.531,219.727,8.301,19.531,1456.936
1686362380.030,-3.418,337.891,-17.090,16.602,1456.940
1686362380.034,-20.996,167.480,-20.996,12.695,1456.944
1686362380.038,-54.199,-12.695,-21.973,26.367,1456.948
1686362380.042,-77.148,-368.164,-13.672,40.527,1456.952
1686362380.046,-83.496,138.672,14.648,2.441,1456.955
1686362380.049,-87.402,558.105,-14.160,-44.922,1456.959
1686362380.053,-108.887,219.727,-46.387,-47.852,1456.963
1686362380.057,-104.492,-296.875,-18.555,-36.133,1456.967
1686362380.061,-72.266,508.301,44.434,-39.062,1456.971
1686362380.065,-60.059,886.719,-17.090,-49.805,1456.975
1686362380.069,-57.129,281.250,-42.969,-48.340,1456.979
1686362380.071,-20.020,314.453,-8.789,-37.109,1456.967
1686362380.075,0.000,515.137,-12.207,-26.855,1456.971
1686362380.079,-23.438,395.508,-30.762,-62.500,1456.975
1686362380.083,-57.129,66.406,-52.734,-95.215,1456.979
1686362380.087,-64.941,142.090,-29.785,-47.852,1456.983
1686362380.091,-38.086,156.738,-4.883,6.836,1456.987
1686362380.094,-35.645,102.539,-27.344,5.371,1456.991
1686362380.098,-62.988,-179.688,-64.941,-18.555,1456.995
1686362380.102,-71.777,87.402,14.160,-31.250,1456.999
1686362380.106,-61.035,688.477,8.789,-12.207,1457.003
1686362380.110,-46.875,461.914,-36.621,-13.672,1457.007
1686362380.114,-55.664,-296.875,-25.879,-77.637,1457.010
1686362380.116,-78.613,105.957,5.371,-128.418,1457.012
1686362380.120,-68.359,583.496,-23.926,-109.375,1457.016
1686362380.124,-30.273,104.004,-57.129,-68.848,1457.020
1686362380.128,-36.621,-361.328,-37.109,-33.691,1457.024
1686362380.132,-65.918,198.730,8.301,-34.180,1457.028
1686362380.136,-57.617,501.953,-16.113,-43.457,1457.032
1686362380.139,-41.992,97.168,-37.598,-57.617,1457.036
1686362380.143,-43.457,-197.754,-3.418,-76.660,1457.040
1686362380.147,-54.688,332.520,6.348,-58.105,1457.044
1686362380.151,-53.711,420.898,-41.016,-16.602,1457.048
1686362380.155,-22.461,93.750,-8.789,22.949,1457.052
1686362380.159,-12.695,289.551,41.016,9.766,1457.055
1686362380.179,-51.270,539.062,-7.812,-41.016,1457.075
1686362380.183,-78.613,338.379,-45.898,-37.109,1457.079
1686362380.187,-69.824,19.043,-51.270,-19.043,1457.083
1686362380.191,-51.758,221.191,-26.855,-51.270,1457.087
1686362380.195,-53.223,315.918,-23.926,-125.000,1457.090
1686362380.199,-65.918,-56.641,-56.641,-123.535,1457.094
1686362380.202,-62.500,-452.148,-71.777,-51.270,1457.098
1686362380.206,-44.922,-35.156,27.832,-53.223,1457.102
1686362380.210,-41.016,584.473,0.977,-108.398,1457.106
1686362380.214,-34.668,270.020,-51.270,-123.047,1457.110
1686362380.218,-16.602,-48.828,18.555,-64.453,1457.114
1686362380.222,-5.859,128.906,2.930,-20.020,1457.118
1686362380.207,-3.906,155.273,-32.227,-47.363,1457.114
1686362380.211,-32.227,-39.551,-45.410,-80.078,1457.118
1686362380.215,-48.828,-333.496,1.465,-55.176,1457.122
1686362380.219,-27.832,167.480,31.250,-18.066,1457.126
1686362380.223,-11.230,387.695,-18.066,-20.996,1457.130
1686362380.227,-23.438,-130.371,-46.387,-51.270,1457.134
1686362380.230,-20.508,-222.168,-5.859,-45.898,1457.138
1686362380.234,20.996,250.488,4.395,-10.742,1457.142
1686362380.238,26.855,384.766,-22.949,-48.828,1457.146
1686362380.242,-16.113,-42.480,-43.945,-139.160,1457.150
1686362380.246,-23.438,-920.898,-47.852,-163.574,1457.154
1686362380.250,2.930,-364.258,56.641,-121.582,1457.157
1686362380.253,15.137,673.828,35.645,-59.082,1457.161
1686362380.257,-13.672,314.453,-43.945,-45.898,1457.165
1686362380.261,-59.082,5.859,-41.992,-82.031,1457.169
1686362380.265,-81.055,146.973,-11.719,-54.199,1457.173
1686362380.269,-77.148,374.512,-15.137,-10.742,1457.177
1686362380.273,-86.914,-314.453,-87.402,-20.508,1457.181
1686362380.276,-116.211,-570.312,9.766,-55.176,1457.185
1686362380.280,-116.211,366.211,37.109,-41.016,1457.189
1686362380.284,-88.379,386.719,-34.180,6.836,1457.193
1686362380.288,-61.035,-48.828,14.160,6.348,1457.197
1686362380.292,-58.594,177.246,11.719,-26.367,1457.200
1686362380.296,-64.941,247.070,-26.855,-26.855,1457.204
1686362380.311,-52.246,52.246,-20.996,13.184,1457.208
1686362380.315,-42.480,-42.969,-8.789,32.227,1457.211
1686362380.319,-40.039,-101.074,-11.719,-12.695,1457.215
1686362380.323,-46.387,121.094,-3.418,-47.363,1457.219
1686362380.327,-32.715,-21.973,-39.551,15.625,1457.223
1686362380.331,-8.301,-675.293,-44.434,71.289,1457.227
1686362380.334,0.000,-191.406,28.809,33.691,1457.231
1686362380.338,-6.836,450.195,22.949,-22.461,1457.235
1686362380.342,-12.695,83.984,-34.180,-22.949,1457.239
1686362380.346,12.207,-409.668,21.973,32.227,1457.243
1686362380.350,6.836,361.816,62.012,25.879,1457.247
1686362380.354,-22.949,522.949,-5.371,-28.320,1457.251
1686362380.358,-14.160,5.859,-22.461,-8.789,1457.255
1686362380.362,6.836,98.145,7.324,59.082,1457.259
1686362380.366,14.160,255.371,7.812,53.223,1457.263
1686362380.370,-6.836,120.605,-19.043,1.465,1457.266
1686362380.374,-31.738,-250.488,-45.898,-20.996,1457.270
1686362380.378,-19.531,-328.125,-28.809,-20.996,1457.274
1686362380.381,6.836,-55.176,6.836,13.184,1457.278
1686362380.385,3.906,104.492,-20.020,15.625,1457.282
1686362380.389,-14.160,-626.953,-68.359,-12.695,1457.286
1686362380.393,1.465,-587.402,47.852,11.230,1457.290
1686362380.397,22.949,471.191,52.734,72.754,1457.294
1686362380.401,14.160,292.969,-33.691,92.773,1457.298
1686362380.401,-11.719,-171.387,-0.977,60.059,1457.297
1686362380.405,-23.926,-57.617,-5.371,74.219,1457.301
1686362380.409,-4.395,-119.141,-26.367,112.305,1457.305
1686362380.413,25.879,-239.746,-16.602,91.797,1457.309
1686362380.417,5.371,-310.547,-13.184,19.043,1457.313
1686362380.421,-30.273,-315.430,-23.926,-34.180,1457.317
1686362380.424,-22.461,-110.840,-10.742,-48.828,1457.321
1686362380.428,-12.207,-66.895,-36.621,-78.125,1457.325
1686362380.432,-25.391,-792.969,-29.785,-143.555,1457.329
1686362380.436,-24.414,-315.430,46.387,-178.711,1457.332
1686362380.440,-7.324,186.035,-9.277,-152.344,1457.336
1686362380.444,6.348,-140.137,-25.391,-107.910,1457.340
1686362380.446,9.766,-48.340,33.691,-118.652,1457.343
1686362380.450,-2.441,145.996,-1.465,-148.926,1457.347
1686362380.454,-3.906,-66.406,-37.598,-109.375,1457.351
1686362380.458,10.254,-338.867,-41.504,-57.617,1457.354
1686362380.462,12.695,-190.430,-29.785,-86.426,1457.358
1686362380.466,-23.438,-298.828,-24.414,-153.320,1457.362
1686362380.469,-49.805,-474.121,-41.016,-142.090,1457.366
1686362380.473,-34.180,-704.102,-54.199,-97.656,1457.370
1686362380.477,-17.090,-330.566,31.250,-94.727,1457.374
1686362380.481,-32.715,223.145,7.812,-123.047,1457.378
1686362380.485,-54.688,-106.445,-39.551,-133.301,1457.382
1686362380.489,-43.457,-357.910,18.066,-89.355,1457.386
1686362380.492,-17.578,-173.340,-1.465,-42.480,1457.390
1686362380.496,-26.855,-276.855,-38.086,-47.363,1457.394
1686362380.500,-51.270,-554.199,-43.945,-56.152,1457.398
1686362380.504,-48.828,-833.496,-31.738,-39.062,1457.402
1686362380.508,-24.414,-265.625,20.996,-33.203,1457.406
1686362380.512,-18.555,16.113,-12.695,-98.145,1457.410
1686362380.515,-51.270,-406.738,-54.199,-184.570,1457.414
1686362380.519,-75.684,-740.234,-25.391,-201.172,1457.418
1686362380.523,-57.129,-55.176,37.109,-160.156,1457.422
1686362380.527,-22.461,236.816,-20.020,-162.109,1457.425
1686362380.531,-27.344,-305.664,-39.551,-209.961,1457.429
1686362380.535,-58.105,-293.945,12.207,-203.613,1457.433
1686362380.537,-39.062,-56.641,-4.883,-141.113,1457.434
1686362380.541,-18.555,-90.820,-22.949,-123.535,1457.438
1686362380.545,-47.363,-450.195,-56.152,-148.438,1457.442
1686362380.549,-69.824,-545.898,-55.176,-147.461,1457.445
1686362380.553,-55.664,-311.523,-14.160,-120.117,1457.449
1686362380.557,-29.297,-236.328,-31.250,-89.844,1457.453
1686362380.560,-30.762,-715.332,-83.984,-97.168,1457.457
1686362380.564,-46.875,-779.785,-4.883,-87.891,1457.461
1686362380.568,-60.059,125.488,21.484,-62.012,1457.465
1686362380.572,-59.082,191.895,-27.344,-56.152,1457.469
1686362380.576,-51.270,-212.402,-1.465,-96.680,1457.473
1686362380.580,-64.941,-127.441,-20.508,-129.883,1457.477
1686362380.581,-76.172,-67.383,-39.062,-94.238,1457.492
1686362380.585,-57.617,-237.793,-47.852,-48.828,1457.496
1686362380.589,-30.762,-526.367,-38.086,-39.062,1457.500
1686362380.593,-39.062,-234.863,-18.066,-72.266,1457.504
1686362380.597,-53.223,-85.449,-17.090,-83.008,1457.508
1686362380.601,-34.668,-442.871,-41.504,-50.781,1457.511
1686362380.604,-19.531,-937.012,-45.898,-33.691,1457.515
1686362380.608,-47.363,-362.305,32.715,-80.566,1457.519
1686362380.612,-72.754,328.125,-4.395,-106.934,1457.523
1686362380.616,-62.500,-22.949,-26.367,-57.617,1457.527
1686362380.620,-40.039,-97.656,8.789,-35.156,1457.531
1686362380.624,-37.598,131.836,-11.230,-51.758,1457.535
1686362380.628,-52.734,-39.062,-31.250,-68.359,1457.536
1686362380.632,-47.363,-374.512,-46.387,-33.691,1457.540
1686362380.636,-29.785,-223.145,-33.203,26.855,1457.544
1686362380.640,-23.438,-26.855,-17.090,43.945,1457.548
1686362380.644,-32.227,-148.926,-35.156,-2.930,1457.552
1686362380.648,-41.992,-606.445,-71.777,-37.109,1457.556
1686362380.651,-19.531,-451.660,-10.742,-12.695,1457.560
1686362380.655,5.371,76.660,2.441,30.273,1457.564
1686362380.659,-12.207,-125.488,-47.852,13.672,1457.567
1686362380.663,-38.574,-833.496,-47.363,-14.160,1457.571
1686362380.667,-32.227,-460.938,51.270,32.227,1457.575
1686362380.671,-22.949,328.613,13.672,57.617,1457.579
1686362380.686,-22.461,45.410,-62.500,10.742,1457.583
1686362380.690,-31.738,-399.902,-20.996,-20.020,1457.587
1686362380.694,-34.180,-348.145,4.883,-7.324,1457.590
1686362380.698,-19.043,65.430,-1.953,-1.953,1457.594
1686362380.702,-15.625,-75.684,-54.199,-1.953,1457.598
1686362380.706,-31.250,-832.031,-53.711,58.594,1457.602
1686362380.709,-29.297,-316.895,38.086,95.215,1457.606
1686362380.713,-19.531,357.422,8.789,57.129,1457.610
1686362380.717,-19.043,-38.574,-35.156,-22.461,1457.614
1686362380.721,-34.668,-273.926,11.719,-88.379,1457.618
1686362380.725,-45.898,-44.434,-14.648,-97.168,1457.622
1686362380.729,-32.227,-159.668,-41.016,-65.918,1457.626
1686362380.731,-26.855,-308.105,-23.926,-43.945,1457.628
1686362380.735,-55.664,-172.852,8.301,-62.988,1457.632
1686362380.739,-70.801,65.430,-19.531,-87.891,1457.636
1686362380.743,-50.781,-27.344,-47.852,-77.637,1457.639
1686362380.747,-37.598,-294.434,-62.988,-56.641,1457.643
1686362380.751,-63.477,-404.785,-49.805,-71.289,1457.647
1686362380.754,-85.449,-204.102,7.324,-79.590,1457.651
1686362380.758,-72.754,-5.371,-25.879,-36.133,1457.655
1686362380.762,-33.203,-572.754,-69.336,17.578,1457.659
1686362380.766,-17.090,-330.078,29.785,-15.625,1457.663
1686362380.770,-41.992,283.203,4.395,-77.637,1457.667
1686362380.774,-54.199,-39.062,-49.316,-51.270,1457.671
1686362380.777,-33.691,-242.188,16.113,-16.113,1457.676
1686362380.781,-7.324,-94.238,-3.906,-50.293,1457.680
1686362380.785,-4.883,-234.375,-34.668,-105.957,1457.683
1686362380.789,-16.602,-395.996,-32.227,-111.816,1457.687
1686362380.793,-12.207,-760.254,-35.645,-64.453,1457.691
1686362380.797,-8.789,-439.453,21.484,-38.086,1457.695
1686362380.800,-18.066,236.816,3.418,-56.641,1457.699
1686362380.804,-28.809,-7.324,-58.594,-61.035,1457.703
1686362380.808,-28.809,-629.395,-21.973,-20.020,1457.707
1686362380.812,-18.066,109.375,20.508,-8.301,1457.711
1686362380.816,-31.250,390.625,-37.109,-48.828,1457.715
1686362380.820,-60.059,-171.875,-41.504,-87.402,1457.719
1686362380.821,-54.688,-104.980,-3.906,-97.656,1457.718
1686362380.825,-19.043,134.766,-4.883,-108.398,1457.722
1686362380.829,-10.254,30.762,-35.645,-133.789,1457.725
1686362380.833,-41.016,-332.031,-64.941,-159.668,1457.729
1686362380.837,-55.176,-395.996,-32.715,-134.277,1457.733
1686362380.841,-31.738,-288.574,-10.742,-87.891,1457.737
1686362380.844,-19.043,-145.996,-28.320,-98.145,1457.741
1686362380.848,-23.438,-546.875,-79.102,-96.191,1457.745
1686362380.852,-27.832,-676.758,-1.953,-23.926,1457.749
1686362380.856,-20.996,309.570,30.273,39.551,1457.753
1686362380.860,-3.418,343.262,-31.738,48.340,1457.757
1686362380.864,-4.883,-95.703,7.324,19.043,1457.761
1686362380.870,-10.742,36.621,-3.418,-1.953,1457.765
1686362380.874,0.488,3.906,-41.504,25.391,1457.769
1686362380.878,13.672,-341.797,-48.828,46.875,1457.773
1686362380.882,8.301,-633.301,-22.949,10.254,1457.777
1686362380.886,-19.043,-83.496,7.324,-44.434,1457.781
1686362380.890,-16.113,70.801,-26.855,-37.109,1457.785
1686362380.893,8.301,-276.367,-36.621,7.812,1457.789
1686362380.897,3.418,-740.723,-38.086,0.488,1457.792
1686362380.901,-19.043,-117.676,12.695,-79.590,1457.796
1686362380.905,-27.344,436.035,-13.184,-85.449,1457.800
1686362380.909,-17.090,17.578,-40.527,-8.789,1457.804
1686362380.913,-31.738,31.250,-8.789,14.648,1457.808
1686362380.912,-65.918,180.176,-26.367,-24.414,1457.809
1686362380.916,-78.125,-14.648,-40.039,-28.320,1457.812
1686362380.920,-68.359,-285.156,-41.504,21.484,1457.816
1686362380.924,-44.434,-94.238,-23.926,63.965,1457.820
1686362380.928,-39.062,29.297,-19.531,15.625,1457.824
1686362380.932,-55.664,-276.367,-52.246,-46.387,1457.828
1686362380.935,-61.523,-656.738,-65.918,-21.484,1457.832
1686362380.939,-45.898,-332.031,24.414,17.578,1457.836
1686362380.943,-43.945,321.777,10.742,7.324,1457.840
1686362380.947,-60.547,-0.977,-55.176,-38.574,1457.844
1686362380.951,-64.453,-584.961,-26.367,-72.754,1457.848
1686362380.955,-36.621,-91.797,18.066,-65.430,1457.851
1686362380.956,-16.113,302.246,-14.160,-59.570,1457.867
1686362380.960,-33.691,-101.074,-56.152,-82.031,1457.871
1686362380.964,-49.316,-548.340,-27.344,-81.543,1457.875
1686362380.968,-37.109,-212.891,0.977,-39.551,1457.879
1686362380.972,-5.859,178.223,-20.996,-30.273,1457.882
1686362380.976,4.883,-254.883,-67.383,-76.660,1457.886
1686362380.979,-5.859,-882.324,-50.781,-105.469,1457.890
1686362380.983,-9.277,-175.293,37.598,-80.566,1457.894
1686362380.987,2.441,456.543,-13.184,-20.508,1457.898
1686362380.991,3.906,30.273,-58.594,-11.230,1457.902
1686362380.995,-17.090,-91.797,-17.090,-41.016,1457.906
1686362380.999,-21.484,-44.922,-27.344,-27.344,1457.910
1686362381.004,1.465,-213.867,-36.133,2.930,1457.904
1686362381.008,4.395,-381.348,-39.551,-33.691,1457.908
1686362381.012,-26.855,-259.766,-14.648,-71.289,1457.912
1686362381.016,-24.902,50.293,-25.391,-30.762,1457.916
1686362381.020,-1.465,-8.301,-48.828,-20.508,1457.919
1686362381.024,7.812,-411.133,-69.824,-67.383,1457.923
1686362381.027,-14.160,-391.602,-38.574,-111.328,1457.927
1686362381.031,-43.945,37.109,-22.949,-123.047,1457.931
1686362381.035,-30.273,-50.781,-53.223,-99.609,1457.935
1686362381.039,-5.371,-648.926,-76.172,-57.129,1457.939
1686362381.043,-23.438,-292.969,-15.137,-53.223,1457.943
1686362381.047,-56.152,164.062,-28.809,-112.305,1457.947
1686362381.061,-60.059,-143.555,-59.570,-117.188,1457.958
1686362381.065,-61.523,-493.164,7.324,-77.148,1457.962
1686362381.069,-70.312,-395.020,-11.719,-96.191,1457.966
1686362381.073,-48.340,-263.184,-44.922,-154.297,1457.970
1686362381.077,-17.090,-243.164,-40.039,-141.602,1457.973
1686362381.081,2.441,-865.723,-55.664,-69.336,1457.977
1686362381.084,-0.977,-791.504,8.789,-71.289,1457.981
1686362381.088,-20.020,297.363,2.441,-125.000,1457.985
1686362381.092,-35.645,218.262,-62.988,-109.863,1457.989
1686362381.096,-19.043,-12.695,-28.320,-47.852,1457.993
1686362381.100,-0.488,165.527,-23.438,-51.270,1457.997
1686362381.104,-23.438,-22.949,-56.152,-119.629,1458.001
1686362381.106,-53.223,-389.648,-62.988,-138.184,1458.002
1686362381.110,-53.223,-283.203,-29.297,-107.422,1458.006
1686362381.114,-48.340,12.695,-18.066,-92.773,1458.010
1686362381.118,-47.852,-92.285,-41.504,-119.629,1458.013
1686362381.122,-46.875,-503.418,-70.312,-142.090,1458.017
1686362381.126,-26.367,-503.418,-41.992,-99.609,1458.021
1686362381.129,-11.719,-312.988,-33.203,-57.617,1458.025
1686362381.133,-27.344,-274.414,-62.500,-67.383,1458.029
1686362381.137,-52.246,-714.355,-99.609,-69.824,1458.033
1686362381.141,-61.035,-681.152,4.883,-23.438,1458.037
1686362381.145,-29.297,255.371,7.812,-7.324,1458.041
1686362381.149,-10.742,168.945,-69.824,-62.988,1458.045
1686362381.151,-36.133,-226.074,-18.066,-100.586,1458.046
1686362381.155,-56.641,-146.484,-38.574,-84.961,1458.050
1686362381.159,-52.246,-284.668,-60.547,-43.457,1458.054
1686362381.163,-44.434,-362.305,-48.828,-16.113,1458.058
1686362381.167,-55.176,-612.305,-37.598,-42.480,1458.062
1686362381.171,-58.105,-428.711,-37.598,-74.707,1458.066
1686362381.174,-45.898,-11.230,-35.645,-42.480,1458.070
1686362381.178,-28.809,-83.496,-59.570,10.742,1458.074
1686362381.182,-45.410,-817.871,-61.523,0.000,1458.078
1686362381.186,-68.359,-266.113,13.184,-30.273,1458.082
1686362381.190,-53.711,435.547,-32.227,-2.930,1458.086
1686362381.194,-32.227,19.043,-67.383,-0.977,1458.089
1686362381.196,-32.227,-62.012,-25.879,-42.480,1458.091
1686362381.200,-43.945,73.730,-37.109,-57.129,1458.095
1686362381.204,-59.570,-91.797,-56.641,-53.223,1458.099
1686362381.208,-40.039,-321.289,-57.617,-19.043,1458.103
1686362381.212,-28.320,-164.062,-54.199,6.348,1458.107
1686362381.216,-56.641,-235.352,-50.781,-13.672,1458.111
1686362381.219,-70.312,-382.324,-59.082,-35.156,1458.115
1686362381.223,-33.691,-587.891,-74.707,-20.020,1458.118
1686362381.227,-3.418,-305.664,2.441,0.488,1458.122
1686362381.231,-26.367,315.918,-17.578,-40.527,1458.126
1686362381.235,-52.246,-83.008,-76.172,-93.750,1458.130
1686362381.239,-52.246,-582.031,-34.668,-68.359,1458.134
1686362381.271,-32.715,-11.230,-14.160,-30.762,1458.167
1686362381.275,-27.832,226.562,-55.176,-44.922,1458.171
1686362381.279,-51.758,-403.320,-68.359,-63.965,1458.175
1686362381.283,-48.828,-729.492,-25.879,-53.223,1458.179
1686362381.287,-24.902,-54.199,3.418,-3.906,1458.183
1686362381.291,-16.602,109.375,-39.062,32.715,1458.187
1686362381.294,-33.691,-300.781,-54.688,-24.414,1458.191
1686362381.298,-51.758,-672.363,-27.344,-52.734,1458.195
1686362381.302,-39.062,47.363,18.066,-6.836,1458.198
1686362381.306,-21.484,464.844,-18.066,22.949,1458.202
1686362381.310,-28.809,-11.719,-34.180,-10.254,1458.206
1686362381.314,-47.852,-81.543,-3.418,-28.320,1458.210
1686362381.287,-51.270,31.250,-20.020,4.883,1458.184
1686362381.291,-34.668,-110.840,-45.898,13.184,1458.188
1686362381.295,-35.156,-345.703,-46.387,-28.320,1458.192
1686362381.299,-50.781,-177.246,-6.348,-68.359,1458.196
1686362381.303,-47.852,170.898,-13.184,-63.965,1458.199
1686362381.307,-17.090,-105.469,-47.363,-63.477,1458.203
1686362381.310,2.930,-405.762,-77.148,-81.543,1458.207
1686362381.314,-6.836,-75.684,-38.574,-95.703,1458.211
1686362381.318,-16.602,229.492,-25.879,-94.238,1458.215
1686362381.322,-5.859,27.344,-54.688,-71.777,1458.219
1686362381.326,5.371,-396.484,-32.227,-54.199,1458.223
1686362381.330,-4.883,-106.934,-20.020,-64.941,1458.227
1686362381.331,-16.113,165.527,-35.645,-62.012,1458.242
1686362381.335,-5.859,-29.785,-62.012,-2.441,1458.245
1686362381.339,3.418,-800.781,-68.848,54.688,1458.249
1686362381.343,-10.254,-689.941,3.906,58.594,1458.253
1686362381.347,-21.973,293.457,-2.930,53.223,1458.257
1686362381.351,-18.555,141.113,-52.734,70.312,1458.261
1686362381.354,-10.254,-634.277,-39.551,62.988,1458.265
1686362381.358,-21.973,-16.113,10.742,0.977,1458.269
1686362381.362,-42.480,567.871,-17.090,-36.133,1458.273
1686362381.366,-34.668,164.551,-42.480,-16.113,1458.277
1686362381.370,-19.043,135.742,-22.949,-13.672,1458.281
1686362381.374,-23.926,271.973,-31.250,-61.523,1458.285
1686362381.378,-27.832,112.305,-62.012,-121.094,1458.301
1686362381.382,-22.949,-164.551,-62.988,-105.469,1458.305
1686362381.386,-3.906,-125.000,-50.293,-39.551,1458.309
1686362381.390,12.207,127.930,-41.504,-18.555,1458.313
1686362381.394,-6.836,99.121,-50.293,-48.828,1458.316
1686362381.398,-23.926,-375.977,-89.355,-77.148,1458.320
1686362381.401,-9.766,-348.145,-54.199,-56.641,1458.324
1686362381.405,0.488,83.984,-17.090,-45.410,1458.328
1686362381.409,-6.348,229.980,-56.152,-68.359,1458.332
1686362381.413,-26.367,-523.438,-89.844,-61.523,1458.336
1686362381.417,-24.414,-465.820,-6.836,-37.109,1458.340
1686362381.421,-16.602,420.410,-20.508,-21.973,1458.344
1686362381.436,-23.438,272.949,-66.895,-28.320,1458.332
1686362381.440,-37.598,-182.129,-43.945,-62.012,1458.336
1686362381.444,-37.598,-168.457,-36.133,-45.898,1458.340
1686362381.448,-5.371,227.539,-27.344,12.207,1458.344
1686362381.452,2.930,123.535,-65.430,7.812,1458.348
1686362381.456,-27.832,-766.113,-79.590,-27.344,1458.352
1686362381.459,-41.992,-313.477,-0.488,-20.020,1458.356
1686362381.463,-9.277,539.062,-22.949,39.062,1458.360
1686362381.467,-4.395,141.602,-56.152,54.688,1458.363
1686362381.471,-58.105,-84.473,-21.484,-18.555,1458.367
1686362381.475,-79.102,216.309,-26.855,-56.641,1458.371
1686362381.479,-71.289,312.988,-58.105,-47.363,1458.375
1686362381.481,-67.383,-143.066,-68.359,-66.895,1458.377
1686362381.485,-83.496,-474.121,9.277,-130.859,1458.381
1686362381.489,-106.934,192.383,-4.883,-155.762,1458.385
1686362381.493,-106.445,318.359,-51.758,-98.633,1458.389
1686362381.497,-93.262,-70.312,-62.500,-74.707,1458.393
1686362381.501,-88.379,-226.074,-71.289,-118.652,1458.397
1686362381.504,-93.750,-34.668,-19.043,-149.902,1458.401
1686362381.508,-75.195,209.473,-39.551,-119.141,1458.405
1686362381.512,-44.922,-340.332,-89.355,-62.500,1458.408
1686362381.516,-36.621,-170.898,-9.766,-60.059,1458.412
1686362381.520,-46.387,391.113,-47.363,-89.355,1458.416
1686362381.524,-55.664,-89.355,-83.496,-86.426,1458.420
1686362381.526,-27.832,-274.902,-12.695,-64.453,1458.422
1686362381.530,11.230,97.656,-41.016,-60.547,1458.426
1686362381.534,7.812,56.641,-55.664,-70.801,1458.430
1686362381.538,-24.414,-44.434,-59.570,-70.312,1458.434
1686362381.542,-39.551,-581.055,-74.707,-13.672,1458.438
1686362381.546,-36.621,-269.043,-21.973,27.832,1458.442
1686362381.549,-55.664,480.469,-18.555,-1.953,1458.446
1686362381.553,-75.684,176.758,-85.938,-0.488,1458.450
1686362381.557,-65.918,-508.301,-54.199,34.180,1458.453
1686362381.561,-34.668,269.531,0.977,39.062,1458.457
1686362381.565,-10.742,638.672,-58.594,-20.020,1458.461
1686362381.569,-19.531,83.496,-64.453,-85.449,1458.465
1686362381.572,-30.762,125.977,-22.949,-43.945,1458.470
1686362381.576,-24.414,281.738,-35.645,31.738,1458.474
1686362381.580,-17.578,50.781,-62.988,25.879,1458.478
1686362381.584,-21.484,-159.180,-73.242,-14.648,1458.482
1686362381.588,-26.855,59.082,-26.367,-30.762,1458.485
1686362381.592,-15.137,171.387,-34.180,-32.227,1458.489
1686362381.595,-4.395,109.375,-46.387,-26.367,1458.493
1686362381.599,-25.879,-170.410,-83.008,-69.824,1458.497
1686362381.603,-45.898,-142.578,-41.016,-119.629,1458.501
1686362381.607,-19.531,563.965,-15.625,-110.840,1458.505
1686362381.611,-1.465,517.578,-52.246,-80.078,1458.509
1686362381.615,-24.414,108.887,-10.254,-88.867,1458.513
1686362381.616,-37.109,269.531,-25.391,-107.422,1458.512
1686362381.620,-16.113,370.117,-45.410,-46.387,1458.516
1686362381.624,20.996,-24.414,-46.875,2.930,1458.520
1686362381.628,32.227,-375.488,-44.922,-24.902,1458.524
1686362381.632,15.625,91.797,-41.504,-51.270,1458.527
1686362381.636,2.930,284.668,-60.547,-34.668,1458.531
1686362381.639,6.348,108.887,-54.688,6.348,1458.535
1686362381.643,-0.488,-331.055,-52.734,35.156,1458.539
1686362381.647,-26.367,235.840,10.254,-27.832,1458.543
1686362381.651,-18.066,811.035,-9.766,-68.848,1458.547
1686362381.655,1.953,446.289,-49.316,-9.277,1458.551
1686362381.659,0.977,425.781,-23.438,32.715,1458.555
1686362381.662,-26.855,520.508,-30.762,23.926,1458.559
1686362381.666,-62.500,306.152,-46.387,14.648,1458.563
1686362381.670,-59.570,59.570,-56.641,7.812,1458.566
1686362381.674,-24.902,279.297,-33.203,-9.277,1458.570
1686362381.678,0.488,424.316,-26.855,-73.730,1458.574
1686362381.682,-19.531,106.934,-62.500,-119.141,1458.578
1686362381.685,-28.320,-389.160,-85.449,-22.461,1458.582
1686362381.689,-6.348,-157.715,-12.695,83.984,1458.586
1686362381.693,0.488,687.988,-6.348,51.758,1458.590
1686362381.697,-14.648,561.035,-55.176,-1.953,1458.594
1686362381.701,-32.227,-123.047,-57.129,5.371,1458.598
1686362381.705,-23.438,195.801,-24.414,29.785,1458.602
1686362381.706,-2.930,647.949,-19.043,6.836,1458.616
1686362381.710,-18.555,316.895,-44.922,-62.988,1458.620
1686362381.714,-42.969,-134.766,-13.672,-105.957,1458.624
1686362381.718,-16.602,256.836,-2.930,-105.469,1458.628
1686362381.722,-1.465,544.434,-34.180,-95.215,1458.632
1686362381.726,-42.969,88.867,-64.941,-112.793,1458.636
1686362381.729,-69.824,-606.934,-48.828,-118.164,1458.640
1686362381.733,-45.898,105.469,32.715,-55.176,1458.644
1686362381.737,-9.766,841.309,-13.184,-16.113,1458.648
1686362381.741,-7.812,345.215,-45.410,-52.246,1458.651
1686362381.745,-20.508,198.242,-0.488,-67.871,1458.655
1686362381.749,-5.371,483.398,-9.766,-27.344,1458.659
1686362381.753,17.578,470.703,-33.203,1.465,1458.661
1686362381.757,5.859,138.184,-39.551,-28.320,1458.665
1686362381.761,-20.996,129.883,-17.578,-84.473,1458.669
1686362381.765,-37.598,373.047,-16.602,-112.305,1458.673
1686362381.769,-28.809,336.426,-34.180,-92.285,1458.677
1686362381.773,-13.672,-75.195,-72.266,-75.195,1458.680
1686362381.776,-27.832,-89.844,-47.852,-95.215,1458.684
1686362381.780,-43.945,367.188,-9.766,-124.512,1458.688
1686362381.784,-39.551,357.910,-41.504,-130.859,1458.692
1686362381.788,-25.391,-256.348,-81.543,-97.656,1458.696
1686362381.792,-30.273,19.531,-5.371,-66.406,1458.700
1686362381.796,-28.809,438.477,-14.648,-53.711,1458.704
1686362381.826,-16.602,-15.625,-52.734,-28.320,1458.722
1686362381.830,-13.184,-312.012,-11.719,1.953,1458.726
1686362381.834,-18.555,4.395,-3.418,-20.508,1458.730
1686362381.838,-39.062,365.723,-14.648,-74.219,1458.734
1686362381.842,-39.062,185.059,-56.152,-41.016,1458.738
1686362381.846,-1.465,-566.895,-44.922,22.461,1458.742
1686362381.849,8.789,-31.738,28.809,-4.395,1458.746
1686362381.853,-12.207,687.988,-16.113,-49.316,1458.750
1686362381.857,-9.766,177.246,-57.129,-30.762,1458.753
1686362381.861,14.160,-67.383,-4.883,18.066,1458.757
1686362381.865,17.578,395.996,-12.695,27.832,1458.761
1686362381.869,-6.348,348.145,-53.711,-26.855,1458.765
1686362381.857,-30.273,-52.246,-44.434,-44.434,1458.754
1686362381.861,-11.719,53.223,-12.207,-15.625,1458.758
1686362381.865,11.719,180.664,-29.297,11.719,1458.762
1686362381.869,7.812,-22.949,-39.062,-7.324,1458.766
1686362381.873,-3.418,-286.133,-50.293,-40.527,1458.770
1686362381.877,5.371,-316.406,-25.391,-22.949,1458.774
1686362381.880,33.691,168.945,-1.953,-12.207,1458.777
1686362381.884,44.922,311.035,-33.691,-34.668,1458.781
1686362381.888,12.695,-221.680,-64.453,-65.430,1458.785
1686362381.892,-3.418,-83.984,-22.949,-67.871,1458.789
1686362381.896,24.902,334.961,-4.883,-18.555,1458.793
1686362381.900,28.809,111.328,-44.434,6.836,1458.797
1686362381.916,11.230,-609.863,-46.875,-19.531,1458.812
1686362381.920,-7.324,-341.797,5.859,-14.648,1458.816
1686362381.924,-6.348,140.625,13.184,26.855,1458.820
1686362381.928,12.695,64.941,-11.719,63.965,1458.824
1686362381.932,13.184,-285.156,-4.395,62.500,1458.828
1686362381.936,17.090,-183.105,-0.977,78.125,1458.832
1686362381.939,44.434,29.785,-19.531,127.930,1458.836
1686362381.943,63.477,-42.480,-15.625,133.789,1458.840
1686362381.947,36.133,-699.219,-31.250,102.539,1458.844
1686362381.951,-0.488,-366.699,46.875,70.312,1458.848
1686362381.955,-1.465,539.551,34.668,79.590,1458.851
1686362381.959,10.742,265.625,-21.484,84.473,1458.855
1686362381.946,17.090,164.551,19.531,52.246,1458.842
1686362381.950,-6.348,230.957,-2.930,-9.277,1458.846
1686362381.954,-22.949,-17.090,-33.203,-23.926,1458.850
1686362381.958,3.906,-226.074,-34.668,20.020,1458.854
1686362381.962,22.461,-62.988,-11.719,18.066,1458.858
1686362381.966,9.766,-150.879,-28.320,-31.738,1458.862
1686362381.969,8.789,-303.223,-36.621,-39.551,1458.866
1686362381.973,34.668,-435.547,-58.105,11.719,1458.870
1686362381.977,57.129,-252.930,-18.066,26.855,1458.874
1686362381.981,57.617,201.660,12.695,3.906,1458.877
1686362381.985,45.410,102.539,-38.574,-3.906,1458.881
1686362381.989,35.645,-750.000,-66.895,44.434,1458.885
1686362381.991,41.504,-563.477,28.809,80.078,1458.888
1686362381.995,41.504,322.266,21.973,24.902,1458.892
1686362381.999,28.809,-135.254,-44.434,-32.715,1458.896
1686362382.003,14.160,-642.090,-28.809,-45.898,1458.900
1686362382.007,13.672,12.695,9.766,-16.113,1458.904
1686362382.011,21.973,216.797,-8.789,7.324,1458.907
1686362382.014,4.395,-284.180,-47.852,-10.742,1458.911
1686362382.018,-6.836,-676.270,-27.344,-28.809,1458.915
1686362382.022,5.371,-36.621,10.254,-5.859,1458.919
1686362382.026,10.742,374.023,-21.973,26.367,1458.923
1686362382.030,-1.953,-116.699,-39.062,-9.277,1458.927
1686362382.034,-15.137,-236.816,-4.395,-45.898,1458.931
1686362382.036,5.371,69.336,-6.348,-39.551,1458.933
1686362382.040,29.297,98.145,-37.109,-64.453,1458.937
1686362382.044,14.648,-329.590,-67.383,-101.074,1458.941
1686362382.048,-10.742,-287.109,-30.762,-97.656,1458.945
1686362382.052,-20.508,-18.555,-20.996,-52.734,1458.948
1686362382.056,-1.465,-229.004,-46.875,2.441,1458.952
1686362382.059,22.461,-645.996,-75.195,17.090,1458.956
1686362382.063,19.531,-595.215,4.395,-20.996,1458.960
1686362382.067,16.113,172.852,11.719,-8.789,1458.964
1686362382.071,43.945,189.453,-40.039,67.383,1458.968
1686362382.075,59.082,-178.223,-3.906,90.820,1458.972
1686362382.079,46.387,-64.453,-30.273,45.898,1458.976
1686362382.097,42.480,-41.992,-41.504,15.137,1458.994
1686362382.101,38.086,-390.137,-48.340,23.926,1458.998
1686362382.105,38.086,-822.754,-66.406,57.617,1459.002
1686362382.109,31.250,-189.453,-11.719,59.082,1459.006
1686362382.113,-8.789,255.859,-34.668,18.066,1459.010
1686362382.117,-6.836,-360.352,-73.730,28.809,1459.014
1686362382.120,31.250,-845.215,-49.316,83.008,1459.018
1686362382.124,32.715,-65.918,6.348,72.754,1459.022
1686362382.128,22.949,341.309,-22.949,36.133,1459.026
1686362382.132,24.414,-165.039,-56.641,52.734,1459.029
1686362382.136,49.316,-168.945,-30.273,83.984,1459.033
1686362382.140,58.594,78.613,-25.391,63.965,1459.037
1686362382.141,36.621,-16.113,-55.176,11.719,1459.051
1686362382.145,43.457,-339.844,-58.594,8.301,1459.055
1686362382.149,71.289,-196.289,-45.410,77.148,1459.058
1686362382.153,77.637,-67.383,-69.336,108.887,1459.062
1686362382.157,52.246,-347.656,-64.941,62.500,1459.066
1686362382.161,26.367,-518.555,-53.711,22.949,1459.070
1686362382.164,32.227,-209.473,-36.621,38.086,1459.074
1686362382.168,61.035,133.301,-33.691,32.715,1459.078
1686362382.172,62.500,5.371,-61.035,-2.930,1459.082
1686362382.176,24.414,-715.332,-95.703,-9.277,1459.086
1686362382.180,8.301,-651.367,7.812,10.742,1459.090
1686362382.184,19.531,312.012,6.836,44.434,1459.094
1686362382.186,8.301,215.332,-69.336,35.645,1459.081
1686362382.190,-18.555,-321.289,-47.363,-25.391,1459.085
1686362382.194,-19.531,-313.965,-43.457,-35.156,1459.089
1686362382.198,1.465,91.797,-51.270,-3.418,1459.093
1686362382.202,21.973,-70.801,-74.707,-17.578,1459.097
1686362382.206,20.020,-823.242,-67.871,-60.059,1459.101
1686362382.209,16.602,-449.219,-22.949,-94.727,1459.105
1686362382.213,40.039,227.051,-29.785,-75.684,1459.109
1686362382.217,69.824,123.047,-52.246,-26.367,1459.112
1686362382.221,68.848,-43.457,-43.457,-45.410,1459.116
1686362382.225,59.570,63.965,-47.363,-51.270,1459.120
1686362382.229,64.941,166.504,-56.641,-0.488,1459.124
1686362382.230,64.941,-242.188,-66.895,49.805,1459.139
1686362382.234,50.781,-741.211,-30.273,47.852,1459.143
1686362382.238,25.879,-82.520,-45.410,0.977,1459.147
1686362382.242,11.230,180.176,-75.195,9.277,1459.151
1686362382.246,24.414,-115.723,-83.984,48.828,1459.155
1686362382.250,31.250,-225.586,-74.707,17.090,1459.159
1686362382.253,14.648,-84.473,-28.320,-23.438,1459.163
1686362382.257,5.371,131.348,-60.059,-0.488,1459.166
1686362382.261,22.949,-532.227,-114.746,41.992,1459.170
1686362382.265,47.363,-543.945,-20.996,64.941,1459.174
1686362382.269,29.785,365.723,-26.367,35.645,1459.178
1686362382.273,-3.418,166.992,-76.172,34.180,1459.182
1686362382.276,-7.324,-221.680,-19.043,93.262,1459.171
1686362382.280,2.441,-15.137,-40.039,121.582,1459.175
1686362382.284,-2.930,-59.082,-64.941,82.031,1459.179
1686362382.288,-19.531,-293.945,-70.801,20.508,1459.183
1686362382.292,-28.320,-603.027,-48.828,33.691,1459.187
1686362382.296,21.973,-265.625,-28.320,68.359,1459.191
1686362382.299,49.805,179.199,-38.574,47.852,1459.195
1686362382.303,21.973,-42.969,-69.336,22.461,1459.199
1686362382.307,15.625,-652.832,-45.898,53.223,1459.203
1686362382.311,37.598,57.617,-4.395,144.043,1459.207
1686362382.315,44.922,419.434,-60.059,168.945,1459.211
1686362382.319,35.156,-181.641,-71.289,93.750,1459.214
1686362382.321,33.691,-172.363,-41.016,60.059,1459.216
1686362382.325,33.203,151.855,-42.969,71.777,1459.220
1686362382.329,29.297,120.605,-58.594,41.504,1459.224
1686362382.333,1.953,-325.195,-80.078,-8.789,1459.228
1686362382.337,-29.297,-320.801,-46.387,-31.738,1459.232
1686362382.341,-25.391,-127.441,-45.898,-0.488,1459.236
1686362382.344,-9.766,-150.391,-67.871,37.598,1459.240
1686362382.348,-22.461,-452.637,-97.656,16.113,1459.244
1686362382.352,-39.551,-388.672,-28.320,8.789,1459.247
1686362382.356,-24.414,319.824,-9.277,26.367,1459.251
1686362382.360,1.953,223.145,-62.012,29.297,1459.255
1686362382.364,13.672,-254.395,-26.855,7.324,1459.259
1686362382.367,16.602,-52.246,-23.438,-20.508,1459.263
1686362382.371,26.367,0.488,-51.758,-16.113,1459.267
1686362382.375,34.668,-334.961,-53.223,-5.371,1459.271
1686362382.379,27.832,-767.578,-49.805,-39.062,1459.274
1686362382.383,4.395,-240.234,4.883,-104.980,1459.278
1686362382.387,-21.973,155.762,-20.020,-149.902,1459.282
1686362382.390,-7.324,-227.539,-42.480,-133.789,1459.286
1686362382.394,5.859,-567.871,-25.879,-112.793,1459.290
1686362382.398,-13.672,46.875,-1.953,-118.164,1459.294
1686362382.402,-16.113,336.914,-32.227,-88.379,1459.298
1686362382.406,-2.930,-108.887,-38.574,-44.434,1459.302
1686362382.410,10.742,-82.520,-14.160,-25.391,1459.306
1686362382.413,1.465,80.566,-27.832,-35.156,1459.320
1686362382.417,-27.344,-60.059,-43.945,-71.289,1459.324
1686362382.421,-32.227,-419.922,-51.270,-74.219,1459.328
1686362382.425,-17.578,-293.945,1.953,-46.387,1459.332
1686362382.429,-26.855,-170.898,-34.668,-61.035,1459.336
1686362382.433,-54.688,-406.250,-59.570,-102.051,1459.340
1686362382.436,-62.988,-729.004,-71.777,-73.730,1459.343
1686362382.440,-51.758,-746.582,-0.488,-40.039,1459.347
1686362382.444,-38.086,65.430,-2.930,-55.176,1459.351
1686362382.448,-31.738,143.555,-52.734,-93.262,1459.355
1686362382.452,-29.297,-244.629,0.488,-102.539,1459.359
1686362382.456,-7.812,-72.754,-0.977,-66.895,1459.363
1686362382.456,13.184,115.234,-26.855,-49.316,1459.366
1686362382.460,1.953,-235.352,-46.387,-88.379,1459.370
1686362382.464,-26.367,-694.824,-8.789,-84.473,1459.374
1686362382.468,-26.855,-246.582,20.508,-3.906,1459.378
1686362382.472,-1.953,63.477,-10.742,54.199,1459.382
1686362382.476,-5.371,-364.746,-54.199,22.949,1459.386
1686362382.479,-24.414,-949.707,-55.176,-20.996,1459.390
1686362382.483,-34.180,-589.844,40.527,-19.531,1459.393
1686362382.487,-23.438,343.262,24.902,-22.461,1459.397
1686362382.491,-22.949,45.410,-38.574,-33.203,1459.401
1686362382.495,-36.621,-496.582,29.297,-44.922,1459.405
1686362382.499,-20.020,-8.301,24.902,-55.176,1459.409
1686362382.533,3.418,143.066,-25.879,-19.531,1459.429
1686362382.537,-6.348,-201.172,-45.410,10.254,1459.432
1686362382.541,-48.828,-193.359,-19.531,-9.277,1459.436
1686362382.545,-80.566,-75.684,7.324,-15.137,1459.440
1686362382.549,-71.777,-135.742,-20.020,10.742,1459.444
1686362382.553,-55.176,-511.230,-67.871,26.855,1459.448
1686362382.556,-68.359,-484.375,-22.461,16.602,1459.452
1686362382.560,-99.121,-31.738,5.859,-5.859,1459.456
1686362382.564,-87.891,-51.758,-29.785,1.953,1459.460
1686362382.568,-54.199,-645.996,-55.664,35.156,1459.464
1686362382.572,-61.035,-457.031,18.555,-15.137,1459.468
1686362382.576,-91.797,175.781,22.461,-56.641,1459.472
1686362382.561,-83.984,-24.902,-26.855,8.301,1459.457
1686362382.565,-54.688,-612.793,-0.488,81.543,1459.461
1686362382.569,-51.758,-344.238,43.945,75.684,1459.465
1686362382.573,-69.824,148.438,9.277,15.137,1459.469
1686362382.577,-72.754,-87.891,-26.367,16.602,1459.473
1686362382.581,-63.477,-492.676,10.254,53.711,1459.477
1686362382.584,-53.711,-139.648,41.504,53.711,1459.481
1686362382.588,-63.965,200.195,2.930,5.859,1459.485
1686362382.592,-78.613,-125.977,-25.391,-38.086,1459.489
1686362382.596,-61.035,-248.047,28.809,-24.902,1459.493
1686362382.600,-39.551,83.496,25.391,-15.625,1459.496
1686362382.604,-38.086,77.637,-6.836,-34.180,1459.500
1686362382.606,-50.293,-328.125,-21.484,-29.297,1459.502
1686362382.610,-45.898,-987.305,-13.672,-15.137,1459.506
1686362382.614,-13.184,-323.730,92.285,5.371,1459.510
1686362382.618,-21.484,574.707,66.406,5.859,1459.514
1686362382.622,-57.617,98.145,-20.020,-29.785,1459.518
1686362382.626,-59.082,-137.695,-2.441,-27.344,1459.522
1686362382.629,-38.086,126.465,40.039,23.438,1459.526
1686362382.633,-30.273,335.938,24.902,27.832,1459.529
1686362382.637,-46.387,-295.898,-44.922,-6.348,1459.533
1686362382.641,-51.270,-326.172,48.828,-20.996,1459.537
1686362382.645,-38.086,450.195,65.918,8.301,1459.541
1686362382.649,-29.785,317.871,1.465,45.898,1459.545
1686362382.651,-34.180,-21.973,46.875,37.598,1459.547
1686362382.655,-38.086,20.996,31.250,1.953,1459.551
1686362382.659,-27.832,-64.453,6.348,13.672,1459.555
1686362382.663,-15.625,-69.336,9.766,26.367,1459.559
1686362382.667,-23.926,-536.133,-9.766,4.883,1459.563
1686362382.671,-53.223,-334.473,29.785,-4.883,1459.567
1686362382.674,-48.340,390.137,45.898,16.602,1459.570
1686362382.678,-20.020,284.668,1.953,71.289,1459.574
1686362382.682,-21.973,-309.570,4.395,58.105,1459.578
1686362382.686,-41.992,268.555,60.059,-0.488,1459.582
1686362382.690,-55.176,544.922,20.508,12.207,1459.586
1686362382.694,-46.387,119.141,6.348,50.293,1459.590
1686362382.696,-37.109,202.637,46.875,42.969,1459.592
1686362382.700,-53.711,363.770,41.992,-3.906,1459.596
1686362382.704,-72.266,213.867,12.695,-14.648,1459.600
1686362382.708,-63.965,-27.832,0.977,52.246,1459.604
1686362382.712,-32.715,102.051,32.715,69.824,1459.608
1686362382.716,-41.504,59.570,34.180,16.602,1459.612
1686362382.719,-61.523,6.836,27.832,-13.672,1459.616
1686362382.723,-55.176,-330.566,-15.137,20.996,1459.620
1686362382.727,-42.969,-412.598,69.336,78.125,1459.623
1686362382.731,-54.688,596.191,116.211,51.270,1459.627
1686362382.735,-70.801,589.355,39.551,-17.578,1459.631
1686362382.739,-61.035,156.738,51.270,-26.855,1459.635
1686362382.741,-49.805,403.320,62.012,-15.625,1459.637
1686362382.745,-41.992,413.086,32.227,-35.645,1459.641
1686362382.749,-53.223,-105.469,5.371,-46.387,1459.645
1686362382.753,-70.801,-419.922,34.180,-9.766,1459.648
1686362382.757,-48.828,257.324,95.215,37.598,1459.652
1686362382.761,-31.738,443.848,58.594,79.590,1459.656
1686362382.764,-54.688,42.969,20.996,55.664,1459.660
1686362382.768,-76.172,-415.039,12.207,-13.184,1459.664
1686362382.772,-68.848,128.418,90.332,-22.461,1459.668
1686362382.776,-55.176,801.758,82.520,-46.875,1459.672
1686362382.780,-64.941,372.070,11.230,-132.812,1459.676
1686362382.784,-84.473,104.004,68.359,-154.785,1459.680
1686362382.786,-84.473,479.492,84.473,-84.473,1459.682
1686362382.790,-68.848,557.129,55.664,-32.227,1459.686
1686362382.794,-59.082,214.355,27.344,-50.293,1459.690
1686362382.798,-80.078,243.164,53.711,-73.242,1459.694
1686362382.802,-105.957,380.859,74.219,-26.367,1459.698
1686362382.806,-101.074,164.551,47.363,48.828,1459.702
1686362382.809,-105.957,-182.617,13.184,7.812,1459.706
1686362382.813,-130.371,-19.043,81.543,-76.660,1459.709
1686362382.817,-120.117,596.680,92.285,-84.961,1459.713
1686362382.821,-86.426,516.602,39.062,-53.711,1459.717
1686362382.825,-51.270,123.047,37.598,-37.109,1459.721
1686362382.829,-58.594,229.492,56.641,-94.727,1459.725
1686362382.831,-91.309,524.902,68.359,-140.625,1459.755
1686362382.835,-73.242,350.586,29.785,-130.859,1459.759
1686362382.839,-49.805,-389.160,0.977,-123.047,1459.763
1686362382.843,-65.918,56.152,98.633,-145.996,1459.767
1686362382.847,-85.449,778.809,93.262,-159.180,1459.771
1686362382.851,-78.125,232.422,24.414,-84.473,1459.775
1686362382.854,-48.340,-320.801,54.688,-18.555,1459.779
1686362382.858,-39.062,457.031,107.422,-55.664,1459.783
1686362382.862,-63.477,649.902,44.922,-119.141,1459.786
1686362382.866,-72.754,255.371,49.316,-129.395,1459.790
1686362382.870,-45.410,463.867,96.680,-96.191,1459.794
1686362382.874,-43.457,622.070,79.590,-79.102,1459.798
1686362382.879,-78.125,448.730,34.180,-87.402,1459.778
1686362382.883,-101.074,58.105,19.531,-82.031,1459.782
1686362382.887,-82.520,242.188,90.332,-4.395,1459.785
1686362382.891,-71.777,593.750,93.750,46.387,1459.789
1686362382.895,-90.332,486.816,31.738,-3.418,1459.793
1686362382.899,-89.355,-234.375,-12.207,-39.062,1459.797
1686362382.902,-69.824,-234.863,97.656,-45.410,1459.801
1686362382.906,-52.734,720.703,130.859,-64.941,1459.805
1686362382.910,-63.965,645.508,42.969,-116.699,1459.809
1686362382.914,-88.379,67.383,26.367,-140.137,1459.813
1686362382.918,-85.449,244.141,75.684,-111.816,1459.817
1686362382.922,-49.316,579.590,90.820,-61.035,1459.821
1686362382.936,-30.762,427.246,52.246,-31.738,1459.832
1686362382.940,-44.922,41.992,57.617,-69.336,1459.836
1686362382.944,-70.801,78.613,73.730,-61.523,1459.840
1686362382.948,-70.801,341.309,74.219,0.977,1459.844
1686362382.952,-54.199,344.238,60.547,2.441,1459.848
1686362382.956,-76.172,-476.562,3.906,-16.113,1459.851
1686362382.959,-118.164,-500.488,82.031,8.301,1459.855
1686362382.963,-115.723,748.047,145.020,40.527,1459.859
1686362382.967,-86.426,811.523,79.590,51.270,1459.863
1686362382.971,-76.660,517.578,83.008,16.602,1459.867
1686362382.975,-79.102,589.844,88.867,-20.508,1459.871
1686362382.979,-73.242,523.438,74.219,1.953,1459.875
1686362382.983,-73.730,265.137,62.500,26.855,1459.879
1686362382.987,-81.055,289.551,88.379,20.020,1459.883
1686362382.991,-77.637,460.938,85.938,-33.691,1459.887
1686362382.995,-74.219,359.375,59.570,-67.383,1459.891
1686362382.999,-73.730,140.137,39.551,-25.391,1459.895
1686362383.003,-74.707,91.797,54.688,-12.695,1459.899
1686362383.006,-75.684,123.047,58.105,-37.109,1459.903
1686362383.010,-72.754,178.223,50.781,0.488,1459.907
1686362383.014,-61.523,-152.832,20.996,78.125,1459.910
1686362383.018,-43.945,-223.633,97.656,83.984,1459.914
1686362383.022,-49.805,656.250,125.488,57.129,1459.918
1686362383.026,-64.941,587.891,58.594,62.012,1459.922
1686362383.026,-41.016,239.746,87.402,84.961,1459.921
1686362383.030,-29.785,421.875,90.820,84.473,1459.925
1686362383.034,-41.504,289.551,62.012,55.176,1459.929
1686362383.038,-60.059,13.184,56.152,8.789,1459.933
1686362383.042,-78.613,5.859,85.938,-9.766,1459.937
1686362383.046,-71.777,234.375,96.680,13.672,1459.941
1686362383.049,-66.895,401.367,90.332,-6.348,1459.945
1686362383.053,-82.520,361.328,52.734,-21.484,1459.949
1686362383.057,-92.773,-584.961,4.395,54.688,1459.953
1686362383.061,-83.496,-347.168,124.512,114.746,1459.957
1686362383.065,-71.289,839.844,139.648,83.496,1459.961
1686362383.069,-85.449,548.828,44.922,17.090,1459.964
1686362383.071,-101.074,291.504,88.867,-11.719,1459.967
1686362383.075,-87.402,545.410,95.703,15.137,1459.970
1686362383.079,-64.453,363.770,53.711,19.531,1459.974
1686362383.083,-77.148,85.938,46.875,-29.297,1459.978
1686362383.087,-100.586,217.773,71.777,-66.895,1459.982
1686362383.091,-86.426,132.324,69.336,-36.133,1459.986
1686362383.094,-66.895,80.078,72.266,45.898,1459.990
1686362383.098,-62.500,-150.879,41.504,31.250,1459.994
1686362383.102,-76.660,-39.062,113.281,-57.617,1459.998
1686362383.106,-72.266,632.812,133.789,-39.551,1460.002
1686362383.110,-53.223,521.973,71.777,34.668,1460.006
1686362383.114,-73.730,41.504,61.523,21.973,1460.009
1686362383.146,-91.309,199.707,86.426,-4.395,1460.041
1686362383.150,-93.750,370.605,91.797,28.320,1460.045
1686362383.154,-97.168,34.180,57.129,52.246,1460.049
1686362383.158,-83.984,-441.895,33.691,41.504,1460.053
1686362383.162,-87.891,22.949,120.605,1.465,1460.057
1686362383.166,-94.727,448.242,102.539,-18.555,1460.061
1686362383.169,-64.941,168.945,59.082,-13.184,1460.065
1686362383.173,-41.016,-213.867,57.129,-4.395,1460.069
1686362383.177,-58.594,322.754,103.027,-41.016,1460.073
1686362383.181,-76.660,628.418,90.820,-57.617,1460.076
1686362383.185,-78.613,256.348,66.895,-3.418,1460.080
1686362383.189,-62.500,269.531,98.633,32.715,1460.084
1686362383.176,-56.641,400.879,101.562,21.484,1460.076
1686362383.180,-87.402,250.977,67.871,-1.465,1460.080
1686362383.184,-91.309,-131.836,57.129,20.508,1460.084
1686362383.188,-75.684,53.223,105.957,23.926,1460.088
1686362383.192,-72.754,465.820,89.355,-24.414,1460.091
1686362383.196,-79.590,69.824,30.273,-67.871,1460.095
1686362383.199,-83.008,-315.430,30.762,-89.355,1460.099
1686362383.203,-57.129,146.973,90.332,-76.660,1460.103
1686362383.207,-28.809,583.984,102.539,-41.992,1460.107
1686362383.211,-39.551,311.035,52.246,-54.688,1460.111
1686362383.215,-58.594,-229.980,25.879,-61.523,1460.115
1686362383.219,-59.570,90.820,85.938,-15.625,1460.119
1686362383.206,-45.898,481.445,93.262,37.598,1460.115
1686362383.210,-51.270,217.773,37.598,57.617,1460.119
1686362383.214,-75.684,-720.703,10.254,71.777,1460.123
1686362383.218,-65.918,-499.023,137.207,105.469,1460.127
1686362383.222,-38.086,582.031,128.906,136.230,1460.131
1686362383.226,-54.199,225.098,25.391,117.188,1460.135
1686362383.229,-85.449,-427.246,61.523,58.594,1460.138
1686362383.233,-68.848,242.676,127.930,60.547,1460.142
1686362383.237,-30.273,728.516,108.398,104.004,1460.146
1686362383.241,-18.066,177.246,49.316,117.676,1460.150
1686362383.245,-40.039,-547.852,48.340,82.520,1460.154
1686362383.249,-64.453,142.578,124.023,58.594,1460.158
1686362383.253,-69.336,602.539,97.656,69.336,1460.161
1686362383.257,-74.219,143.066,42.969,16.113,1460.165
1686362383.261,-89.355,126.953,68.848,-81.055,1460.169
1686362383.265,-103.027,263.184,88.867,-109.375,1460.173
1686362383.269,-81.055,227.051,67.871,-64.941,1460.177
1686362383.273,-50.293,-213.867,23.926,-54.199,1460.181
1686362383.276,-47.363,-203.613,63.477,-104.004,1460.185
1686362383.280,-60.059,140.625,60.059,-160.156,1460.188
1686362383.284,-47.852,54.688,27.344,-148.438,1460.192
1686362383.288,-12.695,-310.059,28.809,-74.219,1460.196
1686362383.292,-8.301,-61.035,107.910,-18.555,1460.200
1686362383.296,-14.648,423.340,86.914,-4.395,1460.204
1686362383.311,-17.578,188.965,34.180,-22.461,1460.207
1686362383.315,-13.672,-89.844,57.617,-37.109,1460.211
1686362383.319,-17.090,-49.805,54.199,-49.805,1460.215
1686362383.323,-53.711,223.145,57.129,-81.055,1460.219
1686362383.327,-88.379,29.785,12.695,-73.242,1460.223
1686362383.331,-83.496,-758.789,0.977,-24.414,1460.227
1686362383.334,-67.383,-191.406,106.445,-6.836,1460.231
1686362383.338,-68.848,518.066,89.844,-57.617,1460.235
1686362383.342,-90.332,45.410,24.414,-85.938,1460.238
1686362383.346,-101.562,-263.184,70.801,-63.477,1460.242
1686362383.350,-79.590,62.500,91.309,-10.254,1460.246
1686362383.354,-78.125,340.820,59.082,30.762,1460.250
1686362383.356,-90.820,-42.969,20.508,38.574,1460.252
1686362383.360,-89.844,-205.566,76.660,97.168,1460.256
1686362383.364,-68.848,221.680,100.098,199.707,1460.260
1686362383.368,-56.152,241.699,51.270,205.078,1460.264
1686362383.372,-65.918,-205.078,1.953,139.160,1460.268
1686362383.376,-62.012,-409.180,27.344,143.066,1460.272
1686362383.379,-52.734,-57.617,84.961,146.973,1460.276
1686362383.383,-47.852,254.395,67.871,124.512,1460.280
1686362383.387,-60.547,-312.500,5.859,110.840,1460.284
1686362383.391,-81.543,-300.781,80.078,58.105,1460.288
1686362383.395,-77.148,416.504,95.215,13.184,1460.291
1686362383.399,-64.941,259.766,43.457,-2.441,1460.295
1686362383.431,-84.961,-177.246,52.734,-40.039,1460.328
1686362383.435,-106.934,-111.816,48.340,-70.312,1460.332
1686362383.439,-98.145,14.648,57.617,-46.387,1460.335
1686362383.443,-70.801,86.914,50.781,9.766,1460.339
1686362383.447,-70.312,-548.828,-6.836,27.344,1460.343
1686362383.451,-89.844,-369.629,66.895,2.930,1460.347
1686362383.454,-76.172,336.914,93.750,23.926,1460.351
1686362383.458,-53.223,206.543,32.715,69.336,1460.355
1686362383.462,-61.035,-372.559,30.762,53.223,1460.359
1686362383.466,-83.984,162.598,93.750,-10.254,1460.363
1686362383.470,-91.797,498.535,64.941,-17.578,1460.367
1686362383.474,-65.430,134.277,39.551,61.523,1460.371
1686362383.446,-44.434,181.641,68.848,77.148,1460.343
1686362383.450,-62.988,260.742,60.547,29.785,1460.346
1686362383.454,-80.078,67.383,20.508,20.020,1460.350
1686362383.458,-60.059,-249.023,18.555,55.664,1460.354
1686362383.462,-52.734,-66.406,76.172,62.500,1460.358
1686362383.466,-60.059,117.188,54.688,8.789,1460.362
1686362383.469,-59.570,-47.852,29.785,-27.344,1460.366
1686362383.473,-54.688,-189.453,29.785,14.648,1460.370
1686362383.477,-41.992,174.316,85.449,89.844,1460.374
1686362383.481,-57.617,516.113,80.566,97.168,1460.378
1686362383.485,-98.145,215.332,27.832,111.328,1460.382
1686362383.489,-108.887,-264.648,26.367,167.480,1460.385
1686362383.491,-86.426,93.262,68.848,156.250,1460.387
1686362383.495,-82.520,341.309,57.129,118.652,1460.391
1686362383.499,-110.352,-29.785,16.113,85.938,1460.395
1686362383.503,-120.605,-670.410,-7.324,69.824,1460.399
1686362383.507,-94.238,-408.203,93.750,65.918,1460.403
1686362383.511,-70.801,482.422,99.609,44.434,1460.407
1686362383.514,-94.238,253.418,15.625,21.484,1460.411
1686362383.518,-121.094,-505.859,11.230,26.367,1460.415
1686362383.522,-104.980,135.742,110.840,47.852,1460.418
1686362383.526,-77.148,798.828,86.426,94.727,1460.422
1686362383.530,-79.102,336.426,20.020,83.984,1460.426
1686362383.534,-94.238,220.215,59.082,18.066,1460.430
1686362383.537,-94.727,366.699,66.895,29.785,1460.434
1686362383.541,-76.172,317.871,47.363,55.664,1460.438
1686362383.545,-75.195,23.438,21.973,24.414,1460.442
1686362383.549,-97.168,54.199,41.992,5.859,1460.446
1686362383.553,-104.004,204.102,57.129,66.895,1460.450
1686362383.557,-83.496,24.902,28.320,138.184,1460.454
1686362383.560,-66.406,-292.969,8.301,123.535,1460.457
1686362383.564,-83.496,-236.816,75.195,58.594,1460.461
1686362383.568,-95.703,229.980,81.055,29.785,1460.465
1686362383.572,-78.125,330.566,44.922,58.105,1460.469
1686362383.576,-54.199,-78.125,8.789,84.473,1460.473
1686362383.580,-51.270,97.168,47.852,51.758,1460.477
1686362383.581,-63.965,378.906,51.758,-6.348,1460.491
1686362383.585,-76.660,109.375,22.461,10.742,1460.495
1686362383.589,-67.871,-224.121,66.406,62.500,1460.499
1686362383.593,-63.965,82.031,87.891,54.199,1460.503
1686362383.597,-83.496,261.719,52.734,19.043,1460.507
1686362383.601,-92.773,-207.031,16.602,33.691,1460.511
1686362383.604,-86.914,-749.023,23.438,50.293,1460.515
1686362383.608,-90.820,-32.715,112.305,-26.367,1460.519
1686362383.612,-112.305,570.312,69.824,-99.121,1460.523
1686362383.616,-109.375,174.316,15.137,-92.285,1460.527
1686362383.620,-81.055,44.922,51.270,-62.988,1460.530
1686362383.624,-74.219,113.770,51.270,-74.707,1460.534
1686362383.629,-90.332,204.102,35.156,-118.652,1460.527
1686362383.633,-94.727,-113.281,37.598,-151.367,1460.531
1686362383.637,-77.637,-110.840,88.867,-128.418,1460.535
1686362383.641,-56.641,302.734,84.961,-80.566,1460.539
1686362383.645,-62.012,251.465,40.039,-65.430,1460.543
1686362383.649,-83.984,-253.906,-5.371,-30.273,1460.547
1686362383.652,-92.773,-276.855,42.480,4.395,1460.551
1686362383.656,-83.984,254.883,77.148,29.785,1460.555
1686362383.660,-77.148,229.980,20.508,30.273,1460.559
1686362383.664,-80.078,-421.875,-35.156,-37.109,1460.563
1686362383.668,-66.406,-205.566,56.152,-62.012,1460.566
1686362383.672,-48.828,396.484,77.637,0.977,1460.570
1686362383.686,-36.621,155.273,10.254,20.996,1460.582
1686362383.690,-39.551,-273.926,29.785,0.000,1460.586
1686362383.694,-57.617,-275.391,41.504,20.996,1460.590
1686362383.698,-43.457,85.938,66.406,68.848,1460.594
1686362383.702,-17.090,230.469,33.203,61.035,1460.598
1686362383.706,-24.902,-765.625,-51.270,-29.297,1460.602
1686362383.709,-64.453,-840.820,29.785,-90.820,1460.606
1686362383.713,-75.195,461.426,99.121,-72.266,1460.610
1686362383.717,-71.289,458.496,26.367,-19.531,1460.614
1686362383.721,-92.773,145.508,33.691,-6.836,1460.618
1686362383.725,-102.051,259.766,32.715,-7.324,1460.621
1686362383.729,-81.055,215.332,20.508,1.953,1460.625
1686362383.731,-44.922,24.414,22.949,1.953,1460.628
1686362383.735,-36.621,45.898,52.246,-10.742,1460.632
1686362383.739,-58.105,138.672,32.227,-16.113,1460.635
1686362383.743,-69.824,11.719,11.719,17.578,1460.639
1686362383.747,-55.664,-290.527,3.418,65.430,1460.643
1686362383.751,-53.711,-311.035,25.879,86.426,1460.647
1686362383.754,-81.543,85.449,62.500,69.824,1460.651
1686362383.758,-85.449,274.902,41.504,68.848,1460.655
1686362383.762,-53.711,-301.270,-8.789,75.195,1460.659
1686362383.766,-27.344,-142.578,71.289,60.059,1460.663
1686362383.770,-39.551,517.578,64.941,8.301,1460.667
1686362383.774,-66.406,209.961,11.719,-7.812,1460.671
1686362383.776,-61.523,-51.270,57.129,30.273,1460.672
1686362383.780,-40.039,36.621,47.852,81.055,1460.676
1686362383.784,-51.758,53.711,30.762,95.215,1460.680
1686362383.788,-74.219,42.969,13.672,63.477,1460.684
1686362383.792,-69.336,-391.602,8.301,87.402,1460.688
1686362383.796,-39.551,-85.938,63.965,139.648,1460.692
1686362383.799,-37.598,312.012,54.688,104.492,1460.696
1686362383.803,-64.453,64.453,10.254,23.438,1460.700
1686362383.807,-69.824,-549.805,5.371,3.418,1460.704
1686362383.811,-54.199,116.211,104.004,22.461,1460.708
1686362383.815,-44.434,768.555,64.941,20.996,1460.711
1686362383.819,-50.293,303.223,1.465,-32.715,1460.715
1686362383.837,-72.754,215.332,53.223,-56.641,1460.734
1686362383.841,-70.312,395.508,59.570,-2.930,1460.738
1686362383.845,-56.641,324.219,17.578,25.879,1460.742
1686362383.849,-61.035,2.930,-16.113,-73.242,1460.745
1686362383.853,-74.707,44.434,5.371,-156.738,1460.749
1686362383.857,-94.238,29.785,12.207,-96.191,1460.753
1686362383.860,-86.426,30.762,1.465,-27.832,1460.757
1686362383.864,-69.336,-165.527,-20.020,-20.996,1460.761
1686362383.868,-88.379,-168.945,41.992,-16.602,1460.765
1686362383.872,-91.309,326.660,54.199,53.711,1460.769
1686362383.876,-52.246,420.410,18.066,115.234,1460.773
1686362383.880,-32.715,-52.734,-17.578,111.328,1460.777
1686362383.866,-46.875,173.828,22.949,54.688,1460.761
1686362383.870,-57.617,401.855,4.883,26.855,1460.765
1686362383.874,-44.922,-31.738,-22.461,86.426,1460.769
1686362383.878,-34.180,-57.617,41.016,100.586,1460.773
1686362383.882,-33.203,341.309,29.785,30.762,1460.777
1686362383.886,-52.734,179.688,-28.809,19.531,1460.781
1686362383.889,-56.152,-52.246,-11.230,71.777,1460.785
1686362383.893,-30.762,187.500,32.715,114.746,1460.789
1686362383.897,-20.996,480.469,18.555,85.449,1460.793
1686362383.901,-39.551,482.910,-3.906,60.059,1460.796
1686362383.905,-39.551,115.234,-27.344,102.539,1460.800
1686362383.909,-21.973,-613.770,-9.766,127.441,1460.804
1686362383.913,-29.785,111.328,75.195,90.332,1460.809
1686362383.917,-49.316,770.020,22.949,54.688,1460.813
1686362383.921,-48.340,189.453,-24.414,51.758,1460.817
1686362383.925,-27.344,208.008,49.316,49.805,1460.821
1686362383.929,-25.879,534.668,36.133,33.203,1460.825
1686362383.933,-43.457,261.230,-27.832,-11.230,1460.829
1686362383.936,-57.617,-218.750,-31.250,-30.273,1460.832
1686362383.940,-53.223,-5.371,60.059,13.672,1460.836
1686362383.944,-46.875,671.387,42.969,61.523,1460.840
1686362383.948,-63.477,493.652,-19.531,99.609,1460.844
1686362383.952,-74.707,103.516,-6.836,119.629,1460.848
1686362383.956,-75.195,280.273,17.090,148.926,1460.852
1686362383.957,-59.570,472.168,5.371,185.059,1460.866
1686362383.961,-47.363,212.402,-21.973,178.223,1460.869
1686362383.965,-45.898,-227.051,20.508,160.156,1460.873
1686362383.969,-24.902,-12.207,19.531,164.062,1460.877
1686362383.973,5.371,456.543,4.395,187.012,1460.881
1686362383.977,0.977,235.840,-14.648,168.945,1460.885
1686362383.980,-26.367,-674.805,-46.387,119.629,1460.889
1686362383.984,-40.527,-319.824,53.711,95.215,1460.893
1686362383.988,-30.273,798.828,52.246,86.914,1460.897
1686362383.992,-26.367,644.531,-22.949,46.387,1460.901
1686362383.996,-53.223,368.652,0.977,-9.277,1460.905
1686362384.000,-79.102,433.594,8.789,-2.441,1460.909
1686362384.002,-72.266,446.777,-5.371,52.246,1460.910
1686362384.006,-52.246,262.207,-14.648,80.566,1460.914
1686362384.010,-58.105,248.535,6.348,62.012,1460.918
1686362384.014,-54.688,353.516,7.324,50.293,1460.922
1686362384.018,-43.457,247.070,-7.324,43.945,1460.926
1686362384.022,-49.805,-132.324,-34.180,31.250,1460.930
1686362384.025,-64.941,-131.348,19.043,-2.930,1460.933
1686362384.029,-68.848,498.535,35.645,-42.480,1460.937
1686362384.033,-62.500,546.387,-17.578,-39.551,1460.941
1686362384.037,-39.551,-91.309,-53.711,22.461,1460.945
1686362384.041,-18.066,168.457,19.043,49.805,1460.949
1686362384.045,-30.273,620.605,8.789,21.973,1460.953
1686362384.061,-44.922,354.004,-17.578,9.766,1460.956
1686362384.065,-26.855,58.594,3.906,20.020,1460.960
1686362384.069,1.465,81.543,-7.324,18.555,1460.964
1686362384.073,-7.812,423.828,1.953,-48.340,1460.968
1686362384.077,-33.203,283.691,-23.926,-83.984,1460.972
1686362384.081,-25.879,-533.691,-25.879,-25.879,1460.976
1686362384.084,-1.953,1.465,55.664,24.414,1460.980
1686362384.088,16.113,670.898,12.695,10.742,1460.984
1686362384.092,6.836,181.641,-42.480,-1.465,1460.987
1686362384.096,-10.742,-246.582,-8.301,3.418,1460.991
1686362384.100,4.883,512.695,42.480,18.555,1460.995
1686362384.104,20.996,758.789,-12.695,26.367,1460.999
1686362384.106,0.977,250.488,-29.297,16.602,1461.002
1686362384.110,-18.066,276.367,14.160,12.695,1461.006
1686362384.114,1.465,464.844,-2.441,11.230,1461.010
1686362384.118,0.488,411.621,-19.531,-19.043,1461.014
1686362384.122,-31.250,55.176,-43.457,-34.668,1461.018
1686362384.126,-41.504,-102.051,-46.387,-26.855,1461.022
1686362384.129,-35.645,123.535,-8.301,-29.297,1461.026
1686362384.133,-21.484,454.102,-8.301,-13.184,1461.030
1686362384.137,-32.227,-49.805,-58.594,43.945,1461.033
1686362384.141,-61.523,-158.691,4.395,99.121,1461.037
1686362384.145,-55.664,413.086,22.949,107.422,1461.041
1686362384.149,-31.738,455.078,-12.207,63.477,1461.045
1686362384.151,-42.969,20.508,-27.832,-2.930,1461.047
1686362384.155,-76.660,104.492,-14.160,-44.922,1461.051
1686362384.159,-89.355,285.156,-3.906,1.465,1461.055
1686362384.163,-59.570,281.250,-8.301,62.012,1461.059
1686362384.167,-36.621,-180.176,-18.066,25.879,1461.063
1686362384.171,-49.805,-39.062,0.000,-37.109,1461.066
1686362384.174,-69.824,433.105,16.113,-31.250,1461.070
1686362384.178,-69.824,326.172,-13.184,2.930,1461.074
1686362384.182,-72.266,-251.465,-30.273,-4.883,1461.078
1686362384.186,-93.750,307.617,34.180,-24.902,1461.082
1686362384.190,-95.215,639.160,-1.465,28.809,1461.086
1686362384.194,-85.449,248.047,-20.508,127.441,1461.090
1686362384.196,-85.449,141.602,-1.465,141.602,1461.092
1686362384.200,-84.473,274.414,6.348,75.195,1461.096
1686362384.204,-85.938,388.184,-9.766,14.160,1461.100
1686362384.208,-87.891,72.754,-25.391,-0.977,1461.104
1686362384.212,-87.891,94.238,17.090,0.000,1461.108
1686362384.216,-95.703,254.883,-9.277,-18.066,1461.112
1686362384.219,-106.934,157.227,-27.344,-22.461,1461.115
1686362384.223,-109.375,-108.398,-37.109,-2.930,1461.119
1686362384.227,-82.520,65.918,41.504,18.555,1461.123
1686362384.231,-59.082,655.273,27.344,8.301,1461.127
1686362384.235,-55.176,428.223,-31.250,-20.508,1461.131
1686362384.239,-49.316,58.594,14.648,-26.367,1461.135
1686362384.241,-22.461,309.082,19.043,-6.348,1461.137
1686362384.245,6.836,389.648,-9.766,-24.414,1461.141
1686362384.249,-4.883,-72.754,-35.645,-80.566,1461.145
1686362384.253,-26.367,-594.238,-21.484,-74.707,1461.148
1686362384.257,-17.578,34.180,63.965,-35.156,1461.152
1686362384.261,3.418,536.621,20.020,-10.742,1461.156
1686362384.264,-1.953,115.723,-34.668,-41.504,1461.160
1686362384.268,-17.090,-359.375,-8.301,-109.863,1461.164
1686362384.272,-17.090,317.383,44.922,-144.043,1461.168
1686362384.276,5.859,763.184,13.672,-141.113,1461.172
1686362384.280,-5.371,291.016,-32.715,-150.391,1461.176
1686362384.284,-41.504,168.945,-3.906,-133.301,1461.180
1686362384.287,-39.551,302.734,3.906,-78.125,1461.183
1686362384.291,-21.973,329.590,-12.207,-27.344,1461.187
1686362384.295,-24.902,99.609,-23.926,-19.531,1461.191
1686362384.299,-37.109,106.934,5.371,-61.035,1461.195
1686362384.303,-62.500,175.781,0.977,-87.891,1461.199
1686362384.307,-59.570,37.598,-18.066,-50.781,1461.203
1686362384.310,-29.785,-335.449,-44.922,-20.020,1461.207
1686362384.314,-28.320,-401.855,46.387,-28.809,1461.211
1686362384.318,-41.992,459.961,67.383,-40.039,1461.215
1686362384.322,-41.016,453.613,-12.695,-9.277,1461.219
1686362384.326,-30.762,-13.672,-14.160,43.457,1461.222
1686362384.330,-36.621,224.609,6.348,9.277,1461.226
1686362384.331,-61.035,360.840,-11.230,-85.938,1461.271
1686362384.335,-64.453,138.672,-27.832,-105.469,1461.275
1686362384.339,-55.176,-244.141,20.996,-63.965,1461.279
1686362384.343,-64.453,22.949,50.781,-52.734,1461.283
1686362384.347,-75.684,380.371,4.395,-33.203,1461.287
1686362384.351,-77.637,-39.062,-34.668,11.230,1461.291
1686362384.354,-54.199,-619.629,-9.277,75.684,1461.295
1686362384.358,-28.809,64.941,45.898,88.867,1461.299
1686362384.362,-35.156,538.086,-15.625,33.691,1461.302
1686362384.366,-46.387,65.918,-37.598,42.480,1461.306
1686362384.370,-43.945,119.141,22.949,89.844,1461.310
1686362384.374,-42.969,531.250,15.625,72.266,1461.314
1686362384.381,-51.758,395.508,-37.109,10.742,1461.279
1686362384.385,-63.477,18.555,-31.738,-22.461,1461.283
1686362384.389,-54.688,118.164,4.395,-4.883,1461.287
1686362384.393,-24.414,365.723,-2.441,51.758,1461.291
1686362384.397,-14.648,266.602,-24.414,24.414,1461.295
1686362384.401,-27.832,-223.145,-42.969,-42.480,1461.299
1686362384.404,-28.320,-199.219,-6.348,-7.812,1461.303
1686362384.408,-20.020,342.773,15.625,20.996,1461.307
1686362384.412,-25.391,333.984,-28.320,-21.484,1461.310
1686362384.416,-44.922,-160.156,-65.430,-36.621,1461.314
1686362384.420,-58.105,-68.848,-17.090,9.277,1461.318
1686362384.424,-58.105,195.801,0.000,25.879,1461.322
1686362384.436,-40.527,208.008,-17.578,-9.277,1461.332
1686362384.440,-38.574,-207.031,-16.113,-40.527,1461.336
1686362384.444,-42.480,-178.223,-1.465,-41.504,1461.340
1686362384.448,-18.555,306.641,-4.395,-8.789,1461.344
1686362384.452,-6.348,319.824,-37.598,2.930,1461.348
1686362384.456,-42.480,-578.125,-72.754,-13.672,1461.352
1686362384.459,-67.871,-871.582,-22.949,-37.109,1461.356
1686362384.463,-44.434,245.605,61.523,-40.527,1461.359
1686362384.467,-17.578,748.047,20.020,-22.461,1461.363
1686362384.471,-9.277,514.160,-0.488,-39.062,1461.367
1686362384.475,-6.348,454.102,-3.906,-51.270,1461.371
1686362384.479,-15.625,333.008,-21.973,-13.184,1461.375
1686362384.484,-5.859,127.930,-23.438,47.852,1461.381
1686362384.488,16.602,26.367,-16.113,65.430,1461.385
1686362384.492,3.906,206.055,6.836,78.125,1461.389
1686362384.496,-19.043,311.035,-5.371,114.746,1461.392
1686362384.500,-21.484,-15.137,-34.180,156.738,1461.396
1686362384.504,-14.160,-182.129,-7.324,173.828,1461.400
1686362384.507,-24.902,189.453,15.625,115.234,1461.404
1686362384.511,-39.551,391.602,-18.555,71.777,1461.408
1686362384.515,-29.297,-152.344,-71.777,126.953,1461.412
1686362384.519,-15.137,-52.246,22.949,178.223,1461.416
1686362384.523,-26.855,511.719,7.812,150.879,1461.420
1686362384.527,-65.918,246.582,-37.109,104.980,1461.424
1686362384.526,-66.895,33.691,29.785,133.789,1461.422
1686362384.530,-30.273,213.379,21.973,192.383,1461.426
1686362384.534,-31.250,152.344,-26.855,199.707,1461.430
1686362384.538,-54.688,9.766,-38.086,131.836,1461.434
1686362384.542,-45.898,-176.270,18.066,87.891,1461.438
1686362384.546,-26.367,29.785,19.043,103.027,1461.442
1686362384.549,-28.809,359.375,12.695,94.238,1461.446
1686362384.553,-47.363,282.715,-20.508,86.914,1461.449
1686362384.557,-58.594,-707.520,-58.105,105.469,1461.453
1686362384.561,-38.086,-484.863,43.945,73.242,1461.457
1686362384.565,-2.930,756.348,45.898,15.625,1461.461
1686362384.569,-7.812,547.363,-26.855,-30.273,1461.465
1686362384.571,-35.645,228.516,-4.395,-35.645,1461.467
1686362384.575,-35.645,414.551,9.766,25.391,1461.471
1686362384.579,-26.367,390.625,-16.602,46.875,1461.475
1686362384.583,-26.855,86.426,-38.574,6.348,1461.479
1686362384.587,-50.781,90.820,-15.625,18.066,1461.483
1686362384.591,-67.383,28.809,-20.996,52.246,1461.486
1686362384.594,-55.176,70.312,-17.090,26.367,1461.490
1686362384.598,-46.387,-185.059,-59.570,0.000,1461.494
1686362384.602,-47.363,-494.629,8.789,-2.930,1461.498
1686362384.606,-30.762,467.773,46.875,18.066,1461.502
1686362384.610,-0.977,588.867,-39.551,89.355,1461.506
1686362384.614,5.859,106.934,-10.254,120.117,1461.510
1686362384.616,-23.438,300.293,11.719,80.078,1461.511
1686362384.620,-62.012,304.199,-11.230,55.176,1461.515
1686362384.624,-65.430,-57.617,-28.809,73.730,1461.519
1686362384.628,-47.363,-377.930,-24.414,83.496,1461.523
1686362384.632,-54.688,155.762,27.832,64.453,1461.527
1686362384.636,-72.754,319.824,-2.930,26.855,1461.531
1686362384.639,-69.824,-54.688,-30.273,78.125,1461.535
1686362384.643,-47.852,-311.035,3.418,146.973,1461.539
1686362384.647,-41.504,245.605,31.250,75.684,1461.542
1686362384.651,-57.617,380.859,-8.789,29.785,1461.546
1686362384.655,-52.246,28.320,-12.207,68.359,1461.550
1686362384.659,-41.016,150.391,37.598,87.891,1461.554
1686362384.661,-50.293,487.793,23.926,44.434,1461.557
1686362384.665,-68.848,338.379,-27.344,-15.137,1461.561
1686362384.669,-61.035,-33.203,-17.578,-14.648,1461.565
1686362384.673,-10.254,144.043,20.020,54.688,1461.569
1686362384.677,13.672,297.363,-2.930,106.445,1461.573
1686362384.681,0.977,-9.277,-36.621,92.773,1461.577
1686362384.684,-11.719,-445.801,-30.762,61.035,1461.581
1686362384.688,-10.254,-188.477,65.430,69.336,1461.584
1686362384.692,-1.953,580.566,55.176,96.191,1461.588
1686362384.696,-35.156,365.723,-37.109,98.633,1461.592
1686362384.700,-73.242,-62.500,-32.227,90.820,1461.596
1686362384.704,-62.012,24.414,-16.602,105.957,1461.600
1686362384.707,-35.645,189.453,-0.977,120.605,1461.605
1686362384.711,-36.621,171.387,-26.367,53.223,1461.609
1686362384.715,-44.922,-540.527,-46.875,-37.109,1461.613
1686362384.719,-32.715,-121.582,43.457,-18.066,1461.617
1686362384.723,-21.973,581.055,30.273,40.039,1461.621
1686362384.727,-40.039,104.980,-32.715,4.883,1461.625
1686362384.730,-58.594,-601.562,-21.484,-25.879,1461.629
1686362384.734,-62.012,42.480,45.898,23.438,1461.633
1686362384.738,-45.898,608.887,13.184,72.754,1461.636
1686362384.742,-25.879,217.285,-35.645,66.406,1461.640
1686362384.746,-27.832,140.137,-14.160,40.039,1461.644
1686362384.750,-48.828,225.098,-15.137,24.414,1461.648
