timestamps,TP9,AF7,AF8,TP10,Secondary Timestamp
1686274431.772,-57.617,152.832,204.102,10.742,1137.669
1686274431.776,15.625,458.496,314.453,59.082,1137.673
1686274431.780,2.930,633.789,327.637,-9.277,1137.677
1686274431.784,-67.383,286.621,199.219,-69.336,1137.681
1686274431.788,-61.523,62.500,142.090,-17.090,1137.685
1686274431.792,12.695,78.125,171.387,55.664,1137.689
1686274431.795,25.879,261.230,264.648,9.766,1137.693
1686274431.799,-46.387,7.812,62.500,-71.777,1137.696
1686274431.803,-83.008,-552.246,-42.969,-34.180,1137.700
1686274431.807,-18.066,163.574,288.086,41.016,1137.704
1686274431.811,27.344,575.195,282.715,27.832,1137.708
1686274431.815,-29.297,-143.555,50.781,-43.945,1137.712
1686274431.832,-74.219,-233.887,80.078,-59.570,1137.729
1686274431.836,-16.602,458.496,319.336,12.207,1137.733
1686274431.840,44.922,472.168,250.488,40.527,1137.736
1686274431.844,3.418,160.156,212.891,-40.039,1137.740
1686274431.848,-61.523,166.504,236.816,-83.008,1137.744
1686274431.852,-36.133,139.160,189.453,-11.719,1137.748
1686274431.855,37.598,105.957,240.234,43.945,1137.752
1686274431.859,22.949,-470.215,-66.406,4.395,1137.756
1686274431.863,-56.152,-808.105,-120.117,-58.594,1137.760
1686274431.867,-64.453,140.137,308.105,-49.316,1137.764
1686274431.871,6.348,385.742,261.719,23.438,1137.768
1686274431.875,27.832,175.781,198.730,4.883,1137.772
1686274431.864,-32.715,308.105,238.770,-77.637,1137.762
1686274431.868,-60.547,256.348,199.219,-65.918,1137.766
1686274431.872,3.906,-54.688,119.141,25.879,1137.770
1686274431.876,49.316,-160.156,166.992,31.738,1137.774
1686274431.880,0.977,161.133,226.074,-60.059,1137.778
1686274431.884,-51.758,71.777,156.250,-79.102,1137.782
1686274431.887,-18.555,-318.359,48.828,1.465,1137.786
1686274431.891,49.316,-113.770,143.066,32.715,1137.790
1686274431.895,30.762,351.562,279.785,-47.852,1137.794
1686274431.899,-34.668,463.867,283.203,-97.168,1137.797
1686274431.903,-32.227,-154.297,42.969,-27.344,1137.801
1686274431.907,37.109,-555.176,-42.480,42.969,1137.805
1686274431.908,46.387,248.047,293.457,-14.160,1137.803
1686274431.912,-34.180,355.469,229.492,-93.262,1137.807
1686274431.916,-61.035,55.664,208.984,-63.965,1137.811
1686274431.920,11.230,155.762,239.258,15.625,1137.815
1686274431.924,43.457,125.977,171.387,0.488,1137.819
1686274431.928,-22.461,-40.527,181.152,-83.008,1137.823
1686274431.931,-62.500,-524.902,-45.898,-57.129,1137.827
1686274431.935,-10.254,-1000.000,-203.613,44.922,1137.831
1686274431.939,51.270,-157.227,182.129,28.809,1137.835
1686274431.943,18.555,368.164,258.789,-67.383,1137.839
1686274431.947,-48.828,126.953,163.086,-89.355,1137.843
1686274431.951,-22.949,339.844,256.836,-19.043,1137.846
1686274431.953,48.828,547.363,308.594,31.250,1137.864
1686274431.957,26.367,249.512,191.895,-19.043,1137.868
1686274431.961,-42.969,-14.160,149.414,-81.543,1137.872
1686274431.965,-36.621,250.977,270.020,-39.062,1137.876
1686274431.969,39.551,407.715,279.785,33.203,1137.880
1686274431.973,46.875,-112.793,41.016,0.000,1137.884
1686274431.976,-37.109,-794.922,-123.047,-67.871,1137.887
1686274431.980,-59.082,-286.133,157.715,-68.848,1137.891
1686274431.984,19.043,461.914,335.938,-3.906,1137.895
1686274431.988,55.664,30.762,98.145,5.371,1137.899
1686274431.992,-7.812,-313.965,25.391,-71.777,1137.903
1686274431.996,-54.688,219.238,277.344,-88.867,1137.907
1686274432.013,0.000,391.602,298.828,2.441,1137.909
1686274432.017,59.570,179.688,251.465,33.691,1137.913
1686274432.021,9.277,168.457,242.188,-52.246,1137.917
1686274432.025,-54.199,281.250,221.191,-88.379,1137.921
1686274432.029,-17.090,247.559,215.332,-13.672,1137.925
1686274432.033,48.340,-20.020,208.496,34.180,1137.928
1686274432.036,26.367,-240.723,142.578,-22.949,1137.932
1686274432.040,-48.340,-158.691,157.227,-90.820,1137.936
1686274432.044,-44.434,117.188,227.051,-55.664,1137.940
1686274432.048,23.438,-474.121,-72.754,37.109,1137.944
1686274432.052,30.273,-895.996,-108.887,1.465,1137.948
1686274432.056,-29.297,47.363,250.488,-112.793,1137.952
1686274432.057,-51.270,215.820,207.520,-84.473,1137.954
1686274432.061,14.648,5.859,195.312,13.184,1137.958
1686274432.065,53.711,292.480,258.301,5.859,1137.962
1686274432.069,-4.395,422.363,258.789,-80.566,1137.966
1686274432.073,-52.734,115.234,157.227,-87.402,1137.969
1686274432.077,-9.766,-242.676,94.727,1.465,1137.973
1686274432.080,58.594,-46.875,213.867,28.320,1137.977
1686274432.084,30.762,367.188,302.734,-54.199,1137.981
1686274432.088,-39.062,-84.473,16.113,-80.078,1137.985
1686274432.092,-21.484,-681.641,-39.551,3.418,1137.989
1686274432.096,51.270,73.242,299.316,32.715,1137.993
1686274432.100,55.176,326.172,200.684,-29.785,1137.997
1686274432.118,-14.648,-204.102,106.934,-78.613,1138.014
1686274432.122,-30.762,-20.508,227.539,-44.922,1138.018
1686274432.126,41.016,443.848,325.684,24.414,1138.022
1686274432.130,69.824,424.805,254.883,3.906,1138.025
1686274432.134,0.977,-213.379,77.148,-69.824,1138.029
1686274432.138,-39.062,-472.656,92.285,-63.965,1138.033
1686274432.141,18.066,-160.645,167.969,8.301,1138.037
1686274432.145,66.406,42.480,210.449,17.090,1138.041
1686274432.149,15.625,-513.672,-75.195,-44.922,1138.045
1686274432.153,-48.340,-782.227,-84.961,-75.684,1138.049
1686274432.157,1.465,243.652,340.332,-16.602,1138.053
1686274432.161,73.730,397.949,256.348,35.156,1138.057
1686274432.148,46.875,125.000,197.754,-30.762,1138.047
1686274432.152,-18.555,322.266,253.418,-87.891,1138.051
1686274432.156,-15.625,279.785,230.469,-32.227,1138.055
1686274432.160,58.105,-52.246,137.207,43.945,1138.059
1686274432.164,63.965,-202.148,126.465,6.836,1138.062
1686274432.168,-14.648,-151.367,151.855,-77.148,1138.066
1686274432.171,-35.645,20.020,193.848,-55.176,1138.070
1686274432.175,33.203,-41.504,133.789,31.738,1138.074
1686274432.179,64.453,-97.168,131.348,12.207,1138.078
1686274432.183,8.789,287.598,276.855,-78.613,1138.082
1686274432.187,-34.668,479.492,313.477,-80.566,1138.086
1686274432.191,9.277,-128.906,73.730,20.996,1138.090
1686274432.193,63.477,-523.926,21.484,53.223,1138.089
1686274432.197,29.297,269.043,316.406,-49.316,1138.093
1686274432.201,-31.250,373.047,242.676,-88.867,1138.096
1686274432.205,0.977,103.027,217.773,-16.113,1138.100
1686274432.209,77.637,209.473,264.648,28.809,1138.104
1686274432.213,55.176,143.066,197.754,-32.715,1138.108
1686274432.216,-28.320,-14.160,205.566,-92.285,1138.112
1686274432.220,-39.062,-502.930,-21.484,-25.391,1138.116
1686274432.224,24.902,-1000.000,-182.129,62.012,1138.120
1686274432.228,43.945,-152.344,208.496,-12.695,1138.124
1686274432.232,-22.949,291.016,237.305,-112.793,1138.128
1686274432.236,-48.828,57.129,166.992,-83.496,1138.132
1686274432.238,19.531,373.047,295.898,0.000,1138.134
1686274432.242,60.059,579.590,315.918,3.418,1138.138
1686274432.246,4.883,210.449,185.547,-71.289,1138.142
1686274432.250,-45.898,-9.766,175.293,-83.496,1138.145
1686274432.254,4.395,306.152,271.973,0.488,1138.149
1686274432.258,71.289,264.160,252.441,27.344,1138.153
1686274432.261,30.273,-232.910,46.387,-49.316,1138.157
1686274432.265,-46.387,-725.586,-38.086,-75.684,1138.161
1686274432.269,-20.508,-172.363,246.582,-19.043,1138.165
1686274432.273,61.035,575.195,357.422,29.297,1138.169
1686274432.277,50.781,68.359,138.184,-21.484,1138.173
1686274432.281,-31.250,-287.109,78.125,-97.656,1138.177
1686274432.282,-26.855,266.602,295.410,-61.523,1138.192
1686274432.286,54.199,414.551,321.777,15.625,1138.196
1686274432.290,61.035,159.180,277.832,-13.184,1138.200
1686274432.294,-2.441,194.336,285.645,-89.355,1138.204
1686274432.298,-28.809,257.324,237.305,-70.801,1138.208
1686274432.302,32.227,91.309,222.656,27.344,1138.212
1686274432.305,76.172,-483.398,10.742,56.152,1138.216
1686274432.309,33.203,-786.621,-68.848,-8.789,1138.220
1686274432.313,-35.156,89.844,276.367,-74.707,1138.224
1686274432.317,-19.043,334.473,257.812,-22.461,1138.227
1686274432.321,50.781,-53.711,174.316,27.344,1138.231
1686274432.325,20.996,125.977,250.977,-56.641,1138.235
1686274432.327,-40.527,417.480,265.137,-100.586,1138.238
1686274432.331,-24.902,227.051,203.125,-19.043,1138.242
1686274432.335,37.598,-443.359,71.777,53.711,1138.246
1686274432.339,40.039,-173.828,191.406,6.348,1138.250
1686274432.343,-20.996,435.059,299.805,-68.359,1138.254
1686274432.347,-32.715,-105.469,72.266,-5.859,1138.258
1686274432.350,32.715,-465.332,57.129,91.797,1138.262
1686274432.354,64.941,141.602,290.039,51.270,1138.266
1686274432.358,11.719,432.129,295.410,-37.598,1138.270
1686274432.362,-37.598,33.203,153.809,-24.414,1138.274
1686274432.366,18.066,36.133,214.844,64.941,1138.277
1686274432.370,76.660,461.914,335.938,75.684,1138.281
1686274432.388,31.738,301.270,222.168,-6.348,1138.284
1686274432.392,-33.691,-354.004,79.590,-24.902,1138.288
1686274432.396,8.301,-259.766,173.828,51.270,1138.292
1686274432.400,92.285,400.879,339.355,90.332,1138.295
1686274432.404,63.477,333.008,232.422,21.484,1138.299
1686274432.408,-10.254,-152.344,150.391,-28.320,1138.303
1686274432.411,-7.324,-282.227,175.781,32.227,1138.307
1686274432.415,59.570,-65.430,192.871,91.797,1138.311
1686274432.419,66.406,202.148,247.559,35.645,1138.315
1686274432.423,-13.672,-472.656,-86.914,-18.555,1138.319
1686274432.427,-37.109,-703.613,-61.035,16.602,1138.323
1686274432.431,48.828,362.793,366.699,73.730,1138.327
1686274432.433,84.961,363.770,233.887,75.684,1138.329
1686274432.437,19.043,75.195,208.496,-2.930,1138.333
1686274432.441,-24.902,267.090,272.461,-24.414,1138.337
1686274432.445,25.879,216.309,225.098,64.941,1138.340
1686274432.449,78.125,-49.316,142.090,100.098,1138.344
1686274432.453,29.297,-361.328,93.262,17.090,1138.348
1686274432.456,-32.715,-155.762,187.500,-30.273,1138.352
1686274432.460,5.371,331.543,296.387,21.973,1138.356
1686274432.464,75.195,-40.527,86.914,78.125,1138.360
1686274432.468,45.898,-543.945,-2.441,31.250,1138.364
1686274432.472,-22.949,87.891,267.578,-57.617,1138.368
1686274432.476,-8.301,427.734,286.133,-15.625,1138.372
1686274432.478,72.266,136.719,273.438,69.824,1138.374
1686274432.482,86.426,131.348,266.113,39.062,1138.377
1686274432.486,12.695,308.594,237.793,-41.016,1138.381
1686274432.490,-20.020,254.395,218.750,-27.832,1138.385
1686274432.494,38.574,56.152,220.703,46.875,1138.389
1686274432.498,75.684,-122.559,166.016,52.734,1138.393
1686274432.501,20.020,-176.758,123.047,-24.414,1138.397
1686274432.505,-33.203,-84.473,191.895,-46.875,1138.401
1686274432.509,6.836,-534.668,-37.598,49.316,1138.405
1686274432.513,62.988,-1000.000,-174.316,77.637,1138.409
1686274432.517,30.762,-112.305,190.918,-35.156,1138.413
1686274432.521,-27.344,268.066,218.750,-84.961,1138.416
1686274432.523,-4.395,52.246,198.242,-6.836,1138.419
1686274432.527,67.871,393.555,321.289,46.875,1138.423
1686274432.531,58.594,510.254,290.527,-15.625,1138.427
1686274432.535,-15.625,145.996,146.973,-89.355,1138.430
1686274432.539,-30.273,-10.254,140.625,-42.969,1138.434
1686274432.543,36.621,51.758,204.590,43.457,1138.438
1686274432.546,62.012,171.387,276.855,16.113,1138.442
1686274432.550,-3.906,-48.340,61.523,-62.500,1138.446
1686274432.554,-51.758,-720.703,-111.816,-49.805,1138.450
1686274432.558,4.395,-112.793,234.375,17.578,1138.454
1686274432.562,64.941,529.297,315.430,17.578,1138.458
1686274432.566,18.066,-77.637,73.730,-60.059,1138.462
1686274432.567,-43.457,-321.289,63.965,-89.355,1138.478
1686274432.571,-5.371,310.059,303.223,-17.578,1138.482
1686274432.575,55.664,445.312,300.293,23.926,1138.486
1686274432.579,27.344,155.273,221.680,-45.410,1138.489
1686274432.583,-34.180,72.754,200.684,-92.773,1138.493
1686274432.587,-27.344,-54.199,151.367,-24.414,1138.497
1686274432.590,40.527,-9.277,181.641,32.715,1138.501
1686274432.594,42.969,-464.844,-40.039,-10.742,1138.505
1686274432.598,-26.855,-832.520,-74.219,-91.797,1138.509
1686274432.602,-37.598,122.559,287.598,-87.402,1138.513
1686274432.606,35.645,353.027,237.793,9.277,1138.517
1686274432.610,56.152,-17.090,185.059,-14.160,1138.521
1686274432.612,-7.812,174.805,229.980,-110.840,1138.509
1686274432.616,-40.039,441.895,275.391,-90.332,1138.513
1686274432.620,9.766,221.191,202.148,1.953,1138.517
1686274432.624,57.129,13.184,193.359,21.973,1138.520
1686274432.628,16.602,232.422,235.840,-62.012,1138.524
1686274432.632,-41.504,91.797,166.016,-77.637,1138.528
1686274432.635,-17.578,-317.871,27.832,0.977,1138.532
1686274432.639,46.387,-363.281,43.457,28.809,1138.536
1686274432.643,30.762,140.625,229.980,-30.762,1138.540
1686274432.647,-31.250,411.621,279.297,-82.520,1138.544
1686274432.651,-35.156,-165.039,33.203,-20.996,1138.548
1686274432.655,29.297,-451.172,-16.602,48.828,1138.552
1686274432.659,51.758,295.898,286.621,-5.371,1138.557
1686274432.663,-16.113,256.348,156.250,-66.406,1138.561
1686274432.667,-49.316,-388.672,23.438,-29.297,1138.565
1686274432.671,26.367,-154.785,181.152,36.133,1138.569
1686274432.675,70.312,365.234,238.770,13.672,1138.573
1686274432.679,7.324,91.797,141.602,-73.730,1138.577
1686274432.682,-47.363,-623.535,-113.770,-66.895,1138.581
1686274432.686,-12.695,-719.727,-85.938,17.578,1138.585
1686274432.690,47.852,257.324,317.383,23.438,1138.589
1686274432.694,17.578,371.094,191.895,-58.594,1138.593
1686274432.698,-51.758,-175.293,82.520,-93.262,1138.596
1686274432.702,-29.297,30.762,208.008,-2.930,1138.600
1686274432.703,45.410,501.953,277.344,56.641,1138.614
1686274432.707,29.785,246.094,173.340,-4.395,1138.617
1686274432.711,-42.969,0.977,165.527,-72.266,1138.621
1686274432.715,-44.434,223.145,235.352,-36.621,1138.625
1686274432.719,37.109,162.109,187.012,34.180,1138.629
1686274432.723,56.152,-200.195,48.828,10.742,1138.633
1686274432.726,-21.973,-812.012,-187.012,-41.016,1138.637
1686274432.730,-51.758,-400.879,52.246,-47.852,1138.641
1686274432.734,24.902,345.703,273.438,17.578,1138.645
1686274432.738,66.895,138.184,146.484,34.180,1138.649
1686274432.742,8.789,104.980,176.758,-52.734,1138.653
1686274432.746,-37.598,336.914,255.371,-74.707,1138.656
1686274432.763,-3.418,334.961,231.445,12.207,1138.658
1686274432.767,46.875,86.914,225.098,43.945,1138.662
1686274432.771,17.090,91.309,221.680,-41.992,1138.666
1686274432.775,-42.969,283.203,216.797,-93.750,1138.670
1686274432.779,-27.344,247.070,187.012,-23.438,1138.674
1686274432.783,40.039,-153.809,128.418,58.105,1138.678
1686274432.786,31.250,-338.867,115.234,1.465,1138.682
1686274432.790,-41.992,-189.941,107.910,-84.961,1138.686
1686274432.794,-54.199,-83.984,166.016,-59.082,1138.690
1686274432.798,12.207,-533.203,-68.359,24.414,1138.694
1686274432.802,30.762,-911.133,-172.363,11.230,1138.697
1686274432.806,-26.855,-42.969,192.383,-99.609,1138.701
1686274432.807,-55.176,247.559,191.895,-100.586,1138.704
1686274432.811,-1.465,95.215,196.777,-10.254,1138.708
1686274432.815,53.223,348.145,263.184,13.184,1138.712
1686274432.819,6.836,391.602,233.398,-62.988,1138.716
1686274432.823,-61.035,92.773,136.230,-92.773,1138.720
1686274432.827,-33.691,-223.633,81.055,-6.348,1138.724
1686274432.830,30.273,-0.977,199.707,27.344,1138.728
1686274432.834,12.695,453.125,298.340,-55.176,1138.731
1686274432.838,-54.688,-34.180,10.254,-105.469,1138.735
1686274432.842,-52.734,-725.098,-113.281,-35.156,1138.739
1686274432.846,20.508,4.395,262.207,25.391,1138.743
1686274432.850,30.273,532.715,317.871,-25.879,1138.747
1686274432.852,-44.434,-118.652,71.289,-95.703,1138.749
1686274432.856,-63.965,-291.504,74.707,-61.035,1138.753
1686274432.860,11.230,319.824,268.066,26.367,1138.757
1686274432.864,44.922,360.352,217.773,19.531,1138.760
1686274432.868,-12.695,77.637,182.129,-62.012,1138.764
1686274432.872,-49.316,-119.141,160.156,-68.848,1138.768
1686274432.875,-7.324,-161.621,144.531,22.949,1138.772
1686274432.879,44.922,38.086,208.008,39.551,1138.776
1686274432.883,1.953,-482.422,-73.730,-36.621,1138.780
1686274432.887,-65.430,-803.223,-92.773,-69.336,1138.784
1686274432.891,-23.926,150.391,297.852,-20.020,1138.788
1686274432.895,50.781,306.152,222.656,43.945,1138.792
1686274432.913,27.832,-20.020,168.945,-9.277,1138.809
1686274432.917,-38.574,196.777,241.699,-87.402,1138.813
1686274432.921,-33.691,430.664,261.719,-36.133,1138.817
1686274432.925,41.504,209.473,175.293,43.945,1138.821
1686274432.929,53.711,-93.262,135.742,2.441,1138.824
1686274432.933,-18.555,-147.949,138.672,-79.590,1138.828
1686274432.936,-43.457,53.711,208.984,-60.059,1138.832
1686274432.940,15.625,10.742,114.746,33.691,1138.836
1686274432.944,31.738,-489.746,13.184,29.297,1138.840
1686274432.948,-21.484,1.465,235.352,-76.172,1138.844
1686274432.952,-60.059,408.203,246.582,-88.379,1138.848
1686274432.956,-24.902,126.465,185.547,6.348,1138.852
1686274432.943,27.344,83.496,201.660,36.133,1138.868
1686274432.947,-1.953,357.910,258.301,-55.176,1138.872
1686274432.951,-62.988,155.762,174.805,-91.309,1138.875
1686274432.955,-50.781,-326.172,89.844,-7.812,1138.879
1686274432.959,28.320,-122.559,172.363,41.992,1138.883
1686274432.963,26.855,96.191,184.082,-25.879,1138.887
1686274432.966,-48.340,-238.770,80.078,-99.121,1138.891
1686274432.970,-53.711,-383.789,121.582,-49.316,1138.895
1686274432.974,24.414,27.832,247.559,33.203,1138.899
1686274432.978,51.758,400.391,260.742,0.977,1138.903
1686274432.982,-14.648,304.688,210.938,-85.449,1138.907
1686274432.986,-70.312,-566.406,-126.953,-57.617,1138.911
1686274432.987,-12.207,-715.820,-73.730,41.992,1138.884
1686274432.991,52.246,332.031,326.660,30.762,1138.888
1686274432.995,-3.418,269.043,178.223,-58.594,1138.892
1686274432.999,-60.059,9.766,135.742,-84.961,1138.896
1686274433.003,-25.391,262.207,231.934,-10.254,1138.900
1686274433.007,34.668,206.543,214.355,30.762,1138.903
1686274433.010,6.348,-220.215,36.133,-28.809,1138.907
1686274433.014,-70.312,-659.668,-70.312,-73.730,1138.911
1686274433.018,-57.129,-73.242,217.773,-28.809,1138.915
1686274433.022,22.461,503.906,317.383,26.367,1138.919
1686274433.026,27.832,12.207,89.355,-15.625,1138.923
1686274433.030,-46.387,-156.250,93.750,-90.332,1138.927
1686274433.033,-58.105,309.082,251.465,-62.500,1138.943
1686274433.037,21.973,512.207,293.457,33.691,1138.947
1686274433.041,44.434,-248.535,20.020,44.922,1138.951
1686274433.045,-23.438,-648.438,-68.359,-43.457,1138.954
1686274433.049,-58.594,143.555,225.586,-70.801,1138.958
1686274433.053,-2.441,194.824,218.262,27.344,1138.962
1686274433.056,40.527,-426.758,-13.672,57.129,1138.966
1686274433.060,-9.277,-745.605,-122.559,-38.086,1138.970
1686274433.064,-54.688,-111.328,187.500,-82.031,1138.974
1686274433.068,-17.578,326.172,235.352,-11.230,1138.978
1686274433.072,39.551,-290.527,20.020,48.340,1138.982
1686274433.076,14.648,-290.039,100.586,-25.391,1138.986
1686274433.078,-45.898,446.289,282.227,-106.934,1138.989
1686274433.082,-38.574,296.387,206.055,-46.875,1138.993
1686274433.086,36.621,149.902,203.613,32.227,1138.997
1686274433.090,42.969,422.852,273.926,-9.766,1139.001
1686274433.094,-31.738,452.637,249.512,-97.656,1139.004
1686274433.098,-57.129,-150.391,26.367,-63.477,1139.008
1686274433.101,4.395,-465.820,3.418,37.598,1139.012
1686274433.105,39.062,186.523,255.371,20.020,1139.016
1686274433.109,-8.301,477.051,246.094,-78.125,1139.020
1686274433.113,-58.105,-34.668,83.984,-88.379,1139.024
1686274433.117,-22.461,-260.254,89.844,1.465,1139.028
1686274433.121,39.062,250.977,252.930,33.203,1139.032
1686274433.138,5.859,461.914,248.535,-46.875,1139.033
1686274433.142,-56.641,-130.859,80.078,-82.031,1139.037
1686274433.146,-33.203,-224.121,107.910,-0.977,1139.041
1686274433.150,31.250,391.113,278.809,42.480,1139.045
1686274433.154,14.648,382.812,208.008,-23.438,1139.049
1686274433.158,-58.594,-146.484,67.383,-82.031,1139.053
1686274433.161,-62.500,-354.004,77.637,-31.250,1139.057
1686274433.165,9.766,-142.090,172.852,48.340,1139.061
1686274433.169,35.156,33.203,200.195,9.277,1139.065
1686274433.173,-24.902,-546.875,-132.324,-61.035,1139.069
1686274433.177,-62.988,-694.336,-108.398,-40.039,1139.073
1686274433.181,1.465,339.844,313.965,24.902,1139.076
1686274433.182,44.922,321.289,184.082,33.203,1139.079
1686274433.186,-13.672,-70.312,142.578,-50.293,1139.083
1686274433.190,-61.035,190.430,242.676,-73.730,1139.087
1686274433.194,-20.996,469.727,266.113,4.395,1139.091
1686274433.198,24.902,160.156,148.926,28.809,1139.095
1686274433.202,-3.906,-339.844,9.277,-39.062,1139.099
1686274433.205,-62.012,-148.438,128.418,-95.703,1139.102
1686274433.209,-41.504,364.258,280.762,-42.969,1139.106
1686274433.213,36.621,91.309,65.918,47.363,1139.110
1686274433.217,37.598,-551.270,-62.988,11.230,1139.114
1686274433.221,-27.832,-30.762,222.656,-91.309,1139.118
1686274433.225,-31.738,363.281,239.258,-61.035,1139.122
1686274433.228,41.504,120.605,196.777,32.715,1139.124
1686274433.232,60.547,165.039,219.238,16.113,1139.128
1686274433.236,-9.766,367.676,198.242,-78.125,1139.132
1686274433.240,-56.152,158.203,164.551,-77.148,1139.136
1686274433.244,-1.465,-311.035,82.031,22.461,1139.140
1686274433.248,53.711,-366.211,67.871,34.180,1139.144
1686274433.251,2.930,-163.086,117.676,-59.570,1139.147
1686274433.255,-64.453,-82.520,166.504,-90.820,1139.151
1686274433.259,-34.180,-559.082,-76.660,4.395,1139.155
1686274433.263,33.203,-777.832,-64.453,66.406,1139.159
1686274433.267,21.484,185.547,306.152,-20.020,1139.163
1686274433.271,-40.039,340.820,198.730,-82.520,1139.167
1686274433.273,-25.879,48.828,160.645,-18.555,1139.169
1686274433.277,58.594,334.961,264.160,47.363,1139.173
1686274433.281,65.918,538.574,265.625,4.395,1139.177
1686274433.285,-11.719,212.402,126.953,-72.754,1139.180
1686274433.289,-41.992,3.906,103.516,-43.457,1139.184
1686274433.293,20.020,59.570,185.547,45.410,1139.188
1686274433.296,55.176,26.855,180.664,32.715,1139.192
1686274433.300,-1.465,-240.234,-6.836,-45.410,1139.196
1686274433.304,-50.781,-802.246,-175.293,-45.898,1139.200
1686274433.308,0.000,-202.148,148.438,14.648,1139.204
1686274433.312,57.617,478.516,279.297,22.949,1139.208
1686274433.316,12.695,142.578,160.645,-56.641,1139.212
1686274433.318,-50.781,91.797,187.500,-91.309,1139.214
1686274433.322,-24.414,422.852,273.438,-15.137,1139.218
1686274433.326,54.199,422.363,228.027,54.199,1139.222
1686274433.330,41.992,137.207,188.965,-6.348,1139.226
1686274433.334,-28.809,89.844,166.504,-89.355,1139.229
1686274433.338,-25.879,-16.113,98.633,-40.039,1139.233
1686274433.341,40.039,-30.273,158.691,27.832,1139.237
1686274433.345,38.086,-461.426,-74.707,-0.488,1139.241
1686274433.349,-38.574,-939.941,-245.605,-72.754,1139.245
1686274433.353,-57.617,-127.930,160.156,-75.684,1139.249
1686274433.357,10.742,368.164,216.797,14.648,1139.253
1686274433.361,44.434,-49.805,97.168,24.902,1139.257
1686274433.363,-7.812,-48.828,154.785,-63.965,1139.259
1686274433.367,-45.898,374.023,224.121,-83.984,1139.263
1686274433.371,8.301,259.766,168.945,5.371,1139.267
1686274433.375,62.988,117.188,144.043,40.039,1139.271
1686274433.379,21.973,321.289,189.941,-38.574,1139.274
1686274433.383,-46.387,115.234,132.324,-70.312,1139.278
1686274433.386,-36.133,-274.902,-4.395,2.441,1139.282
1686274433.390,33.691,-520.508,5.859,58.105,1139.286
1686274433.394,37.598,26.855,228.027,-13.184,1139.290
1686274433.398,-20.020,454.102,215.332,-95.215,1139.294
1686274433.402,-31.738,105.469,104.980,-52.734,1139.298
1686274433.406,31.738,-118.164,92.285,28.809,1139.302
1686274433.408,50.781,193.848,193.359,-0.488,1139.305
1686274433.412,-5.859,407.227,196.777,-90.820,1139.308
1686274433.416,-38.086,-148.926,26.855,-68.359,1139.312
1686274433.420,13.184,-213.379,83.496,26.367,1139.316
1686274433.424,59.082,329.102,224.121,34.180,1139.320
1686274433.428,7.324,160.645,153.320,-53.223,1139.324
1686274433.431,-57.617,-583.984,-150.391,-65.430,1139.328
1686274433.435,-19.531,-725.586,-140.625,20.996,1139.332
1686274433.439,54.688,205.566,255.859,38.086,1139.336
1686274433.443,28.320,307.129,142.578,-36.133,1139.340
1686274433.447,-46.875,-42.969,83.496,-82.031,1139.344
1686274433.451,-33.203,135.254,186.523,-22.949,1139.348
1686274433.468,43.945,420.410,215.820,29.297,1139.365
1686274433.472,43.945,190.918,104.980,-8.789,1139.369
1686274433.476,-19.043,-140.137,48.340,-70.801,1139.372
1686274433.480,-32.227,137.695,195.801,-45.410,1139.376
1686274433.484,36.621,375.000,221.191,31.250,1139.380
1686274433.488,59.570,-86.914,-19.531,22.949,1139.384
1686274433.491,-13.184,-779.785,-218.750,-48.340,1139.388
1686274433.495,-46.387,-213.379,120.117,-62.500,1139.392
1686274433.499,14.160,428.223,242.188,15.137,1139.396
1686274433.503,57.129,157.715,104.980,44.922,1139.400
1686274433.507,9.766,55.176,105.957,-37.109,1139.404
1686274433.511,-45.898,252.441,182.617,-79.590,1139.408
1686274433.512,-14.648,313.477,190.430,0.000,1139.409
1686274433.516,48.828,98.633,177.246,51.270,1139.413
1686274433.520,31.738,77.637,158.203,-24.902,1139.416
1686274433.524,-34.180,206.543,132.812,-88.379,1139.420
1686274433.528,-37.109,65.918,96.680,-23.926,1139.424
1686274433.532,19.531,-428.223,-17.090,59.082,1139.428
1686274433.535,28.320,-550.293,7.812,11.230,1139.432
1686274433.539,-37.109,-225.098,87.402,-73.730,1139.436
1686274433.543,-60.547,68.848,132.324,-54.199,1139.440
1686274433.547,1.953,-442.871,-114.746,41.504,1139.444
1686274433.551,32.715,-910.645,-207.031,39.062,1139.448
1686274433.555,-15.137,23.438,165.527,-85.938,1139.452
1686274433.558,-61.035,243.164,143.066,-98.145,1139.454
1686274433.562,-15.137,18.066,110.840,-1.465,1139.458
1686274433.566,41.992,309.570,202.637,19.531,1139.462
1686274433.570,3.418,467.285,202.637,-57.129,1139.465
1686274433.574,-60.059,166.016,89.355,-85.938,1139.469
1686274433.578,-43.457,-211.914,30.762,-5.371,1139.473
1686274433.581,18.066,-146.484,105.957,50.293,1139.477
1686274433.585,13.184,5.371,145.020,-17.578,1139.481
1686274433.589,-53.223,-252.441,-73.242,-90.820,1139.485
1686274433.593,-69.336,-801.270,-240.234,-28.809,1139.489
1686274433.597,-0.977,-154.785,136.230,36.133,1139.493
1686274433.601,13.672,479.004,236.816,-7.324,1139.497
1686274433.602,-56.641,136.230,138.184,-81.055,1139.499
1686274433.606,-77.148,103.027,161.133,-70.801,1139.503
1686274433.610,-4.395,422.852,233.887,13.672,1139.507
1686274433.614,39.551,430.176,186.523,17.090,1139.510
1686274433.618,-15.625,76.660,123.535,-62.500,1139.514
1686274433.622,-69.824,-167.480,89.844,-85.449,1139.518
1686274433.625,-22.461,-118.652,71.777,0.977,1139.522
1686274433.629,45.898,64.941,170.898,35.645,1139.526
1686274433.633,9.766,-449.707,-125.000,-21.484,1139.530
1686274433.637,-63.965,-912.109,-292.480,-52.246,1139.534
1686274433.641,-43.945,6.348,157.227,-15.137,1139.538
1686274433.645,34.668,382.324,182.617,38.574,1139.542
1686274433.647,53.223,-45.898,95.703,5.859,1139.558
1686274433.651,-14.160,81.543,159.668,-76.172,1139.562
1686274433.655,-57.129,395.996,178.711,-72.266,1139.566
1686274433.659,2.441,266.602,140.625,11.719,1139.569
1686274433.663,21.484,142.090,110.840,-3.906,1139.573
1686274433.667,-44.434,2.930,66.895,-95.703,1139.577
1686274433.670,-76.172,12.207,124.512,-100.098,1139.581
1686274433.674,-32.227,-54.688,28.320,-14.648,1139.585
1686274433.678,8.789,-476.562,-41.016,16.602,1139.589
1686274433.682,-34.180,52.734,186.523,-81.055,1139.593
1686274433.686,-88.867,392.578,163.086,-121.094,1139.597
1686274433.690,-50.781,28.320,102.539,-21.484,1139.601
1686274433.693,18.555,-149.902,95.215,33.691,1139.590
1686274433.697,3.906,197.266,168.457,-34.180,1139.594
1686274433.701,-52.734,367.188,148.438,-89.355,1139.598
1686274433.705,-40.527,-158.203,24.414,-26.855,1139.602
1686274433.709,31.250,-191.406,89.844,44.922,1139.606
1686274433.713,33.203,24.902,100.586,-9.766,1139.610
1686274433.716,-37.109,-93.262,64.941,-91.797,1139.614
1686274433.720,-54.199,-595.215,-145.020,-41.504,1139.618
1686274433.724,8.301,-672.363,-135.254,44.434,1139.621
1686274433.728,41.992,230.469,212.402,7.812,1139.625
1686274433.732,-18.555,358.398,127.441,-85.938,1139.629
1686274433.736,-71.289,-410.156,-77.148,-78.613,1139.633
1686274433.753,-21.973,-307.617,61.035,0.977,1139.649
1686274433.757,41.016,499.512,247.070,8.789,1139.653
1686274433.761,-1.953,174.805,51.270,-61.523,1139.657
1686274433.765,-68.848,-140.137,13.672,-99.609,1139.661
1686274433.769,-33.203,210.449,167.969,-21.484,1139.665
1686274433.773,42.480,230.469,166.992,45.898,1139.669
1686274433.776,27.832,-162.598,-27.832,-7.812,1139.673
1686274433.780,-45.898,-729.004,-215.820,-65.430,1139.676
1686274433.784,-46.387,-181.641,93.750,-38.086,1139.680
1686274433.788,35.645,489.258,238.281,29.785,1139.684
1686274433.792,44.922,192.383,105.957,2.441,1139.688
1686274433.796,-26.855,-9.277,44.434,-86.914,1139.692
1686274433.783,-50.781,150.879,134.277,-62.500,1139.679
1686274433.787,13.184,361.328,201.172,34.668,1139.683
1686274433.791,50.293,222.168,160.156,38.574,1139.686
1686274433.795,0.000,169.922,155.273,-60.059,1139.690
1686274433.799,-45.410,315.918,162.598,-81.543,1139.694
1686274433.803,-1.953,80.566,104.492,16.602,1139.698
1686274433.806,51.270,-156.250,67.383,56.152,1139.702
1686274433.810,16.602,-178.711,43.457,-32.227,1139.706
1686274433.814,-31.250,-94.238,86.426,-85.938,1139.710
1686274433.818,1.953,180.176,167.969,-9.277,1139.714
1686274433.822,41.016,-412.598,-138.672,50.781,1139.718
1686274433.826,-7.324,-998.535,-274.414,-21.973,1139.722
1686274433.828,-64.941,-110.352,127.930,-114.746,1139.738
1686274433.832,-48.828,255.371,139.160,-67.871,1139.742
1686274433.836,20.508,74.219,84.961,19.043,1139.746
1686274433.840,36.621,356.445,195.801,-15.137,1139.750
1686274433.844,-20.020,444.824,181.641,-100.586,1139.754
1686274433.848,-53.711,-104.492,-20.996,-73.242,1139.758
1686274433.851,-6.348,-538.086,-120.117,18.555,1139.762
1686274433.855,36.621,-49.805,45.410,1.465,1139.766
1686274433.859,-9.766,145.508,106.934,-88.379,1139.770
1686274433.863,-63.477,-321.289,-107.910,-99.121,1139.773
1686274433.867,-27.344,-356.445,-96.191,-19.043,1139.777
1686274433.871,35.645,286.133,198.242,6.348,1139.781
1686274433.888,14.648,388.672,145.020,-59.570,1139.784
1686274433.892,-55.664,-75.684,29.297,-96.680,1139.787
1686274433.896,-47.363,-84.961,81.055,-31.738,1139.791
1686274433.900,29.297,392.578,214.844,28.809,1139.795
1686274433.904,25.879,356.445,114.258,-15.137,1139.799
1686274433.908,-55.664,-280.762,-74.219,-75.195,1139.803
1686274433.911,-66.406,-500.488,-29.297,-43.457,1139.807
1686274433.915,12.207,-126.953,83.008,29.297,1139.811
1686274433.919,46.387,209.473,145.020,3.418,1139.815
1686274433.923,-20.020,-393.066,-171.875,-78.125,1139.819
1686274433.927,-62.500,-865.234,-247.559,-66.895,1139.823
1686274433.931,-1.465,139.160,208.496,-0.488,1139.826
1686274433.933,47.852,398.926,157.715,20.020,1139.832
1686274433.937,2.930,-78.613,59.570,-54.688,1139.836
1686274433.941,-52.246,65.430,139.648,-103.027,1139.840
1686274433.945,-18.066,403.809,170.898,-28.320,1139.844
1686274433.949,47.852,282.715,98.145,35.156,1139.848
1686274433.953,21.973,-136.230,-12.207,-17.578,1139.851
1686274433.956,-48.828,-99.609,51.758,-96.680,1139.855
1686274433.960,-42.969,312.988,195.801,-72.754,1139.859
1686274433.964,18.555,9.766,-24.414,10.742,1139.863
1686274433.968,18.555,-545.898,-154.785,-8.301,1139.867
1686274433.972,-43.457,11.719,150.879,-109.863,1139.871
1686274433.976,-53.711,385.742,167.969,-89.844,1139.875
1686274433.978,8.301,19.043,81.055,14.160,1139.875
1686274433.982,33.691,-128.906,75.195,5.859,1139.879
1686274433.986,-17.578,207.520,141.113,-97.656,1139.882
1686274433.990,-61.523,324.219,137.695,-115.234,1139.886
1686274433.994,-16.602,-77.148,11.719,-18.066,1139.890
1686274433.998,39.551,-242.676,11.230,20.508,1139.894
1686274434.001,8.789,-91.309,80.078,-52.734,1139.898
1686274434.005,-51.758,-68.359,73.242,-94.238,1139.902
1686274434.009,-44.922,-507.812,-126.953,-11.230,1139.906
1686274434.013,14.160,-1000.000,-283.203,62.988,1139.910
1686274434.017,12.207,-192.383,70.801,-19.531,1139.914
1686274434.021,-47.852,297.852,142.090,-100.098,1139.918
1686274434.023,-42.969,121.094,85.449,-45.410,1139.919
1686274434.027,32.715,394.531,185.059,34.180,1139.923
1686274434.031,50.293,545.410,204.102,0.977,1139.926
1686274434.035,-14.160,170.898,48.340,-78.125,1139.930
1686274434.039,-50.781,-116.699,-13.672,-60.547,1139.934
1686274434.043,2.930,-65.430,66.895,23.926,1139.938
1686274434.046,41.016,164.062,173.828,32.715,1139.942
1686274434.050,-4.395,29.297,2.930,-45.898,1139.946
1686274434.054,-56.152,-745.605,-264.160,-62.988,1139.950
1686274434.058,-11.230,-136.230,126.465,3.906,1139.954
1686274434.062,47.852,548.340,242.676,38.086,1139.958
1686274434.066,9.277,184.082,86.914,-34.668,1139.962
1686274434.068,-54.688,38.086,82.031,-91.309,1139.964
1686274434.072,-41.504,321.777,171.387,-27.344,1139.967
1686274434.076,26.855,406.738,194.824,36.133,1139.971
1686274434.080,20.020,139.160,113.281,-16.602,1139.975
1686274434.084,-41.016,64.941,90.820,-89.844,1139.979
1686274434.088,-56.152,-18.555,76.660,-54.688,1139.983
1686274434.091,0.977,-42.480,103.027,28.320,1139.987
1686274434.095,21.973,-446.777,-139.648,26.855,1139.991
1686274434.099,-46.387,-1000.000,-382.324,-47.363,1139.995
1686274434.103,-70.801,-264.160,21.484,-80.566,1139.999
1686274434.107,-1.465,277.344,143.555,-7.812,1140.003
1686274434.111,48.828,130.859,97.656,20.508,1140.007
1686274434.113,7.324,300.293,174.805,-66.895,1140.008
1686274434.117,-48.828,412.109,166.992,-94.727,1140.012
1686274434.121,-17.090,190.918,84.961,-7.812,1140.016
1686274434.125,43.457,49.316,100.098,40.527,1140.020
1686274434.129,25.879,238.770,134.277,-25.879,1140.024
1686274434.133,-39.062,10.742,36.621,-80.078,1140.028
1686274434.136,-41.504,-342.285,-75.195,-16.113,1140.032
1686274434.140,26.855,-557.617,-158.203,60.059,1140.036
1686274434.144,29.785,-238.281,-9.766,-3.418,1140.040
1686274434.148,-41.504,150.391,115.723,-98.633,1140.044
1686274434.152,-61.523,-123.047,-32.715,-57.129,1140.047
1686274434.156,3.906,-221.680,-61.523,40.527,1140.051
1686274434.158,39.062,358.887,179.688,20.996,1140.067
1686274434.162,-13.672,353.027,136.230,-66.895,1140.071
1686274434.166,-58.594,41.016,64.453,-81.543,1140.075
1686274434.170,-11.719,159.180,129.883,2.930,1140.079
1686274434.174,50.293,357.910,141.602,34.668,1140.083
1686274434.178,7.812,97.168,49.316,-41.992,1140.087
1686274434.181,-64.453,-607.422,-215.332,-58.105,1140.091
1686274434.185,-43.945,-735.352,-205.078,14.648,1140.094
1686274434.189,30.273,222.168,229.004,36.621,1140.098
1686274434.193,14.648,400.391,135.742,-26.855,1140.102
1686274434.197,-65.430,-139.648,-72.266,-90.820,1140.106
1686274434.201,-68.359,-251.465,5.371,-46.875,1140.110
1686274434.204,15.625,132.812,150.879,30.273,1140.113
1686274434.208,38.086,249.512,112.305,-9.766,1140.117
1686274434.212,-36.133,-137.207,3.418,-89.355,1140.121
1686274434.216,-63.477,45.410,112.305,-70.801,1140.124
1686274434.220,13.672,469.238,243.652,16.602,1140.128
1686274434.224,44.434,62.500,23.926,33.691,1140.132
1686274434.227,-26.367,-485.352,-136.719,-51.758,1140.136
1686274434.231,-74.707,-1.465,114.746,-92.285,1140.140
1686274434.235,-28.809,392.090,187.500,-7.812,1140.144
1686274434.239,31.250,121.582,44.434,34.668,1140.148
1686274434.243,-6.348,20.508,41.016,-49.805,1140.152
1686274434.247,-68.848,302.734,155.273,-111.328,1140.156
1686274434.263,-43.945,372.070,147.461,-41.504,1140.173
1686274434.267,19.531,20.020,50.293,31.738,1140.177
1686274434.271,0.977,-162.598,0.488,-27.344,1140.181
1686274434.275,-63.965,124.023,116.211,-102.051,1140.185
1686274434.279,-60.059,290.527,168.457,-61.523,1140.189
1686274434.283,3.418,-363.281,-135.742,43.457,1140.193
1686274434.286,19.531,-820.801,-261.230,35.645,1140.197
1686274434.290,-35.645,-251.465,62.012,-76.172,1140.201
1686274434.294,-62.500,132.812,90.332,-67.383,1140.205
1686274434.298,-6.348,-388.184,-128.418,49.316,1140.208
1686274434.302,34.180,-442.871,-60.059,42.969,1140.212
1686274434.306,-5.371,309.570,153.320,-73.242,1140.216
1686274434.308,-50.781,190.430,54.688,-92.773,1140.204
1686274434.312,-10.254,48.340,63.965,1.953,1140.208
1686274434.316,57.617,314.941,176.270,47.363,1140.211
1686274434.320,23.926,425.781,160.645,-34.668,1140.215
1686274434.324,-47.363,30.273,-34.668,-83.496,1140.219
1686274434.328,-35.645,-366.699,-107.910,-15.137,1140.223
1686274434.331,34.180,-165.527,62.500,44.922,1140.227
1686274434.335,41.992,297.852,178.223,-15.137,1140.231
1686274434.339,-25.391,-60.547,-75.684,-84.473,1140.235
1686274434.343,-47.363,-552.246,-184.082,-40.039,1140.239
1686274434.347,18.555,130.859,157.715,29.297,1140.243
1686274434.351,54.199,525.879,195.312,10.742,1140.247
1686274434.353,-1.465,-201.660,-122.070,-62.988,1140.249
1686274434.357,-43.457,-606.445,-195.801,-77.637,1140.253
1686274434.361,8.301,224.609,177.246,-8.301,1140.256
1686274434.365,61.035,437.012,160.156,17.090,1140.260
1686274434.369,12.207,-122.070,-39.062,-67.871,1140.264
1686274434.373,-55.664,-399.902,-82.031,-99.121,1140.268
1686274434.376,-28.809,-195.801,26.367,-19.531,1140.272
1686274434.380,39.062,-11.230,95.703,32.715,1140.276
1686274434.384,15.137,-474.121,-178.223,-20.020,1140.280
1686274434.388,-72.266,-1000.000,-358.398,-74.219,1140.284
1686274434.392,-57.617,-179.688,81.543,-47.852,1140.288
1686274434.396,33.691,319.824,140.137,18.555,1140.292
1686274434.398,35.156,133.301,62.012,-12.207,1140.294
1686274434.402,-39.062,285.645,133.301,-97.168,1140.298
1686274434.406,-57.129,392.090,130.371,-73.730,1140.302
1686274434.410,13.672,189.941,52.734,18.066,1140.306
1686274434.414,46.387,24.902,3.418,18.066,1140.310
1686274434.418,-14.648,14.160,32.227,-65.918,1140.314
1686274434.421,-56.641,-67.871,30.762,-73.730,1140.318
1686274434.425,-7.812,-247.559,-96.680,17.578,1140.322
1686274434.429,39.551,-547.363,-213.867,56.152,1140.326
1686274434.433,10.254,-226.074,-17.090,-41.016,1140.330
1686274434.437,-46.387,165.527,115.234,-101.562,1140.333
1686274434.441,-27.832,-127.441,-29.785,-11.230,1140.337
1686274434.443,41.504,-214.355,-35.156,60.059,1140.339
1686274434.447,28.809,335.449,168.945,-17.090,1140.343
1686274434.451,-42.969,295.898,92.773,-88.379,1140.347
1686274434.455,-44.922,102.539,33.691,-41.504,1140.351
1686274434.459,33.203,180.664,65.918,34.180,1140.354
1686274434.463,48.828,83.984,37.109,15.625,1140.358
1686274434.466,-28.320,-85.449,0.000,-71.777,1140.362
1686274434.470,-68.848,-571.777,-206.543,-56.641,1140.366
1686274434.474,-14.160,-807.617,-255.859,35.645,1140.370
1686274434.478,36.621,153.809,136.719,16.602,1140.374
1686274434.482,-13.672,383.301,89.844,-79.102,1140.378
1686274434.486,-62.500,42.969,10.742,-97.656,1140.382
1686274434.503,-12.695,53.223,118.164,-6.836,1140.399
1686274434.507,48.340,357.910,182.129,27.832,1140.403
1686274434.511,16.602,258.301,54.199,-49.316,1140.407
1686274434.515,-51.270,-212.402,-39.551,-100.098,1140.411
1686274434.519,-33.691,66.406,118.164,-41.504,1140.415
1686274434.523,33.203,215.820,115.723,23.926,1140.418
1686274434.526,21.973,-180.664,-81.543,-20.508,1140.422
1686274434.530,-49.316,-588.379,-218.750,-89.844,1140.426
1686274434.534,-57.617,-61.523,64.453,-69.336,1140.430
1686274434.538,18.555,457.520,180.176,21.484,1140.434
1686274434.542,40.527,165.039,54.199,17.090,1140.438
1686274434.546,-25.391,55.176,43.457,-74.219,1140.442
1686274434.533,-60.547,292.480,128.418,-84.473,1140.442
1686274434.537,-0.488,352.539,149.414,12.695,1140.446
1686274434.541,45.898,-9.766,-0.488,33.691,1140.450
1686274434.545,-4.883,-141.602,-8.789,-62.500,1140.454
1686274434.549,-57.617,133.301,100.098,-93.262,1140.458
1686274434.553,-25.391,68.359,56.641,-8.789,1140.462
1686274434.556,28.809,-533.203,-193.359,53.223,1140.466
1686274434.560,-1.953,-602.539,-160.645,-30.273,1140.470
1686274434.564,-66.406,157.227,147.461,-115.723,1140.474
1686274434.568,-53.711,369.629,120.605,-59.082,1140.478
1686274434.572,12.207,-415.527,-205.078,39.551,1140.481
1686274434.576,12.695,-806.152,-265.137,8.789,1140.485
1686274434.577,-44.922,96.191,96.191,-92.285,1140.495
1686274434.581,-58.105,214.355,69.824,-67.871,1140.499
1686274434.585,12.207,78.125,51.758,20.996,1140.503
1686274434.589,48.340,352.539,139.160,9.277,1140.507
1686274434.593,-8.789,340.332,103.027,-79.590,1140.511
1686274434.597,-58.105,-120.117,-79.102,-76.660,1140.515
1686274434.600,-22.949,-591.309,-218.750,13.672,1140.518
1686274434.604,31.738,-190.918,18.066,20.020,1140.522
1686274434.608,-0.977,406.250,208.496,-74.219,1140.526
1686274434.612,-62.012,-137.207,-119.629,-91.309,1140.530
1686274434.616,-34.668,-506.836,-187.012,-5.371,1140.534
1686274434.620,34.668,161.133,133.301,34.668,1140.538
1686274434.637,18.555,228.027,69.824,-25.879,1140.534
1686274434.641,-61.035,-27.832,-15.137,-89.844,1140.538
1686274434.645,-58.105,5.371,31.250,-34.668,1140.541
1686274434.649,23.438,344.727,176.758,42.480,1140.545
1686274434.653,39.551,355.957,87.891,6.836,1140.549
1686274434.657,-34.180,-139.648,-102.051,-67.871,1140.553
1686274434.660,-68.359,-339.844,-63.477,-52.734,1140.557
1686274434.664,-8.789,-139.648,28.809,28.320,1140.561
1686274434.668,29.297,22.461,83.496,30.762,1140.565
1686274434.672,-29.297,-495.605,-217.285,-47.363,1140.569
1686274434.676,-86.426,-951.172,-346.191,-64.941,1140.573
1686274434.680,-35.156,-58.594,94.238,-7.324,1140.577
1686274434.682,24.902,283.203,72.266,20.996,1140.579
1686274434.686,-12.207,59.082,-0.488,-52.734,1140.583
1686274434.690,-63.477,240.723,104.492,-96.191,1140.586
1686274434.694,-40.527,418.945,164.062,-15.625,1140.590
1686274434.698,21.484,208.008,42.480,46.387,1140.594
1686274434.702,18.555,-241.699,-146.484,-7.324,1140.598
1686274434.705,-45.410,-139.648,-9.766,-78.613,1140.602
1686274434.709,-50.781,337.402,185.059,-45.898,1140.606
1686274434.713,18.066,83.984,-19.043,51.270,1140.610
1686274434.717,30.273,-493.652,-236.328,34.668,1140.614
1686274434.721,-27.832,-156.738,-23.926,-65.430,1140.618
1686274434.725,-51.270,209.961,125.488,-57.617,1140.622
1686274434.729,7.324,-96.191,-20.020,44.922,1140.667
1686274434.733,44.434,-177.246,-77.148,43.945,1140.671
1686274434.737,-1.953,326.660,123.047,-62.988,1140.675
1686274434.741,-58.105,288.574,79.590,-87.402,1140.679
1686274434.745,-32.715,118.652,56.641,-2.441,1140.683
1686274434.749,25.391,-26.367,36.133,40.039,1140.687
1686274434.752,1.465,-160.156,-20.020,-29.785,1140.691
1686274434.756,-70.801,-159.180,-34.180,-87.402,1140.694
1686274434.760,-67.871,-585.449,-225.098,-12.695,1140.698
1686274434.764,0.977,-784.668,-224.121,59.082,1140.702
1686274434.768,12.207,140.625,164.062,-14.648,1140.706
1686274434.772,-44.922,284.180,56.641,-90.332,1140.710
1686274434.789,-59.570,-35.156,-37.598,-52.734,1140.688
1686274434.793,8.301,36.133,111.816,31.738,1140.692
1686274434.797,45.898,349.121,161.133,12.695,1140.695
1686274434.801,-10.254,215.820,13.672,-79.102,1140.699
1686274434.805,-49.805,-179.688,-125.488,-70.801,1140.703
1686274434.809,8.301,-100.586,-22.461,20.020,1140.707
1686274434.812,52.734,175.293,130.371,23.926,1140.711
1686274434.816,0.488,78.125,-22.461,-53.223,1140.715
1686274434.820,-72.754,-754.395,-346.680,-73.730,1140.719
1686274434.824,-36.621,-293.945,-3.906,-17.090,1140.723
1686274434.828,40.527,532.715,209.961,26.367,1140.727
1686274434.832,17.090,75.684,6.836,-26.367,1140.731
1686274434.833,-53.711,-123.535,-18.066,-93.750,1140.729
1686274434.837,-41.016,340.332,150.391,-43.457,1140.733
1686274434.841,34.668,428.711,147.461,37.598,1140.737
1686274434.845,36.621,-40.527,-59.570,2.930,1140.741
1686274434.849,-37.109,-163.086,-55.176,-83.496,1140.745
1686274434.853,-56.152,20.508,61.035,-57.617,1140.749
1686274434.856,12.207,-62.500,1.465,38.574,1140.753
1686274434.860,38.574,-402.832,-95.215,39.551,1140.756
1686274434.864,-17.578,-268.555,-24.902,-63.965,1140.760
1686274434.868,-59.082,298.340,128.418,-93.750,1140.764
1686274434.872,-8.301,423.828,141.602,-0.977,1140.768
1686274434.876,44.434,-329.590,-183.594,50.293,1140.772
1686274434.862,-6.836,-1000.000,-359.375,-20.508,1140.759
1686274434.866,-64.941,-98.633,62.012,-87.891,1140.762
1686274434.870,-32.227,250.977,87.402,-11.230,1140.766
1686274434.874,38.574,152.344,51.270,53.711,1140.770
1686274434.878,22.461,380.859,104.980,-17.090,1140.774
1686274434.882,-54.688,103.027,-17.090,-84.473,1140.778
1686274434.885,-56.152,-334.473,-145.508,-27.832,1140.782
1686274434.889,12.695,-234.375,-73.242,46.387,1140.786
1686274434.893,34.180,292.969,131.836,7.812,1140.790
1686274434.897,-25.879,500.000,187.500,-81.055,1140.794
1686274434.901,-62.012,0.488,-68.359,-63.965,1140.798
1686274434.905,-5.859,-783.691,-301.270,41.016,1140.801
1686274434.908,44.434,-124.512,74.219,20.996,1140.804
1686274434.912,3.906,443.359,139.160,-77.148,1140.808
1686274434.916,-48.340,67.871,-15.137,-88.379,1140.812
1686274434.920,-5.371,122.559,64.941,0.488,1140.815
1686274434.924,59.570,364.258,114.746,43.457,1140.819
1686274434.928,19.531,193.359,47.852,-44.922,1140.823
1686274434.931,-58.594,-542.969,-245.117,-84.961,1140.827
1686274434.935,-46.875,-711.914,-237.793,-7.324,1140.831
1686274434.939,19.043,73.730,106.445,28.320,1140.835
1686274434.943,23.438,148.926,7.324,-23.926,1140.839
1686274434.947,-42.969,-379.883,-117.188,-88.379,1140.843
1686274434.951,-60.547,-201.172,34.668,-58.594,1140.847
1686274434.953,15.625,478.516,190.430,16.602,1140.863
1686274434.957,37.598,292.969,42.480,-3.906,1140.867
1686274434.961,-28.809,62.500,-23.926,-81.055,1140.871
1686274434.965,-64.453,254.883,97.656,-71.777,1140.875
1686274434.969,-5.371,410.156,172.852,12.695,1140.879
1686274434.973,43.945,-25.879,-43.945,25.879,1140.883
1686274434.976,-8.301,-652.832,-267.090,-53.223,1140.887
1686274434.980,-61.035,-120.117,54.688,-95.215,1140.890
1686274434.984,-19.043,451.660,183.105,-13.672,1140.894
1686274434.988,38.086,214.844,24.902,31.738,1140.898
1686274434.992,8.301,108.887,6.836,-52.734,1140.902
1686274434.996,-59.570,63.965,30.273,-100.586,1140.906
1686274434.999,-58.594,176.270,109.863,-51.270,1140.908
1686274435.003,15.625,-68.359,-17.578,21.973,1140.912
1686274435.007,27.344,-244.141,-77.148,-8.301,1140.916
1686274435.011,-38.086,242.188,117.188,-93.750,1140.920
1686274435.015,-54.199,262.695,70.801,-57.129,1140.924
1686274435.019,9.766,-50.293,-52.246,32.227,1140.927
1686274435.022,37.109,-269.531,-79.102,27.344,1140.931
1686274435.026,-17.090,-151.367,-3.906,-67.871,1140.935
1686274435.030,-56.152,115.234,62.988,-87.891,1140.939
1686274435.034,-8.789,-471.191,-208.984,21.484,1140.943
1686274435.038,43.945,-683.105,-211.426,51.758,1140.947
1686274435.042,8.301,176.758,126.465,-63.477,1140.951
1686274435.059,-52.734,51.758,-3.418,-102.539,1140.958
1686274435.063,-32.227,-100.098,-31.738,-22.949,1140.961
1686274435.067,34.180,63.477,65.918,32.715,1140.965
1686274435.071,17.090,328.613,155.273,-29.785,1140.969
1686274435.075,-49.316,188.477,9.277,-88.379,1140.973
1686274435.079,-48.828,-523.438,-234.375,-19.531,1140.977
1686274435.082,24.902,-261.230,-27.344,51.758,1140.981
1686274435.086,41.992,430.664,189.453,-0.977,1140.985
1686274435.090,-23.926,-13.184,-113.770,-73.730,1140.989
1686274435.094,-53.223,-503.418,-233.887,-41.992,1140.993
1686274435.098,15.137,146.484,117.676,29.785,1140.997
1686274435.102,55.664,452.637,127.930,16.602,1141.001
1686274435.103,-12.207,82.031,3.418,-74.707,1140.999
1686274435.107,-59.570,17.090,9.277,-87.891,1141.002
1686274435.111,-8.301,340.332,125.977,-7.324,1141.006
1686274435.115,46.875,354.980,104.492,35.156,1141.010
1686274435.119,5.371,-29.785,-63.965,-27.344,1141.014
1686274435.123,-62.988,-279.785,-143.555,-72.266,1141.018
1686274435.126,-46.387,-193.359,-49.316,-8.301,1141.022
1686274435.130,20.508,-24.414,74.219,41.016,1141.026
1686274435.134,6.836,-442.383,-195.801,-7.812,1141.030
1686274435.138,-78.125,-1000.000,-432.617,-60.547,1141.034
1686274435.142,-81.055,-234.863,8.789,-42.969,1141.038
1686274435.146,0.977,345.703,106.445,25.879,1141.042
1686274435.147,22.461,109.375,30.273,7.324,1141.044
1686274435.151,-35.156,178.223,89.844,-87.891,1141.048
1686274435.155,-60.059,353.516,121.582,-75.195,1141.052
1686274435.159,-4.883,263.672,67.871,23.926,1141.056
1686274435.163,35.156,71.289,-31.738,33.691,1141.060
1686274435.167,-13.672,-63.477,-33.691,-59.570,1141.064
1686274435.170,-63.965,-27.832,31.738,-92.773,1141.067
1686274435.174,-30.273,-107.910,-58.594,-0.977,1141.071
1686274435.178,18.066,-791.992,-324.219,49.805,1141.075
1686274435.182,-6.348,-310.059,-27.832,-42.969,1141.079
1686274435.186,-60.059,395.996,143.555,-100.098,1141.083
1686274435.190,-50.293,73.730,20.996,-30.273,1141.087
1686274435.208,20.996,115.234,91.797,40.039,1141.104
1686274435.212,24.414,429.688,165.527,-4.883,1141.107
1686274435.216,-46.875,329.102,101.562,-82.520,1141.111
1686274435.220,-65.430,34.180,-1.953,-50.293,1141.115
1686274435.224,1.465,67.871,-1.953,38.086,1141.119
1686274435.228,29.785,48.340,43.457,23.438,1141.123
1686274435.231,-30.762,-52.734,41.504,-67.383,1141.127
1686274435.235,-71.777,-550.293,-209.961,-58.105,1141.131
1686274435.239,-23.926,-830.566,-267.578,34.668,1141.135
1686274435.243,32.715,-61.035,47.363,29.297,1141.139
1686274435.247,-10.742,56.641,19.043,-54.688,1141.143
1686274435.251,-74.219,-214.355,-67.871,-81.055,1141.147
1686274435.237,-34.668,92.285,77.148,-14.160,1141.134
1686274435.241,37.109,458.984,165.527,28.809,1141.138
1686274435.245,4.395,200.195,7.812,-37.109,1141.142
1686274435.249,-64.453,2.930,-27.344,-99.609,1141.146
1686274435.253,-49.316,276.367,129.883,-40.039,1141.149
1686274435.257,23.438,182.129,88.379,44.434,1141.153
1686274435.260,21.973,-260.742,-115.723,4.395,1141.157
1686274435.264,-41.504,-190.918,-84.961,-85.938,1141.161
1686274435.268,-46.387,201.172,119.629,-62.988,1141.165
1686274435.272,21.484,426.758,182.617,18.066,1141.169
1686274435.276,46.387,-42.480,-80.566,15.625,1141.173
1686274435.280,-25.391,-634.766,-297.363,-63.965,1141.177
1686274435.283,-69.824,-240.723,-20.020,-87.402,1141.182
1686274435.287,-17.090,216.309,124.512,-12.207,1141.186
1686274435.291,35.645,-110.840,-40.039,23.926,1141.190
1686274435.295,-3.418,-247.070,-45.410,-60.059,1141.194
1686274435.299,-60.059,194.336,83.496,-117.188,1141.198
1686274435.303,-31.250,150.391,58.105,-30.273,1141.201
1686274435.306,35.156,-481.445,-187.012,61.035,1141.205
1686274435.310,17.578,-763.184,-280.273,9.277,1141.209
1686274435.314,-45.410,141.602,125.977,-92.773,1141.213
1686274435.318,-49.805,353.027,107.422,-50.293,1141.217
1686274435.322,12.695,109.375,62.500,33.691,1141.221
1686274435.326,38.574,301.270,151.367,3.906,1141.225
1686274435.327,-22.949,442.383,148.438,-81.055,1141.239
1686274435.331,-54.688,216.309,72.266,-71.289,1141.243
1686274435.335,6.348,-72.266,-32.227,23.438,1141.247
1686274435.339,41.992,21.484,63.477,28.809,1141.251
1686274435.343,-11.719,275.879,150.879,-69.824,1141.254
1686274435.347,-68.848,-24.414,-17.578,-86.914,1141.258
1686274435.350,-30.273,-833.984,-339.844,28.320,1141.262
1686274435.354,34.180,-444.824,-120.117,42.480,1141.266
1686274435.358,2.441,382.812,172.363,-63.965,1141.270
1686274435.362,-64.941,53.711,-15.625,-106.934,1141.274
1686274435.366,-46.875,3.418,5.371,-39.551,1141.278
1686274435.370,29.785,348.633,120.117,21.973,1141.282
1686274435.388,26.367,347.168,104.492,-37.598,1141.284
1686274435.392,-51.270,30.762,16.602,-109.863,1141.288
1686274435.396,-66.895,-7.812,30.762,-76.172,1141.292
1686274435.400,0.977,348.145,184.570,3.418,1141.296
1686274435.404,25.391,294.434,100.586,-3.418,1141.299
1686274435.408,-36.133,-197.266,-116.211,-70.801,1141.303
1686274435.411,-77.148,-393.555,-116.211,-69.824,1141.307
1686274435.415,-16.113,-205.566,4.883,14.160,1141.311
1686274435.419,39.551,-6.836,85.938,23.438,1141.315
1686274435.423,-19.043,-479.492,-227.539,-62.012,1141.319
1686274435.427,-82.520,-976.074,-363.281,-74.219,1141.323
1686274435.431,-36.621,-64.453,111.328,-5.859,1141.327
1686274435.433,32.227,359.863,120.117,38.086,1141.329
1686274435.437,1.465,90.332,23.926,-30.762,1141.333
1686274435.441,-64.941,207.520,92.773,-93.262,1141.337
1686274435.445,-54.688,368.652,134.277,-35.156,1141.341
1686274435.449,15.137,227.051,60.059,41.016,1141.345
1686274435.453,25.879,-173.340,-100.586,8.301,1141.349
1686274435.456,-48.340,-112.793,0.000,-89.844,1141.353
1686274435.460,-66.406,201.172,143.066,-79.590,1141.357
1686274435.464,5.371,-92.773,-51.270,22.461,1141.361
1686274435.468,14.648,-808.105,-291.016,30.273,1141.365
1686274435.472,-47.363,-280.762,32.227,-76.172,1141.369
1686274435.476,-68.848,337.402,111.328,-96.191,1141.372
1686274435.478,-20.020,-187.012,-65.918,3.418,1141.374
1686274435.482,33.203,-90.332,38.574,22.949,1141.378
1686274435.486,-0.977,232.910,94.238,-62.500,1141.382
1686274435.490,-66.895,181.641,73.730,-94.238,1141.386
1686274435.494,-37.109,-43.457,-36.621,-18.555,1141.389
1686274435.498,35.645,-218.750,-55.176,30.273,1141.393
1686274435.501,17.578,-107.422,-7.812,-35.645,1141.397
1686274435.505,-50.293,-32.715,5.371,-104.004,1141.401
1686274435.509,-51.758,-509.766,-187.500,-30.273,1141.405
1686274435.513,20.020,-780.762,-254.395,55.664,1141.409
1686274435.517,32.227,-10.254,54.199,-3.906,1141.413
1686274435.521,-35.645,45.410,7.324,-80.566,1141.417
1686274435.522,-59.570,-193.359,-17.090,-48.340,1141.419
1686274435.526,8.789,216.309,145.996,31.738,1141.423
1686274435.530,49.805,546.387,174.316,23.926,1141.427
1686274435.534,-7.324,224.609,19.043,-61.523,1141.430
1686274435.538,-53.223,30.273,-43.945,-82.520,1141.434
1686274435.542,-16.113,-15.137,-2.441,8.301,1141.438
1686274435.545,43.457,138.672,125.977,38.574,1141.442
1686274435.549,12.207,7.812,-22.461,-48.828,1141.446
1686274435.553,-62.500,-587.891,-251.465,-94.727,1141.450
1686274435.557,-32.227,-10.742,82.520,-32.715,1141.454
1686274435.561,44.922,473.145,163.574,21.484,1141.458
1686274435.565,25.879,104.004,23.926,-32.227,1141.462
1686274435.568,-51.758,23.926,31.250,-101.562,1141.467
1686274435.572,-57.617,83.496,58.594,-57.617,1141.471
1686274435.576,21.973,245.605,117.676,25.391,1141.475
1686274435.580,33.203,-61.523,-13.184,0.488,1141.479
1686274435.584,-38.574,-315.430,-76.172,-89.355,1141.483
1686274435.588,-69.336,-111.328,-29.785,-73.242,1141.487
1686274435.591,-12.207,-37.598,16.113,28.809,1141.491
1686274435.595,29.785,-465.332,-173.828,48.828,1141.495
1686274435.599,-23.926,-873.047,-309.082,-37.598,1141.499
1686274435.603,-68.359,-6.836,74.707,-90.820,1141.502
1686274435.607,-26.855,300.781,80.078,-1.465,1141.506
1686274435.611,35.645,102.051,53.223,46.875,1141.510
1686274435.612,14.160,229.492,114.746,-37.109,1141.508
1686274435.616,-46.387,340.332,123.535,-89.355,1141.512
1686274435.620,-38.574,164.062,53.223,-19.043,1141.516
1686274435.624,27.832,-113.770,-66.895,50.293,1141.520
1686274435.628,25.879,7.812,16.113,-5.859,1141.524
1686274435.632,-48.828,-17.090,9.277,-79.590,1141.528
1686274435.635,-57.129,-232.910,-133.789,-42.480,1141.532
1686274435.639,9.766,-763.672,-344.238,56.152,1141.536
1686274435.643,37.109,-414.062,-107.910,35.156,1141.540
1686274435.647,-8.789,364.258,142.578,-64.941,1141.543
1686274435.651,-52.246,55.664,-11.230,-59.570,1141.547
1686274435.655,-0.488,51.270,48.828,23.438,1141.551
1686274435.658,55.664,398.438,148.926,45.898,1141.567
1686274435.662,2.930,338.379,82.520,-38.574,1141.571
1686274435.666,-66.406,31.738,-1.465,-67.871,1141.575
1686274435.670,-36.133,123.047,59.082,15.137,1141.579
1686274435.674,33.691,409.180,167.480,57.617,1141.583
1686274435.678,12.207,146.484,42.969,-12.207,1141.587
1686274435.681,-67.383,-592.773,-314.941,-58.105,1141.590
1686274435.685,-63.477,-792.480,-303.223,0.000,1141.594
1686274435.689,14.160,-186.523,30.273,51.758,1141.598
1686274435.693,27.832,187.500,54.688,7.324,1141.602
1686274435.697,-44.922,-407.227,-205.078,-69.336,1141.606
1686274435.701,-71.289,-459.473,-104.980,-55.664,1141.610
1686274435.702,10.254,424.316,211.426,17.090,1141.613
1686274435.706,39.062,313.477,49.316,6.348,1141.617
1686274435.710,-27.832,48.340,-20.020,-87.891,1141.621
1686274435.714,-70.801,198.242,112.305,-95.703,1141.625
1686274435.718,-23.926,334.473,125.977,-4.883,1141.629
1686274435.722,27.832,7.324,-43.945,31.250,1141.633
1686274435.725,-20.020,-636.719,-211.914,-39.551,1141.637
1686274435.729,-72.754,-201.660,23.926,-97.168,1141.641
1686274435.733,-39.062,315.430,149.414,-31.738,1141.645
1686274435.737,26.855,-113.770,-67.383,41.016,1141.648
1686274435.741,19.531,-146.484,-65.430,-16.113,1141.652
1686274435.745,-47.363,230.957,127.930,-95.215,1141.656
1686274435.762,-48.340,346.680,118.652,-46.387,1141.659
1686274435.766,20.996,-140.625,-85.449,42.969,1141.663
1686274435.770,36.133,-260.254,-63.965,12.695,1141.667
1686274435.774,-29.785,245.605,127.930,-88.867,1141.671
1686274435.778,-67.383,255.859,79.102,-80.078,1141.675
1686274435.782,-10.742,-102.051,-51.270,8.301,1141.679
1686274435.785,21.484,-330.566,-103.027,-0.488,1141.682
1686274435.789,-25.879,-244.629,-107.910,-86.914,1141.686
1686274435.793,-70.801,30.273,-20.508,-112.793,1141.690
1686274435.797,-34.180,-456.055,-223.633,-14.160,1141.694
1686274435.801,33.203,-712.891,-244.141,38.086,1141.698
1686274435.805,12.695,22.949,66.406,-55.176,1141.702
1686274435.808,-52.246,-99.121,-122.070,-106.445,1141.708
1686274435.812,-29.785,-213.379,-68.359,-33.691,1141.712
1686274435.816,41.504,161.133,115.234,38.086,1141.716
1686274435.820,37.598,396.973,105.957,-12.207,1141.720
1686274435.824,-25.879,62.988,-49.316,-91.797,1141.724
1686274435.828,-38.574,-386.230,-235.352,-57.129,1141.728
1686274435.831,31.738,-151.855,-60.547,34.668,1141.732
1686274435.835,60.059,320.801,159.668,15.137,1141.736
1686274435.839,-11.230,-120.605,-162.109,-71.289,1141.740
1686274435.843,-65.918,-729.004,-393.555,-68.848,1141.743
1686274435.847,-6.348,-84.473,19.531,10.254,1141.747
1686274435.851,52.734,316.406,90.820,25.391,1141.751
1686274435.868,1.465,-81.055,-66.406,-66.895,1141.768
1686274435.872,-51.758,-239.746,-136.230,-94.238,1141.771
1686274435.876,-9.766,-139.160,-133.789,1.465,1141.775
1686274435.880,62.988,47.852,-33.691,45.898,1141.779
1686274435.884,33.691,-250.977,-161.621,-29.297,1141.783
1686274435.888,-35.156,-589.355,-301.758,-83.984,1141.787
1686274435.891,-22.461,-438.965,-240.723,-23.926,1141.791
1686274435.895,44.922,-265.137,-135.742,42.969,1141.795
1686274435.899,41.504,-566.406,-358.398,-0.977,1141.799
1686274435.903,-41.016,-1000.000,-538.086,-72.266,1141.803
1686274435.907,-61.523,-382.812,-138.184,-59.082,1141.807
1686274435.911,16.113,125.488,0.488,17.090,1141.810
1686274435.898,46.875,-24.902,-58.594,16.602,1141.794
1686274435.902,-14.160,51.758,0.000,-75.684,1141.798
1686274435.906,-51.758,146.973,1.465,-83.008,1141.802
1686274435.910,1.465,2.441,-65.430,9.277,1141.806
1686274435.914,54.199,-278.809,-215.332,28.320,1141.810
1686274435.918,8.301,-323.730,-228.516,-56.641,1141.814
1686274435.921,-51.270,-301.758,-195.801,-83.496,1141.817
1686274435.925,-16.602,-454.590,-321.777,2.930,1141.821
1686274435.929,50.293,-539.551,-297.363,51.758,1141.825
1686274435.933,28.809,-53.711,-0.488,-25.391,1141.829
1686274435.937,-39.551,249.512,65.430,-92.773,1141.833
1686274435.941,-40.039,-229.004,-219.238,-31.250,1141.837
1686274435.943,18.066,-872.559,-398.926,50.781,1141.838
1686274435.947,34.180,-308.594,-49.316,-10.742,1141.842
1686274435.951,-30.762,120.117,2.930,-105.469,1141.846
1686274435.955,-59.082,-121.582,-122.070,-77.637,1141.850
1686274435.959,15.137,-40.039,-25.391,12.695,1141.854
1686274435.963,56.641,-27.832,-88.379,15.137,1141.858
1686274435.966,0.000,-222.168,-197.266,-69.824,1141.862
1686274435.970,-57.129,-604.004,-343.262,-74.707,1141.866
1686274435.974,-29.297,-1000.000,-519.531,22.949,1141.870
1686274435.978,23.926,-325.684,-110.352,24.414,1141.874
1686274435.982,1.465,227.051,10.254,-72.266,1141.878
1686274435.986,-49.316,-61.523,-142.578,-102.051,1141.881
1686274436.002,-24.414,145.020,13.184,-22.949,1141.899
1686274436.006,45.898,427.246,136.719,35.156,1141.903
1686274436.010,35.645,200.195,-11.230,-14.648,1141.907
1686274436.014,-36.133,-52.734,-97.168,-79.102,1141.911
1686274436.018,-45.898,79.102,25.879,-37.109,1141.914
1686274436.022,23.438,28.320,-10.254,45.410,1141.918
1686274436.025,32.715,-265.137,-242.676,11.230,1141.922
1686274436.029,-38.574,-659.180,-352.051,-76.660,1141.926
1686274436.033,-55.664,-188.965,3.418,-62.012,1141.930
1686274436.037,12.207,244.629,87.891,26.855,1141.934
1686274436.041,51.270,-297.852,-192.871,41.992,1141.938
1686274436.045,-6.348,-409.668,-223.633,-48.340,1141.942
1686274436.033,-69.336,150.391,54.688,-86.914,1141.957
1686274436.037,-29.785,252.930,67.383,0.977,1141.961
1686274436.041,40.527,-9.766,-33.691,42.969,1141.965
1686274436.045,21.484,48.340,9.766,-37.109,1141.969
1686274436.049,-34.668,225.098,65.918,-80.566,1141.972
1686274436.053,-20.020,-21.484,0.488,-8.301,1141.976
1686274436.056,45.410,-306.152,-125.488,56.641,1141.980
1686274436.060,38.086,-212.891,-84.473,-0.488,1141.984
1686274436.064,-33.691,132.324,73.242,-94.727,1141.988
1686274436.068,-46.875,263.672,58.105,-69.824,1141.992
1686274436.072,15.625,-466.309,-265.137,34.668,1141.996
1686274436.076,33.203,-822.754,-325.195,17.090,1142.000
1686274436.078,-23.926,-192.871,-75.195,-92.285,1141.987
1686274436.082,-59.082,-196.777,-188.477,-88.867,1141.991
1686274436.086,-3.906,-299.316,-121.094,4.395,1141.995
1686274436.090,51.270,78.125,84.473,24.414,1141.999
1686274436.094,11.719,338.379,117.676,-67.383,1142.003
1686274436.098,-43.945,-101.074,-126.465,-91.797,1142.007
1686274436.101,-13.672,-596.680,-254.395,8.301,1142.011
1686274436.105,46.387,-76.172,37.598,39.551,1142.015
1686274436.109,31.738,424.805,170.410,-41.504,1142.019
1686274436.113,-38.086,-46.387,-72.754,-87.891,1142.023
1686274436.117,-38.574,-176.758,-109.375,-26.855,1142.027
1686274436.121,37.109,320.801,160.645,41.016,1142.030
1686274436.137,41.016,376.465,125.488,-9.277,1142.034
1686274436.141,-29.297,-71.289,-37.109,-85.938,1142.038
1686274436.145,-45.898,-220.703,-30.762,-55.176,1142.042
1686274436.149,18.066,11.230,71.289,28.809,1142.046
1686274436.153,56.152,232.422,94.238,13.672,1142.050
1686274436.157,2.441,-370.117,-234.375,-63.965,1142.053
1686274436.160,-50.293,-867.676,-353.027,-47.852,1142.057
1686274436.164,-0.488,-243.164,-13.184,23.926,1142.061
1686274436.168,52.246,283.203,103.027,27.344,1142.065
1686274436.172,7.324,-346.680,-186.035,-42.480,1142.069
1686274436.176,-58.105,-561.523,-153.809,-92.773,1142.073
1686274436.180,-18.555,306.152,169.922,-40.039,1142.077
1686274436.197,54.199,257.812,51.758,22.949,1142.094
1686274436.201,33.203,44.434,14.648,-41.016,1142.098
1686274436.205,-41.016,206.055,110.840,-109.863,1142.102
1686274436.209,-40.039,377.930,149.902,-53.711,1142.106
1686274436.213,28.320,178.223,27.832,35.645,1142.110
1686274436.217,34.668,-185.547,-104.004,3.906,1142.114
1686274436.220,-25.391,-270.996,-74.219,-86.914,1142.118
1686274436.224,-54.199,-57.617,38.086,-83.496,1142.122
1686274436.228,-0.977,11.719,-21.484,7.812,1142.125
1686274436.232,22.949,-744.141,-327.148,30.273,1142.129
1686274436.236,-32.227,-394.043,-52.734,-77.637,1142.133
1686274436.240,-72.266,342.285,139.648,-110.352,1142.137
1686274436.243,-27.344,89.355,43.945,-9.277,1142.139
1686274436.247,35.645,85.449,84.473,26.367,1142.143
1686274436.251,7.324,289.551,124.023,-48.828,1142.147
1686274436.255,-49.316,242.188,108.887,-85.938,1142.150
1686274436.259,-31.738,6.348,2.930,-13.184,1142.154
1686274436.263,33.691,-182.617,-58.594,48.828,1142.158
1686274436.266,24.414,-119.141,34.668,-11.230,1142.162
1686274436.270,-46.387,-189.453,-20.020,-78.125,1142.166
1686274436.274,-54.688,-295.898,-93.750,-36.133,1142.170
1686274436.278,18.555,59.082,82.520,40.527,1142.174
1686274436.282,43.945,384.277,151.367,16.602,1142.178
1686274436.286,-18.555,314.453,99.121,-77.148,1142.182
1686274436.272,-56.152,-481.445,-217.285,-56.641,1142.182
1686274436.276,-6.836,-1000.000,-338.379,43.945,1142.186
1686274436.280,40.527,-45.410,109.863,17.578,1142.190
1686274436.284,-5.371,289.551,64.453,-73.730,1142.194
1686274436.288,-62.500,15.625,-32.227,-96.680,1142.198
1686274436.292,-31.738,58.594,89.844,-22.949,1142.202
1686274436.295,32.227,119.629,97.656,26.855,1142.206
1686274436.299,6.348,-100.098,-84.473,-44.434,1142.210
1686274436.303,-60.547,-204.590,-102.051,-99.609,1142.214
1686274436.307,-43.457,278.809,137.207,-47.363,1142.217
1686274436.311,32.227,359.863,142.090,20.508,1142.221
1686274436.315,28.320,-204.102,-147.461,-1.465,1142.225
1686274436.318,-50.293,-833.496,-344.727,-62.988,1142.214
1686274436.322,-61.035,-156.250,67.871,-58.105,1142.218
1686274436.326,22.461,443.359,168.457,22.461,1142.222
1686274436.330,47.363,144.043,22.949,19.531,1142.225
1686274436.334,-26.367,120.605,39.551,-71.289,1142.229
1686274436.338,-64.453,34.668,24.414,-70.801,1142.233
1686274436.341,-8.789,18.066,74.219,23.926,1142.237
1686274436.345,41.016,-462.891,-187.500,61.523,1142.241
1686274436.349,-5.371,-667.969,-225.098,-35.645,1142.245
1686274436.353,-59.082,189.453,153.809,-102.539,1142.249
1686274436.357,-18.066,386.230,100.586,-13.672,1142.253
1686274436.361,44.922,-347.656,-130.859,55.176,1142.257
1686274436.364,23.926,-363.281,-33.203,-23.926,1142.262
1686274436.368,-39.551,172.363,102.539,-96.680,1142.266
1686274436.372,-38.574,-27.832,-46.875,-30.273,1142.270
1686274436.376,37.598,-106.445,14.160,51.758,1142.274
1686274436.380,48.340,175.781,127.441,8.301,1142.278
1686274436.384,-22.461,125.488,11.230,-77.637,1142.282
1686274436.387,-46.875,-256.836,-161.621,-45.898,1142.286
1686274436.391,12.695,-514.648,-183.105,51.758,1142.290
1686274436.395,56.152,21.973,84.961,31.738,1142.293
1686274436.399,17.090,482.422,160.156,-66.406,1142.297
1686274436.403,-34.180,86.426,-0.488,-78.125,1142.301
1686274436.407,11.719,84.473,47.363,9.277,1142.305
1686274436.408,62.012,464.355,164.062,33.691,1142.304
1686274436.412,20.020,409.180,107.422,-56.641,1142.308
1686274436.416,-38.574,74.219,1.953,-86.914,1142.312
1686274436.420,-24.414,-27.344,-33.203,-0.977,1142.316
1686274436.424,29.785,49.316,33.203,48.828,1142.320
1686274436.428,21.484,25.879,37.598,-11.230,1142.324
1686274436.431,-47.363,-447.266,-219.727,-64.941,1142.327
1686274436.435,-61.523,-1000.000,-455.078,-2.441,1142.331
1686274436.439,20.996,-356.934,-68.848,51.758,1142.335
1686274436.443,48.340,395.508,122.559,5.859,1142.339
1686274436.447,-22.949,135.742,22.949,-71.777,1142.343
1686274436.451,-53.223,236.816,116.211,-56.641,1142.347
1686274436.452,5.371,462.891,137.695,25.391,1142.364
1686274436.456,51.758,291.504,66.895,32.715,1142.368
1686274436.460,5.859,78.613,22.949,-54.199,1142.372
1686274436.464,-49.805,224.609,100.098,-78.613,1142.376
1686274436.468,-16.602,366.211,133.789,0.488,1142.379
1686274436.472,45.410,53.223,1.465,45.410,1142.383
1686274436.475,12.695,-678.223,-221.680,-16.113,1142.387
1686274436.479,-56.152,-420.410,-54.199,-79.102,1142.391
1686274436.483,-37.109,363.281,191.895,-28.809,1142.395
1686274436.487,32.715,74.707,-30.273,44.922,1142.399
1686274436.491,32.715,-277.832,-168.945,4.883,1142.403
1686274436.495,-30.273,207.031,101.562,-84.961,1142.407
1686274436.528,-38.574,375.977,131.836,-53.711,1142.424
1686274436.532,29.297,110.352,51.270,31.738,1142.428
1686274436.536,54.199,109.375,58.105,11.719,1142.432
1686274436.540,-2.441,275.879,96.680,-75.195,1142.435
1686274436.544,-47.363,199.707,47.852,-69.824,1142.439
1686274436.548,6.348,-140.137,-60.059,27.344,1142.443
1686274436.551,57.617,-269.043,-43.457,35.156,1142.447
1686274436.555,1.953,-165.039,-43.945,-55.664,1142.451
1686274436.559,-61.523,-120.117,-59.570,-83.496,1142.455
1686274436.563,-29.297,-538.086,-237.305,0.488,1142.459
1686274436.567,17.578,-955.566,-306.641,50.293,1142.463
1686274436.571,-3.418,-93.262,86.914,-50.293,1142.467
1686274436.558,-53.711,268.066,88.867,-118.652,1142.454
1686274436.562,-45.898,39.062,25.879,-50.293,1142.457
1686274436.566,29.785,317.871,131.348,22.949,1142.461
1686274436.570,37.598,473.145,160.645,-23.926,1142.465
1686274436.574,-36.133,174.805,23.438,-108.887,1142.469
1686274436.578,-55.176,-281.738,-136.719,-77.637,1142.473
1686274436.581,9.766,-99.609,21.973,10.742,1142.477
1686274436.585,41.504,435.547,190.430,3.418,1142.481
1686274436.589,-23.438,85.449,-57.617,-73.242,1142.485
1686274436.593,-70.801,-268.066,-146.484,-85.449,1142.489
1686274436.597,-10.742,197.266,108.887,-4.395,1142.493
1686274436.601,44.922,261.230,106.445,14.648,1142.497
1686274436.603,1.465,-313.477,-143.555,-59.082,1142.502
1686274436.607,-62.012,-871.582,-308.594,-77.148,1142.506
1686274436.611,-31.250,-134.277,82.031,-21.973,1142.510
1686274436.615,35.156,446.777,177.246,22.461,1142.514
1686274436.619,6.348,110.352,-0.488,-30.762,1142.518
1686274436.623,-65.430,-98.633,4.883,-100.586,1142.522
1686274436.626,-63.965,-109.375,44.922,-52.734,1142.525
1686274436.630,4.883,49.316,82.520,17.578,1142.529
1686274436.634,9.277,-414.551,-187.012,-9.766,1142.533
1686274436.638,-59.570,-945.801,-339.355,-81.055,1142.537
1686274436.642,-69.336,-53.711,94.238,-86.914,1142.541
1686274436.646,-1.953,404.785,126.953,1.465,1142.545
1686274436.649,29.785,18.555,-5.859,13.184,1142.547
1686274436.653,-22.949,89.844,55.664,-71.777,1142.551
1686274436.657,-71.289,190.430,99.609,-87.402,1142.555
1686274436.661,-24.414,156.250,84.961,-7.324,1142.559
1686274436.665,34.180,-72.754,20.996,26.855,1142.563
1686274436.669,-8.301,-182.617,17.090,-45.898,1142.567
1686274436.672,-64.941,97.656,99.609,-99.609,1142.571
1686274436.676,-41.504,203.125,50.781,-35.156,1142.575
1686274436.680,13.184,-614.258,-252.441,43.945,1142.579
1686274436.684,1.953,-326.172,-6.836,-27.344,1142.583
1686274436.688,-63.477,481.934,179.199,-110.352,1142.586
1686274436.692,-67.871,108.887,17.090,-55.664,1142.590
1686274436.693,4.883,152.344,103.027,23.926,1142.589
1686274436.697,22.949,500.488,199.707,-4.395,1142.593
1686274436.701,-42.480,421.875,134.766,-86.426,1142.597
1686274436.705,-69.824,121.094,29.297,-67.383,1142.600
1686274436.709,-7.812,53.223,26.855,30.762,1142.604
1686274436.713,23.926,51.270,36.621,28.320,1142.608
1686274436.716,-28.320,4.395,47.852,-64.453,1142.612
1686274436.720,-80.566,-431.152,-190.918,-65.918,1142.616
1686274436.724,-49.805,-1000.000,-429.199,27.344,1142.620
1686274436.728,20.020,-297.363,19.043,42.480,1142.624
1686274436.732,4.883,429.688,167.969,-42.969,1142.628
1686274436.736,-57.617,64.453,7.812,-90.332,1142.632
1686274436.738,-45.410,145.996,118.164,-22.461,1142.634
1686274436.742,30.762,510.254,182.129,51.758,1142.638
1686274436.746,28.320,318.359,66.895,10.742,1142.642
1686274436.750,-53.223,88.867,28.809,-68.848,1142.646
1686274436.754,-62.988,235.352,88.867,-38.574,1142.650
1686274436.758,5.371,169.922,80.566,46.387,1142.653
1686274436.761,20.020,-95.215,-38.574,24.902,1142.657
1686274436.765,-43.945,-650.879,-233.398,-49.316,1142.661
1686274436.769,-80.566,-222.168,45.898,-70.801,1142.665
1686274436.773,-19.531,555.176,230.469,-3.906,1142.669
1686274436.777,31.738,209.961,2.441,25.879,1142.673
1686274436.781,-20.508,-21.973,-21.484,-55.664,1142.677
1686274436.783,-74.707,324.707,163.574,-94.238,1142.679
1686274436.787,-36.133,428.711,153.320,-9.766,1142.682
1686274436.791,31.250,191.406,102.051,50.781,1142.686
1686274436.795,5.859,188.477,104.004,-27.344,1142.690
1686274436.799,-62.500,277.832,113.281,-95.215,1142.694
1686274436.803,-57.617,108.398,87.891,-38.574,1142.698
1686274436.806,2.441,-503.906,-176.270,58.594,1142.702
1686274436.810,-5.371,-798.828,-264.648,27.832,1142.706
1686274436.814,-66.895,51.758,109.863,-83.008,1142.710
1686274436.818,-73.730,329.590,84.473,-57.617,1142.714
1686274436.822,-12.695,-262.207,-77.637,37.109,1142.718
1686274436.826,17.090,-150.391,72.266,18.066,1142.722
