timestamps,TP9,AF7,AF8,TP10
1636950747.602,304.688,-7.324,225.586,74.707
1636950747.606,266.602,350.586,54.199,41.992
1636950747.610,-287.598,-557.129,-141.113,-126.953
1636950747.614,-348.145,-885.742,132.324,-126.953
1636950747.618,166.016,-30.273,290.527,28.320
1636950747.622,350.586,110.352,10.742,78.125
1636950747.626,-157.715,-630.371,-62.012,-79.102
1636950747.629,-424.805,-808.594,108.398,-155.273
1636950747.633,12.695,-187.012,200.195,-10.254
1636950747.637,398.438,329.102,122.070,92.285
1636950747.641,6.836,-421.387,-109.863,-41.992
1636950747.645,-420.898,-989.746,35.156,-166.016
1636950747.661,-135.742,-308.105,172.363,-75.195
1636950747.665,387.207,208.008,107.422,82.520
1636950747.669,167.969,-278.320,-43.945,12.207
1636950747.673,-363.281,-751.465,-28.320,-145.508
1636950747.677,-264.648,-486.328,66.406,-108.887
1636950747.681,288.574,-98.145,60.059,65.918
1636950747.685,286.621,-572.266,-48.828,61.035
1636950747.688,-261.230,-1000.000,-13.672,-121.094
1636950747.692,-360.352,-729.492,86.426,-153.809
1636950747.696,129.395,-300.781,164.551,9.277
1636950747.700,349.609,-217.285,79.102,67.871
1636950747.704,-135.742,-287.109,-7.812,-98.145
1636950747.706,-424.316,-479.980,-14.160,-171.875
1636950747.710,-31.250,-618.652,40.527,-26.855
1636950747.714,375.977,-263.184,172.852,97.168
1636950747.718,38.574,13.184,51.270,-30.762
1636950747.722,-410.645,-570.312,-115.234,-160.156
1636950747.726,-187.500,-847.168,22.949,-68.848
1636950747.730,350.586,-379.883,253.418,93.262
1636950747.733,208.496,-84.473,101.562,27.344
1636950747.737,-331.055,-472.168,-105.957,-140.137
1636950747.741,-310.059,-990.723,-54.688,-104.980
1636950747.745,240.723,-436.035,260.742,64.453
1636950747.749,321.777,332.031,172.363,64.941
1636950747.751,-235.840,-366.211,-128.418,-102.051
1636950747.755,-396.973,-875.977,30.762,-138.672
1636950747.759,93.262,-225.098,302.734,15.625
1636950747.763,374.023,377.441,165.527,89.355
1636950747.767,-94.238,-272.461,-125.977,-66.406
1636950747.771,-428.711,-1000.000,-79.590,-162.109
1636950747.775,-54.688,-734.375,112.305,-46.387
1636950747.778,387.695,-143.555,100.098,79.590
1636950747.782,65.430,-448.730,-118.652,-26.855
1636950747.786,-418.457,-1000.000,-172.852,-146.484
1636950747.790,-226.562,-814.453,188.965,-79.102
1636950747.794,333.496,168.457,352.051,67.383
1636950747.796,223.145,64.941,49.316,16.113
1636950747.800,-327.637,-681.152,-43.945,-147.949
1636950747.804,-322.754,-582.031,36.133,-129.395
1636950747.808,227.051,106.934,151.855,37.598
1636950747.812,307.129,62.988,34.180,50.781
1636950747.816,-251.953,-841.797,-95.703,-120.605
1636950747.820,-426.270,-967.773,37.109,-152.832
1636950747.823,33.691,-142.090,211.426,-6.836
1636950747.827,365.234,-222.168,63.477,86.426
1636950747.831,-63.965,-947.266,-82.520,-55.664
1636950747.835,-429.199,-877.441,-13.672,-171.875
1636950747.839,-90.332,-484.863,144.043,-62.012
1636950747.840,386.719,-91.309,189.453,79.590
1636950747.844,107.910,-173.340,0.000,-15.137
1636950747.848,-401.367,-529.297,-71.289,-151.855
1636950747.852,-254.395,-650.879,20.996,-91.797
1636950747.856,307.617,-116.699,136.230,73.730
1636950747.860,252.930,-112.305,23.926,45.410
1636950747.864,-300.293,-789.551,-88.867,-128.906
1636950747.867,-350.098,-937.012,-29.297,-140.625
1636950747.871,168.945,-1000.000,3.418,33.691
1636950747.875,346.191,-616.211,131.348,73.730
1636950747.879,-163.086,-285.156,10.742,-101.562
1636950747.883,-417.480,-820.801,-50.293,-154.785
1636950747.887,15.625,-570.801,212.891,-11.230
1636950747.891,392.578,160.645,255.859,92.773
1636950747.895,7.812,-18.066,-30.762,-53.223
1636950747.899,-405.762,-793.945,-97.168,-166.504
1636950747.903,-129.883,-710.938,229.004,-56.152
1636950747.907,366.699,-33.203,273.438,84.473
1636950747.911,125.488,-252.930,-17.090,-13.184
1636950747.914,-405.762,-937.012,-129.395,-165.039
1636950747.918,-292.969,-820.312,147.949,-111.328
1636950747.922,279.297,99.609,347.168,49.805
1636950747.926,271.484,213.379,53.711,31.250
1636950747.930,-299.316,-674.805,-99.121,-144.531
1636950747.931,-390.625,-848.633,26.367,-153.809
1636950747.935,137.207,-35.156,174.316,18.066
1636950747.939,369.629,186.523,41.504,82.031
1636950747.943,-127.441,-666.016,-91.309,-66.895
1636950747.947,-416.016,-943.359,-6.836,-148.926
1636950747.951,1.953,-525.879,75.684,-14.648
1636950747.955,379.395,-252.930,44.434,99.121
1636950747.958,-19.043,-778.320,-163.574,-25.391
1636950747.962,-437.500,-1000.000,95.703,-147.949
1636950747.966,-171.875,-437.012,388.672,-74.707
1636950747.970,354.492,90.332,184.082,86.426
1636950747.974,179.199,-186.523,-77.148,16.113
1636950747.976,-352.539,-561.035,-42.969,-149.902
1636950747.980,-299.805,-515.625,20.020,-119.629
1636950747.984,253.906,-158.691,83.984,54.688
1636950747.988,288.086,41.504,30.273,55.664
1636950747.992,-255.371,-437.012,-109.375,-113.281
1636950747.996,-396.484,-914.551,-22.949,-134.766
1636950748.000,84.961,-936.523,50.293,19.531
1636950748.003,366.211,-786.621,107.422,92.773
1636950748.007,-100.586,-424.805,63.477,-79.590
1636950748.011,-423.340,-701.172,-104.004,-176.758
1636950748.015,-46.387,-622.070,116.211,-37.598
1636950748.019,390.625,173.340,239.258,90.332
1636950748.021,44.922,49.805,-23.438,-35.156
1636950748.025,-434.570,-746.094,-103.027,-165.039
1636950748.029,-225.098,-799.805,103.027,-81.543
1636950748.033,322.754,26.367,300.293,78.125
1636950748.037,196.777,91.797,44.434,28.320
1636950748.041,-334.961,-796.387,-167.480,-139.648
1636950748.045,-289.062,-1000.000,31.738,-111.328
1636950748.048,244.141,-398.926,324.707,48.340
1636950748.052,318.359,-81.543,152.832,48.340
1636950748.056,-219.727,-682.617,-172.852,-116.211
1636950748.060,-413.574,-934.082,28.320,-157.227
1636950748.064,63.965,-160.645,364.746,-14.160
1636950748.067,382.324,399.902,149.902,61.035
1636950748.071,-81.543,-367.188,-153.320,-79.102
1636950748.075,-443.359,-999.512,13.184,-169.922
1636950748.079,-83.984,-359.375,342.285,-67.383
1636950748.083,387.207,284.668,201.660,67.383
1636950748.087,89.844,-370.605,-47.363,-16.602
1636950748.091,-406.250,-1000.000,45.410,-168.945
1636950748.094,-230.957,-556.641,125.000,-114.746
1636950748.098,321.289,127.441,192.871,57.617
1636950748.102,243.652,-237.793,59.082,15.137
1636950748.106,-326.172,-957.520,-52.734,-156.250
1636950748.110,-372.070,-915.039,37.598,-156.738
1636950748.127,180.176,-300.293,233.398,13.672
1636950748.131,338.867,-122.559,85.449,61.035
1636950748.135,-182.129,-595.215,-71.777,-102.051
1636950748.139,-404.297,-738.281,17.090,-160.156
1636950748.143,61.523,-386.230,82.031,-5.371
1636950748.147,412.109,-533.203,17.090,102.539
1636950748.151,-13.184,-807.617,-25.879,-41.016
1636950748.154,-401.855,-881.348,-57.617,-158.203
1636950748.158,-102.539,-972.168,30.273,-55.664
1636950748.162,390.137,-323.242,165.039,99.121
1636950748.166,157.715,-49.316,48.828,8.789
1636950748.170,-357.422,-506.348,-47.363,-146.973
1636950748.171,-241.211,-833.496,-28.320,-88.379
1636950748.175,323.242,-850.586,109.375,80.078
1636950748.179,307.617,-253.418,184.570,50.293
1636950748.183,-251.465,-318.848,-68.848,-116.699
1636950748.187,-346.191,-872.559,-38.086,-112.305
1636950748.191,166.992,-573.730,260.742,58.105
1636950748.195,377.441,-51.270,198.242,104.980
1636950748.198,-136.230,-277.344,-69.336,-70.312
1636950748.202,-427.734,-910.645,-118.652,-144.043
1636950748.206,9.277,-709.473,193.848,11.230
1636950748.210,416.504,310.547,250.000,116.699
1636950748.214,4.883,36.133,-92.285,-28.809
1636950748.216,-432.129,-761.230,-32.227,-146.973
1636950748.220,-145.020,-420.898,155.762,-48.340
1636950748.224,382.324,420.410,211.914,102.539
1636950748.228,172.363,92.285,-8.789,28.320
1636950748.232,-373.047,-886.230,-84.961,-132.324
1636950748.236,-280.762,-978.027,59.570,-93.750
1636950748.240,279.785,-183.594,220.703,73.242
1636950748.243,302.734,-90.820,6.348,62.012
1636950748.247,-248.535,-959.961,-206.055,-88.867
1636950748.251,-384.277,-917.480,146.973,-120.117
1636950748.255,136.230,-8.301,371.094,22.461
1636950748.259,393.066,224.609,144.531,90.332
1636950748.261,-103.516,-393.555,-62.988,-68.848
1636950748.265,-413.574,-628.906,-38.086,-150.391
1636950748.269,-7.324,-200.684,160.156,-24.414
1636950748.273,439.453,166.016,186.523,100.098
1636950748.277,62.012,-165.039,-39.062,-24.414
1636950748.281,-377.441,-799.805,-85.449,-142.090
1636950748.285,-124.512,-768.066,114.258,-56.152
1636950748.288,361.328,-577.148,113.281,78.613
1636950748.292,205.566,-855.957,6.836,17.090
1636950748.296,-340.820,-655.762,21.973,-153.809
1636950748.300,-315.430,-574.219,-24.902,-126.465
1636950748.304,235.352,-172.852,163.086,45.898
1636950748.306,310.547,226.074,139.160,52.246
1636950748.310,-238.770,-250.000,-50.781,-114.746
1636950748.314,-393.555,-801.758,-46.875,-146.484
1636950748.318,110.840,-477.539,166.504,1.953
1636950748.322,401.855,208.008,169.922,86.914
1636950748.326,-86.426,-440.918,-94.238,-59.082
1636950748.330,-441.406,-1000.000,-86.426,-156.738
1636950748.333,-84.961,-1000.000,-11.719,-26.855
1636950748.337,384.766,-546.875,207.031,100.098
1636950748.341,88.379,-225.098,72.754,-27.344
1636950748.345,-396.484,-931.641,-160.645,-161.621
1636950748.349,-203.613,-796.875,81.055,-78.613
1636950748.351,343.262,191.406,345.703,70.312
1636950748.355,239.258,297.363,37.109,24.902
1636950748.359,-316.895,-634.277,-86.426,-136.230
1636950748.363,-340.820,-798.828,107.910,-139.160
1636950748.367,204.102,-2.930,200.195,25.879
1636950748.371,342.285,45.410,20.996,47.363
1636950748.375,-195.801,-775.879,-156.250,-108.398
1636950748.378,-412.598,-957.031,91.309,-148.926
1636950748.382,56.152,-203.125,355.469,-12.207
1636950748.386,402.344,326.660,140.137,87.402
1636950748.390,-46.387,-369.629,-120.605,-57.617
1636950748.394,-437.012,-1000.000,-103.027,-163.086
1636950748.412,-98.145,-645.020,129.883,-49.316
1636950748.416,391.602,81.055,238.770,91.309
1636950748.420,115.723,-365.723,-3.906,-1.465
1636950748.424,-402.832,-895.020,-49.316,-151.855
1636950748.428,-265.625,-605.469,29.297,-104.980
1636950748.432,306.641,-269.531,40.039,80.078
1636950748.436,273.438,-561.523,-9.766,65.430
1636950748.439,-282.715,-1000.000,-12.207,-123.535
1636950748.443,-354.980,-834.961,42.480,-127.930
1636950748.447,162.109,-444.336,59.570,41.992
1636950748.451,354.980,-468.262,32.715,81.543
1636950748.455,-156.738,-506.836,37.598,-97.168
1636950748.456,-405.762,-612.793,-30.273,-157.715
1636950748.460,38.574,-502.930,74.219,-4.883
1636950748.464,402.832,-175.293,93.262,100.098
1636950748.468,8.301,-284.180,-38.086,-41.504
1636950748.472,-397.949,-631.348,-83.008,-166.992
1636950748.476,-138.184,-830.078,6.348,-62.500
1636950748.480,367.188,-292.969,209.473,92.285
1636950748.483,159.668,5.371,52.246,7.324
1636950748.487,-370.605,-558.594,-102.051,-152.832
1636950748.491,-290.527,-1000.000,-70.312,-102.051
1636950748.495,263.184,-721.680,217.773,75.195
1636950748.499,301.758,-47.363,207.520,58.594
1636950748.501,-246.094,-495.117,-122.559,-108.398
1636950748.505,-363.281,-894.043,62.012,-125.977
1636950748.509,153.809,-164.551,340.332,27.832
1636950748.513,380.859,365.234,151.367,89.844
1636950748.517,-124.512,-350.098,-122.070,-63.965
1636950748.521,-423.828,-1000.000,-77.148,-140.137
1636950748.525,-20.020,-697.754,175.781,-15.137
1636950748.528,393.066,-126.953,202.637,97.656
1636950748.532,26.367,-492.676,-132.324,-28.320
1636950748.536,-434.570,-1000.000,-131.836,-154.785
1636950748.540,-178.711,-718.262,289.062,-73.242
1636950748.544,376.953,285.645,321.777,66.406
1636950748.546,207.031,-83.496,-66.895,0.977
1636950748.550,-349.121,-994.141,-53.711,-146.484
1636950748.554,-306.152,-676.270,147.949,-118.652
1636950748.558,243.652,94.727,216.797,48.340
1636950748.562,298.340,14.160,52.734,61.035
1636950748.566,-249.512,-864.258,-102.051,-109.375
1636950748.570,-399.902,-955.566,32.715,-142.090
1636950748.573,103.516,-275.391,125.000,13.184
1636950748.577,380.859,-391.602,-19.531,91.797
1636950748.581,-105.957,-991.211,3.418,-60.059
1636950748.585,-417.480,-768.066,112.793,-153.809
1636950748.589,-27.344,-375.977,63.965,-33.691
1636950748.591,407.227,-181.152,75.195,87.891
1636950748.595,81.543,-287.598,-5.859,-33.691
1636950748.599,-398.926,-577.148,-56.152,-172.852
1636950748.603,-196.777,-612.305,36.133,-85.938
1636950748.607,298.828,-221.191,108.398,58.594
1636950748.611,170.410,-315.918,-17.578,-6.348
1636950748.615,-324.219,-875.977,-74.219,-146.484
1636950748.618,-340.820,-989.746,-20.020,-131.348
1636950748.622,192.383,-1000.000,5.371,44.922
1636950748.626,319.824,-705.078,31.738,66.895
1636950748.630,-203.613,-628.418,-44.434,-118.164
1636950748.634,-398.926,-1000.000,-93.750,-162.598
1636950748.651,62.988,-614.258,150.879,-1.953
1636950748.655,384.766,255.859,215.820,86.426
1636950748.659,-55.664,-131.836,-104.004,-63.477
1636950748.663,-424.316,-873.047,-45.410,-163.086
1636950748.667,-78.613,-529.785,235.840,-47.852
1636950748.671,387.207,-12.695,145.020,91.797
1636950748.675,102.051,-378.418,-71.777,-13.672
1636950748.678,-398.438,-972.168,-106.445,-152.344
1636950748.682,-249.023,-812.012,162.109,-78.613
1636950748.686,305.176,149.414,358.887,76.660
1636950748.690,237.793,210.938,22.949,40.527
1636950748.694,-323.242,-704.590,-117.676,-133.301
1636950748.682,-374.512,-1000.000,-9.766,-137.207
1636950748.686,171.387,-316.895,213.379,29.297
1636950748.690,348.633,102.539,119.629,66.895
1636950748.694,-175.781,-674.805,-73.242,-104.492
1636950748.698,-416.992,-966.309,24.902,-173.828
1636950748.702,20.020,-522.949,70.312,-28.809
1636950748.706,377.441,-244.629,26.367,79.102
1636950748.709,-45.410,-780.762,-102.539,-53.223
1636950748.713,-448.242,-1000.000,-8.789,-166.016
1636950748.717,-134.766,-426.270,139.648,-63.965
1636950748.721,375.000,-83.496,36.621,89.355
1636950748.725,134.766,-776.367,-157.715,5.859
1636950748.741,-392.578,-1000.000,26.855,-152.832
1636950748.745,-270.508,-579.102,102.051,-113.281
1636950748.749,298.828,-190.918,104.004,59.082
1636950748.753,274.414,-232.422,43.457,36.133
1636950748.757,-288.574,-723.145,-85.938,-143.555
1636950748.761,-373.047,-917.969,-41.504,-150.879
1636950748.765,154.297,-902.832,22.949,19.531
1636950748.768,368.164,-863.281,33.203,87.402
1636950748.772,-153.320,-587.402,26.367,-90.820
1636950748.776,-432.617,-736.328,-82.031,-173.340
1636950748.780,-12.695,-567.383,121.582,-32.715
1636950748.784,404.297,144.043,226.074,79.102
1636950748.771,35.645,-34.668,-36.621,-42.480
1636950748.775,-407.715,-811.035,-105.957,-162.598
1636950748.779,-145.020,-763.672,158.203,-79.102
1636950748.783,395.508,92.285,305.664,76.172
1636950748.787,206.055,48.340,-4.883,7.812
1636950748.791,-365.723,-823.730,-156.738,-145.996
1636950748.795,-312.012,-1000.000,80.566,-107.910
1636950748.798,256.836,-387.695,335.938,59.082
1636950748.802,313.965,-183.594,132.324,54.199
1636950748.806,-245.117,-727.539,-153.320,-124.023
1636950748.810,-407.227,-1000.000,-150.391,-130.859
1636950748.814,98.633,-668.457,235.352,40.527
1636950748.831,382.324,190.430,217.285,95.215
1636950748.835,-97.656,-339.844,-34.668,-57.129
1636950748.839,-412.598,-939.453,47.363,-143.555
1636950748.843,-36.621,-336.914,195.801,-28.320
1636950748.847,389.160,300.293,207.520,91.797
1636950748.851,49.805,-386.719,-42.969,-15.137
1636950748.855,-410.156,-1000.000,27.832,-157.227
1636950748.858,-184.570,-545.898,157.227,-83.008
1636950748.862,361.328,44.922,164.062,82.520
1636950748.866,209.961,-427.246,-38.086,26.855
1636950748.870,-358.887,-1000.000,-32.227,-138.672
1636950748.874,-330.078,-616.699,103.027,-128.418
1636950748.875,229.980,-67.871,198.242,37.598
1636950748.879,321.289,-24.902,66.406,53.223
1636950748.883,-212.402,-464.844,-85.449,-116.699
1636950748.887,-383.789,-690.918,15.137,-153.809
1636950748.891,90.820,-332.031,117.676,0.977
1636950748.895,383.301,-226.074,35.156,81.055
1636950748.899,-86.914,-655.762,-62.012,-65.918
1636950748.902,-445.801,-968.262,-35.645,-160.645
1636950748.906,-91.309,-817.383,107.910,-39.062
1636950748.910,382.812,-844.238,48.828,106.445
1636950748.914,97.168,-950.195,-42.480,-12.207
1636950748.918,-396.973,-862.305,-10.742,-168.945
1636950748.921,-236.328,-1000.000,7.324,-94.727
1636950748.925,315.430,-467.285,174.316,71.289
1636950748.929,228.027,119.141,94.238,24.902
1636950748.933,-334.473,-487.305,-96.191,-146.973
1636950748.937,-369.629,-940.918,-17.578,-142.090
1636950748.941,170.898,-563.965,213.379,34.668
1636950748.945,331.543,-64.941,203.613,71.289
1636950748.948,-192.383,-411.133,-65.918,-99.121
1636950748.952,-433.594,-1000.000,-116.211,-145.020
1636950748.956,23.438,-651.855,209.473,-6.348
1636950748.960,394.531,256.836,229.004,76.172
1636950748.964,-41.016,-183.105,-104.492,-54.688
1636950748.967,-440.430,-920.410,-54.199,-157.715
1636950748.971,-117.676,-706.055,113.770,-47.852
1636950748.975,386.230,-43.457,170.410,88.867
1636950748.979,134.766,-146.484,-14.648,-7.812
1636950748.983,-391.602,-911.133,-67.871,-155.273
1636950748.987,-272.461,-1000.000,81.055,-105.957
1636950748.991,300.293,-342.773,252.930,62.012
1636950748.994,273.438,-207.031,17.578,42.969
1636950748.998,-306.152,-987.793,-124.512,-113.281
1636950749.002,-376.465,-890.137,256.836,-129.883
1636950749.006,165.527,-30.273,369.629,22.461
1636950749.010,352.539,-61.523,65.918,84.473
1636950749.011,-151.855,-860.840,-140.137,-74.707
1636950749.015,-386.230,-754.395,18.066,-149.902
1636950749.019,28.809,-201.172,142.578,-11.719
1636950749.023,406.250,31.250,115.723,98.633
1636950749.027,22.461,-566.895,-31.250,-27.344
1636950749.031,-411.133,-1000.000,-60.547,-144.531
1636950749.035,-146.973,-765.137,93.262,-62.500
1636950749.038,358.887,-580.566,104.492,90.332
1636950749.042,151.855,-927.246,-4.883,20.020
1636950749.046,-373.535,-812.988,46.875,-144.043
1636950749.050,-302.734,-632.324,16.602,-108.398
1636950749.054,249.512,-167.969,163.574,58.105
1636950749.056,281.738,104.492,107.910,48.340
1636950749.060,-280.762,-398.926,-83.984,-125.977
1636950749.064,-407.227,-826.660,-41.016,-147.461
1636950749.068,104.492,-430.176,179.688,7.324
1636950749.072,343.750,106.445,134.277,62.500
1636950749.076,-144.043,-558.105,-133.301,-98.145
1636950749.080,-451.660,-1000.000,-103.516,-171.875
1636950749.083,-68.848,-900.391,139.648,-35.156
1636950749.087,375.488,-320.312,310.059,77.148
1636950749.091,37.109,-190.430,36.621,-40.527
1636950749.095,-431.152,-859.863,-155.273,-161.133
1636950749.099,-197.266,-818.359,100.098,-74.707
1636950749.101,340.820,85.449,342.285,77.148
1636950749.105,187.012,129.883,52.246,10.742
1636950749.109,-361.816,-733.398,-150.879,-151.367
1636950749.113,-334.961,-966.309,97.656,-122.070
1636950749.117,237.305,-188.965,336.426,48.340
1636950749.121,316.406,-107.422,48.340,52.246
1636950749.125,-243.652,-865.723,-148.926,-116.211
1636950749.128,-400.879,-927.246,93.750,-141.113
1636950749.132,106.445,-182.129,374.512,2.441
1636950749.136,406.250,106.934,125.977,77.637
1636950749.140,-76.660,-614.258,-62.500,-69.824
1636950749.144,-431.641,-937.988,167.480,-170.410
1636950749.149,-44.922,-314.453,307.129,-55.176
1636950749.153,422.363,184.082,156.250,85.938
1636950749.157,94.238,-498.047,-65.918,-17.090
1636950749.161,-391.602,-980.957,-15.137,-162.109
1636950749.165,-194.824,-597.168,57.129,-98.145
1636950749.169,346.191,-246.094,50.781,65.430
1636950749.173,227.539,-624.512,-16.113,26.855
1636950749.176,-335.938,-1000.000,-39.062,-153.320
1636950749.180,-335.449,-771.484,97.168,-143.066
1636950749.184,225.586,-309.570,244.141,41.016
1636950749.188,356.934,-231.934,51.270,69.336
1636950749.192,-180.176,-466.309,-63.965,-95.215
1636950749.206,-393.555,-904.297,-22.461,-146.484
1636950749.210,67.383,-816.406,153.809,-5.371
1636950749.214,403.809,-235.352,226.074,87.891
1636950749.218,-25.879,-224.121,10.254,-51.758
1636950749.222,-412.109,-763.672,-77.637,-151.855
1636950749.226,-94.238,-917.480,-0.488,-31.738
1636950749.230,388.184,-1000.000,-0.488,121.094
1636950749.233,125.488,-820.312,82.031,13.184
1636950749.237,-377.441,-718.750,10.742,-158.691
1636950749.241,-242.188,-787.109,34.668,-101.562
1636950749.245,316.406,-137.695,264.160,68.848
1636950749.249,275.391,38.574,54.199,37.598
1636950749.251,-281.738,-578.613,-125.488,-125.000
1636950749.255,-347.168,-868.652,82.031,-125.488
1636950749.259,191.895,-339.844,337.891,28.809
1636950749.263,377.930,47.852,168.945,75.684
1636950749.267,-161.133,-484.375,-117.188,-84.473
1636950749.271,-419.434,-1000.000,28.809,-153.320
1636950749.275,26.367,-580.566,336.914,-16.113
1636950749.278,410.156,-50.781,181.641,86.426
1636950749.282,4.395,-533.203,-124.023,-48.340
1636950749.286,-430.176,-1000.000,-166.504,-146.973
1636950749.290,-147.461,-742.676,187.988,-49.805
1636950749.294,367.676,224.609,299.805,70.312
1636950749.296,143.555,-86.914,3.418,-8.301
1636950749.300,-370.605,-848.145,-46.875,-158.203
1636950749.304,-265.625,-570.801,70.312,-122.559
1636950749.308,287.109,144.531,214.355,46.875
1636950749.312,298.340,-33.691,54.688,28.809
1636950749.316,-256.836,-877.441,-83.984,-134.766
1636950749.320,-365.234,-1000.000,-3.418,-140.137
1636950749.323,160.645,-448.242,199.219,14.160
1636950749.327,378.418,-384.766,80.078,78.613
1636950749.331,-140.625,-1000.000,-26.367,-77.148
1636950749.335,-423.828,-784.180,109.863,-169.434
1636950749.339,-12.695,-345.215,121.582,-32.227
1636950749.341,394.043,-11.230,101.074,95.703
1636950749.345,7.324,-173.340,-42.480,-31.250
1636950749.349,-443.359,-683.594,-58.105,-161.133
1636950749.353,-185.059,-677.246,37.109,-74.707
1636950749.357,356.934,-166.992,104.980,81.543
1636950749.361,187.988,-322.754,-12.207,14.648
1636950749.365,-333.496,-939.453,-71.289,-136.230
1636950749.368,-284.668,-971.680,2.441,-97.656
1636950749.372,224.121,-993.652,2.441,77.148
1636950749.376,285.645,-958.984,55.664,82.031
1636950749.380,-250.000,-677.246,37.598,-113.770
1636950749.384,-394.531,-860.352,-60.059,-147.949
1636950749.386,105.957,-459.961,191.406,20.996
1636950749.390,385.254,312.012,207.520,86.426
1636950749.394,-97.168,-194.824,-96.191,-66.895
1636950749.398,-423.340,-868.652,-27.832,-147.949
1636950749.402,-41.504,-551.758,256.348,-36.621
1636950749.406,402.344,-47.852,161.621,89.355
1636950749.410,77.148,-479.004,-86.914,-22.949
1636950749.413,-401.855,-1000.000,-109.863,-150.391
1636950749.417,-206.543,-779.785,162.109,-69.336
1636950749.421,326.660,108.887,330.566,76.172
1636950749.425,198.730,-60.547,-4.395,20.020
1636950749.429,-345.703,-882.812,-68.848,-138.672
1636950749.430,-339.355,-775.879,227.539,-132.812
1636950749.434,224.609,8.301,336.914,35.645
1636950749.438,338.867,110.352,106.934,61.035
1636950749.442,-214.355,-677.734,-41.016,-112.305
1636950749.446,-401.367,-895.996,-3.906,-156.250
1636950749.450,63.965,-537.598,62.500,-1.465
1636950749.454,369.629,-295.898,2.930,86.914
1636950749.457,-82.520,-788.086,-95.215,-59.570
1636950749.461,-450.684,-1000.000,42.480,-154.785
1636950749.465,-103.027,-382.324,212.891,-41.992
1636950749.469,382.324,-8.789,112.305,97.656
1636950749.473,87.891,-725.586,-114.258,2.441
1636950749.477,-418.457,-1000.000,-6.836,-164.062
1636950749.481,-246.582,-792.480,53.711,-110.840
1636950749.485,290.527,-541.016,79.590,55.176
1636950749.489,215.820,-421.875,-18.555,21.973
1636950749.493,-291.504,-553.711,-76.172,-127.441
1636950749.497,-333.496,-869.141,-12.695,-131.836
1636950749.501,156.250,-912.598,41.504,31.250
1636950749.504,326.172,-668.945,49.316,83.496
1636950749.508,-184.570,-384.277,21.484,-102.051
1636950749.512,-418.945,-744.141,-88.867,-164.551
1636950749.516,31.738,-556.152,132.812,-14.160
1636950749.520,413.086,168.945,191.406,86.426
1636950749.521,5.371,-50.781,-77.148,-56.641
1636950749.525,-406.738,-784.668,-86.426,-167.969
1636950749.529,-119.141,-700.195,136.230,-66.895
1636950749.533,355.957,-75.195,212.402,73.730
1636950749.537,120.117,-275.391,-59.570,-5.371
1636950749.541,-385.254,-860.352,-124.512,-145.508
1636950749.545,-288.574,-1000.000,-14.648,-84.473
1636950749.548,272.949,-687.012,262.207,83.008
1636950749.552,269.531,-180.664,181.152,39.551
1636950749.556,-288.574,-647.949,-163.086,-133.301
1636950749.560,-375.977,-956.055,-21.973,-143.066
1636950749.564,144.043,-206.055,297.852,7.324
1636950749.566,364.746,235.352,158.691,62.988
1636950749.570,-152.832,-513.184,-133.789,-81.543
1636950749.574,-445.801,-1000.000,-31.738,-149.902
1636950749.578,-9.277,-346.680,295.410,-21.973
1636950749.582,376.953,192.383,191.406,87.402
1636950749.586,-16.113,-500.977,-65.918,-39.551
1636950749.590,-412.598,-1000.000,-13.672,-158.691
1636950749.593,-147.461,-784.668,158.691,-76.172
1636950749.597,359.863,38.574,277.832,71.777
1636950749.601,168.457,-344.727,-36.133,12.207
1636950749.605,-373.535,-1000.000,-49.316,-143.066
1636950749.609,-308.594,-664.062,127.930,-109.375
1636950749.641,251.465,-47.852,148.438,54.688
1636950749.645,306.152,-52.246,21.484,53.223
1636950749.649,-230.957,-601.074,-103.027,-105.957
1636950749.653,-365.234,-787.109,2.441,-138.184
1636950749.657,124.512,-401.367,93.262,13.184
1636950749.661,371.582,-382.324,-0.977,87.891
1636950749.665,-109.863,-750.977,-52.246,-67.383
1636950749.668,-434.082,-959.961,-27.344,-160.156
1636950749.672,-42.969,-871.094,69.824,-27.344
1636950749.676,378.906,-876.465,-5.859,107.910
1636950749.680,35.156,-994.141,9.277,-14.160
1636950749.684,-402.832,-826.660,60.059,-155.273
1636950749.686,-188.965,-881.348,-7.812,-77.637
1636950749.690,339.355,-373.047,208.008,74.219
1636950749.694,201.660,95.215,102.539,17.578
1636950749.698,-340.332,-503.906,-99.609,-138.672
1636950749.702,-315.918,-882.812,-8.789,-114.258
1636950749.706,242.676,-576.660,153.320,55.176
1636950749.710,336.426,-140.625,145.508,66.406
1636950749.713,-225.586,-487.305,-79.102,-105.469
1636950749.717,-401.855,-980.469,-37.109,-145.020
1636950749.721,88.867,-386.719,307.617,7.812
1636950749.725,386.230,223.633,177.734,91.797
1636950749.729,-69.824,-488.281,-114.746,-56.152
1636950749.716,-422.363,-1000.000,-79.590,-143.555
1636950749.720,-85.938,-730.469,188.477,-25.391
1636950749.724,385.254,115.723,307.617,95.703
1636950749.728,90.820,-178.711,-4.883,-7.812
1636950749.732,-412.598,-961.914,-74.219,-152.344
1636950749.736,-242.676,-974.121,45.410,-86.914
1636950749.740,314.941,-254.883,246.582,82.031
1636950749.743,226.562,-238.770,22.461,39.551
1636950749.747,-325.684,-973.145,-103.516,-142.090
1636950749.751,-328.125,-848.633,94.238,-146.484
1636950749.755,227.539,-61.523,237.793,13.184
1636950749.759,342.773,-85.449,44.922,51.270
1636950749.762,-225.586,-965.332,-172.363,-100.098
1636950749.766,-438.965,-1000.000,151.367,-163.086
1636950749.770,38.086,-532.715,309.082,-32.715
1636950749.774,396.484,-348.145,151.855,73.730
1636950749.778,-36.133,-768.555,-65.430,-59.570
1636950749.782,-437.988,-1000.000,-87.402,-165.527
1636950749.786,-132.812,-712.402,147.949,-60.059
1636950749.789,363.281,-502.441,153.320,85.449
1636950749.793,107.910,-839.844,-79.102,-13.184
1636950749.797,-390.625,-680.664,-27.832,-177.734
1636950749.801,-245.605,-611.328,-1.953,-116.211
1636950749.805,316.406,-204.590,157.715,60.547
1636950749.806,288.574,74.219,118.652,35.156
1636950749.810,-272.461,-416.016,-79.590,-140.625
1636950749.814,-354.980,-824.219,-50.293,-149.414
1636950749.818,167.969,-417.969,167.969,20.508
1636950749.822,363.770,-62.988,140.137,67.871
1636950749.826,-162.109,-730.957,-93.262,-96.191
1636950749.830,-436.523,-1000.000,-33.691,-160.156
1636950749.833,-3.418,-1000.000,2.930,-15.137
1636950749.837,382.324,-852.539,193.359,88.867
1636950749.841,-8.301,-433.594,148.926,-51.758
1636950749.845,-434.082,-805.176,-125.488,-167.480
1636950749.849,-148.926,-724.609,116.699,-73.730
1636950749.851,382.324,191.406,308.105,78.125
1636950749.855,175.293,49.805,-2.930,-0.977
1636950749.859,-364.746,-794.434,-63.477,-159.180
1636950749.863,-263.672,-784.668,247.070,-114.746
1636950749.867,286.133,-52.246,297.363,47.852
1636950749.871,278.320,-186.035,12.695,34.668
1636950749.875,-271.973,-885.742,-153.320,-131.348
1636950749.878,-384.766,-1000.000,87.402,-147.461
1636950749.882,151.855,-273.926,376.465,7.324
1636950749.886,395.996,238.281,109.863,57.129
1636950749.890,-114.746,-553.711,-99.121,-86.914
1636950749.894,-423.828,-1000.000,96.191,-162.109
1636950749.896,-14.648,-392.090,273.926,-32.227
1636950749.900,406.250,125.000,203.613,92.285
1636950749.904,36.621,-421.875,-55.176,-32.715
1636950749.908,-416.504,-942.383,-50.293,-158.203
1636950749.912,-185.547,-695.801,84.473,-76.660
1636950749.916,339.355,-297.852,75.195,87.891
1636950749.920,171.875,-637.695,-3.906,34.180
1636950749.923,-377.930,-1000.000,16.602,-137.207
1636950749.927,-325.195,-820.312,146.973,-124.023
1636950749.931,243.652,-379.883,251.465,47.852
1636950749.935,311.523,-684.570,71.777,74.707
1636950749.939,-246.582,-867.676,78.613,-104.004
1636950749.940,-399.902,-718.750,30.762,-151.367
1636950749.944,115.723,-499.512,152.344,16.602
1636950749.948,411.621,-39.551,226.562,95.703
1636950749.952,-65.918,-198.242,8.789,-62.988
1636950749.956,-400.879,-696.777,-64.941,-149.902
1636950749.960,-42.480,-903.809,28.809,-23.926
1636950749.964,395.996,-439.941,243.164,99.121
1636950749.967,84.961,-132.812,93.262,-26.855
1636950749.971,-405.273,-700.195,-107.422,-167.480
1636950749.975,-233.887,-927.246,55.176,-83.496
1636950749.979,303.711,-167.480,288.574,80.078
1636950749.983,213.379,34.668,61.523,28.809
1636950750.001,-333.008,-819.336,-135.254,-137.695
1636950750.005,-355.957,-1000.000,73.730,-126.953
1636950750.009,187.012,-283.691,329.102,45.410
1636950750.013,312.988,163.574,146.973,67.383
1636950750.017,-224.121,-545.898,-140.137,-105.957
1636950750.021,-430.176,-1000.000,43.457,-152.344
1636950750.025,29.297,-565.430,342.285,-16.113
1636950750.028,357.422,-120.605,200.684,68.359
1636950750.032,-88.379,-692.871,-141.113,-72.266
1636950750.036,-471.680,-1000.000,40.527,-176.758
1636950750.040,-130.371,-619.141,383.789,-76.660
1636950750.044,372.070,141.602,295.410,65.918
1636950750.046,116.211,-289.062,-60.547,-11.719
1636950750.050,-388.672,-1000.000,-28.320,-160.645
1636950750.054,-235.352,-897.949,291.504,-112.305
1636950750.058,323.730,-206.055,295.898,59.570
1636950750.062,255.371,-295.898,23.926,37.109
1636950750.066,-308.105,-1000.000,-81.055,-130.859
1636950750.070,-356.934,-930.176,88.867,-147.461
1636950750.073,184.570,-137.207,248.535,12.695
1636950750.077,339.355,-294.922,41.504,67.383
1636950750.081,-192.871,-982.910,-65.430,-97.168
1636950750.085,-412.598,-823.242,25.391,-168.945
1636950750.089,33.691,-609.375,72.754,-33.691
1636950750.091,390.625,-175.781,205.078,69.336
1636950750.095,-29.297,-290.039,28.809,-59.082
1636950750.099,-441.895,-722.656,-56.641,-167.969
1636950750.103,-144.531,-609.375,59.570,-52.734
1636950750.107,368.164,-143.066,149.902,98.145
1636950750.111,138.184,-384.766,17.090,2.441
1636950750.115,-391.113,-997.559,-71.289,-150.879
1636950750.118,-279.785,-974.609,35.645,-104.980
1636950750.122,288.086,-987.793,7.812,73.730
1636950750.126,282.227,-944.336,45.898,56.641
1636950750.130,-262.207,-733.398,35.645,-124.512
1636950750.134,-351.074,-926.758,-49.316,-133.301
1636950750.136,162.109,-441.895,209.961,21.973
1636950750.140,382.812,253.418,170.410,73.730
1636950750.144,-118.652,-336.914,-116.211,-82.520
1636950750.148,-400.879,-923.340,-8.301,-147.461
1636950750.152,23.438,-508.301,265.625,-5.859
1636950750.156,434.570,-61.523,160.645,116.211
1636950750.160,35.156,-562.500,-73.730,-18.555
1636950750.163,-432.617,-1000.000,-100.586,-135.742
1636950750.167,-167.969,-811.035,158.691,-40.527
1636950750.171,387.207,96.680,359.375,94.727
1636950750.175,205.566,94.238,14.160,18.555
1636950750.179,-357.910,-818.359,-105.469,-145.508
1636950750.181,-285.156,-850.098,99.121,-116.211
1636950750.185,279.297,-25.391,274.902,53.223
1636950750.189,315.430,77.637,66.895,52.734
1636950750.193,-242.676,-731.445,-66.406,-126.953
1636950750.197,-396.973,-945.801,36.621,-163.086
1636950750.201,104.492,-531.250,130.371,3.418
1636950750.205,376.953,-303.711,109.375,75.195
1636950750.208,-114.746,-816.406,-152.832,-70.312
1636950750.212,-445.801,-1000.000,85.449,-153.809
1636950750.216,-39.551,-358.398,401.367,-40.527
1636950750.220,414.062,-88.867,121.582,101.074
1636950750.224,75.684,-700.195,-119.141,-2.930
1636950750.226,-389.160,-838.379,-16.113,-148.926
1636950750.230,-175.781,-515.625,72.266,-78.613
1636950750.234,349.121,-158.203,141.602,83.496
1636950750.238,198.242,-196.289,22.461,27.832
1636950750.242,-365.234,-663.574,-101.562,-131.836
1636950750.246,-350.098,-919.434,7.324,-119.141
1636950750.250,214.355,-851.562,93.262,52.246
1636950750.253,317.871,-745.117,1.953,72.266
1636950750.257,-218.750,-562.500,-8.301,-105.957
1636950750.261,-399.414,-803.711,-56.152,-143.555
1636950750.265,78.613,-520.508,148.438,-3.906
1636950750.269,383.301,98.633,188.477,72.754
1636950750.272,-67.383,-291.016,-95.215,-66.406
1636950750.276,-408.691,-1000.000,-103.516,-162.109
1636950750.280,-63.965,-863.281,147.949,-47.852
1636950750.284,400.879,-36.133,284.180,90.820
1636950750.288,101.562,-148.926,-1.465,-12.207
1636950750.292,-396.484,-959.473,-140.137,-153.320
1636950750.296,-228.516,-987.793,50.293,-84.961
1636950750.299,319.824,-426.270,296.387,76.660
1636950750.303,262.207,-136.230,98.145,38.574
1636950750.307,-305.176,-683.594,-182.129,-125.488
1636950750.311,-353.516,-970.215,63.477,-118.164
1636950750.315,205.078,-199.707,386.719,42.480
1636950750.315,375.488,241.699,117.676,80.566
1636950750.319,-149.414,-520.020,-66.406,-73.242
1636950750.323,-398.438,-978.516,41.016,-133.301
1636950750.327,32.227,-526.855,117.188,12.207
1636950750.331,407.715,-98.145,59.570,110.352
1636950750.335,-20.508,-571.289,-162.109,-34.180
1636950750.339,-432.617,-1000.000,19.531,-146.484
1636950750.342,-112.793,-588.379,350.586,-54.688
1636950750.346,384.766,80.566,245.605,92.285
1636950750.350,132.324,-335.449,-10.742,12.207
1636950750.354,-379.395,-918.457,-45.898,-147.461
1636950750.358,-250.488,-622.559,56.641,-100.586
1636950750.376,293.945,-99.609,173.340,69.336
1636950750.380,266.113,-197.754,36.133,45.410
1636950750.384,-281.738,-704.590,-66.406,-117.676
1636950750.388,-362.305,-747.070,11.719,-132.812
1636950750.392,157.715,-291.504,81.543,20.508
1636950750.396,356.934,-385.742,9.277,72.754
1636950750.400,-153.320,-877.441,-61.035,-97.168
1636950750.403,-421.875,-1000.000,-31.250,-170.898
1636950750.407,11.719,-783.203,125.000,-29.297
1636950750.411,395.508,-821.777,7.812,95.215
1636950750.415,0.488,-983.398,18.066,-33.691
1636950750.419,-411.621,-792.969,88.867,-158.691
1636950750.421,-146.973,-759.766,24.902,-58.105
1636950750.425,365.234,-203.613,218.750,91.797
1636950750.429,186.035,0.977,53.223,18.066
1636950750.433,-342.285,-651.855,-107.910,-140.137
1636950750.437,-283.203,-920.898,16.602,-108.887
1636950750.441,262.695,-549.316,229.004,53.711
1636950750.445,301.758,-232.422,130.371,46.387
1636950750.448,-231.445,-589.355,-82.520,-121.094
1636950750.452,-363.770,-1000.000,-107.910,-131.348
1636950750.456,114.746,-757.812,186.035,20.508
1636950750.460,382.812,32.715,241.699,77.148
1636950750.464,-94.727,-298.828,-104.492,-71.777
1636950750.466,-416.016,-992.188,-87.402,-159.668
1636950750.470,-29.297,-573.242,167.969,-39.551
1636950750.474,399.414,173.340,230.957,90.332
1636950750.478,53.711,-252.441,-47.852,-26.367
1636950750.482,-414.062,-979.492,-83.008,-163.574
1636950750.486,-199.219,-977.051,57.129,-79.590
1636950750.490,328.613,-333.008,226.074,80.566
1636950750.493,190.918,-336.426,17.578,20.996
1636950750.497,-355.469,-1000.000,-191.406,-128.906
1636950750.501,-330.566,-884.766,162.109,-106.445
1636950750.505,232.910,-82.031,345.703,44.434
1636950750.509,317.871,-247.559,-9.277,59.570
1636950750.511,-227.539,-976.074,-130.371,-105.957
1636950750.515,-398.438,-851.562,10.742,-142.090
1636950750.519,88.867,-207.520,146.973,4.395
1636950750.523,393.066,-121.582,133.789,85.449
1636950750.527,-70.312,-727.539,-43.457,-62.500
1636950750.531,-421.387,-1000.000,-78.613,-166.504
1636950750.535,-68.359,-712.402,117.676,-60.547
1636950750.538,381.348,-567.383,83.984,76.660
1636950750.542,73.730,-917.969,-81.543,-29.297
1636950750.546,-401.855,-840.332,-16.602,-175.781
1636950750.550,-232.910,-695.801,29.785,-104.492
1636950750.554,311.035,-243.164,104.980,66.406
1636950750.557,209.961,-125.488,5.371,23.438
1636950750.561,-337.891,-720.703,-94.727,-143.555
1636950750.565,-355.469,-1000.000,-33.691,-130.371
1636950750.569,166.992,-638.672,221.191,33.203
1636950750.573,320.801,-144.531,155.273,56.152
1636950750.577,-213.379,-635.254,-128.906,-116.699
1636950750.581,-423.340,-1000.000,-59.082,-162.598
1636950750.584,42.969,-836.426,161.133,-12.695
1636950750.588,396.973,-153.320,262.207,80.078
1636950750.592,-33.691,-187.500,18.555,-54.199
1636950750.596,-441.895,-874.512,-154.785,-151.855
1636950750.600,-122.559,-949.219,27.832,-42.969
1636950750.601,375.000,-98.145,331.055,86.426
1636950750.605,117.188,34.180,13.184,-11.230
1636950750.609,-385.742,-796.875,-87.891,-148.926
1636950750.613,-263.672,-810.547,224.609,-109.375
1636950750.617,273.926,-170.898,238.281,38.086
1636950750.621,241.211,-329.102,-10.742,23.926
1636950750.625,-314.453,-929.688,-151.367,-129.395
1636950750.628,-395.020,-1000.000,100.098,-137.695
1636950750.632,151.855,-273.438,379.395,15.137
1636950750.636,361.816,202.148,91.309,64.941
1636950750.640,-160.645,-558.594,-110.840,-100.098
1636950750.644,-430.664,-948.730,-8.301,-168.457
1636950750.646,6.836,-311.523,164.551,-26.367
1636950750.650,384.766,115.234,123.047,85.449
1636950750.654,-34.180,-507.324,-82.031,-49.805
1636950750.658,-444.824,-937.988,-35.645,-180.664
1636950750.662,-163.086,-620.117,68.848,-100.098
1636950750.666,345.215,-312.500,10.254,40.527
1636950750.670,127.930,-719.727,-52.734,-23.438
1636950750.673,-397.949,-1000.000,-3.418,-177.246
1636950750.677,-306.152,-941.895,49.316,-148.438
1636950750.681,251.953,-549.316,151.855,26.855
1636950750.685,263.184,-692.383,30.273,31.250
1636950750.689,-303.223,-962.891,34.668,-150.879
1636950750.690,-392.578,-759.766,30.762,-173.828
1636950750.694,130.859,-446.289,104.492,-1.465
1636950750.698,345.703,-94.727,92.773,42.969
1636950750.702,-165.527,-367.676,-73.730,-133.301
1636950750.706,-476.074,-837.402,-71.777,-215.332
1636950750.710,-69.824,-930.176,25.879,-61.523
1636950750.714,342.773,-600.098,210.449,52.734
1636950750.717,-25.391,-368.652,84.961,-94.238
1636950750.721,-477.539,-764.648,-111.816,-227.051
1636950750.725,-248.535,-1000.000,-8.301,-142.090
1636950750.729,269.531,-432.129,251.953,0.000
1636950750.733,99.121,-0.977,103.516,-92.285
1636950750.766,-444.336,-717.285,-120.605,-261.719
1636950750.770,-422.852,-978.027,78.125,-255.859
1636950750.774,107.422,-239.746,336.914,-104.980
1636950750.778,172.852,134.277,145.020,-91.309
1636950750.782,-375.000,-582.520,-121.094,-257.812
1636950750.786,-551.758,-1000.000,52.734,-304.688
1636950750.790,-49.805,-579.102,339.355,-157.227
1636950750.793,249.512,-203.613,178.223,-82.520
1636950750.797,-229.492,-709.961,-121.094,-230.469
1636950750.801,-568.359,-1000.000,-74.219,-302.246
1636950750.805,-182.129,-667.969,300.293,-158.691
1636950750.809,281.250,137.695,333.008,-32.715
1636950750.796,-25.391,-387.207,-62.012,-129.395
1636950750.800,-490.723,-1000.000,-8.301,-237.305
1636950750.804,-296.875,-635.742,337.402,-164.062
1636950750.808,268.555,77.637,320.312,21.973
1636950750.812,162.598,-226.562,78.125,-15.137
1636950750.816,-396.484,-1000.000,-52.246,-198.242
1636950750.820,-374.512,-941.406,138.184,-177.734
1636950750.823,201.172,-214.355,310.059,7.324
1636950750.827,335.938,-242.676,149.902,45.410
1636950750.831,-202.148,-880.371,24.902,-118.652
1636950750.835,-388.184,-871.094,36.621,-159.668
1636950750.839,108.887,-314.941,209.961,5.371
1636950750.841,447.266,-433.105,142.578,121.582
1636950750.845,-8.301,-958.496,-7.812,-12.207
1636950750.849,-390.137,-960.938,-30.273,-131.836
1636950750.853,-43.457,-847.656,78.613,-6.836
1636950750.857,453.613,-473.633,233.887,158.691
1636950750.861,180.176,-664.551,54.199,55.176
1636950750.865,-312.500,-971.680,-39.551,-98.145
1636950750.868,-154.785,-863.770,40.039,-30.762
1636950750.872,380.371,-976.074,18.066,151.367
1636950750.876,334.473,-811.523,42.480,122.559
1636950750.880,-206.055,-572.754,-4.883,-58.594
1636950750.884,-263.672,-944.336,-68.359,-57.129
1636950750.886,270.996,-480.469,183.105,106.445
1636950750.890,458.496,188.477,165.527,144.043
1636950750.894,-70.312,-384.766,-115.234,-15.625
1636950750.898,-328.613,-959.473,-14.160,-81.055
1636950750.902,109.863,-569.336,267.090,58.105
1636950750.906,461.914,-127.930,150.391,167.480
1636950750.910,52.246,-617.676,-85.449,32.227
1636950750.913,-379.395,-1000.000,-114.746,-82.520
1636950750.917,-73.242,-850.586,164.551,17.578
1636950750.921,477.539,6.836,363.281,152.344
1636950750.925,233.398,-14.648,-23.438,63.965
1636950750.929,-307.617,-850.098,-119.629,-92.773
1636950750.931,-203.125,-761.230,80.078,-50.781
1636950750.935,351.074,24.414,216.797,115.723
1636950750.939,335.938,-24.902,34.180,98.145
1636950750.943,-222.656,-816.406,-63.477,-73.242
1636950750.947,-325.195,-947.266,25.879,-96.191
1636950750.951,183.594,-563.477,63.965,59.570
1636950750.955,401.855,-364.746,11.719,110.840
1636950750.958,-102.051,-812.500,-138.184,-35.156
1636950750.962,-384.277,-1000.000,26.367,-104.004
1636950750.966,26.855,-571.777,277.832,11.230
1636950750.970,425.781,-131.348,110.352,119.629
1636950750.974,60.059,-781.738,-136.230,2.930
1636950750.976,-362.305,-972.656,-3.906,-124.023
1636950750.980,-128.906,-555.176,80.078,-57.129
1636950750.984,342.285,-186.523,142.578,86.426
1636950750.988,151.855,-311.035,0.488,18.555
1636950750.992,-371.094,-794.434,-121.094,-140.137
1636950750.996,-309.082,-943.359,3.418,-106.934
1636950751.000,244.629,-875.977,59.570,69.336
1636950751.003,308.105,-773.438,43.457,77.148
1636950751.007,-217.285,-642.090,41.504,-100.586
1636950751.011,-356.445,-875.000,-42.969,-130.859
1636950751.015,134.766,-706.055,70.312,30.762
1636950751.019,402.832,-204.102,66.895,94.727
1636950751.020,-63.965,-381.836,-75.195,-71.289
1636950751.024,-381.348,-949.707,-80.566,-160.645
1636950751.028,-26.855,-901.855,96.191,-26.367
1636950751.032,386.719,-144.043,271.973,99.609
1636950751.036,69.336,-183.105,-6.348,-15.625
1636950751.040,-385.254,-959.961,-150.391,-138.184
1636950751.044,-184.082,-952.148,76.172,-52.734
1636950751.047,349.609,-399.902,276.855,99.121
1636950751.051,217.285,-273.926,80.078,36.133
1636950751.055,-328.125,-778.320,-163.086,-124.023
1636950751.059,-319.336,-980.957,57.617,-102.051
1636950751.063,229.004,-204.590,373.047,57.617
1636950751.067,334.961,117.188,96.191,71.289
1636950751.071,-208.496,-709.961,-177.734,-90.820
1636950751.075,-391.113,-1000.000,45.898,-139.160
1636950751.079,117.188,-277.344,344.238,14.648
1636950751.083,385.254,115.234,137.207,88.379
1636950751.087,-109.375,-643.066,-112.305,-67.871
1636950751.091,-412.109,-1000.000,61.035,-152.344
1636950751.094,-59.082,-550.781,294.434,-40.039
1636950751.098,411.621,89.844,250.000,97.656
1636950751.102,123.535,-441.895,-33.203,6.836
1636950751.106,-375.488,-1000.000,9.277,-141.113
1636950751.110,-211.914,-653.809,157.227,-85.938
1636950751.126,337.891,-70.801,206.543,83.984
1636950751.130,262.695,-260.742,37.109,50.293
1636950751.134,-301.758,-768.066,-87.891,-112.305
1636950751.138,-339.844,-928.711,2.441,-111.328
1636950751.142,186.523,-577.148,185.547,38.086
1636950751.146,327.148,-643.555,101.562,75.684
1636950751.150,-195.801,-1000.000,12.207,-80.078
1636950751.153,-412.109,-995.605,19.531,-146.973
1636950751.157,50.781,-779.297,99.121,-6.836
1636950751.161,399.414,-712.402,109.375,103.516
1636950751.165,-28.809,-756.836,74.707,-36.621
1636950751.169,-415.527,-740.234,-18.555,-155.273
1636950751.171,-114.746,-814.941,18.555,-50.293
1636950751.175,377.441,-267.578,220.703,94.727
1636950751.179,144.531,-75.195,78.613,6.836
1636950751.183,-376.953,-684.570,-97.168,-149.902
1636950751.187,-262.207,-925.781,-0.488,-100.098
1636950751.191,291.504,-543.457,223.633,63.965
1636950751.195,269.043,-426.270,115.234,43.945
1636950751.198,-287.109,-875.488,-61.523,-117.676
1636950751.202,-376.953,-1000.000,-20.020,-122.070
1636950751.206,135.742,-754.883,226.074,40.527
1636950751.210,345.215,-73.730,240.234,78.125
1636950751.214,-165.039,-432.129,-102.539,-92.773
1636950751.231,-431.152,-1000.000,-33.203,-166.504
1636950751.235,1.465,-466.309,269.531,-35.156
1636950751.239,402.832,181.641,184.570,71.289
1636950751.243,12.695,-335.449,-111.816,-48.828
1636950751.247,-426.758,-1000.000,-8.301,-164.551
1636950751.251,-167.969,-908.203,137.207,-73.242
1636950751.255,340.332,-197.266,244.141,73.730
1636950751.258,151.855,-290.527,35.645,-3.418
1636950751.262,-371.582,-1000.000,-186.035,-134.766
1636950751.266,-302.734,-915.039,139.648,-89.844
1636950751.270,257.812,-26.367,374.512,51.758
1636950751.274,293.945,-68.359,51.270,49.316
1636950751.261,-245.605,-938.477,-139.160,-106.445
1636950751.265,-365.723,-891.113,22.461,-140.625
1636950751.269,130.859,-230.469,223.145,10.254
1636950751.273,374.512,-75.195,152.832,67.871
1636950751.277,-118.652,-685.547,-51.270,-87.891
1636950751.281,-419.434,-1000.000,-81.055,-159.668
1636950751.285,-18.555,-791.992,145.020,-38.086
1636950751.288,403.809,-464.355,222.656,75.684
1636950751.292,38.086,-595.703,18.066,-41.504
1636950751.296,-423.828,-819.824,-45.410,-167.480
1636950751.300,-208.008,-632.324,45.898,-93.262
1636950751.304,307.617,-664.551,30.273,78.125
1636950751.306,179.688,-873.535,-31.738,32.227
1636950751.310,-345.215,-716.797,-24.414,-146.973
1636950751.314,-320.801,-829.102,-24.414,-129.883
1636950751.318,220.703,-620.605,140.137,43.457
1636950751.322,318.359,-247.070,101.562,63.965
1636950751.326,-219.238,-708.008,-122.070,-99.609
1636950751.330,-398.438,-1000.000,-50.781,-134.766
1636950751.333,77.148,-1000.000,22.949,19.531
1636950751.337,368.652,-670.410,203.613,78.125
1636950751.341,-63.477,-388.184,75.195,-75.195
1636950751.345,-385.742,-946.289,-138.672,-151.855
1636950751.349,-38.574,-738.281,118.652,-41.016
1636950751.352,398.926,145.020,291.992,71.777
1636950751.356,88.867,-125.488,-15.137,-26.855
1636950751.360,-391.113,-977.051,-160.156,-144.531
1636950751.364,-223.145,-838.379,144.043,-80.566
1636950751.368,320.801,-15.137,308.105,64.453
1636950751.372,234.375,-259.766,-4.395,22.461
1636950751.376,-323.242,-1000.000,-158.691,-139.160
1636950751.379,-355.957,-913.574,96.680,-127.930
1636950751.383,176.270,-170.898,360.352,30.273
1636950751.387,308.594,157.715,84.473,53.711
1636950751.391,-212.891,-624.023,-125.000,-110.840
1636950751.395,-419.434,-991.211,-2.441,-154.297
1636950751.396,38.086,-345.215,184.570,-12.695
1636950751.400,383.789,41.992,118.652,74.707
1636950751.404,-37.598,-582.031,-83.984,-58.105
1636950751.408,-416.016,-1000.000,-47.363,-171.387
1636950751.412,-104.980,-735.352,91.309,-66.895
1636950751.416,362.793,-382.324,110.840,70.312
1636950751.420,92.773,-714.355,-94.727,-6.836
1636950751.423,-404.785,-1000.000,-41.504,-148.438
1636950751.427,-268.555,-799.316,142.090,-103.516
1636950751.431,277.832,-291.992,180.176,58.105
1636950751.435,246.094,-586.914,5.859,34.668
1636950751.439,-298.340,-865.234,-36.621,-138.672
1636950751.441,-366.699,-700.684,19.531,-137.695
1636950751.445,154.297,-448.242,96.680,33.691
1636950751.449,343.262,-181.152,27.344,77.637
1636950751.453,-163.574,-411.621,-62.012,-84.473
1636950751.457,-417.969,-839.844,-61.523,-155.762
1636950751.461,6.836,-953.125,2.441,-7.812
1636950751.465,379.395,-573.242,166.016,97.656
1636950751.468,-2.930,-550.293,60.059,-45.410
1636950751.472,-415.039,-931.152,-64.941,-154.297
1636950751.476,-128.906,-1000.000,-0.977,-44.434
1636950751.480,375.000,-602.539,216.309,95.215
1636950751.484,157.227,-204.590,83.008,2.930
1636950751.501,-361.328,-812.500,-108.398,-161.621
1636950751.505,-284.180,-941.895,45.410,-121.094
1636950751.509,266.602,-186.035,299.805,52.734
1636950751.513,293.945,30.273,110.840,34.668
1636950751.517,-243.652,-683.594,-158.203,-139.648
1636950751.521,-370.117,-1000.000,39.551,-156.738
1636950751.525,123.535,-560.059,317.871,-1.953
1636950751.528,360.352,-186.035,144.531,60.059
1636950751.532,-130.859,-763.672,-134.277,-90.332
1636950751.536,-435.059,-1000.000,-121.582,-157.715
1636950751.540,-31.738,-718.750,203.125,-35.156
1636950751.544,403.320,68.848,281.738,68.848
1636950751.546,53.711,-352.539,-58.594,-49.316
1636950751.550,-399.414,-1000.000,-121.582,-174.316
1636950751.554,-168.945,-703.125,89.844,-88.379
1636950751.558,359.375,49.316,212.402,60.059
1636950751.562,186.523,-310.059,17.090,-0.488
1636950751.566,-354.980,-1000.000,-85.938,-156.738
1636950751.570,-302.734,-999.512,52.734,-136.719
1636950751.573,249.512,-287.109,254.883,25.879
1636950751.577,305.176,-350.586,-2.930,48.340
1636950751.581,-239.258,-1000.000,-104.492,-108.398
1636950751.585,-384.766,-867.676,53.711,-159.668
1636950751.589,104.004,-381.348,66.895,-3.906
1636950751.591,393.066,-243.164,8.789,76.660
1636950751.595,-80.566,-627.441,-79.102,-76.172
1636950751.599,-425.781,-842.285,-40.039,-163.574
1636950751.603,-69.336,-603.516,33.203,-40.527
1636950751.607,362.305,-411.133,59.082,87.402
1636950751.611,43.457,-740.723,-39.551,-22.949
1636950751.615,-408.691,-1000.000,-53.223,-153.320
1636950751.618,-210.449,-907.715,38.574,-75.195
1636950751.622,308.105,-958.984,-11.230,88.379
1636950751.626,210.449,-883.789,-26.855,38.086
1636950751.630,-314.941,-693.359,-32.715,-132.812
1636950751.634,-324.219,-962.402,-61.523,-116.699
1636950751.636,227.051,-467.773,183.594,44.922
1636950751.640,314.941,61.523,150.879,53.711
1636950751.644,-232.422,-636.719,-123.535,-109.375
1636950751.648,-394.043,-1000.000,-78.613,-130.859
1636950751.652,64.941,-637.207,166.504,19.531
1636950751.656,393.066,-218.750,83.008,94.238
1636950751.660,-48.828,-698.730,-114.258,-58.105
1636950751.663,-434.082,-1000.000,-101.074,-160.645
1636950751.667,-116.211,-746.582,153.320,-45.898
1636950751.671,365.723,59.082,300.781,85.449
1636950751.675,96.680,-133.301,-32.227,-9.277
1636950751.679,-401.367,-916.504,-113.281,-152.344
1636950751.681,-244.629,-830.078,73.242,-96.191
1636950751.685,304.199,-32.715,240.234,69.824
1636950751.689,248.535,-53.223,25.391,37.598
1636950751.693,-295.898,-850.586,-97.168,-128.906
1636950751.697,-350.586,-1000.000,12.695,-129.883
1636950751.701,168.457,-572.754,123.535,31.738
1636950751.705,344.238,-435.059,48.828,65.430
1636950751.708,-180.176,-908.691,-175.293,-91.797
1636950751.712,-417.480,-1000.000,102.539,-147.461
1636950751.716,42.969,-473.633,391.113,-29.785
1636950751.720,375.488,-153.809,113.281,63.965
1636950751.724,-49.316,-696.289,-127.930,-61.035
1636950751.725,-443.359,-912.598,-34.668,-166.992
1636950751.729,-153.320,-574.707,71.289,-62.988
1636950751.733,357.910,-267.090,120.605,79.102
1636950751.737,137.695,-438.965,-1.953,-3.906
1636950751.741,-380.859,-809.082,-111.328,-155.762
1636950751.745,-279.297,-953.125,-10.254,-114.258
1636950751.749,268.555,-853.027,85.449,57.617
1636950751.752,264.648,-852.051,-31.250,47.852
1636950751.756,-281.250,-876.465,-18.555,-130.371
1636950751.760,-367.676,-882.812,19.043,-155.762
1636950751.764,142.578,-765.137,75.195,12.695
1636950751.768,350.098,-413.574,167.969,70.801
1636950751.786,-142.090,-444.824,-7.812,-101.074
1636950751.790,-406.250,-968.750,-101.562,-167.969
1636950751.794,-6.836,-725.586,171.875,-30.273
1636950751.798,366.211,-10.742,247.559,81.543
1636950751.802,-0.977,-321.777,-56.641,-41.504
1636950751.806,-432.129,-1000.000,-87.402,-169.434
1636950751.810,-178.711,-954.590,108.887,-70.312
1636950751.813,351.562,-438.477,305.176,84.961
1636950751.817,186.035,-322.266,96.191,2.930
1636950751.821,-347.656,-791.016,-164.551,-145.996
1636950751.825,-301.758,-1000.000,67.383,-112.305
1636950751.829,263.672,-404.785,375.977,44.434
1636950751.816,332.031,90.332,151.367,47.363
1636950751.820,-230.469,-633.789,-138.184,-107.910
1636950751.824,-380.859,-1000.000,20.996,-133.301
1636950751.828,128.906,-347.656,354.492,6.836
1636950751.832,387.695,76.172,130.859,71.289
1636950751.836,-95.703,-648.438,-129.883,-65.918
1636950751.840,-412.598,-1000.000,117.676,-144.531
1636950751.843,-27.344,-561.035,329.590,-28.320
1636950751.847,419.922,29.297,250.488,93.262
1636950751.851,70.312,-470.703,-85.938,-17.578
1636950751.855,-421.387,-1000.000,8.789,-152.832
1636950751.859,-185.059,-679.199,306.641,-74.219
1636950751.862,391.113,-62.988,253.418,87.402
1636950751.866,257.812,-409.668,12.695,30.273
1636950751.870,-297.852,-963.379,-56.641,-133.789
1636950751.874,-277.344,-785.645,44.922,-115.234
1636950751.878,249.512,-288.574,168.945,46.387
1636950751.882,322.754,-572.266,44.922,61.035
1636950751.886,-207.520,-1000.000,-68.359,-108.398
1636950751.889,-379.883,-989.746,-23.438,-144.043
1636950751.893,85.938,-829.102,114.746,1.953
1636950751.897,375.977,-564.453,163.086,73.730
1636950751.901,-75.684,-664.551,17.578,-74.219
1636950751.905,-422.852,-856.934,-15.137,-170.898
1636950751.921,-85.449,-905.273,9.277,-49.316
1636950751.925,378.418,-671.387,107.422,84.961
1636950751.929,77.148,-471.191,95.703,-20.996
1636950751.933,-421.387,-897.461,-83.496,-160.645
1636950751.937,-245.605,-1000.000,-51.270,-100.586
1636950751.941,281.250,-758.301,142.578,58.105
1636950751.945,223.145,-381.348,171.875,17.090
1636950751.948,-312.500,-743.164,-99.121,-151.855
1636950751.952,-393.066,-1000.000,-13.672,-157.227
1636950751.956,139.648,-389.160,305.176,5.859
1636950751.960,323.242,78.613,171.875,51.270
1636950751.964,-195.312,-552.246,-126.953,-105.957
1636950751.965,-422.363,-1000.000,-60.547,-149.414
1636950751.969,33.691,-584.473,293.945,-4.883
1636950751.973,380.371,110.840,200.684,81.543
1636950751.977,-39.551,-396.973,-114.258,-54.688
1636950751.981,-413.086,-1000.000,-4.883,-164.062
1636950751.985,-112.793,-918.945,149.902,-61.523
1636950751.989,385.254,-389.160,219.727,85.449
1636950751.992,151.855,-530.273,7.812,-8.301
1636950751.996,-397.461,-1000.000,-183.105,-151.855
1636950752.000,-294.434,-964.844,172.852,-112.305
1636950752.004,281.738,-142.090,407.715,31.250
1636950752.008,267.578,-68.848,66.895,16.113
1636950752.010,-289.062,-866.699,-123.047,-140.625
1636950752.014,-370.117,-835.449,30.273,-144.531
1636950752.018,153.809,-174.805,223.145,22.461
1636950752.022,345.703,-109.863,156.738,65.918
1636950752.026,-171.387,-765.137,-64.453,-104.980
1636950752.030,-424.805,-1000.000,-77.637,-162.598
1636950752.034,6.348,-729.492,166.504,-26.367
1636950752.037,391.113,-415.527,227.051,77.148
1636950752.041,0.977,-708.496,-13.672,-48.340
1636950752.045,-414.062,-1000.000,-65.430,-168.945
1636950752.049,-140.137,-606.934,189.453,-87.402
1636950752.053,359.375,-553.711,126.465,75.684
1636950752.055,158.691,-907.715,-51.758,9.277
1636950752.059,-361.816,-821.777,-2.930,-157.227
1636950752.063,-287.598,-841.309,-8.789,-113.281
1636950752.067,269.531,-361.328,172.852,47.852
1636950752.071,321.289,-75.684,112.305,41.992
1636950752.075,-223.633,-756.836,-129.883,-111.816
1636950752.079,-375.488,-1000.000,11.719,-148.926
1636950752.082,106.445,-1000.000,30.273,9.277
1636950752.086,353.516,-711.914,121.582,83.496
1636950752.090,-123.535,-440.918,59.570,-90.820
1636950752.094,-428.223,-931.152,-108.398,-164.062
1636950752.098,-50.781,-866.211,126.465,-24.902
1636950752.101,387.695,-142.578,296.387,85.938
1636950752.105,56.152,-143.066,35.156,-38.086
1636950752.109,-406.738,-884.766,-150.879,-163.574
1636950752.113,-185.059,-870.605,121.582,-82.520
1636950752.117,340.820,-26.855,322.266,70.801
1636950752.121,193.848,-242.676,12.695,16.602
1636950752.125,-346.191,-1000.000,-150.879,-139.160
1636950752.128,-323.730,-882.812,103.027,-116.699
1636950752.132,242.188,-115.234,357.910,41.992
1636950752.136,339.355,136.230,93.750,55.176
1636950752.140,-206.543,-639.160,-102.051,-106.934
1636950752.144,-373.535,-949.219,1.465,-145.996
1636950752.147,102.539,-281.738,179.688,2.441
1636950752.151,384.766,29.297,111.328,89.355
1636950752.155,-84.473,-705.078,-106.934,-48.340
1636950752.159,-438.477,-1000.000,-12.207,-146.973
1636950752.163,-79.590,-559.570,145.996,-34.180
1636950752.167,375.000,-280.273,74.219,96.680
1636950752.171,70.801,-743.652,-102.539,-10.742
1636950752.174,-399.902,-1000.000,-13.672,-152.832
1636950752.178,-205.078,-735.352,188.965,-85.449
1636950752.182,337.891,-204.590,187.988,82.031
1636950752.186,229.492,-644.531,-47.363,46.387
1636950752.190,-318.359,-1000.000,-41.504,-116.211
1636950752.190,-324.219,-796.387,24.414,-114.258
1636950752.194,198.730,-435.547,183.594,40.527
1636950752.198,338.867,-196.289,123.047,73.242
1636950752.202,-181.641,-531.738,-76.172,-90.820
1636950752.206,-397.461,-921.875,-11.719,-143.066
1636950752.210,48.340,-993.164,13.184,12.207
1636950752.214,383.301,-796.875,103.516,102.539
1636950752.217,-28.809,-543.457,103.516,-57.129
1636950752.221,-408.691,-853.027,-83.496,-160.156
1636950752.225,-100.098,-946.777,40.527,-48.828
1636950752.229,375.488,-257.324,261.719,79.102
1636950752.233,117.676,-103.516,51.758,-16.113
1636950752.251,-383.789,-810.059,-134.766,-156.250
1636950752.255,-247.070,-964.844,33.691,-104.004
1636950752.259,295.898,-232.422,262.695,70.801
1636950752.263,265.137,14.648,76.172,43.457
1636950752.267,-285.156,-685.059,-138.184,-134.766
1636950752.271,-370.605,-1000.000,64.941,-136.230
1636950752.275,146.484,-534.668,330.078,25.391
1636950752.278,328.613,-264.160,129.395,67.871
1636950752.282,-189.941,-838.867,-117.188,-91.797
1636950752.286,-452.637,-1000.000,-114.258,-146.484
1636950752.290,-24.414,-750.000,187.500,-10.254
1636950752.294,371.094,-26.367,280.762,75.195
1636950752.296,-15.625,-426.758,-50.293,-57.617
1636950752.300,-424.805,-1000.000,-61.035,-169.434
1636950752.304,-128.418,-611.816,188.477,-71.289
1636950752.308,377.441,83.496,255.859,84.961
1636950752.312,148.438,-348.145,18.555,5.371
1636950752.316,-382.324,-1000.000,-71.289,-161.621
1636950752.320,-296.875,-909.180,147.949,-113.281
1636950752.323,259.277,-169.922,311.523,67.383
1636950752.327,264.160,-350.098,14.648,58.105
1636950752.331,-289.062,-1000.000,-44.922,-107.910
1636950752.335,-373.535,-976.562,189.941,-131.836
1636950752.339,149.902,-389.160,280.273,19.531
1636950752.340,379.395,-333.496,121.094,81.543
1636950752.344,-131.348,-835.938,-18.066,-83.984
1636950752.348,-426.270,-922.363,-10.254,-157.715
1636950752.352,-24.414,-604.004,126.465,-22.949
1636950752.356,382.812,-208.008,176.270,83.008
1636950752.360,29.297,-606.445,-27.832,-50.293
1636950752.364,-418.457,-1000.000,-68.848,-174.805
1636950752.367,-186.523,-901.855,74.219,-95.703
1636950752.371,321.777,-933.105,2.441,69.824
1636950752.375,167.969,-881.348,42.480,14.160
1636950752.379,-339.355,-718.262,62.012,-159.180
1636950752.383,-318.359,-938.965,-31.738,-124.023
1636950752.386,215.820,-634.766,223.633,43.945
1636950752.390,303.223,-127.930,163.574,47.852
1636950752.394,-224.121,-497.559,-72.266,-121.094
1636950752.398,-385.254,-1000.000,-63.965,-157.227
1636950752.402,77.148,-666.016,157.227,-7.324
1636950752.406,363.281,-234.375,152.832,59.570
1636950752.410,-89.355,-718.262,-85.938,-93.262
1636950752.413,-429.688,-1000.000,-91.309,-169.434
1636950752.417,-75.195,-734.863,162.598,-38.086
1636950752.421,378.906,19.531,318.848,89.844
1636950752.425,68.359,-222.656,-8.301,-20.508
1636950752.429,-398.926,-938.477,-85.449,-157.715
1636950752.461,-199.219,-764.160,176.758,-78.613
1636950752.465,328.613,15.625,313.477,83.496
1636950752.469,209.473,-144.531,24.902,24.414
1636950752.473,-341.797,-930.176,-66.895,-148.926
1636950752.477,-336.426,-939.941,81.543,-139.648
1636950752.481,191.895,-550.293,118.652,34.668
1636950752.485,314.941,-470.703,15.625,62.988
1636950752.488,-204.102,-910.156,-148.926,-84.473
1636950752.492,-413.086,-1000.000,106.934,-137.207
1636950752.496,62.988,-312.012,379.395,-20.020
1636950752.500,391.113,-64.453,90.332,70.312
1636950752.504,-58.105,-817.383,-130.371,-70.312
1636950752.478,-435.059,-999.023,-13.184,-172.852
1636950752.482,-112.793,-507.324,117.188,-65.918
1636950752.486,364.258,-147.949,155.273,77.637
1636950752.490,106.445,-427.734,-26.367,-12.207
1636950752.494,-378.418,-854.492,-86.426,-160.645
1636950752.498,-232.422,-926.758,8.301,-99.609
1636950752.502,300.781,-719.727,121.094,59.082
1636950752.505,244.629,-630.371,26.855,21.973
1636950752.509,-296.387,-746.582,-56.641,-141.602
1636950752.513,-346.680,-939.453,-42.969,-144.531
1636950752.517,172.363,-743.652,110.840,18.555
1636950752.521,335.449,-304.688,138.672,57.617
1636950752.521,-176.270,-561.035,-64.453,-112.305
1636950752.525,-411.621,-976.074,-70.801,-176.270
1636950752.529,15.625,-1000.000,7.324,-18.066
1636950752.533,388.184,-578.125,230.469,81.543
1636950752.537,-3.418,-453.613,30.762,-68.848
1636950752.541,-416.016,-989.746,-121.094,-169.922
1636950752.545,-145.020,-1000.000,26.855,-58.594
1636950752.548,346.191,-886.719,166.016,88.379
1636950752.552,134.766,-778.320,133.789,-12.695
1636950752.556,-375.977,-1000.000,-133.789,-162.109
1636950752.560,-283.691,-992.676,44.922,-102.539
1636950752.564,259.766,-208.008,349.121,54.199
1636950752.565,264.648,131.836,65.430,35.645
1636950752.569,-281.738,-670.898,-129.883,-130.859
1636950752.573,-384.277,-989.258,31.250,-148.926
1636950752.577,142.578,-272.949,268.066,13.672
1636950752.581,325.684,35.156,121.582,54.688
1636950752.585,-194.824,-729.492,-151.367,-109.375
1636950752.589,-422.852,-1000.000,26.855,-173.828
1636950752.592,-18.555,-540.039,294.922,-45.898
1636950752.596,366.211,51.758,170.898,74.707
1636950752.600,-9.277,-488.770,-47.363,-42.480
1636950752.604,-432.129,-1000.000,36.621,-162.109
1636950752.608,-160.156,-865.234,118.164,-73.730
1636950752.626,342.285,-173.340,213.379,74.219
1636950752.630,152.344,-414.551,21.484,13.672
1636950752.634,-382.324,-1000.000,-51.270,-154.297
1636950752.638,-319.824,-848.633,51.270,-140.625
1636950752.642,243.652,-274.414,183.105,36.133
1636950752.646,295.410,-493.652,22.461,36.621
1636950752.650,-260.742,-989.258,-80.566,-127.930
1636950752.653,-400.391,-998.047,-10.254,-151.855
1636950752.657,112.305,-786.133,121.582,3.906
1636950752.661,385.742,-530.762,155.273,78.613
1636950752.665,-98.633,-684.082,-3.906,-78.613
1636950752.669,-422.363,-861.328,-28.320,-164.062
