,timestamps,TP9,AF7,AF8,TP10,Secondary Timestamp,emg_signal
0,1685585994.77,109.375,-59.57,62.012,34.668,2616.669,314.6340415086977
1,1685585994.78,50.293,-60.547,68.848,-7.812,2616.673,316.0855835196037
2,1685585994.78,-96.68,148.438,141.113,-43.945,2616.677,316.537653617513
3,1685585994.78,-54.199,157.715,146.484,-6.348,2616.68,312.82607409477134
4,1685585994.79,98.633,-45.898,89.844,29.785,2616.684,314.0114085801621
5,1685585994.79,77.637,-332.52,-3.906,5.859,2616.688,311.85403525159103
6,1685585994.8,-65.918,-270.508,45.41,-35.645,2616.692,314.67900367090124
7,1685585994.8,-97.168,89.844,192.871,-31.25,2616.696,303.4378307131077
8,1685585994.8,47.852,-435.059,-95.703,32.227,2616.7,311.2989641422719
9,1685585994.81,106.445,-668.457,-168.457,22.949,2616.704,317.2341853543968
10,1685585994.81,-25.391,-64.941,118.652,-38.086,2616.708,310.0636546379755
11,1685585994.82,-128.906,-196.289,26.367,-29.785,2616.712,312.2804839585156
12,1685585994.82,-67.383,-357.91,-30.273,-9.766,2616.712,313.04509311881606
13,1685585994.82,86.914,-351.562,37.598,9.766,2616.716,313.40616172041797
14,1685585994.82,47.363,-217.285,48.34,-24.902,2616.719,308.7942073543752
15,1685585994.83,-119.629,-429.688,-58.594,-48.828,2616.723,311.0782801935064
16,1685585994.83,-113.77,-422.363,-40.039,-30.273,2616.727,315.16013162193246
17,1685585994.84,75.195,72.266,139.648,13.184,2616.731,317.87055923572666
18,1685585994.84,111.816,287.598,187.012,2.441,2616.735,310.7661625914399
19,1685585994.84,-57.129,-101.562,0.488,-52.246,2616.739,310.42106082285727
20,1685585994.85,-155.762,-958.008,-426.27,-38.574,2616.748,314.9624377118903
21,1685585994.85,-13.184,-787.598,-204.59,1.465,2616.752,317.0332008506445
22,1685585994.86,105.957,83.008,198.242,-9.766,2616.756,316.0055295419761
23,1685585994.86,-22.949,-237.793,-17.578,-45.898,2616.759,312.75939563023496
24,1685585994.86,-133.789,-507.324,-67.383,-55.664,2616.763,310.4535922907273
25,1685585994.87,-21.973,-176.27,87.402,-3.906,2616.767,312.3837015252205
26,1685585994.87,109.863,-105.957,121.094,19.531,2616.771,309.888200612389
27,1685585994.88,20.02,-518.066,-131.836,-19.531,2616.775,313.42319129275234
28,1685585994.88,-125.488,-705.078,-179.199,-49.316,2616.779,313.9971812860892
29,1685585994.88,-51.27,105.469,202.148,-35.645,2616.783,312.97960641379285
30,1685585994.89,101.562,181.641,129.883,2.441,2616.787,317.67409918229896
31,1685585994.89,-93.262,41.504,147.461,-62.988,2616.786,320.2429810630218
32,1685585994.89,63.965,-67.383,83.984,-21.973,2616.791,310.1692464821383
33,1685585994.89,-90.332,209.473,161.133,-34.668,2616.79,316.2464871033199
34,1685585994.9,74.219,118.652,131.348,16.113,2616.794,320.9687805246292
35,1685585994.9,91.309,-166.016,65.918,-2.441,2616.798,318.0631621478313
36,1685585994.91,-75.195,-292.48,39.551,-54.688,2616.802,309.8929373710874
37,1685585994.91,-138.672,-328.125,25.879,-42.969,2616.806,308.5142276698067
38,1685585994.91,10.742,-347.656,40.527,18.555,2616.81,305.9018066267107
39,1685585994.92,87.891,-808.105,-269.043,36.133,2616.814,315.29422637268175
40,1685585994.92,-43.457,-961.914,-313.477,-32.227,2616.817,311.9653805374492
41,1685585994.92,-127.93,-165.527,141.113,-74.707,2616.821,317.4424155186077
42,1685585994.93,-18.555,-4.883,90.82,-10.254,2616.825,313.57894613875004
43,1685585994.93,116.211,-40.527,60.547,26.367,2616.829,311.2657399999638
44,1685585994.94,38.574,210.449,152.832,-29.785,2616.834,313.6884958985096
45,1685585994.94,-109.375,138.672,124.512,-59.082,2616.838,313.28228409330535
46,1685585994.94,-71.289,-117.188,86.426,-12.207,2616.842,311.32436929354424
47,1685585994.95,91.797,-52.734,128.906,17.09,2616.846,319.12168601340716
48,1685585994.95,84.961,216.797,168.457,-16.602,2616.849,311.7371966886991
49,1685585994.96,-83.008,-67.383,86.914,-47.852,2616.853,308.8940500933445
50,1685585994.96,-125.977,-709.473,-176.27,-7.324,2616.857,312.1023016855381
51,1685585994.96,22.461,-780.273,-161.133,27.832,2616.861,310.4930181655875
52,1685585994.97,94.727,5.859,200.684,-2.441,2616.865,311.98431188590706
53,1685585994.97,-41.016,190.43,145.996,-40.527,2616.869,312.9780228317629
54,1685585994.98,-131.348,-375.0,-44.434,-38.574,2616.873,310.0158102812678
55,1685585994.98,-5.859,-270.996,64.941,0.488,2616.877,315.59097863999625
56,1685585994.98,121.094,276.855,241.211,0.977,2616.89,311.28514446527316
57,1685585994.98,8.789,80.078,91.797,-38.574,2616.894,320.26464814561183
58,1685585994.99,-132.812,-187.988,36.621,-47.363,2616.898,309.6912219060763
59,1685585994.99,-47.363,1.465,172.363,-7.812,2616.902,313.8437419036998
60,1685585995.0,102.539,-65.43,92.285,22.461,2616.906,314.06658077629254
61,1685585995.0,50.293,-338.867,-23.438,-14.648,2616.91,315.9279088686785
62,1685585995.0,-126.465,-875.488,-310.547,-38.086,2616.914,312.1752759373705
63,1685585995.01,-110.352,-742.188,-193.359,-11.23,2616.918,319.6207846547546
64,1685585995.01,82.031,104.98,219.727,13.184,2616.922,315.2851366704952
65,1685585995.02,83.008,-235.84,-38.574,3.418,2616.926,315.1484488148709
66,1685585995.02,-87.402,-567.871,-127.441,-41.504,2616.929,312.9922407291681
67,1685585995.02,-111.328,20.508,163.086,-43.457,2616.933,315.0798804992645
68,1685585995.04,53.711,254.395,174.316,3.906,2616.937,317.07696780500737
69,1685585995.04,105.469,-64.453,66.406,16.602,2616.941,313.26098189013175
70,1685585995.05,-30.762,-152.344,80.078,-39.551,2616.945,311.9792598790107
71,1685585995.05,-111.328,106.445,174.805,-54.688,2616.949,313.4546653148359
72,1685585995.06,12.695,215.332,191.406,12.207,2616.953,312.98254560021456
73,1685585995.06,125.0,-210.449,-0.977,33.691,2616.956,312.21152435286075
74,1685585995.06,18.066,-491.699,-22.461,-22.461,2616.96,313.09552703610075
75,1685585995.07,-104.492,-72.266,173.34,-43.457,2616.964,311.86892082399424
76,1685585995.07,-34.668,125.977,149.414,-6.348,2616.968,311.5059030961213
77,1685585995.08,100.098,-437.988,-63.477,39.062,2616.972,304.7126509107462
78,1685585995.08,56.152,-500.977,-23.926,5.859,2616.976,315.53274049445736
79,1685585995.08,-95.703,-66.895,103.516,-47.852,2616.98,307.94927887042746
80,1685585995.08,-90.82,-258.789,36.621,-8.789,2616.981,309.0838826056124
81,1685585995.09,76.172,-451.172,-4.883,34.668,2616.985,316.3978257783116
82,1685585995.09,101.562,-170.41,99.121,2.441,2616.989,318.3833658181968
83,1685585995.1,-61.035,89.844,154.297,-47.363,2616.993,313.67356289083375
84,1685585995.1,-131.348,-259.277,6.348,-32.227,2616.997,311.86138735240837
85,1685585995.1,11.23,-695.312,-135.254,20.996,2617.001,312.8526315377212
86,1685585995.11,104.004,-580.566,-41.016,13.672,2617.005,314.50059918596133
87,1685585995.11,-9.766,-0.977,190.918,-47.363,2617.009,313.83382190846083
88,1685585995.12,-122.07,-111.816,36.133,-43.457,2617.012,311.6401282038304
89,1685585995.12,-37.109,-787.598,-199.707,16.602,2617.016,313.610649896409
90,1685585995.12,109.863,-270.02,108.398,18.555,2617.02,311.3461683145934
91,1685585995.13,45.41,304.199,215.332,-24.902,2617.024,309.3437127063077
92,1685585995.13,-110.84,-83.496,52.246,-51.27,2617.057,314.2343782754781
93,1685585995.14,-58.594,-152.832,86.914,-20.02,2617.061,317.7823998646375
94,1685585995.14,109.375,-34.18,113.281,28.32,2617.065,310.83411469050793
95,1685585995.14,79.102,42.48,125.977,-13.184,2617.069,317.62813302800214
96,1685585995.15,-92.773,-334.961,-22.461,-75.195,2617.073,315.60664075742716
97,1685585995.15,-116.211,-744.141,-131.348,-38.086,2617.076,319.4000892787815
98,1685585995.16,50.293,-235.352,113.281,2.441,2617.08,309.70378786945975
99,1685585995.16,98.633,171.875,207.031,-34.18,2617.084,315.1569215383444
100,1685585995.16,-67.383,-489.746,-138.672,-60.547,2617.088,313.11227855948096
101,1685585995.17,-150.879,-705.078,-167.969,-60.547,2617.092,312.06568660787065
102,1685585995.17,2.441,55.176,178.223,-41.016,2617.096,318.0523165982536
103,1685585995.17,104.004,-122.559,47.363,-9.277,2617.1,310.35787347570357
104,1685585995.18,-21.973,-279.785,41.992,-47.852,2617.071,314.3673214634784
105,1685585995.18,-144.043,-31.738,151.367,-65.43,2617.075,315.0297301901513
106,1685585995.18,-38.086,174.805,196.289,-20.508,2617.079,316.2399552606841
107,1685585995.19,105.957,79.102,126.465,7.324,2617.083,313.07079372025123
108,1685585995.19,10.742,-317.871,39.551,-27.832,2617.087,316.3836348635264
109,1685585995.2,-142.09,-425.293,45.898,-61.035,2617.091,313.0199579728414
110,1685585995.2,-102.051,-369.629,62.5,-8.789,2617.095,314.7038518947068
111,1685585995.2,58.594,-349.121,54.199,23.926,2617.099,311.71558394880725
112,1685585995.21,36.621,-848.633,-281.25,-6.348,2617.103,318.6070520852917
113,1685585995.21,-127.93,-667.48,-140.625,-50.781,2617.107,315.2915995427799
114,1685585995.21,-123.047,214.355,273.926,-48.828,2617.11,314.64692977223524
115,1685585995.22,50.293,-57.617,25.391,12.695,2617.114,316.6369718121898
116,1685585995.23,101.562,-255.859,2.441,6.348,2617.122,316.4476410424007
117,1685585995.23,-41.016,123.535,188.965,-51.758,2617.126,312.31314354049795
118,1685585995.23,-120.605,232.422,207.031,-46.387,2617.13,313.67840334380253
119,1685585995.24,-2.441,-306.152,-0.977,15.625,2617.134,313.9200952761991
120,1685585995.24,90.82,-640.625,-121.582,32.227,2617.138,311.74170649575694
121,1685585995.25,-18.555,-239.746,78.613,-27.832,2617.142,307.8097000164026
122,1685585995.25,-134.277,-249.512,69.336,-44.922,2617.146,312.405749438577
123,1685585995.25,-62.5,-654.297,-150.879,22.461,2617.15,320.32741821678206
124,1685585995.26,71.289,-810.547,-131.836,55.664,2617.154,308.8033196897096
125,1685585995.26,35.645,-16.113,234.375,-8.301,2617.157,315.4386280663852
126,1685585995.26,-110.84,158.203,158.203,-41.992,2617.161,316.83385699288436
127,1685585995.26,82.52,111.328,178.223,33.691,2617.161,317.92640058391606
128,1685585995.27,-88.867,-111.328,110.84,-3.906,2617.165,314.5967819710007
129,1685585995.27,92.285,330.078,201.172,0.488,2617.165,317.3331447947593
130,1685585995.27,-73.242,68.359,103.516,-40.039,2617.169,312.63933933469025
131,1685585995.28,-118.164,-149.414,65.43,-28.809,2617.173,314.3954673392506
132,1685585995.28,29.785,-132.324,127.93,17.578,2617.177,321.35135627252254
133,1685585995.28,94.727,-183.105,91.797,28.809,2617.181,318.3206387835129
134,1685585995.29,-35.156,-304.688,36.621,-29.785,2617.185,320.03582253118736
135,1685585995.29,-155.273,-896.484,-286.621,-25.391,2617.189,312.3630295355543
136,1685585995.3,-39.062,-692.871,-148.438,18.555,2617.193,320.51650610162545
137,1685585995.3,120.117,163.574,236.816,12.695,2617.196,315.73668845957576
138,1685585995.3,11.23,-248.047,-44.434,-24.414,2617.2,314.38832835374325
139,1685585995.31,-143.066,-537.109,-94.727,-57.617,2617.204,312.0811351703087
140,1685585995.31,-57.617,82.52,195.801,-30.273,2617.208,312.10600182930233
141,1685585995.32,117.188,319.824,213.379,13.672,2617.212,313.1433249270363
142,1685585995.32,70.312,-55.664,101.074,-16.602,2617.216,315.2406190536353
143,1685585995.32,-100.586,-127.93,92.285,-59.082,2617.22,313.6114958686949
144,1685585995.33,-91.309,113.281,142.578,-31.738,2617.224,312.19438963995526
145,1685585995.33,69.824,26.855,149.414,21.484,2617.228,318.0536812441692
146,1685585995.34,76.172,-545.898,-108.887,12.695,2617.232,316.8427243984307
147,1685585995.34,-85.938,-699.219,-138.184,-43.457,2617.236,319.9003766275016
148,1685585995.34,-131.836,60.547,213.867,-51.27,2617.24,317.3675646690756
149,1685585995.35,19.043,208.008,179.199,-3.418,2617.243,316.5313466283129
150,1685585995.35,89.844,7.812,126.953,0.977,2617.247,312.14448040448497
151,1685585995.35,-37.109,26.367,130.371,-45.41,2617.251,314.334857635976
152,1685585995.36,-125.488,-57.617,72.266,-52.734,2617.265,313.0452059400224
153,1685585995.36,-19.531,-255.371,22.461,-2.441,2617.269,314.8179514819977
154,1685585995.36,102.051,-384.277,0.977,23.438,2617.273,313.8776172318927
155,1685585995.37,27.344,-188.477,62.988,-24.414,2617.277,320.1834767493429
156,1685585995.37,-115.234,-201.66,45.898,-52.246,2617.28,312.90777603684757
157,1685585995.38,-69.824,-384.277,23.926,-7.324,2617.284,312.0761299503621
158,1685585995.38,69.336,-813.965,-235.84,46.387,2617.288,317.2876422902312
159,1685585995.38,32.715,-730.469,-177.246,1.465,2617.292,316.1673090405479
160,1685585995.39,-104.004,133.301,214.355,-70.801,2617.296,314.6080554667945
161,1685585995.39,-111.328,-38.574,61.035,-34.18,2617.3,315.6115159550589
162,1685585995.4,62.012,-157.227,67.871,20.02,2617.304,317.132471224272
163,1685585995.4,111.328,235.84,212.891,11.23,2617.308,317.8901010207798
164,1685585995.42,-31.25,229.004,161.621,-21.973,2617.314,314.82549133270294
165,1685585995.42,-107.91,-104.492,65.918,-26.367,2617.318,311.17118001046947
166,1685585995.42,1.953,-172.852,82.52,6.348,2617.322,316.08843060331424
167,1685585995.43,100.586,-92.773,107.422,11.23,2617.326,314.353555194636
168,1685585995.43,8.301,-0.488,141.602,-25.391,2617.33,313.5183004324626
169,1685585995.44,-110.84,-498.535,-141.602,-1.953,2617.334,317.36833624313294
170,1685585995.44,-41.016,-849.121,-205.566,44.434,2617.337,314.5153854615894
171,1685585995.44,127.441,-59.57,185.059,40.527,2617.341,319.35198710138064
172,1685585995.45,86.914,236.328,158.691,4.395,2617.345,315.18105082934653
173,1685585995.45,-72.266,-326.172,-0.488,-23.438,2617.349,317.4910350414053
174,1685585995.46,-33.691,-282.715,85.938,23.926,2617.353,320.7345858917
175,1685585995.46,144.531,265.625,211.914,63.965,2617.357,315.6275391520403
176,1685585995.46,150.391,85.938,83.984,44.922,2617.356,312.4487043931
177,1685585995.46,-17.578,-201.172,62.988,5.371,2617.36,318.5348685851957
178,1685585995.47,-50.781,-11.23,164.551,15.625,2617.364,318.79108094238984
179,1685585995.47,123.047,199.707,177.246,78.613,2617.368,312.6137721226606
180,1685585995.48,160.156,-173.34,40.527,77.637,2617.372,310.21315241331564
181,1685585995.48,-17.09,-518.555,-77.148,19.531,2617.375,317.53265151536
182,1685585995.48,-106.934,-458.984,-22.949,-0.977,2617.379,316.386695099337
183,1685585995.49,28.32,-258.789,108.887,31.25,2617.383,310.06696727477953
184,1685585995.49,149.902,-119.629,95.215,41.992,2617.387,314.5324604052894
185,1685585995.5,25.879,-808.105,-361.816,24.414,2617.391,309.74737675209894
186,1685585995.5,-119.629,-858.398,-260.742,-0.977,2617.395,312.5007526212606
187,1685585995.5,-11.719,-1.953,192.871,17.578,2617.399,313.697303960376
188,1685585995.51,147.949,-0.977,56.152,56.641,2617.403,307.32387671854053
189,1685585995.51,90.82,-95.215,53.711,19.043,2617.406,318.9623458051204
190,1685585995.51,-72.266,106.934,142.578,-24.414,2617.41,318.66246961998974
191,1685585995.52,-56.152,141.602,136.719,-4.395,2617.414,315.66196070884445
192,1685585995.52,105.957,-31.738,129.883,36.621,2617.418,320.35465434908673
193,1685585995.53,101.562,-345.215,11.719,17.09,2617.422,315.7978260301236
194,1685585995.53,-63.965,-210.449,63.965,-48.34,2617.426,313.9698686582139
195,1685585995.53,-102.539,87.891,165.039,-36.621,2617.43,311.2844398636436
196,1685585995.54,38.574,-500.488,-132.324,32.227,2617.434,313.17989233048854
197,1685585995.54,89.355,-825.684,-151.855,27.344,2617.438,317.72599788529624
198,1685585995.54,-34.668,-36.621,199.219,-41.016,2617.442,310.1455030044414
199,1685585995.55,-131.348,114.258,102.539,-47.852,2617.446,317.7141333130122
200,1685585995.55,-20.508,-132.324,67.383,9.277,2617.446,312.0218439595015
201,1685585995.55,115.723,40.039,148.926,28.32,2617.45,316.48073802173076
202,1685585995.56,28.809,231.445,182.617,-18.555,2617.454,312.02808716635263
203,1685585995.56,-120.117,15.137,87.891,-46.387,2617.458,319.4320252383474
204,1685585995.57,-71.777,-400.391,-47.363,-7.324,2617.462,312.4401515129918
205,1685585995.57,90.82,-386.719,41.992,19.531,2617.465,318.45955222861477
206,1685585995.57,64.453,-268.555,58.105,-10.742,2617.469,319.43622792058306
207,1685585995.58,-88.379,-382.324,-44.922,-40.039,2617.473,308.17599666964225
208,1685585995.58,-103.027,-870.605,-264.648,0.0,2617.477,317.81544350774254
209,1685585995.58,59.082,-543.457,-37.109,35.156,2617.481,311.67932105070315
210,1685585995.59,106.934,177.246,236.328,-2.441,2617.485,322.2658343649919
211,1685585995.59,-66.406,-413.086,-114.746,-53.223,2617.489,317.86078801313136
212,1685585995.6,-129.395,-629.395,-153.809,-42.969,2617.498,317.11581218955627
213,1685585995.6,36.133,112.793,190.918,2.441,2617.501,317.68113020953166
214,1685585995.61,117.188,241.699,145.508,2.93,2617.505,319.7268308801967
215,1685585995.61,-23.926,-132.324,28.32,-46.387,2617.509,316.016501191126
216,1685585995.61,-128.418,-157.227,74.219,-54.199,2617.513,316.8805582484443
217,1685585995.62,-18.066,-150.391,80.078,-8.789,2617.517,316.6283646478665
218,1685585995.62,108.887,-175.781,84.473,2.441,2617.521,315.6620134904543
219,1685585995.62,15.625,-564.941,-178.223,-23.926,2617.525,321.62785737437815
220,1685585995.63,-137.207,-724.121,-201.66,-45.898,2617.529,319.5030153885613
221,1685585995.63,-68.359,81.055,191.895,-29.785,2617.533,322.97957384647236
222,1685585995.64,97.168,214.844,145.02,3.418,2617.537,321.34720018439117
223,1685585995.64,64.941,-49.805,95.215,-22.461,2617.54,319.66297813276094
224,1685585995.64,-87.891,-2.441,129.395,-58.105,2617.54,327.76031886509105
225,1685585995.64,-97.656,-67.871,71.777,-27.832,2617.544,325.50238987457044
226,1685585995.65,57.129,-224.609,34.18,17.578,2617.547,320.62449636872253
227,1685585995.65,102.051,-207.52,85.938,0.977,2617.551,330.86751573881514
228,1685585995.66,-50.781,-234.375,78.125,-47.852,2617.555,324.91006755858155
229,1685585995.66,-132.812,-343.75,19.043,-45.898,2617.559,323.63877285651137
230,1685585995.66,10.254,-314.453,43.945,7.812,2617.563,331.3939014802297
231,1685585995.67,99.121,-741.699,-231.934,36.621,2617.567,330.99772510688837
232,1685585995.67,-32.227,-980.469,-314.941,-13.672,2617.571,333.23331663993645
233,1685585995.68,-122.559,-154.297,134.277,-47.363,2617.575,335.30404679805497
234,1685585995.68,-13.672,8.301,105.469,2.93,2617.579,331.9664074349519
235,1685585995.68,125.488,-72.266,63.965,30.762,2617.583,334.1461901523271
236,1685585995.7,66.895,254.883,197.266,-15.137,2617.597,332.36126452767184
237,1685585995.7,-77.148,226.074,151.367,-51.758,2617.601,337.41375926539786
238,1685585995.71,-52.246,-75.195,67.871,-7.324,2617.605,346.280318192902
239,1685585995.71,110.352,-89.355,74.707,36.621,2617.609,349.5784173513858
240,1685585995.72,102.051,-77.637,78.613,4.883,2617.613,345.08367592622767
241,1685585995.72,-66.895,-240.234,50.293,-48.34,2617.617,346.6780942755986
242,1685585995.72,-104.004,-617.676,-143.555,-22.949,2617.621,351.04087384242195
243,1685585995.73,37.598,-847.656,-244.141,33.691,2617.625,338.28465260789966
244,1685585995.73,137.695,322.754,193.848,26.367,2617.656,347.66329026258495
245,1685585995.73,108.398,-83.496,115.723,1.465,2617.628,339.52752060132383
246,1685585995.73,20.02,91.797,57.617,-18.555,2617.66,350.0592342220464
247,1685585995.74,-20.508,195.312,151.367,-47.852,2617.632,349.6190899399829
248,1685585995.74,-122.07,-162.109,37.598,-41.504,2617.664,348.79671265302153
249,1685585995.74,-105.469,-101.074,58.105,-33.203,2617.636,346.01093291715006
250,1685585995.74,-41.504,26.855,129.395,-5.859,2617.668,349.5667118112468
251,1685585995.74,22.461,54.199,169.434,17.578,2617.64,349.1480539026988
252,1685585995.75,97.168,-11.719,99.609,17.09,2617.672,351.25743321688043
253,1685585995.75,40.039,-330.078,-14.16,-20.508,2617.675,350.9972964829948
254,1685585995.75,-123.047,-781.738,-220.215,-41.504,2617.679,353.18022142385945
255,1685585995.76,-104.004,-599.121,-35.645,-22.949,2617.683,350.73258716555824
256,1685585995.76,90.82,91.797,197.266,4.395,2617.687,354.52888467170254
257,1685585995.76,111.328,16.602,45.898,-8.301,2617.691,359.10675845842775
258,1685585995.77,-75.195,-889.16,-397.461,-41.504,2617.695,350.2166038320715
259,1685585995.77,-120.117,-636.719,-168.457,-40.039,2617.699,356.9779380425317
260,1685585995.78,53.223,264.16,250.488,6.348,2617.685,347.8679420130475
261,1685585995.78,122.07,40.039,61.523,17.578,2617.689,358.44708183742415
262,1685585995.78,-19.043,-122.559,44.922,-32.715,2617.693,353.52710940024826
263,1685585995.79,-114.258,81.543,128.418,-30.273,2617.697,349.83781575322945
264,1685585995.79,5.371,198.73,154.785,19.043,2617.701,355.7077331855578
265,1685585995.8,109.375,-281.738,-29.785,32.715,2617.705,347.7872296581954
266,1685585995.8,0.488,-644.043,-86.914,-6.836,2617.709,359.1346645071827
267,1685585995.8,-132.324,-106.445,111.328,-40.039,2617.713,348.81390771443233
268,1685585995.81,-68.359,60.059,89.355,-2.441,2617.717,353.8604964027227
269,1685585995.81,83.496,-263.184,-5.371,30.273,2617.721,350.64351221436834
270,1685585995.82,55.664,-144.531,61.523,-12.207,2617.725,347.9676718512418
271,1685585995.82,-95.703,173.34,155.273,-52.246,2617.728,352.7303339325557
272,1685585995.84,-88.867,180.176,132.812,-26.855,2617.731,347.0448383329156
273,1685585995.84,60.059,-550.781,-202.637,27.832,2617.735,350.86380848300604
274,1685585995.84,84.473,-675.781,-176.758,7.324,2617.739,347.2970060236421
275,1685585995.85,-45.41,93.75,178.711,-54.688,2617.743,345.3070305399499
276,1685585995.85,-111.816,-121.582,50.781,-38.086,2617.747,348.80990196500005
277,1685585995.86,4.395,-695.312,-150.879,19.043,2617.751,350.832794045948
278,1685585995.86,82.031,-578.125,-24.414,6.348,2617.754,346.3454260803015
279,1685585995.86,-22.461,84.961,199.707,-65.43,2617.758,349.71933088673086
280,1685585995.87,-134.766,-66.895,-0.977,-62.988,2617.762,339.74439468202513
281,1685585995.87,-41.992,-517.09,-96.68,7.324,2617.766,343.114943734477
282,1685585995.87,94.238,-23.926,172.852,18.066,2617.77,347.34614799380773
283,1685585995.88,22.949,200.684,128.906,-22.949,2617.774,345.2795381344419
284,1685585995.88,-130.371,-403.32,-146.484,-44.434,2617.778,345.18123118569014
285,1685585995.88,-99.609,-506.348,-121.582,-17.09,2617.782,338.7742091482212
286,1685585995.89,80.078,182.129,207.031,18.555,2617.786,337.0717070715476
287,1685585995.89,66.406,262.695,152.832,-9.766,2617.789,341.63031862516135
288,1685585995.9,-109.375,-166.992,-16.113,-52.246,2617.793,344.1359277471072
289,1685585995.9,-136.23,-443.848,-55.176,-25.879,2617.797,333.0915167626261
290,1685585995.9,32.227,-202.637,67.871,12.695,2617.801,335.07508725759453
291,1685585995.91,93.262,229.98,187.988,-5.371,2617.805,335.18647713243973
292,1685585995.91,-64.941,-420.41,-166.504,-45.41,2617.809,337.64524052763284
293,1685585995.92,-142.09,-741.211,-229.98,-46.875,2617.813,335.2792442310558
294,1685585995.92,13.672,119.141,189.453,-1.953,2617.817,335.58356402133813
295,1685585995.92,118.164,230.469,141.113,10.742,2617.821,341.1954557361414
296,1685585995.96,-8.789,-54.199,76.172,-41.504,2617.855,323.1308498755578
297,1685585995.96,-130.371,1.465,127.441,-54.199,2617.859,325.17408020321056
298,1685585995.96,-36.621,-51.758,73.73,-7.324,2617.863,330.8507169324093
299,1685585995.97,110.84,-204.102,2.441,17.578,2617.867,326.85237969741536
300,1685585995.97,117.676,-98.145,53.223,7.324,2617.869,326.550835886915
301,1685585995.97,39.062,-595.215,-132.324,-15.137,2617.871,325.2805058634586
302,1685585995.98,-21.973,219.238,181.152,-47.363,2617.873,324.2433775732579
303,1685585995.98,-114.258,-664.551,-92.773,-49.316,2617.875,324.796441520723
304,1685585995.98,-117.676,237.305,162.598,-52.734,2617.877,327.6070879339695
305,1685585995.98,-70.801,-279.297,53.711,-24.902,2617.879,324.4188283598591
306,1685585995.98,94.727,-129.883,50.781,16.602,2617.883,325.1729555063341
307,1685585995.98,2.93,6.348,99.609,3.418,2617.88,321.98958127541937
308,1685585995.99,117.188,-124.512,27.832,16.113,2617.884,322.15447222732996
309,1685585995.99,72.754,-727.051,-244.629,4.395,2617.886,324.7769243276301
310,1685585995.99,-92.773,-600.098,-106.445,-41.504,2617.89,321.11814059372153
311,1685585995.99,5.859,-179.199,-3.906,-35.645,2617.888,318.9700743258625
312,1685585996.0,-94.727,185.059,180.176,-36.621,2617.894,319.2026840534245
313,1685585996.0,-134.766,-339.844,-20.02,-52.246,2617.892,321.44297180986325
314,1685585996.0,-72.754,-500.977,-45.41,-11.719,2617.896,323.05160812199654
315,1685585996.0,63.477,-38.574,29.785,13.184,2617.898,325.5164875617986
316,1685585996.0,76.172,-218.75,63.965,9.277,2617.9,326.43226473968184
317,1685585996.01,41.016,173.34,155.762,-32.715,2617.904,317.6812170594106
318,1685585996.01,-111.328,37.598,55.176,-85.449,2617.908,319.59375911725255
319,1685585996.01,-100.098,-324.707,-62.988,-48.828,2617.912,318.68156245855585
320,1685585996.02,79.102,-126.465,64.941,2.441,2617.911,325.6793879536348
321,1685585996.02,93.75,159.668,122.07,-20.996,2617.915,315.07244828688493
322,1685585996.02,-77.637,31.25,61.035,-71.289,2617.919,312.7528417028733
323,1685585996.03,-143.555,-634.766,-237.793,-47.363,2617.923,317.2431955984781
324,1685585996.03,-2.93,-877.93,-266.602,3.418,2617.927,317.4339349062412
325,1685585996.04,93.262,-367.676,32.227,-9.277,2617.931,319.32712435095425
326,1685585996.04,-25.879,-345.215,-4.883,-48.828,2617.935,316.9401438269314
327,1685585996.04,-151.855,-871.094,-325.684,-45.898,2617.939,311.5233046913077
328,1685585996.05,-53.223,-872.07,-280.273,0.977,2617.943,312.2926964902697
329,1685585996.05,108.398,21.973,146.973,-0.977,2617.946,316.5697031430464
330,1685585996.05,21.973,46.387,43.457,-47.363,2617.95,314.92715045800026
331,1685585996.06,-125.977,-187.012,-19.531,-67.871,2617.954,313.24529913776695
332,1685585996.06,-57.617,135.742,150.879,-22.461,2617.958,316.917668617059
333,1685585996.06,106.445,289.551,174.805,12.207,2617.962,312.77798182837165
334,1685585996.07,63.477,16.113,64.453,-18.555,2617.966,316.3793252235352
335,1685585996.07,-110.84,-88.867,61.035,-62.5,2617.97,318.6025321485657
336,1685585996.08,-112.793,101.074,110.352,-46.387,2617.974,313.2922907996245
337,1685585996.08,60.059,-10.742,99.121,10.742,2617.978,315.0855982371566
338,1685585996.08,83.008,-581.055,-161.133,17.09,2617.982,311.2838806341594
339,1685585996.09,-79.102,-717.285,-196.777,-44.922,2617.986,315.4214824323124
340,1685585996.09,-116.211,20.02,169.434,-52.734,2617.989,306.41678317512407
341,1685585996.1,40.527,150.879,130.859,10.254,2617.993,311.0314785171226
342,1685585996.1,119.629,-166.504,8.789,22.461,2617.997,307.11438397257035
343,1685585996.1,-15.625,-112.305,70.312,-32.715,2618.001,309.5764163384531
344,1685585996.1,-120.605,142.09,136.23,-51.27,2618.015,314.2512701666475
345,1685585996.11,-22.949,54.688,58.594,8.789,2618.019,306.72310159508277
346,1685585996.11,99.609,-171.387,44.922,27.832,2618.023,313.3954864423762
347,1685585996.12,33.691,-24.414,107.91,-28.32,2618.027,304.4239230817115
348,1685585996.12,-116.211,-127.441,28.32,-49.316,2618.031,304.4936027889605
349,1685585996.12,-73.73,-369.629,-6.348,0.977,2618.035,311.0289673855471
350,1685585996.13,80.078,-816.406,-313.477,45.898,2618.039,304.3367776081645
351,1685585996.13,49.316,-731.934,-233.398,-3.418,2618.043,309.33278465230427
352,1685585996.14,-82.031,89.355,199.219,-60.547,2618.047,303.3587610034177
353,1685585996.14,-99.121,-41.504,41.504,-30.273,2618.051,305.75164503791945
354,1685585996.14,52.246,-125.488,46.875,13.184,2618.054,308.1447757950854
355,1685585996.15,102.051,188.477,152.344,6.836,2618.058,302.79114461284706
356,1685585996.15,-59.082,51.758,63.965,-28.809,2618.059,311.6156043869121
357,1685585996.16,-152.344,-552.734,-169.434,-25.879,2618.063,307.41018156821167
358,1685585996.16,-20.508,-549.805,-125.488,19.531,2618.067,308.869296210129
359,1685585996.16,104.98,153.809,180.176,17.09,2618.071,304.3106131123695
360,1685585996.17,0.488,175.781,102.539,-31.25,2618.075,304.41626369440974
361,1685585996.17,-135.254,-402.344,-83.984,-41.504,2618.079,301.1955953904135
362,1685585996.18,-53.223,-538.086,-31.738,-5.859,2618.083,306.39193481519425
363,1685585996.18,104.004,6.348,127.441,18.066,2618.087,298.0026564378665
364,1685585996.18,47.363,204.59,116.699,-15.625,2618.09,301.80877470680366
365,1685585996.19,-125.977,-458.496,-137.695,-39.551,2618.094,309.1045231500242
366,1685585996.19,-101.562,-523.926,-80.566,-11.23,2618.098,305.1865997003361
367,1685585996.2,88.867,178.223,193.359,10.742,2618.102,297.6026340380761
368,1685585996.21,94.727,70.801,66.895,-17.09,2618.106,300.12572528355764
369,1685585996.21,-74.707,-196.289,6.836,-56.152,2618.11,302.55467407991114
370,1685585996.22,-109.375,-66.895,82.52,-36.621,2618.114,301.08798545809924
371,1685585996.22,53.711,-112.305,41.992,17.09,2618.118,308.34930267574555
372,1685585996.23,111.328,-276.367,-19.531,20.508,2618.122,303.6558005386099
373,1685585996.23,-57.129,-768.066,-348.145,-20.996,2618.126,300.653284680838
374,1685585996.23,-160.156,-936.523,-347.168,-23.438,2618.13,301.3262829961042
375,1685585996.24,-10.254,-134.766,121.094,5.859,2618.134,303.87140240691775
376,1685585996.24,118.652,3.418,46.387,21.973,2618.138,302.10576874078885
377,1685585996.24,11.23,-242.676,-66.406,-20.996,2618.142,302.79903898117465
378,1685585996.25,-115.723,23.438,94.727,-45.41,2618.145,305.8906643960763
379,1685585996.25,-35.645,163.086,123.535,1.953,2618.149,306.40153484709765
380,1685585996.26,103.027,-75.195,4.395,24.902,2618.153,298.1953351664421
381,1685585996.26,37.598,-173.34,15.137,-23.926,2618.157,303.3017712383429
382,1685585996.26,-109.375,73.73,124.023,-60.547,2618.161,303.48945483177386
383,1685585996.27,-79.59,126.465,109.375,-25.879,2618.165,301.3619704895071
384,1685585996.27,72.754,-127.93,4.395,5.371,2618.169,304.61753248128525
385,1685585996.28,78.613,-388.184,-84.473,-11.23,2618.173,305.768353604136
386,1685585996.28,-70.312,-402.344,-105.469,-40.527,2618.177,302.5824078111603
387,1685585996.28,-120.605,-337.891,-84.961,-23.438,2618.181,302.99807314519256
388,1685585996.29,20.508,-619.629,-195.801,37.598,2618.185,295.07285731690934
389,1685585996.29,97.168,-830.078,-273.438,33.691,2618.189,303.8786014587595
390,1685585996.3,-16.602,-118.164,61.035,-50.781,2618.192,302.9586259575555
391,1685585996.3,-125.488,82.52,73.242,-65.918,2618.196,305.74837782292684
392,1685585996.3,-30.762,-108.887,32.715,-6.836,2618.196,301.0431174734659
393,1685585996.3,111.816,93.262,133.789,17.578,2618.2,298.5680521861067
394,1685585996.31,40.039,188.477,107.422,-29.297,2618.204,298.8010395754629
395,1685585996.31,-115.723,-54.688,27.832,-52.246,2618.208,304.64289071793274
396,1685585996.32,-71.777,-348.145,-51.758,2.93,2618.212,301.08895456498504
397,1685585996.32,89.355,-362.793,-41.992,37.109,2618.216,301.5081994480685
398,1685585996.32,51.27,-340.82,-21.973,0.488,2618.219,302.51848676243213
399,1685585996.33,-105.469,-427.246,-90.82,-43.457,2618.223,298.80499989297294
400,1685585996.33,-130.371,-901.367,-388.184,-15.137,2618.227,301.86874488195775
401,1685585996.34,23.438,-850.586,-291.992,20.02,2618.231,302.6736313015839
402,1685585996.34,100.098,16.113,131.348,-4.883,2618.235,306.6687360762649
403,1685585996.34,-37.598,-6.348,20.508,-33.203,2618.239,303.87334273618853
404,1685585996.35,-103.027,-202.637,-31.738,-28.809,2618.243,297.63314683918117
405,1685585996.35,42.969,173.34,157.227,6.836,2618.247,309.3434251486794
406,1685585996.36,137.207,285.645,139.648,4.883,2618.251,299.94983099297554
407,1685585996.36,3.906,-18.066,59.57,-47.852,2618.255,305.0604346966033
408,1685585996.36,-121.094,-130.859,31.25,-65.43,2618.259,301.1447230712038
409,1685585996.37,-20.508,-194.824,17.09,-7.324,2618.263,300.62076920622076
410,1685585996.37,106.934,-141.602,58.105,22.949,2618.267,304.79506353977723
411,1685585996.37,20.508,-519.531,-170.41,-0.977,2618.271,298.6096250041424
412,1685585996.38,-128.906,-712.402,-184.57,-27.344,2618.275,305.73795073410855
413,1685585996.38,-71.777,97.168,181.641,-18.066,2618.279,302.3712081698236
414,1685585996.39,88.867,210.449,120.117,16.602,2618.282,303.2750303338234
415,1685585996.39,-97.168,-95.215,46.875,-57.617,2618.286,301.2496806062951
416,1685585996.39,60.547,-142.09,-16.602,-11.23,2618.286,305.60530313342383
417,1685585996.39,-110.352,171.387,161.133,-33.691,2618.29,307.1179613203541
418,1685585996.4,39.551,77.148,75.684,20.508,2618.294,308.3933693451628
419,1685585996.4,78.613,-189.453,33.691,11.23,2618.298,303.5650341361841
420,1685585996.41,-75.195,-264.648,19.531,-53.223,2618.302,303.0807901760408
421,1685585996.41,-157.227,-331.055,-53.711,-53.711,2618.306,303.12676138670594
422,1685585996.41,-8.301,-311.035,12.207,9.277,2618.31,308.50687456986316
423,1685585996.42,82.031,-809.082,-316.406,29.785,2618.314,303.08398992161216
424,1685585996.42,-37.109,-751.953,-244.629,-31.25,2618.318,303.94302759264195
425,1685585996.42,-126.465,100.098,188.965,-66.406,2618.321,312.8263958928734
426,1685585996.43,-51.27,-23.926,10.254,-7.812,2618.325,307.26396551358187
427,1685585996.43,79.102,-155.273,3.418,20.996,2618.329,307.46883506813924
428,1685585996.44,28.32,163.086,129.395,-30.273,2618.344,303.0809405176053
429,1685585996.44,-133.301,32.715,55.176,-58.105,2618.348,302.9608559944414
430,1685585996.45,-116.211,-528.32,-143.555,-9.277,2618.352,300.53561318222216
431,1685585996.45,63.477,-440.918,-90.332,21.484,2618.356,304.6643843982795
432,1685585996.45,76.66,138.672,123.047,-17.578,2618.36,300.67993793136463
433,1685585996.46,-81.543,-101.562,18.066,-51.27,2618.364,303.7389623374766
434,1685585996.46,-130.371,-700.195,-228.027,-20.02,2618.368,304.4749291090211
435,1685585996.46,19.043,-683.105,-198.73,29.785,2618.372,311.0442422586646
436,1685585996.47,102.539,104.004,145.508,8.301,2618.376,311.71397884361784
437,1685585996.47,-34.668,165.039,86.426,-35.645,2618.379,308.606593649016
438,1685585996.48,-134.766,-162.109,-18.066,-33.203,2618.383,302.4305163014206
439,1685585996.48,93.75,269.043,163.086,27.832,2618.39,306.18888968146763
440,1685585996.48,-19.043,2.93,87.891,14.648,2618.387,308.36463022157045
441,1685585996.48,-5.859,89.844,20.02,-21.484,2618.394,307.92192530361183
442,1685585996.49,-134.277,-159.18,0.977,-38.086,2618.398,308.3332025052758
443,1685585996.49,-56.152,-26.367,102.539,-1.953,2618.402,302.8618668384035
444,1685585996.5,91.309,-97.656,26.855,16.602,2618.406,309.90603325041485
445,1685585996.5,42.969,-322.266,-29.785,-29.785,2618.409,305.12885773588494
446,1685585996.5,-121.582,-782.715,-332.52,-52.246,2618.413,306.3858412046792
447,1685585996.51,-128.906,-989.746,-370.605,-16.113,2618.417,304.52508203586723
448,1685585996.51,57.129,-186.035,107.422,5.371,2618.421,306.55719477971843
449,1685585996.52,86.426,-28.809,9.766,-8.789,2618.425,305.3397974481017
450,1685585996.52,-88.867,-287.598,-86.914,-54.688,2618.429,308.2849090685365
451,1685585996.52,-140.625,83.008,141.602,-57.617,2618.433,306.6349703695336
452,1685585996.53,15.625,269.531,164.551,-3.418,2618.436,305.2950440604504
453,1685585996.53,92.773,-11.23,51.27,6.348,2618.439,302.0678300070985
454,1685585996.54,-41.992,-127.441,36.133,-48.34,2618.443,309.59429619380643
455,1685585996.54,-136.719,92.773,117.188,-71.289,2618.447,306.8958135344667
456,1685585996.54,-25.879,145.996,101.074,-23.438,2618.451,307.1533906429946
457,1685585996.55,91.797,-381.836,-114.746,9.277,2618.455,313.88058309559415
458,1685585996.55,-1.465,-744.141,-196.289,-40.039,2618.459,305.39740138702916
459,1685585996.55,-137.695,-266.602,25.879,-85.449,2618.463,306.59425630701617
460,1685585996.56,-69.336,153.32,153.809,-36.133,2618.467,312.85009393146896
461,1685585996.56,72.266,-430.176,-149.902,25.391,2618.471,304.36215900048603
462,1685585996.57,36.621,-724.609,-213.867,-9.766,2618.475,309.1775581263184
463,1685585996.57,-95.215,43.457,148.926,-61.035,2618.478,309.63918031459843
464,1685585996.58,-94.238,88.867,52.246,-23.438,2618.481,314.0173328727787
465,1685585996.59,66.406,-111.328,-4.883,19.043,2618.485,305.42610784442326
466,1685585996.59,94.727,77.148,128.418,-15.625,2618.489,317.85218206073705
467,1685585996.6,-59.082,88.379,86.914,-58.105,2618.493,311.26864804883354
468,1685585996.6,-123.047,-293.945,-120.117,-41.504,2618.497,309.62627613889697
469,1685585996.6,1.465,-741.699,-249.512,20.996,2618.501,310.8302720139969
470,1685585996.61,94.727,-567.383,-56.641,14.16,2618.505,318.1723702824676
471,1685585996.61,8.789,50.781,136.23,-60.547,2618.509,310.80545513848926
472,1685585996.62,-112.305,-123.535,-24.414,-65.918,2618.512,312.23836743624076
473,1685585996.62,-45.898,-663.574,-180.664,-1.465,2618.516,311.40629523558994
474,1685585996.62,108.398,-198.242,66.895,13.672,2618.52,307.9203839683885
475,1685585996.63,53.223,318.359,198.73,-30.762,2618.524,315.14981808952325
476,1685585996.64,-106.445,-220.703,-94.238,-44.922,2618.532,317.1161817306403
477,1685585996.64,-78.613,-587.402,-191.406,-9.277,2618.536,310.24368225192546
478,1685585996.64,94.238,79.102,147.949,20.996,2618.54,311.9470984530904
479,1685585996.65,90.332,283.203,150.879,-16.113,2618.544,317.69749340427165
480,1685585996.65,-86.426,-156.25,-60.059,-62.012,2618.547,308.91920148624536
481,1685585996.66,-119.141,-498.047,-152.832,-30.273,2618.551,314.20236457961096
482,1685585996.66,49.316,-348.145,7.324,22.461,2618.555,308.7489351989555
483,1685585996.66,114.746,72.754,149.414,18.066,2618.559,313.2411508300162
484,1685585996.67,-42.969,-432.617,-190.918,-17.578,2618.563,316.81570950024735
485,1685585996.67,-136.719,-741.699,-240.723,-21.973,2618.567,319.7148189887368
486,1685585996.67,3.418,46.387,149.902,2.441,2618.571,315.9571609719214
487,1685585996.68,0.977,-261.23,-65.918,-26.367,2618.571,314.72489284105814
488,1685585996.68,110.84,62.012,52.734,16.113,2618.575,318.7973603176441
489,1685585996.68,-124.512,-139.16,20.02,-51.758,2618.575,312.50584299557175
490,1685585996.68,-31.25,203.125,154.297,-12.207,2618.579,312.8986027380073
491,1685585996.69,108.887,97.168,49.316,23.438,2618.582,321.13112895223634
492,1685585996.69,31.25,-501.465,-161.621,-13.672,2618.586,314.7931273653856
493,1685585996.7,-115.234,-579.102,-158.691,-60.059,2618.59,317.2433176212105
494,1685585996.7,-81.543,-317.871,-56.152,-25.879,2618.594,316.2543313812256
495,1685585996.7,86.426,-207.031,-7.812,15.137,2618.598,315.8706005125118
496,1685585996.71,69.824,-753.906,-299.316,0.0,2618.602,308.9505355328388
497,1685585996.71,-90.82,-643.066,-172.363,-51.758,2618.606,316.1079191461073
498,1685585996.71,-104.004,166.016,171.875,-64.941,2618.61,316.126848685427
499,1685585996.72,44.434,-5.371,10.254,-10.742,2618.614,317.68672811013187
500,1685585996.74,106.934,-108.398,9.277,-9.277,2618.631,315.8815406877268
501,1685585996.74,-20.02,114.746,100.098,-62.988,2618.635,327.3067291900734
502,1685585996.74,-120.117,-81.055,-2.441,-63.965,2618.639,316.73885740704384
503,1685585996.75,-23.438,-562.988,-169.434,-4.883,2618.643,315.9792175062633
504,1685585996.75,100.098,-476.074,-113.77,13.184,2618.647,316.1547917331742
505,1685585996.76,5.859,-204.59,26.367,-32.227,2618.651,313.9789947761094
506,1685585996.76,-132.812,-261.23,5.859,-48.828,2618.654,310.8169595905044
507,1685585996.76,-74.707,-621.094,-183.594,0.0,2618.658,317.7443513592002
508,1685585996.76,69.824,2.93,70.312,-0.488,2618.661,316.3687435107052
509,1685585996.77,69.824,-674.316,-152.344,24.414,2618.662,310.1374998520606
510,1685585996.77,99.609,241.699,162.109,-20.02,2618.665,312.03458028184974
511,1685585996.77,57.129,106.445,176.758,-33.691,2618.666,321.00660166879385
512,1685585996.77,-71.289,30.273,36.133,-60.547,2618.669,318.3194240159266
513,1685585996.77,-97.168,135.742,80.078,-72.754,2618.67,316.48905929359387
514,1685585996.78,-110.352,-261.23,-51.758,-40.527,2618.673,315.0147778872859
515,1685585996.78,-103.027,-177.246,-41.016,-39.062,2618.674,315.77369836224864
516,1685585996.78,38.086,-324.219,-23.438,1.465,2618.677,312.8425910905006
517,1685585996.78,90.332,-298.34,-10.254,-9.277,2618.681,316.14623423581276
518,1685585996.79,-25.879,-347.656,-63.477,-53.711,2618.685,317.72167478420585
519,1685585996.79,-154.785,-816.406,-309.57,-51.758,2618.689,320.5660921576357
520,1685585996.8,-56.152,-549.805,-113.281,-13.672,2618.693,312.11064164315655
521,1685585996.8,104.004,236.816,214.844,-0.977,2618.697,314.1250575216144
522,1685585996.8,20.02,-81.055,-54.688,-35.156,2618.7,314.7282912939425
523,1685585996.81,-145.02,-708.496,-275.391,-65.43,2618.704,310.3649670988887
524,1685585996.81,-90.332,-189.453,58.105,-39.551,2618.708,308.65113366531676
525,1685585996.82,85.449,278.32,125.488,0.488,2618.712,318.9997138661837
526,1685585996.82,56.641,-116.211,-12.207,-25.391,2618.716,318.16480340333527
527,1685585996.82,-109.375,-179.199,35.156,-76.172,2618.72,316.02648265072895
528,1685585996.83,-115.723,81.055,72.266,-53.711,2618.724,312.73502163887997
529,1685585996.83,55.664,-56.152,34.668,-7.812,2618.728,315.02076891123534
530,1685585996.84,80.566,-557.617,-189.453,-13.184,2618.732,316.132783187424
531,1685585996.84,-86.426,-846.68,-350.098,-57.129,2618.736,318.120171795707
532,1685585996.84,-140.625,-216.797,4.395,-58.594,2618.739,319.9667872437259
533,1685585996.85,13.184,203.125,132.812,1.953,2618.743,316.1302614018031
534,1685585996.85,101.074,-276.855,-79.102,19.531,2618.747,314.72875164378337
535,1685585996.85,-27.832,-411.133,-53.711,-31.25,2618.751,318.0641625065906
536,1685585996.86,-129.883,67.383,106.445,-57.617,2618.765,313.7895554058712
537,1685585996.86,-28.809,52.246,28.32,-6.348,2618.769,310.10341014974233
538,1685585996.86,103.516,-112.305,19.043,15.625,2618.773,303.77634301421693
539,1685585996.87,33.691,18.555,101.074,-31.738,2618.777,306.08631328568384
540,1685585996.87,-124.512,-200.684,-60.547,-50.293,2618.78,316.74307211673425
541,1685585996.88,-89.355,-369.629,-126.465,-15.625,2618.784,319.56937123766846
542,1685585996.88,70.312,-782.715,-353.516,28.809,2618.788,313.5895306172533
543,1685585996.88,58.594,-755.371,-245.117,-2.93,2618.792,307.04584324794223
544,1685585996.89,-82.031,83.496,178.223,-52.734,2618.796,310.8781909978662
545,1685585996.89,-109.863,-63.477,0.488,-20.02,2618.8,311.092222209264
546,1685585996.89,39.551,-328.613,-78.125,26.367,2618.804,309.30808022774033
547,1685585996.9,97.168,70.801,135.254,-2.441,2618.808,306.15657054318535
548,1685585996.92,-42.969,299.805,172.363,-69.336,2618.814,313.5891463271153
549,1685585996.92,-133.789,-251.953,-114.258,-53.711,2618.817,312.7674733933408
550,1685585996.92,-12.695,-531.738,-187.5,12.695,2618.821,308.6781086631917
551,1685585996.93,104.004,110.84,150.879,15.137,2618.825,309.47299100880645
552,1685585996.93,-0.488,227.051,128.418,-37.598,2618.829,311.11206744812836
553,1685585996.94,-140.625,-474.121,-172.363,-41.504,2618.833,312.9944112171451
554,1685585996.94,-72.266,-611.816,-131.836,5.371,2618.837,309.90663677231527
555,1685585996.94,86.426,92.285,163.086,19.531,2618.841,309.11749521603554
556,1685585996.95,48.34,191.406,92.773,-21.973,2618.845,311.6878717381799
557,1685585996.95,-108.398,-392.578,-83.008,-47.852,2618.849,304.92881309265465
558,1685585996.96,-86.914,-397.949,0.0,-11.23,2618.853,310.90046355435646
559,1685585996.96,96.191,149.902,137.695,22.461,2618.857,308.8672278103417
560,1685585996.96,101.562,-5.859,9.766,0.977,2618.856,304.59991182313547
561,1685585996.96,-83.496,-492.676,-131.348,-48.34,2618.86,313.15650144283774
562,1685585996.97,-133.789,-226.074,41.016,-41.016,2618.864,314.64861161569974
563,1685585996.97,26.367,221.68,141.602,2.93,2618.868,313.9403259168395
564,1685585996.98,85.449,-151.855,-26.367,-0.977,2618.872,305.6766018896063
565,1685585996.98,-54.688,-616.699,-202.637,-54.688,2618.876,312.30909232298575
566,1685585996.98,-151.855,-540.527,-147.949,-64.453,2618.879,313.5962407266312
567,1685585996.99,-28.32,-61.523,75.684,-8.301,2618.883,304.48399707678345
568,1685585996.99,113.77,44.922,75.684,7.324,2618.887,311.4117499189434
569,1685585997.0,-10.254,-808.594,-385.742,-22.461,2618.891,310.0295138608277
570,1685585997.0,-156.738,-764.648,-267.09,-42.969,2618.895,304.32433129632744
571,1685585997.0,-62.012,117.188,187.012,-22.461,2618.899,312.52188096032455
572,1685585997.01,87.891,3.418,25.391,17.578,2618.903,310.0529495803318
573,1685585997.01,37.598,-104.004,10.742,-10.254,2618.907,313.95526885331066
574,1685585997.01,-121.094,107.91,121.094,-58.105,2618.91,315.99872583564616
575,1685585997.02,-119.141,-80.566,27.832,-34.18,2618.914,309.9219278305262
576,1685585997.02,37.598,-512.207,-146.973,8.789,2618.918,311.4831274335949
577,1685585997.03,66.406,-691.406,-247.559,-9.766,2618.922,309.77093538830087
578,1685585997.03,-72.754,-256.836,-37.598,-63.477,2618.926,306.6293676005562
579,1685585997.03,-109.375,123.535,138.672,-46.875,2618.93,310.29687195310555
580,1685585997.04,29.297,-464.355,-174.316,25.879,2618.934,309.32274701014865
581,1685585997.04,108.398,-708.008,-205.566,17.578,2618.938,309.5280491742123
582,1685585997.04,-0.488,72.266,151.855,-53.223,2618.942,301.92647765260716
583,1685585997.05,-113.281,102.539,65.43,-52.734,2618.946,311.15264747906116
584,1685585997.05,-24.414,-147.949,-19.531,7.812,2618.946,308.21054475321796
585,1685585997.05,103.027,23.926,78.613,28.32,2618.95,312.4616778362167
586,1685585997.06,26.855,218.262,137.695,-11.23,2618.954,319.81186531910606
587,1685585997.06,-125.488,20.02,35.645,-43.457,2618.958,307.930178461764
588,1685585997.07,-90.332,-439.941,-137.207,-13.184,2618.962,307.90537845771945
589,1685585997.07,82.031,-443.848,-59.57,21.484,2618.966,306.300568296228
590,1685585997.07,64.941,-282.715,-37.109,-5.371,2618.969,301.24031326966167
591,1685585997.08,-101.562,-399.902,-163.086,-41.016,2618.973,308.66878118741437
592,1685585997.08,-130.371,-887.695,-383.789,0.0,2618.977,309.49363758781743
593,1685585997.08,28.32,-757.324,-245.605,31.738,2618.981,305.8882227538018
594,1685585997.09,92.773,96.68,141.602,-10.254,2618.985,306.257952506735
595,1685585997.09,-59.57,-30.273,4.395,-47.363,2618.989,306.44007051125095
596,1685585997.1,-129.883,-192.383,-28.32,-45.898,2618.993,306.8403030078452
597,1685585997.1,21.973,189.453,135.254,4.395,2618.997,306.89696048070556
598,1685585997.1,125.0,255.859,126.465,17.578,2619.001,306.6563754538618
599,1685585997.11,0.0,-80.078,0.977,-35.156,2619.005,307.35020420891016
600,1685585997.11,-127.93,-146.973,8.789,-52.246,2619.009,307.9799452005074
601,1685585997.12,-48.828,-172.852,5.859,-0.488,2619.013,306.35975720580194
602,1685585997.12,95.215,-209.473,26.367,26.367,2619.017,308.1587025146815
603,1685585997.12,18.555,-532.227,-209.961,-11.23,2619.021,308.294686187427
604,1685585997.13,-139.16,-894.531,-375.488,-41.504,2619.025,311.2449985247695
605,1685585997.13,-74.219,-212.402,42.969,-20.508,2619.028,308.37157068836143
606,1685585997.14,105.469,184.082,114.746,20.508,2619.032,308.0982289771612
607,1685585997.14,85.938,-268.555,-76.172,0.977,2619.036,307.88112549296176
608,1685585997.14,-80.566,-288.574,21.484,-47.852,2619.036,305.69303574126343
609,1685585997.14,-88.379,139.16,144.531,-32.227,2619.04,309.8556826755813
610,1685585997.15,76.66,116.699,41.992,17.578,2619.044,310.5978493892289
611,1685585997.15,122.559,-93.75,4.883,12.695,2619.048,309.4466400452173
612,1685585997.16,-34.18,-222.656,11.23,-40.527,2619.052,307.1480631570395
613,1685585997.16,-125.488,-402.344,-119.629,-52.734,2619.056,304.44873507796393
614,1685585997.16,3.418,-377.93,-70.801,-4.883,2619.06,310.41269553488405
615,1685585997.17,93.262,-792.969,-312.012,20.508,2619.063,307.87808606457946
616,1685585997.17,-12.695,-746.094,-246.582,-28.809,2619.067,313.21485268829
617,1685585997.18,-114.746,82.52,162.109,-67.383,2619.071,298.5767880253673
618,1685585997.18,-42.969,-60.059,18.555,-20.02,2619.075,308.7143699846256
619,1685585997.18,106.934,-245.117,-25.879,10.742,2619.079,310.2118511977642
620,1685585997.19,61.035,101.562,103.027,-35.645,2619.084,310.896048792932
621,1685585997.19,-100.586,271.484,145.02,-68.359,2619.087,301.28228606040614
622,1685585997.19,-93.262,-255.859,-86.914,-25.391,2619.091,307.8479483754448
623,1685585997.2,67.383,-476.074,-151.367,19.531,2619.095,302.31632448103323
624,1685585997.2,88.867,47.363,87.891,-13.184,2619.099,307.6296846263873
625,1685585997.21,-71.289,-135.254,-52.734,-56.152,2619.103,303.71354846668385
626,1685585997.21,-128.418,-717.773,-307.129,-28.809,2619.107,302.4069756121532
627,1685585997.21,28.809,-705.566,-229.492,19.043,2619.111,315.904346643255
628,1685585997.22,114.258,32.227,105.469,2.93,2619.115,310.3384575136484
629,1685585997.22,-30.273,120.605,88.867,-41.992,2619.119,304.3047155510428
630,1685585997.22,-128.418,-186.035,-29.297,-45.898,2619.123,307.27324260228875
631,1685585997.23,-4.395,-41.992,46.387,-6.836,2619.126,308.8240466996341
632,1685585997.23,123.047,223.633,122.07,2.93,2619.129,309.47653801507823
633,1685585997.24,31.25,-26.367,11.23,-29.297,2619.133,297.9571876390786
634,1685585997.24,-117.676,-471.191,-100.098,-51.758,2619.137,308.0171239033491
635,1685585997.24,-59.082,-212.402,31.738,-24.902,2619.141,308.11685959880947
636,1685585997.25,98.633,-20.508,80.566,15.137,2619.145,302.4870203423358
637,1685585997.25,54.199,-271.973,-33.203,-14.16,2619.149,304.9173313283778
638,1685585997.26,-131.348,-817.383,-359.375,-39.062,2619.153,304.8365697760185
639,1685585997.26,-138.672,-758.301,-250.977,-23.926,2619.157,309.45582338514924
640,1685585997.26,67.383,102.539,185.059,-0.977,2619.16,297.4645813211913
641,1685585997.27,102.539,68.848,23.438,-20.508,2619.164,305.1266603938625
642,1685585997.27,-65.43,-273.438,-140.625,-58.594,2619.168,309.30636371236767
643,1685585997.27,-115.234,-116.699,-4.395,-46.387,2619.172,301.88063289642986
644,1685585997.28,37.109,219.238,148.926,-1.465,2619.186,302.0676940643491
645,1685585997.28,122.07,22.949,22.461,13.184,2619.19,304.9054848054051
646,1685585997.28,-7.812,-119.141,-11.719,-37.109,2619.193,303.4076544158361
647,1685585997.29,-119.141,53.223,63.965,-57.129,2619.197,304.03521961191893
648,1685585997.29,-25.391,-67.871,48.828,-5.371,2619.201,303.14704188137654
649,1685585997.3,91.309,-565.918,-203.613,29.785,2619.205,295.8143448729667
650,1685585997.3,6.836,-934.082,-359.375,-17.09,2619.209,304.8194204089906
651,1685585997.3,-115.723,-250.977,39.062,-64.453,2619.213,307.8019277913638
652,1685585997.31,-56.641,145.02,114.746,-8.789,2619.217,302.1970612988368
653,1685585997.31,88.379,-46.875,24.902,31.25,2619.221,309.2733398305475
654,1685585997.32,64.941,32.715,63.477,-18.555,2619.225,306.6363961572027
655,1685585997.32,-86.914,190.43,108.398,-55.176,2619.229,309.0022612466888
656,1685585997.34,-104.492,72.754,12.207,-27.832,2619.231,304.74887022164165
657,1685585997.34,57.617,-114.746,14.648,26.367,2619.235,303.3986404997429
658,1685585997.34,95.215,41.016,129.395,14.648,2619.239,307.1766400157156
659,1685585997.35,-46.875,152.344,98.633,-45.41,2619.243,308.66289267553344
660,1685585997.35,-113.281,-136.23,-26.855,-31.738,2619.246,305.2499154837641
661,1685585997.36,9.277,-680.176,-207.031,38.574,2619.25,302.45012845237045
662,1685585997.36,116.211,-648.438,-136.719,33.203,2619.254,303.9622050187679
663,1685585997.36,3.418,-319.824,-94.238,-37.109,2619.258,303.09433969301955
664,1685585997.37,-124.023,-389.16,-231.934,-55.176,2619.262,307.44538763282674
665,1685585997.37,-48.34,-742.676,-269.043,4.883,2619.266,310.90349281719
666,1685585997.37,97.168,-337.402,32.715,19.043,2619.27,307.90862933426325
667,1685585997.38,51.27,248.535,168.945,-31.25,2619.274,305.7451194713207
668,1685585997.38,-109.863,-67.383,-16.113,-53.711,2619.278,303.7607958832599
669,1685585997.38,-78.125,-157.227,-13.672,-15.625,2619.282,303.4924702230607
670,1685585997.39,85.449,204.102,162.109,18.066,2619.286,308.2845173519103
671,1685585997.39,78.613,224.121,105.957,-6.836,2619.29,300.5309048995408
672,1685585997.4,-83.008,-147.949,-33.691,-43.945,2619.294,302.6579074463273
673,1685585997.4,-121.094,-399.414,-44.434,-22.461,2619.298,305.4284312649913
674,1685585997.4,36.133,-201.66,57.129,20.02,2619.302,305.9905871379897
675,1685585997.41,102.539,184.57,174.316,-2.441,2619.306,301.29008310753716
676,1685585997.41,-58.594,-385.742,-151.855,-47.363,2619.31,302.76338979311384
677,1685585997.42,-147.949,-908.203,-331.543,-33.203,2619.313,305.43007151988127
678,1685585997.42,11.23,-139.16,82.031,11.719,2619.317,304.53416023244756
679,1685585997.42,106.445,194.336,114.746,-4.883,2619.321,307.0176657261796
680,1685585997.42,-29.297,-294.922,-80.078,-65.918,2619.321,305.4458181472647
681,1685585997.43,-159.18,-298.34,-5.371,-80.078,2619.325,295.9681071155006
682,1685585997.43,-61.523,143.066,143.066,-30.273,2619.329,311.4794390453148
683,1685585997.44,75.195,137.207,79.102,-11.23,2619.333,308.6180679670452
684,1685585997.44,-1.953,-248.047,-111.328,-58.105,2619.337,305.7580324912174
685,1685585997.44,-149.902,-456.055,-151.855,-84.961,2619.341,304.6695293109167
686,1685585997.45,-129.395,-423.828,-95.215,-48.828,2619.344,307.28044247904603
687,1685585997.45,46.875,-295.41,-44.434,-5.859,2619.348,303.7234286957094
688,1685585997.46,35.156,-781.738,-345.703,-18.555,2619.352,310.4176829521788
689,1685585997.46,-133.301,-774.414,-268.555,-71.289,2619.356,310.85036533613743
690,1685585997.46,-137.207,96.191,179.688,-71.289,2619.36,306.41870033407855
691,1685585997.47,18.555,-111.816,-63.965,-7.812,2619.364,310.1571506751264
692,1685585997.47,84.473,-351.562,-111.816,-0.977,2619.38,300.59762365467384
693,1685585997.48,-41.992,99.609,150.879,-53.711,2619.384,308.33443691408075
694,1685585997.48,-139.16,225.098,112.793,-53.223,2619.388,315.6270232411231
695,1685585997.48,-24.414,-158.691,-8.301,4.395,2619.392,309.608012527298
696,1685585997.49,97.656,-220.215,-3.418,19.043,2619.396,309.7571701704978
697,1685585997.49,1.465,-119.141,14.648,-41.016,2619.4,309.1393594456288
698,1685585997.5,-134.766,-267.09,-51.758,-71.289,2619.404,306.3351403511758
699,1685585997.5,-80.078,-634.766,-240.234,-20.508,2619.408,314.4418547077595
700,1685585997.5,75.684,-693.359,-201.66,14.648,2619.412,298.6716532005285
701,1685585997.51,57.617,69.824,141.602,-33.691,2619.416,312.50383707579334
702,1685585997.51,-103.027,132.324,86.426,-72.266,2619.419,306.7397234758199
703,1685585997.52,-102.539,-144.531,25.879,-36.133,2619.423,311.6453676329426
704,1685585997.52,75.195,24.414,123.535,14.16,2619.415,307.2311436161008
705,1685585997.52,112.793,217.773,134.766,-4.883,2619.418,314.4010475739789
706,1685585997.52,-43.945,-87.891,-54.688,-51.27,2619.422,315.33720044299383
707,1685585997.53,-120.117,-514.16,-157.227,-40.527,2619.426,310.4053267352461
708,1685585997.53,18.066,-417.48,-20.996,10.742,2619.43,310.44800021864313
709,1685585997.54,114.258,-241.699,9.766,15.137,2619.434,305.5980676344675
710,1685585997.54,-11.23,-345.215,-59.082,-42.48,2619.438,304.7906601220364
711,1685585997.54,-145.02,-877.93,-373.047,-43.457,2619.442,307.79595829238895
712,1685585997.55,-48.34,-713.867,-222.168,5.859,2619.446,305.8502997068166
713,1685585997.55,118.652,221.191,227.539,1.953,2619.45,309.8440192300047
714,1685585997.56,42.48,-4.395,-19.043,-41.016,2619.454,311.1705284055311
715,1685585997.56,-120.117,-484.375,-155.273,-56.152,2619.458,317.57348413863247
716,1685585997.56,-59.082,-3.418,142.578,-18.066,2619.458,310.86647114943065
717,1685585997.56,109.863,312.5,179.199,20.508,2619.462,310.486113061682
718,1685585997.57,74.219,-20.508,24.414,-5.371,2619.466,311.90413231744253
719,1685585997.57,-94.238,-167.969,10.742,-41.992,2619.47,306.6492764881032
720,1685585997.58,-107.91,40.039,47.852,-25.391,2619.474,315.2217805060802
721,1685585997.58,44.922,-39.551,50.293,19.531,2619.478,310.3180996149208
722,1685585997.58,79.102,-565.43,-206.055,4.395,2619.482,311.9759847625755
723,1685585997.59,-73.242,-906.25,-362.305,-51.27,2619.486,306.1380115922292
724,1685585997.59,-127.441,-211.914,72.266,-62.988,2619.49,310.63301112510624
725,1685585997.6,22.461,125.977,103.027,-10.742,2619.494,307.6062652637401
726,1685585997.6,120.117,-82.52,19.531,7.324,2619.498,309.103756820952
727,1685585997.6,0.977,-13.672,70.312,-40.039,2619.501,307.01859758302993
728,1685585997.6,-116.699,142.578,109.375,-56.152,2619.515,307.08471435350737
729,1685585997.61,-31.25,51.758,62.988,-14.16,2619.519,307.3356307433698
730,1685585997.61,105.469,-93.75,19.531,12.207,2619.523,309.0095900927155
731,1685585997.62,48.34,50.781,114.746,-30.762,2619.527,308.82747229906886
732,1685585997.62,-118.652,-145.996,-42.48,-56.152,2619.53,307.67477956769494
733,1685585997.62,-97.168,-378.906,-147.949,-16.602,2619.534,309.8512137540542
734,1685585997.63,57.129,-749.512,-332.031,30.762,2619.538,311.28782195879757
735,1685585997.63,44.434,-895.02,-380.371,-0.977,2619.542,306.5473322487459
736,1685585997.64,-95.215,-149.902,44.434,-66.895,2619.546,307.6299950861821
737,1685585997.64,-118.164,-79.102,2.93,-32.227,2619.55,302.5351264283242
738,1685585997.64,36.133,-361.328,-74.219,35.156,2619.554,308.23613716553416
739,1685585997.65,98.633,65.918,126.465,13.184,2619.558,301.79228488678297
740,1685585997.66,-39.062,250.0,128.906,-47.363,2619.561,305.3423031316096
741,1685585997.67,-136.719,-67.871,12.207,-42.969,2619.565,309.45488171466394
742,1685585997.67,-14.16,-127.93,14.16,17.578,2619.569,305.101181978282
743,1685585997.68,112.793,210.938,170.41,27.832,2619.573,306.26355411821146
744,1685585997.68,2.441,148.438,67.871,-25.391,2619.577,305.90429667280523
745,1685585997.68,-145.508,-549.316,-228.516,-36.133,2619.581,313.5086527654114
746,1685585997.69,-67.383,-642.578,-159.18,10.254,2619.585,302.6626953171597
747,1685585997.69,104.492,89.355,153.809,31.738,2619.589,304.32700741013247
748,1685585997.7,64.941,234.375,99.121,-5.371,2619.592,302.236443924935
749,1685585997.7,-112.305,-345.215,-89.844,-41.016,2619.596,309.67898061580377
750,1685585997.7,-108.398,-644.531,-119.141,-21.484,2619.6,306.9983095411769
751,1685585997.71,75.684,-130.371,51.758,12.695,2619.604,304.4065796507842
752,1685585997.71,92.285,119.141,62.012,-4.395,2619.606,305.27073391794215
753,1685585997.71,-81.055,-310.547,-107.422,-50.781,2619.61,307.22247611633196
754,1685585997.72,-132.324,-280.762,13.672,-44.434,2619.614,303.7782914891716
755,1685585997.72,34.668,192.383,166.992,13.184,2619.618,300.5102118544689
756,1685585997.73,116.211,20.508,53.711,24.414,2619.622,307.4799176808355
757,1685585997.73,-38.574,-645.508,-201.172,-19.531,2619.626,296.59358146870466
758,1685585997.73,-145.996,-676.758,-185.059,-22.949,2619.63,296.8020573322688
759,1685585997.74,-3.418,-8.789,98.145,18.066,2619.633,298.265975533426
760,1685585997.74,134.766,60.059,46.387,32.715,2619.637,307.0266096409454
761,1685585997.74,14.16,-632.324,-216.797,-11.719,2619.641,288.087288042291
762,1685585997.75,-129.883,-372.559,1.465,-52.246,2619.645,290.07481065693713
763,1685585997.75,-45.41,237.793,162.109,-15.625,2619.649,293.6400429032592
764,1685585997.76,107.91,-128.906,-60.547,30.762,2619.653,291.1950248285793
765,1685585997.76,58.105,-323.242,-109.375,7.324,2619.657,290.7047283783078
766,1685585997.76,-97.656,62.012,126.953,-47.852,2619.66,289.65851248056873
767,1685585997.77,-97.168,177.734,129.395,-35.645,2619.664,290.58174825269884
768,1685585997.77,62.012,-140.137,-19.043,21.973,2619.668,276.99194405898726
769,1685585997.78,88.379,-481.445,-102.539,8.789,2619.672,283.85639359782556
770,1685585997.78,-62.5,-251.953,-3.418,-49.805,2619.676,280.1753666883577
771,1685585997.78,-116.699,127.441,126.953,-46.875,2619.68,287.2840701891067
772,1685585997.79,26.367,-406.25,-118.164,16.602,2619.684,284.06054535461743
773,1685585997.79,110.84,-756.836,-210.449,12.207,2619.688,274.36230826590145
774,1685585997.8,-13.184,-38.574,88.867,-55.176,2619.692,283.08117330584497
775,1685585997.8,-131.348,36.621,56.152,-60.547,2619.696,273.77106329684466
776,1685585997.8,-32.715,-134.766,34.18,-4.395,2619.696,283.7570346094934
777,1685585997.8,105.469,35.156,97.168,9.277,2619.7,285.06539267670644
778,1685585997.81,31.25,118.164,89.355,-43.457,2619.704,281.6314340799971
779,1685585997.81,-119.141,-173.34,-53.223,-64.941,2619.708,276.1742435616045
780,1685585997.82,-93.262,-675.781,-227.539,-17.09,2619.712,281.2551312656259
781,1685585997.82,67.871,-689.941,-163.086,19.043,2619.716,283.3348442500579
782,1685585997.82,64.941,-312.012,-3.906,-16.602,2619.72,279.5571587285598
783,1685585997.83,-91.797,-209.961,-16.602,-72.754,2619.724,279.0666239817076
784,1685585997.83,-131.836,-805.176,-329.59,-40.527,2619.728,277.0473658156636
785,1685585997.84,33.203,-609.863,-150.879,12.207,2619.731,278.00138230599396
786,1685585997.84,119.141,233.398,202.637,-15.137,2619.735,283.7918960332983
787,1685585997.84,-40.527,-52.734,-24.414,-60.547,2619.739,285.9771328795282
788,1685585997.85,-130.371,-253.418,-74.219,-41.504,2619.744,279.89266617302417
789,1685585997.85,17.578,147.461,154.297,13.184,2619.747,278.6822792533879
790,1685585997.85,123.047,286.621,162.598,12.695,2619.751,288.02638994337906
791,1685585997.86,-8.789,-58.105,17.09,-38.086,2619.755,277.8921115771426
792,1685585997.86,-116.699,-246.094,-37.598,-48.828,2619.759,284.1845127781719
793,1685585997.87,-20.02,-274.902,-40.039,-3.906,2619.763,280.5531986817144
794,1685585997.87,104.98,-229.004,30.273,15.625,2619.767,282.8157665438242
795,1685585997.87,36.621,-560.547,-185.547,-14.648,2619.771,286.85234504888575
796,1685585997.88,-132.812,-890.137,-341.309,-54.688,2619.775,283.1067228865899
797,1685585997.88,-79.59,-169.922,56.641,-26.855,2619.779,287.15458343251544
798,1685585997.88,110.84,152.344,102.539,35.645,2619.783,288.019280191047
799,1685585997.89,93.262,-69.824,27.832,-5.859,2619.787,293.4690074737795
800,1685585997.89,-78.125,-34.668,71.777,-57.617,2619.786,288.4708259456639
801,1685585997.89,-102.539,153.809,141.602,-33.203,2619.79,285.03236819579587
802,1685585997.9,48.34,84.961,67.383,14.16,2619.794,288.88140867906895
803,1685585997.9,104.004,-146.484,-6.348,21.484,2619.798,293.42574404136127
804,1685585997.91,-44.922,-269.531,-2.441,-30.762,2619.802,286.0080406654056
805,1685585997.91,-141.113,-322.754,-59.57,-51.27,2619.806,295.0893067271082
806,1685585997.91,-5.371,-255.859,-30.762,0.0,2619.809,287.8891256136641
807,1685585997.92,95.703,-721.68,-291.992,38.086,2619.813,292.7980315772277
808,1685585997.92,-20.02,-908.691,-375.488,-9.277,2619.817,293.15048327975506
809,1685585997.92,-136.719,-163.086,22.461,-56.152,2619.821,287.7037699196192
810,1685585997.93,-62.988,-120.117,-6.348,-9.277,2619.825,294.31513492547924
811,1685585997.93,78.613,-381.348,-99.609,23.926,2619.829,292.7656664498125
812,1685585997.94,36.621,54.688,104.492,-27.344,2619.834,292.52030947697676
813,1685585997.94,-109.863,201.66,111.816,-59.082,2619.838,301.651055584823
814,1685585997.94,-93.75,-85.449,28.32,-20.02,2619.842,297.4255671110964
815,1685585997.95,70.312,-46.875,51.27,20.02,2619.845,293.8344230167443
816,1685585997.95,85.938,175.293,88.867,-4.395,2619.849,299.1727258507351
817,1685585997.96,-77.637,-127.441,-5.371,-48.34,2619.853,298.30724003532947
818,1685585997.96,-142.09,-700.684,-260.254,-31.738,2619.857,299.08504148989186
819,1685585997.96,16.602,-669.434,-231.934,22.461,2619.861,294.0770835117602
820,1685585997.97,121.582,103.516,117.188,9.766,2619.865,295.6413594443498
821,1685585997.97,-11.719,178.223,75.195,-39.062,2619.869,297.4438906966296
822,1685585997.98,-123.535,-193.848,-69.336,-27.344,2619.873,294.2976558671778
823,1685585997.98,-11.719,-282.715,-60.547,19.531,2619.877,298.52015979238774
824,1685585997.98,126.953,92.773,162.598,18.555,2619.89,301.25325954208614
825,1685585997.98,44.434,168.457,93.75,-20.02,2619.893,298.9604806889744
826,1685585997.99,-111.328,-341.797,-115.723,-32.227,2619.897,305.35868621556136
827,1685585997.99,-58.105,-284.668,10.254,6.348,2619.901,304.97771236574033
828,1685585998.0,103.516,-101.074,60.059,36.133,2619.905,304.05797977556074
829,1685585998.0,72.266,-267.09,-29.297,-5.371,2619.909,306.54333073972015
830,1685585998.0,-109.375,-785.156,-344.238,-37.598,2619.913,304.7260703124761
831,1685585998.01,-119.141,-761.719,-253.418,-9.277,2619.917,306.56348048295865
832,1685585998.01,82.031,112.793,183.105,23.438,2619.921,303.16530013656484
833,1685585998.02,123.047,71.289,39.551,5.371,2619.925,307.76042202371445
834,1685585998.02,-48.34,-166.992,-39.062,-47.852,2619.929,304.1438146583158
835,1685585998.02,-107.422,96.68,118.652,-35.645,2619.933,305.3244898395029
836,1685585998.05,51.27,268.555,156.738,17.09,2619.946,311.7661284132225
837,1685585998.05,125.977,-125.488,-47.363,17.578,2619.95,311.3334501894318
838,1685585998.05,-16.113,-349.609,-110.352,-28.809,2619.954,305.66601860249546
839,1685585998.06,-121.582,54.199,89.355,-38.574,2619.958,308.4202781109599
840,1685585998.06,-14.16,206.543,134.766,19.531,2619.962,304.99105576663675
841,1685585998.07,102.539,-443.359,-183.594,52.734,2619.965,308.8427866769952
842,1685585998.07,5.371,-755.859,-267.578,0.0,2619.969,309.9663132041601
843,1685585998.07,-123.535,-2.441,115.234,-55.176,2619.973,309.3574505202375
844,1685585998.08,-75.684,179.688,110.352,-13.672,2619.977,312.4558037726516
845,1685585998.08,79.102,-88.379,3.418,28.32,2619.981,314.144975897588
846,1685585998.08,69.336,-110.84,17.578,-11.23,2619.985,317.6303434820149
847,1685585998.08,-104.492,10.742,33.203,-33.691,2619.982,313.4416708062222
848,1685585998.09,-81.543,64.453,78.125,-60.059,2619.989,317.2292831683325
849,1685585998.09,49.316,-137.695,24.902,20.02,2619.985,312.34452505617566
850,1685585998.09,98.145,6.836,101.562,8.789,2619.989,309.41987181159084
851,1685585998.1,-54.199,93.75,91.309,-47.363,2619.993,315.5026208683175
852,1685585998.1,-135.742,-230.957,-78.125,-39.062,2619.997,314.27989674250847
853,1685585998.1,-14.648,-682.129,-220.215,25.879,2620.001,316.45998206982443
854,1685585998.11,92.773,-614.746,-115.723,26.367,2620.005,310.34411423467157
855,1685585998.11,0.977,-272.949,-57.129,-35.645,2620.009,314.91153727314685
856,1685585998.12,-112.793,-202.148,-70.312,-55.176,2620.013,314.4823045586079
857,1685585998.12,-55.664,-816.895,-355.957,8.789,2620.017,316.7681994248893
858,1685585998.12,76.66,-777.832,-241.699,28.809,2620.021,318.4996406861634
859,1685585998.13,43.457,-10.254,98.633,-36.133,2620.024,314.74574596991704
860,1685585998.13,-104.492,-101.074,-27.832,-62.5,2620.028,313.2389990905791
861,1685585998.14,-79.59,-183.105,-34.668,-33.203,2620.032,317.2653723885079
862,1685585998.14,93.75,188.477,136.23,-1.953,2620.036,323.2224736852701
863,1685585998.14,96.191,291.504,135.254,-20.508,2620.04,323.8481350646506
864,1685585998.15,-70.312,-116.699,-46.875,-52.734,2620.044,318.0064067950407
865,1685585998.15,-105.469,-459.473,-132.812,-30.273,2620.047,312.594396090425
866,1685585998.16,49.316,-286.133,-31.25,22.949,2620.051,316.32195899237377
867,1685585998.16,98.145,-106.934,33.203,1.465,2620.055,317.18080169434324
868,1685585998.16,-62.988,-546.875,-206.543,-45.41,2620.059,320.3368246495689
869,1685585998.17,-163.574,-864.746,-327.637,-39.551,2620.063,322.9285798337534
870,1685585998.17,-14.16,-106.445,85.449,-2.93,2620.067,319.1280447406146
871,1685585998.17,125.488,189.941,94.238,20.508,2620.071,320.31179160174014
872,1685585998.18,19.043,-75.684,1.465,-25.391,2620.072,317.65658325969457
873,1685585998.18,-105.957,-49.805,63.477,-49.805,2620.075,321.75333532326596
874,1685585998.18,-29.297,182.617,122.07,-11.719,2620.079,318.1738759033414
875,1685585998.19,120.117,104.98,54.688,19.043,2620.083,319.0506241842544
876,1685585998.19,61.035,-392.09,-127.93,-10.254,2620.087,319.6956300627712
877,1685585998.2,-117.188,-561.523,-178.223,-51.758,2620.091,317.1710917774178
878,1685585998.2,-103.027,-316.406,-88.867,-29.785,2620.095,314.4349208916264
879,1685585998.2,76.66,-65.43,19.531,23.438,2620.099,314.07199138320306
880,1685585998.21,74.219,-664.551,-299.805,20.02,2620.103,318.4524489853312
881,1685585998.21,-91.309,-873.047,-342.285,-34.668,2620.107,317.4195134738994
882,1685585998.21,-114.258,-49.805,84.473,-30.762,2620.111,319.0621505947258
883,1685585998.22,39.551,-75.195,-15.137,25.879,2620.115,323.0786496183291
884,1685585998.24,112.305,-390.625,-130.371,23.438,2620.134,317.8767900420934
885,1685585998.24,-13.184,19.531,96.68,-41.016,2620.138,318.63434963077515
886,1685585998.24,-113.77,160.156,83.496,-39.551,2620.141,318.35838333561543
887,1685585998.25,-11.719,-45.898,46.875,26.367,2620.145,321.794182911899
888,1685585998.25,99.609,-58.594,25.391,31.25,2620.149,322.13014834664045
889,1685585998.26,9.766,-158.691,-51.27,-20.02,2620.153,317.2399173135122
890,1685585998.26,-120.605,-268.066,-87.402,-37.598,2620.157,319.3989499486054
891,1685585998.26,-70.801,-597.168,-244.141,8.301,2620.161,320.8846160243814
892,1685585998.26,73.242,-239.746,-18.555,15.137,2620.163,320.82833422680426
893,1685585998.27,87.402,-677.246,-181.152,31.738,2620.165,323.75512968816975
894,1685585998.27,114.746,99.609,143.555,4.395,2620.166,311.1055125052051
895,1685585998.27,70.801,97.656,166.504,-18.555,2620.169,318.63128106078653
896,1685585998.27,-47.852,85.938,50.293,-41.016,2620.17,317.49679599439287
897,1685585998.28,-91.309,165.039,92.285,-53.223,2620.173,316.69117104657596
898,1685585998.28,-126.953,-390.137,-137.207,-26.855,2620.174,317.1904989868043
899,1685585998.28,-98.633,-196.289,-54.688,-26.855,2620.177,321.57304710000335
900,1685585998.28,18.555,-434.57,-66.406,28.809,2620.178,320.5979208916829
901,1685585998.28,116.211,-207.031,11.23,29.297,2620.182,316.46709564626093
902,1685585998.29,-3.906,-391.602,-162.109,-28.32,2620.186,318.5900724825896
903,1685585998.29,-122.559,-589.844,-199.219,-47.852,2620.19,323.1286084483302
904,1685585998.3,-21.484,-195.312,7.324,-5.371,2620.194,315.4764692134945
905,1685585998.3,130.859,223.145,132.812,6.348,2620.198,315.9937433922172
906,1685585998.3,50.781,10.254,0.0,-37.598,2620.202,319.3650917843794
907,1685585998.31,-137.695,-874.512,-443.848,-45.898,2620.206,320.7706883677101
908,1685585998.31,-88.867,-671.387,-210.938,-14.648,2620.208,316.95100025544417
909,1685585998.32,100.586,180.176,177.734,6.348,2620.212,322.04282846048187
910,1685585998.32,66.406,-201.66,-87.402,-15.137,2620.216,317.9956729387903
911,1685585998.32,-91.797,-343.75,-106.934,-59.082,2620.22,315.47641130848655
912,1685585998.33,-93.262,53.223,75.195,-46.387,2620.224,316.4765019231962
913,1685585998.33,83.496,-7.324,58.594,16.113,2620.228,317.8263386520776
914,1685585998.34,120.605,-560.059,-214.355,22.949,2620.232,315.06798148232605
915,1685585998.34,-52.246,-810.059,-319.824,-41.016,2620.236,314.44169023784974
916,1685585998.34,-106.445,-89.844,83.008,-62.5,2620.24,314.7819594516652
917,1685585998.35,42.969,200.195,109.863,-0.488,2620.243,313.49774566465754
918,1685585998.35,135.254,10.742,34.18,15.625,2620.247,318.36231234307957
919,1685585998.35,14.16,-5.859,68.359,-47.852,2620.251,320.19251359577913
920,1685585998.37,-114.746,138.672,106.934,-68.359,2620.266,315.71923520946365
921,1685585998.37,-40.039,100.098,42.969,-10.742,2620.27,318.15236563820326
922,1685585998.38,104.98,-44.434,18.066,20.02,2620.274,312.7039359974152
923,1685585998.38,49.316,38.086,82.031,-15.625,2620.278,315.95707960420947
924,1685585998.39,-114.258,-186.035,-31.738,-46.875,2620.282,318.443075215943
925,1685585998.39,-87.402,-308.105,-61.523,-26.367,2620.286,312.3992265376552
926,1685585998.39,67.871,-731.445,-326.172,24.902,2620.29,318.24432771743216
927,1685585998.4,42.969,-875.0,-332.031,-7.812,2620.294,312.23190810072214
928,1685585998.4,-98.633,-26.855,100.586,-72.266,2620.297,315.8799334571924
929,1685585998.4,-23.926,229.004,119.141,-59.57,2620.311,310.2652482636991
930,1685585998.4,-112.793,-46.387,-1.465,-41.504,2620.301,313.09089142482696
931,1685585998.41,-135.254,-146.973,-48.828,-60.059,2620.315,314.27070483806426
932,1685585998.41,34.18,-263.184,-95.703,8.301,2620.305,306.91222931558787
933,1685585998.41,-14.16,-250.977,-68.848,0.0,2620.318,313.1798477402579
934,1685585998.41,109.863,143.066,103.516,-8.301,2620.309,312.79235020215594
935,1685585998.41,124.512,160.645,149.902,18.555,2620.322,311.0932067970054
936,1685585998.42,31.738,168.945,100.098,-27.344,2620.326,313.00084213182686
937,1685585998.42,-134.277,-481.934,-141.602,-40.039,2620.33,310.9521018859588
938,1685585998.43,-66.895,-561.035,-111.816,4.395,2620.334,314.32906423746607
939,1685585998.43,112.793,-99.121,40.039,30.273,2620.338,316.03957342654587
940,1685585998.43,69.824,-131.836,8.301,-3.906,2620.342,313.6993555844166
941,1685585998.44,-110.84,-613.281,-266.602,-32.227,2620.346,307.3155019685936
942,1685585998.44,-124.512,-818.848,-320.312,-1.953,2620.35,310.0804254061197
943,1685585998.44,67.383,-55.664,72.754,29.785,2620.354,307.9909166673188
944,1685585998.46,94.727,111.816,21.973,5.859,2620.356,309.3688952381555
945,1685585998.46,-78.613,-160.645,-57.129,-53.223,2620.36,313.37847468870456
946,1685585998.47,-122.07,-41.992,65.43,-48.828,2620.364,311.3434178451225
947,1685585998.47,38.574,201.66,144.043,4.883,2620.368,306.41019936901534
948,1685585998.48,103.516,-47.363,-14.648,14.648,2620.372,311.5492940591219
949,1685585998.48,-44.434,-701.66,-255.859,-22.461,2620.376,307.6978515205038
950,1685585998.48,-143.555,-685.547,-171.387,-34.18,2620.38,308.4543589548453
951,1685585998.49,-18.066,-5.859,85.938,1.953,2620.384,318.3032880748424
952,1685585998.49,114.746,61.035,36.133,18.555,2620.387,312.52460598375126
953,1685585998.5,5.371,-511.23,-184.57,-22.461,2620.391,313.6962290757862
954,1685585998.5,-141.602,-479.492,-81.543,-64.941,2620.395,308.90672320046224
955,1685585998.5,-62.988,59.082,124.023,-29.785,2620.399,319.0282904701487
956,1685585998.52,101.074,-87.891,-32.227,24.414,2620.419,306.79731948322814
957,1685585998.53,65.43,-438.965,-154.785,3.906,2620.423,308.208096188621
958,1685585998.53,-92.285,-32.715,83.496,-45.898,2620.427,303.0910425021677
959,1685585998.54,-93.75,157.227,85.449,-38.086,2620.431,315.900738372854
960,1685585998.54,74.707,-41.504,27.344,13.184,2620.435,309.4631913889407
961,1685585998.54,104.004,-340.82,-55.664,6.836,2620.439,313.45866135304476
962,1685585998.55,-51.27,-257.812,-18.066,-47.363,2620.443,309.54312595610503
963,1685585998.55,-116.211,104.492,114.746,-54.199,2620.447,308.662169865505
964,1685585998.55,-31.25,-345.215,-104.492,0.488,2620.447,308.8575117658467
965,1685585998.55,18.555,-426.758,-155.762,12.207,2620.45,307.850926613541
966,1685585998.55,112.305,-248.535,-32.715,17.09,2620.451,309.73919286277925
967,1685585998.56,107.422,-700.195,-182.617,15.625,2620.454,310.62658798007783
968,1685585998.56,45.898,92.285,143.555,-23.438,2620.455,304.41940613778513
969,1685585998.56,-14.648,22.949,89.355,-54.688,2620.458,305.44281601748884
970,1685585998.56,-112.793,78.613,55.176,-48.34,2620.459,309.08104824607796
971,1685585998.57,-84.961,-458.496,-164.551,-6.836,2620.463,312.706446557284
972,1685585998.57,-131.348,-76.172,-30.273,-51.758,2620.462,305.75660552045645
973,1685585998.57,87.891,-518.555,-121.582,32.715,2620.467,306.4956219215619
974,1685585998.57,83.496,-235.84,-15.137,6.836,2620.471,308.05193872163227
975,1685585998.58,-85.449,-335.938,-162.598,-41.992,2620.475,305.6706670932525
976,1685585998.58,-124.023,-643.555,-219.727,-31.25,2620.479,306.4288881507183
977,1685585998.58,47.852,-293.457,9.277,10.742,2620.482,307.84233194720053
978,1685585998.59,121.582,236.816,150.879,9.277,2620.486,315.5371453833383
979,1685585998.59,-31.25,-44.922,-10.742,-26.855,2620.49,310.93753767377285
980,1685585998.6,-145.02,-916.992,-463.867,-8.301,2620.494,304.74659444342984
981,1685585998.6,-19.531,-713.379,-219.727,33.691,2620.497,305.33548540933316
982,1685585998.6,120.117,163.574,170.41,28.32,2620.501,312.56186783856595
983,1685585998.61,-0.488,-161.621,-50.781,-23.438,2620.505,314.54912272617827
984,1685585998.61,-134.766,-328.125,-40.527,-48.828,2620.509,312.8966124740335
985,1685585998.62,-36.133,-114.746,33.691,1.465,2620.513,307.94805163819547
986,1685585998.62,108.398,-95.215,48.34,24.902,2620.517,312.5337928758259
987,1685585998.62,27.344,-514.648,-189.941,-13.184,2620.521,306.76220300107667
988,1685585998.63,-139.16,-789.062,-270.508,-48.828,2620.525,303.51502778936464
989,1685585998.63,-86.914,-10.742,141.113,-25.879,2620.529,316.3602487014748
990,1685585998.64,101.074,264.648,146.973,34.18,2620.533,313.9017416874903
991,1685585998.64,95.703,13.184,47.852,18.555,2620.537,306.23683739563046
992,1685585998.64,-73.73,-44.922,40.527,-36.621,2620.55,310.51209346448525
993,1685585998.64,-107.422,130.371,103.516,-28.809,2620.554,315.6172190179268
994,1685585998.65,47.852,126.953,64.941,8.789,2620.558,308.7688415446264
995,1685585998.65,113.281,-70.801,13.184,1.465,2620.562,310.35490011900566
996,1685585998.66,-39.062,-275.879,-36.133,-46.387,2620.565,307.0454247501399
997,1685585998.66,-147.461,-433.105,-137.207,-57.129,2620.569,310.2586131150067
998,1685585998.66,-20.02,-311.035,-49.316,-8.301,2620.573,311.2934661848537
999,1685585998.67,80.566,-736.816,-324.707,32.715,2620.577,312.583512812075
1000,1685585998.67,-28.32,-958.008,-372.559,-15.625,2620.581,308.7525671145292
1001,1685585998.68,-140.625,-164.062,82.52,-53.223,2620.585,320.6595184076814
1002,1685585998.68,-58.594,-0.977,41.504,-2.441,2620.589,305.81843145157313
1003,1685585998.68,107.91,-65.918,14.16,27.832,2620.593,317.3158330632428
1004,1685585998.69,70.801,241.211,137.695,-17.09,2620.583,308.25759726795343
1005,1685585998.69,-93.75,326.172,151.855,-56.641,2620.587,312.04172522356816
1006,1685585998.69,-95.703,-152.832,-79.102,-15.625,2620.591,315.094196986087
1007,1685585998.7,68.848,-316.895,-105.957,23.438,2620.595,314.28841940647663
1008,1685585998.7,97.656,147.461,120.605,-7.812,2620.599,313.3957782899355
1009,1685585998.71,-67.383,-86.426,-27.344,-49.316,2620.603,310.2127312895628
1010,1685585998.71,-130.859,-667.48,-246.094,-18.555,2620.607,313.9064216781833
1011,1685585998.71,14.648,-517.578,-143.555,18.555,2620.611,318.1337535905479
1012,1685585998.72,99.121,-26.367,66.895,0.977,2620.615,316.42809136892663
1013,1685585998.72,-27.344,-107.91,8.301,-36.621,2620.619,313.7573730048967
1014,1685585998.72,-153.32,-604.98,-237.305,-50.293,2620.622,317.78973418507945
1015,1685585998.73,-56.641,-637.695,-188.477,-7.324,2620.626,320.84918797318136
1016,1685585998.74,106.934,155.273,148.438,4.395,2620.641,321.66093503322105
1017,1685585998.75,19.531,110.352,39.062,-39.062,2620.645,320.897904647662
1018,1685585998.75,-144.531,-152.832,6.836,-66.406,2620.649,318.37023486916
1019,1685585998.76,-71.289,37.598,120.117,-25.879,2620.653,322.6321802421009
1020,1685585998.76,104.492,-13.184,48.34,17.09,2620.657,316.3914196317502
1021,1685585998.76,70.312,-293.945,-84.961,-18.555,2620.661,321.3844633351511
1022,1685585998.77,-127.93,-810.547,-397.949,-49.805,2620.665,325.2243000154569
1023,1685585998.77,-150.391,-759.766,-271.484,-36.621,2620.668,322.0643218660599
1024,1685585998.78,51.758,126.953,206.055,-16.113,2620.672,320.7032572694711
1025,1685585998.78,21.973,144.531,159.18,-4.883,2620.685,330.2310216873999
1026,1685585998.78,105.469,113.281,27.344,-14.648,2620.676,319.4898281795208
1027,1685585998.78,127.93,-43.945,-54.199,2.93,2620.688,321.3767780487393
1028,1685585998.78,-46.875,-203.613,-117.188,-48.34,2620.68,322.3429973985228
1029,1685585998.79,-15.137,-453.125,-215.82,-40.039,2620.692,324.17626825611086
1030,1685585998.79,-127.441,-187.5,-2.93,-45.41,2620.684,321.6093897651128
1031,1685585998.79,-124.512,10.254,101.074,-65.43,2620.696,328.79427931050503
1032,1685585998.79,-13.672,208.008,104.98,-16.602,2620.7,331.439050173101
1033,1685585998.8,111.328,-251.465,-50.781,18.555,2620.704,328.58083019076804
1034,1685585998.8,32.715,-370.605,-8.789,-31.25,2620.708,324.0357546678744
1035,1685585998.8,-114.258,39.062,93.262,-67.871,2620.712,330.23705211797653
1036,1685585998.81,-79.102,189.941,133.301,-29.297,2620.716,330.92348941462757
1037,1685585998.81,71.777,-426.758,-142.578,21.973,2620.72,329.2020399733265
1038,1685585998.82,55.664,-705.078,-214.355,-16.113,2620.724,329.81526559714194
1039,1685585998.82,-84.473,42.48,135.254,-78.125,2620.728,325.9923125728992
1040,1685585998.84,-114.746,70.801,54.199,-47.852,2620.732,336.5022614704457
1041,1685585998.84,31.738,-323.73,-116.211,3.418,2620.736,325.81559257405365
1042,1685585998.84,98.145,-248.535,-46.387,-8.301,2620.74,330.55243235226635
1043,1685585998.85,-42.48,89.355,106.445,-55.664,2620.744,340.16730495290096
1044,1685585998.85,-133.301,-58.105,30.273,-58.594,2620.748,327.7427783161693
1045,1685585998.86,-17.578,-716.797,-316.895,10.254,2620.752,335.27608384432176
1046,1685585998.86,91.309,-894.531,-328.125,26.367,2620.755,336.1914372733142
1047,1685585998.86,2.441,-89.355,94.727,-51.27,2620.759,331.56811655948695
1048,1685585998.87,-135.254,-42.48,-7.812,-60.547,2620.763,340.0958243964608
1049,1685585998.87,-56.641,-433.594,-114.258,1.953,2620.767,335.36272028177257
1050,1685585998.87,106.934,-0.977,99.121,18.555,2620.771,336.18237907884117
1051,1685585998.88,50.781,262.207,133.789,-28.809,2620.775,335.53387788794913
1052,1685585998.88,-123.047,-84.473,-14.648,-57.129,2620.778,332.5050715524637
1053,1685585998.88,-106.934,-191.895,-21.484,-22.461,2620.782,330.7253600016166
1054,1685585998.89,84.473,163.086,149.414,15.625,2620.786,341.25190002552876
1055,1685585998.89,87.891,218.262,93.75,-15.137,2620.79,336.2422687015188
1056,1685585998.9,-85.938,-264.648,-73.73,-51.758,2620.794,331.2372866451262
1057,1685585998.9,-128.906,-604.004,-166.016,-36.133,2620.798,330.3123940404123
1058,1685585998.9,31.25,-316.895,-34.668,9.277,2620.802,338.5268208881607
1059,1685585998.91,115.234,90.332,128.418,0.977,2620.805,328.4959056190062
1060,1685585998.91,-32.715,-416.504,-197.754,-43.457,2620.809,333.0488837499187
1061,1685585998.92,-149.902,-820.801,-308.105,-43.945,2620.813,326.43730052715216
1062,1685585998.92,-9.277,-36.621,131.836,-15.625,2620.817,333.7970159025804
1063,1685585998.92,123.535,168.457,86.426,0.977,2620.821,331.37620942816096
1064,1685585998.92,15.625,-97.168,-17.578,-32.715,2620.821,327.2123717789718
1065,1685585998.93,-123.047,-83.008,44.922,-60.059,2620.825,332.1286240464923
1066,1685585998.93,-43.457,138.184,124.512,-18.555,2620.829,330.98861945420475
1067,1685585998.94,120.605,95.703,55.176,16.602,2620.833,327.46882416446823
1068,1685585998.94,59.082,-349.609,-121.094,-18.555,2620.837,331.42247503265406
1069,1685585998.94,-111.328,-493.652,-119.629,-56.641,2620.841,337.0990606902211
1070,1685585998.95,-102.539,-364.746,-79.102,-19.531,2620.845,332.0136507113212
1071,1685585998.95,70.312,-264.648,-70.801,26.367,2620.849,327.5801592341471
1072,1685585998.96,77.148,-776.855,-383.789,14.648,2620.852,333.53520175652505
1073,1685585998.96,-102.051,-799.805,-283.691,-41.992,2620.856,330.3841567113774
1074,1685585998.96,-131.836,-33.203,88.867,-49.805,2620.86,327.60110010389815
1075,1685585998.97,32.715,-185.059,-57.129,12.695,2620.864,325.6681617181005
1076,1685585998.97,121.582,-174.805,-18.066,12.695,2620.869,328.5707259997563
1077,1685585998.98,1.953,170.41,104.492,-32.227,2620.873,330.5862812493385
1078,1685585998.98,-100.098,184.57,94.238,-32.227,2620.877,329.96110738103687
1079,1685585998.98,1.465,-79.102,20.508,5.371,2620.881,320.90293726738724
1080,1685585998.99,124.512,-138.672,14.16,7.324,2620.885,324.8815255281007
1081,1685585998.99,29.785,-172.363,-40.527,-33.203,2620.888,327.76731874864754
1082,1685585999.0,-121.094,-279.297,-113.281,-58.105,2620.892,319.51957297347843
1083,1685585999.0,-86.914,-601.074,-255.859,-18.066,2620.896,327.24323861537437
1084,1685585999.0,70.801,-676.758,-208.984,15.137,2620.9,323.79595523806006
1085,1685585999.01,73.242,-127.441,56.641,-33.691,2620.904,322.07876237385966
1086,1685585999.01,-85.449,-74.707,5.371,-70.312,2620.908,326.2913869509089
1087,1685585999.01,-116.211,-360.84,-67.871,-35.156,2620.912,321.06970037623165
1088,1685585999.02,43.945,-242.676,43.945,9.277,2620.911,321.14242599592586
1089,1685585999.02,99.121,219.238,141.602,-6.836,2620.915,322.96952057202276
1090,1685585999.02,-46.387,64.453,9.766,-51.27,2620.919,317.70374965630356
1091,1685585999.03,-120.117,-181.641,-26.855,-42.969,2620.923,321.59183062385307
1092,1685585999.03,7.812,-251.953,-9.277,0.488,2620.927,320.21116042244944
1093,1685585999.04,110.352,-240.723,-29.785,10.742,2620.931,315.93263336742865
1094,1685585999.04,-17.09,-261.23,-67.871,-33.691,2620.935,313.3575435866048
1095,1685585999.04,-179.199,-814.453,-362.793,-43.945,2620.939,320.01716434135386
1096,1685585999.05,-83.008,-724.609,-208.008,-0.977,2620.943,322.34898568409466
1097,1685585999.05,104.492,191.406,197.266,5.859,2620.947,324.97717167870337
1098,1685585999.05,32.715,67.871,0.0,-37.109,2620.951,318.65723971685685
1099,1685585999.06,-125.977,-224.121,-82.031,-73.242,2620.954,319.0774497022405
1100,1685585999.06,-78.125,-143.555,52.734,-33.691,2620.962,325.445251276097
1101,1685585999.07,100.586,154.785,164.551,13.672,2620.966,318.8232700559171
1102,1685585999.07,85.938,-108.398,-74.219,-2.93,2620.97,322.75651222340815
1103,1685585999.08,-100.098,-510.742,-203.125,-48.34,2620.974,312.1338204600564
1104,1685585999.08,-125.0,-60.059,57.129,-41.992,2620.978,316.350189733932
1105,1685585999.08,33.691,-29.297,43.945,3.418,2620.982,319.80663950419716
1106,1685585999.09,82.52,-587.891,-223.145,10.742,2620.986,313.73638174831103
1107,1685585999.09,-62.988,-722.656,-231.934,-41.992,2620.99,320.3516066025451
1108,1685585999.09,-128.906,-20.02,120.117,-56.641,2620.994,321.53334892502323
1109,1685585999.1,3.418,140.137,80.078,2.441,2620.997,314.35561232159233
1110,1685585999.1,109.375,-124.023,-11.719,8.789,2621.001,315.94385070095865
1111,1685585999.1,-135.254,133.789,114.258,-57.129,2621.015,317.2943487626839
1112,1685585999.11,2.93,-104.492,17.09,-44.922,2621.005,318.5948003056296
1113,1685585999.11,-43.945,59.082,42.969,-3.906,2621.019,318.19556706094295
1114,1685585999.11,112.305,-317.871,-137.695,20.508,2621.023,309.58826378782453
1115,1685585999.12,35.645,-246.582,-48.34,-32.227,2621.027,315.27236160667945
1116,1685585999.12,-121.582,-191.406,-49.805,-60.059,2621.031,320.03147716332194
1117,1685585999.12,-97.168,-364.258,-160.645,-27.832,2621.035,313.22729877403
1118,1685585999.13,52.246,-741.699,-340.332,22.949,2621.039,318.30032011636195
1119,1685585999.13,57.617,-981.445,-384.277,5.859,2621.043,320.3332656793304
1120,1685585999.14,-79.102,-208.984,76.66,-57.617,2621.046,312.1621929530575
1121,1685585999.14,-113.281,-20.508,27.344,-37.598,2621.05,317.0004137110974
1122,1685585999.14,37.598,-139.16,-49.805,11.719,2621.054,314.4989484913169
1123,1685585999.15,108.398,162.598,125.0,0.977,2621.058,314.5532222291128
1124,1685585999.15,-20.02,202.637,127.93,-53.223,2621.06,314.8827029939791
1125,1685585999.16,-121.094,-91.797,-0.488,-58.594,2621.064,308.617062147537
1126,1685585999.16,-7.812,-157.227,-7.812,0.0,2621.068,317.5163672524398
1127,1685585999.16,116.699,158.691,134.277,11.23,2621.072,312.8047860054009
1128,1685585999.17,12.695,109.863,60.059,-43.945,2621.076,313.1499382464957
1129,1685585999.17,-139.648,-510.254,-219.238,-58.105,2621.079,315.10903512732807
1130,1685585999.18,-74.219,-817.871,-283.203,-5.859,2621.083,310.64779514439533
1131,1685585999.18,90.82,-346.68,-26.367,18.555,2621.087,314.88693491828127
1132,1685585999.18,33.691,74.707,135.742,-55.664,2621.091,311.7134661517854
1133,1685585999.19,-137.695,-478.516,-186.523,-91.797,2621.095,316.2571872740773
1134,1685585999.19,-137.695,-757.324,-245.605,-55.176,2621.099,311.70141622735684
1135,1685585999.19,40.527,95.215,166.504,-29.785,2621.103,309.5994623698496
1136,1685585999.21,45.41,176.758,96.68,-57.129,2621.106,316.23097530018634
1137,1685585999.21,-130.859,-137.207,-4.395,-118.164,2621.11,306.57176695299137
1138,1685585999.22,-176.758,-26.855,73.73,-116.211,2621.114,309.5375063749126
1139,1685585999.22,-34.668,120.117,98.145,-71.777,2621.118,315.97468939941444
1140,1685585999.23,45.898,-121.582,-6.836,-68.359,2621.122,311.8530683275254
1141,1685585999.23,-102.539,-768.555,-329.59,-99.121,2621.126,313.52799800610273
1142,1685585999.23,-216.797,-744.141,-236.328,-115.723,2621.13,309.7346721063976
1143,1685585999.24,-92.285,-83.984,93.262,-94.238,2621.133,314.9974256348898
1144,1685585999.24,38.574,-179.688,-49.805,-68.359,2621.137,315.1902226461774
1145,1685585999.24,-56.641,-661.133,-208.496,-109.863,2621.141,315.26837770725933
1146,1685585999.25,-214.844,-349.121,20.02,-166.016,2621.145,310.4104156962351
1147,1685585999.25,-150.879,198.73,151.855,-134.766,2621.149,316.79715978298793
1148,1685585999.26,11.23,-23.438,-14.648,-75.684,2621.153,313.8290425529886
1149,1685585999.26,-20.02,-95.703,9.766,-104.492,2621.157,312.18714474135004
1150,1685585999.26,-177.246,135.742,122.559,-160.156,2621.161,315.34097098327004
1151,1685585999.27,-171.875,178.223,120.605,-127.93,2621.165,314.8276043044498
1152,1685585999.27,-1.953,-75.684,29.297,-69.824,2621.168,308.0248512939849
1153,1685585999.28,27.344,-394.531,-98.633,-80.566,2621.172,314.8913551487482
1154,1685585999.28,-108.887,-224.121,16.602,-121.582,2621.176,310.5696425295913
1155,1685585999.28,-152.832,155.762,154.297,-101.074,2621.18,312.94406137690015
1156,1685585999.29,-29.785,-396.484,-152.832,-25.391,2621.184,313.13132971041034
1157,1685585999.29,61.523,-750.488,-222.168,-10.254,2621.188,311.4536928932423
1158,1685585999.3,-32.715,-246.582,25.391,-70.312,2621.192,307.3453845519138
1159,1685585999.3,-145.508,-155.762,-18.066,-86.426,2621.196,312.5895012244331
1160,1685585999.3,-70.801,-376.953,-60.547,-32.227,2621.196,309.597027850138
1161,1685585999.3,68.359,-222.656,60.059,-16.113,2621.2,315.2683433785321
1162,1685585999.31,33.203,134.766,120.605,-52.734,2621.204,304.75065518403284
1163,1685585999.31,-122.559,-60.547,-8.789,-67.383,2621.208,315.15932537217753
1164,1685585999.32,-98.633,-400.879,-125.488,-26.855,2621.212,317.32825765562916
1165,1685585999.32,86.426,-434.082,-72.754,21.484,2621.216,313.1567008279999
1166,1685585999.32,86.914,-193.848,58.594,-4.395,2621.22,313.4658311673431
1167,1685585999.33,-72.266,-84.961,43.945,-49.316,2621.224,307.25733966998047
1168,1685585999.33,-113.77,-755.371,-335.449,-9.277,2621.228,299.5133273329802
1169,1685585999.34,44.434,-646.973,-199.707,31.25,2621.231,309.44214011309884
1170,1685585999.34,138.184,246.582,198.242,15.137,2621.235,311.8891335757592
1171,1685585999.34,0.977,29.785,11.23,-15.625,2621.239,313.8222671598909
1172,1685585999.35,-102.051,-302.246,-107.91,-19.531,2621.247,312.89887878556453
1173,1685585999.35,24.414,-123.535,40.039,23.438,2621.251,316.1646441795706
1174,1685585999.36,160.645,236.328,175.781,39.062,2621.255,312.15569396566815
1175,1685585999.36,41.016,-190.918,-81.055,2.93,2621.259,312.95270696976365
1176,1685585999.36,-85.938,-559.57,-210.449,-11.719,2621.263,308.5895978441354
1177,1685585999.37,8.789,-270.996,-1.465,31.25,2621.267,315.6963855478564
1178,1685585999.37,136.719,-161.133,32.715,50.293,2621.271,307.71829399766165
1179,1685585999.38,73.242,-556.641,-221.191,17.09,2621.275,308.79119277998984
1180,1685585999.38,-96.68,-725.098,-240.234,-28.809,2621.279,311.9367930858405
1181,1685585999.38,-60.547,47.363,127.93,-16.113,2621.283,313.270929943158
1182,1685585999.39,111.328,191.406,93.75,20.996,2621.287,312.1180176219459
1183,1685585999.39,-55.176,0.0,57.617,-47.852,2621.3,309.37305299516197
1184,1685585999.39,106.934,-50.781,19.043,-8.301,2621.29,313.1588074593611
1185,1685585999.39,-75.684,177.246,116.211,-21.973,2621.304,312.6444314555765
1186,1685585999.4,80.078,104.98,61.523,29.785,2621.308,309.46133558828666
1187,1685585999.4,134.277,-231.934,-93.262,15.137,2621.312,315.9932945439547
1188,1685585999.41,-12.695,-403.32,-156.25,-25.879,2621.316,315.40472065132343
1189,1685585999.41,-95.703,-388.184,-120.605,-17.09,2621.32,306.654374806283
1190,1685585999.41,36.133,-310.059,-84.473,24.902,2621.323,316.5666048339229
1191,1685585999.42,123.535,-730.469,-326.172,44.434,2621.327,313.002319480634
1192,1685585999.42,3.906,-977.539,-366.211,-13.184,2621.331,314.86676329776594
1193,1685585999.42,-110.352,-189.941,80.078,-49.316,2621.335,310.3195178518406
1194,1685585999.43,-37.598,2.441,16.602,0.0,2621.339,311.0065239126938
1195,1685585999.43,124.512,-74.707,-40.527,30.762,2621.343,308.0049006674973
1196,1685585999.44,94.238,176.27,109.375,-6.836,2621.338,316.63758390751275
1197,1685585999.44,-62.5,148.926,101.562,-45.41,2621.342,310.5173055941729
1198,1685585999.44,-55.664,-104.004,-6.836,-3.906,2621.346,315.2541962292418
1199,1685585999.45,100.098,-78.613,14.16,34.668,2621.35,309.5895891246604
1200,1685585999.45,126.953,195.312,104.98,9.277,2621.354,316.4475399542144
1201,1685585999.46,-32.715,-91.309,-61.035,-32.715,2621.358,314.6156869477689
1202,1685585999.46,-116.699,-692.383,-281.25,-29.785,2621.362,309.82813381878896
1203,1685585999.46,19.531,-604.98,-149.902,7.324,2621.365,312.2522168997445
1204,1685585999.47,120.605,83.496,135.742,5.371,2621.369,314.92581704531307
1205,1685585999.47,-3.906,190.918,138.672,-29.297,2621.373,313.83207342739536
1206,1685585999.48,-144.531,-517.09,-208.984,-29.785,2621.377,321.1347878236941
1207,1685585999.48,-53.223,-701.66,-221.191,7.324,2621.381,310.4131716259019
1208,1685585999.48,107.91,124.023,180.664,8.301,2621.39,312.0313302337866
1209,1685585999.48,34.18,123.047,73.73,-28.809,2621.394,316.66900740827737
1210,1685585999.49,-113.77,-198.73,-14.16,-38.086,2621.398,312.13253288179544
1211,1685585999.49,-46.875,-47.363,79.59,11.719,2621.402,314.11984787869767
1212,1685585999.5,96.68,-42.48,55.664,30.273,2621.405,318.2622883300843
1213,1685585999.5,43.945,-223.145,-25.391,-22.461,2621.409,313.6569159223246
1214,1685585999.5,-134.766,-764.648,-341.797,-51.27,2621.413,312.95603939609697
1215,1685585999.51,-152.832,-753.418,-266.602,-35.645,2621.417,314.0952319061496
1216,1685585999.51,30.273,-43.457,106.934,-11.719,2621.421,318.2262859190332
1217,1685585999.52,72.266,-230.957,-81.543,-14.16,2621.425,311.6212447660347
1218,1685585999.52,-74.219,-446.777,-106.934,-57.617,2621.429,316.6693986532706
1219,1685585999.52,-145.508,-9.277,114.746,-61.035,2621.433,310.7413690052492
1220,1685585999.54,-2.441,284.668,143.555,-11.719,2621.438,311.7605598096209
1221,1685585999.54,112.793,-4.395,-16.602,-0.977,2621.442,310.53834301510983
1222,1685585999.55,-2.93,-132.812,-30.273,-55.176,2621.446,310.91613087472956
1223,1685585999.55,-125.488,123.535,128.418,-77.637,2621.45,309.2042411814029
1224,1685585999.56,-33.203,223.633,128.906,-17.09,2621.454,311.2318696020318
1225,1685585999.56,99.121,-369.629,-160.645,28.809,2621.458,316.70362553735345
1226,1685585999.56,25.879,-643.066,-203.125,-16.602,2621.462,312.9365083366554
1227,1685585999.57,-114.746,-21.973,94.238,-62.988,2621.466,313.26138060428474
1228,1685585999.57,-74.707,147.949,95.703,-24.414,2621.469,312.66852732147595
1229,1685585999.58,83.984,-302.246,-27.344,27.832,2621.473,317.5917530629961
1230,1685585999.58,67.871,-381.836,-8.789,-3.418,2621.477,316.6356656381082
1231,1685585999.58,-87.402,-188.477,-13.672,-53.223,2621.481,317.6541305068168
1232,1685585999.58,-110.352,-150.879,-14.648,-29.785,2621.481,303.3608253419985
1233,1685585999.59,34.668,-337.891,-53.223,16.602,2621.485,314.5022727352676
1234,1685585999.59,96.68,-241.211,22.949,8.789,2621.489,307.4827067461793
1235,1685585999.6,-34.18,103.027,120.605,-42.48,2621.493,311.1461312461957
1236,1685585999.6,-126.953,-234.863,-86.914,-39.551,2621.497,313.6251208097825
1237,1685585999.6,-11.719,-567.383,-173.828,7.324,2621.501,315.2758105441932
1238,1685585999.61,90.82,-492.188,-64.453,9.277,2621.505,313.6407670321383
1239,1685585999.61,-11.23,-155.762,27.344,-33.691,2621.509,311.7224845103441
1240,1685585999.62,-131.836,-60.059,25.391,-51.27,2621.512,308.39752863974934
1241,1685585999.62,-73.73,-795.898,-351.074,15.625,2621.516,313.09542656099103
1242,1685585999.62,65.918,-724.121,-223.633,40.527,2621.52,312.5212905077863
1243,1685585999.63,44.434,201.172,198.73,-27.344,2621.524,314.88807108781253
1244,1685585999.63,-99.121,-81.055,-55.664,-50.293,2621.534,308.5949415461421
1245,1685585999.64,-88.867,-514.16,-213.867,-8.301,2621.538,308.0414084127117
1246,1685585999.64,73.73,-123.047,59.082,24.902,2621.542,306.0908911061299
1247,1685585999.64,96.68,269.043,178.711,5.859,2621.546,310.26712002897904
1248,1685585999.65,-55.664,-204.59,-82.52,-17.578,2621.55,317.2326790155405
1249,1685585999.65,-105.469,-763.184,-297.363,-1.465,2621.554,312.7320649984536
1250,1685585999.66,48.828,-279.297,-7.812,27.344,2621.558,311.8283667832307
1251,1685585999.66,132.812,279.785,208.496,10.254,2621.561,312.50671061022285
1252,1685585999.66,-20.508,-343.262,-141.113,-27.832,2621.565,318.27241604613954
1253,1685585999.67,-141.113,-724.121,-214.844,-37.109,2621.569,312.56361133665774
1254,1685585999.67,-4.883,110.84,162.109,-2.93,2621.573,310.0057313055423
1255,1685585999.68,12.695,-35.156,14.16,-26.855,2621.571,311.85630136491915
1256,1685585999.68,123.047,233.887,79.59,20.508,2621.577,303.8732404294739
1257,1685585999.68,-117.676,8.301,82.031,-52.246,2621.575,306.9177100878628
1258,1685585999.68,-39.551,232.422,138.184,-3.906,2621.579,309.9883045534553
1259,1685585999.69,109.863,148.926,59.082,29.297,2621.583,315.4449058389304
1260,1685585999.69,60.547,-297.363,-101.074,-0.488,2621.587,311.1740625375265
1261,1685585999.7,-98.633,-424.805,-158.203,-31.738,2621.591,317.09128664138643
1262,1685585999.7,-94.727,-352.539,-163.086,-4.395,2621.595,309.8471134042232
1263,1685585999.7,65.43,-258.301,-42.969,34.18,2621.599,309.89086962614425
1264,1685585999.71,82.52,-688.965,-281.25,27.832,2621.603,310.21868862414885
1265,1685585999.71,-85.938,-969.238,-367.188,-28.32,2621.606,309.4963892094166
1266,1685585999.71,-118.164,-125.488,93.75,-53.711,2621.61,311.6506751444634
1267,1685585999.72,33.691,11.719,2.441,1.465,2621.614,311.6375155339553
1268,1685585999.72,114.746,-184.082,-100.098,13.184,2621.618,308.1153184736249
1269,1685585999.72,6.836,119.141,100.098,-29.785,2621.622,313.318580799045
1270,1685585999.73,-99.121,188.477,118.164,-33.691,2621.626,313.2961559168187
1271,1685585999.73,-11.719,-49.316,27.344,16.113,2621.63,311.01995664061127
1272,1685585999.74,115.723,-73.73,19.531,42.969,2621.634,316.3108954036027
1273,1685585999.74,30.273,-107.91,-17.09,-6.836,2621.638,309.64188062582934
1274,1685585999.74,-121.582,-334.961,-115.234,-49.316,2621.642,312.4953143931042
1275,1685585999.75,-81.543,-640.137,-276.367,-5.371,2621.646,304.38822439621725
1276,1685585999.75,69.824,-872.559,-311.035,38.574,2621.65,317.2237160627902
1277,1685585999.76,66.406,-121.582,77.148,-12.207,2621.653,310.8434390669647
1278,1685585999.76,-89.844,145.996,81.055,-58.594,2621.657,312.39176573039765
1279,1685585999.76,-116.699,-189.453,-62.5,-44.922,2621.661,315.45330910924355
1280,1685585999.76,47.363,-11.719,53.711,-3.906,2621.661,314.47080826030964
1281,1685585999.77,111.328,257.812,135.742,-8.301,2621.665,312.976744717138
1282,1685585999.77,-50.781,75.195,21.484,-61.523,2621.669,317.1528895047901
1283,1685585999.78,-140.137,-187.5,-20.996,-52.734,2621.673,314.0075783064735
1284,1685585999.78,-4.395,-220.703,10.742,11.23,2621.677,313.57979276842246
1285,1685585999.78,101.562,-245.605,-28.809,17.09,2621.681,312.7966016162358
1286,1685585999.79,-8.789,-297.852,-82.031,-32.715,2621.685,321.74896749789644
1287,1685585999.79,-157.715,-805.176,-362.793,-36.133,2621.689,307.8456721591449
1288,1685585999.8,-80.078,-743.164,-252.441,-2.441,2621.693,310.36005873429923
1289,1685585999.8,95.703,-21.973,98.633,5.859,2621.696,309.800429030363
1290,1685585999.8,39.551,-273.438,-119.141,-24.414,2621.7,315.0730361454196
1291,1685585999.81,-116.699,-505.859,-144.531,-48.34,2621.704,316.9692266123869
1292,1685585999.81,-81.543,39.062,107.91,-30.762,2621.709,313.8350369820562
1293,1685585999.82,85.938,327.637,148.438,-1.953,2621.712,312.6015654694508
1294,1685585999.82,78.613,-17.09,-2.93,-16.113,2621.716,311.1206887591417
1295,1685585999.82,-82.52,-128.906,-15.137,-49.805,2621.72,312.09753536793016
1296,1685585999.83,-105.469,80.566,55.664,-35.645,2621.724,314.6340415086977
1297,1685585999.83,56.641,-28.32,35.645,10.254,2621.728,316.0855835196037
1298,1685585999.84,96.191,-571.777,-206.543,8.789,2621.732,316.537653617513
1299,1685585999.84,-58.594,-729.492,-272.461,-50.781,2621.736,312.82607409477134
1300,1685585999.84,-123.535,-20.508,113.281,-67.383,2621.74,314.0114085801621
1301,1685585999.85,8.789,189.941,126.953,-0.488,2621.744,311.85403525159103
1302,1685585999.85,114.258,8.789,30.762,13.672,2621.748,314.67900367090124
1303,1685585999.85,-2.441,-67.383,3.418,-43.457,2621.752,303.4378307131077
