,timestamps,TP9,AF7,AF8,TP10,Secondary Timestamp,emg_signal
0,1686015842.468,-49.316,-509.277,1.953,-35.156,117606.903,320
1,1686015842.472,-44.922,-776.855,-0.977,-22.461,117606.907,320
2,1686015842.476,-45.898,-644.043,38.086,-22.461,117606.911,320
3,1686015842.48,-47.363,-442.871,23.438,-33.203,117606.915,319
4,1686015842.484,-43.945,-620.605,-28.809,-30.273,117606.918,319
5,1686015842.488,-32.715,-933.594,-41.992,8.301,117606.922,319
6,1686015842.491,-26.855,-987.793,84.473,35.156,117606.926,317
7,1686015842.495,-40.039,-720.703,92.285,20.508,117606.93,317
8,1686015842.499,-44.434,-543.457,-5.859,4.883,117606.934,317
9,1686015842.503,-34.668,-887.207,-11.719,11.719,117606.938,317
10,1686015842.507,-38.574,-743.652,92.773,12.695,117606.942,314
11,1686015842.511,-46.387,-327.637,39.062,-2.93,117606.946,314
12,1686015842.529,-51.27,-508.301,-16.113,-4.883,117606.95,315
13,1686015842.533,-57.129,-742.676,48.828,1.465,117606.954,318
14,1686015842.537,-51.758,-577.637,14.16,4.395,117606.958,318
15,1686015842.541,-50.781,-478.516,4.395,-6.348,117606.962,318
16,1686015842.545,-55.664,-744.141,-1.953,-18.555,117606.966,318
17,1686015842.549,-47.852,-1000.0,49.805,-11.719,117606.97,319
18,1686015842.552,-38.086,-756.348,104.492,-6.348,117606.974,319
19,1686015842.556,-46.387,-351.074,16.113,-8.301,117606.978,319
20,1686015842.56,-57.129,-618.164,-25.391,-12.207,117606.981,319
21,1686015842.564,-50.781,-841.309,109.863,-11.719,117606.985,319
22,1686015842.568,-44.434,-472.168,102.051,-14.16,117606.989,319
23,1686015842.572,-41.016,-294.922,7.812,-8.789,117606.993,316
24,1686015842.572,-39.062,-604.004,-3.906,-10.742,117606.993,316
25,1686015842.576,-47.363,-718.262,37.598,-27.832,117606.997,316
26,1686015842.58,-47.363,-455.566,40.039,-27.832,117607.001,316
27,1686015842.584,-40.527,-394.531,11.23,-21.484,117607.005,316
28,1686015842.588,-47.852,-782.227,-25.879,-27.832,117607.009,314
29,1686015842.592,-54.688,-1000.0,-21.484,-36.621,117607.012,314
30,1686015842.595,-49.316,-913.574,50.293,-36.621,117607.016,314
31,1686015842.599,-45.41,-833.496,36.133,-30.762,117607.02,314
32,1686015842.603,-43.945,-942.871,-59.57,-18.555,117607.024,316
33,1686015842.607,-47.363,-1000.0,20.508,-23.926,117607.028,316
34,1686015842.611,-52.734,-662.598,107.422,-36.621,117607.032,316
35,1686015842.615,-48.34,-474.609,32.715,-33.203,117607.036,318
36,1686015842.618,-35.645,-596.68,69.336,-27.344,117607.041,318
37,1686015842.622,-43.457,-410.156,54.199,-36.621,117607.044,318
38,1686015842.626,-54.199,-368.652,0.977,-39.551,117607.048,318
39,1686015842.63,-46.875,-571.289,0.488,-27.832,117607.052,319
40,1686015842.634,-41.992,-650.879,20.02,-23.926,117607.056,319
41,1686015842.638,-57.617,-773.926,26.367,-38.086,117607.06,319
42,1686015842.641,-70.801,-796.387,49.805,-53.223,117607.064,317
43,1686015842.645,-66.895,-696.289,-20.02,-48.828,117607.068,317
44,1686015842.649,-60.059,-916.504,39.551,-43.457,117607.072,317
45,1686015842.653,-56.152,-768.555,81.543,-50.781,117607.076,317
46,1686015842.657,-56.152,-468.75,-18.066,-55.176,117607.08,315
47,1686015842.661,-55.664,-654.297,8.301,-54.688,117607.083,315
48,1686015842.662,-49.316,-687.5,76.172,-50.781,117607.083,315
49,1686015842.666,-44.434,-338.867,26.855,-51.27,117607.087,315
50,1686015842.67,-51.27,-385.254,-4.883,-55.176,117607.091,314
51,1686015842.674,-56.152,-766.113,-6.836,-57.617,117607.094,314
52,1686015842.678,-47.363,-730.469,1.465,-51.27,117607.098,314
53,1686015842.682,-47.852,-716.309,6.348,-41.992,117607.102,315
54,1686015842.685,-53.711,-892.09,6.836,-48.828,117607.106,315
55,1686015842.689,-54.688,-994.141,-78.613,-45.898,117607.11,315
56,1686015842.693,-47.363,-982.91,46.875,-28.32,117607.114,315
57,1686015842.697,-42.969,-467.285,113.77,-25.879,117607.118,315
58,1686015842.701,-51.758,-328.125,-15.137,-41.992,117607.122,317
59,1686015842.705,-58.105,-828.613,34.668,-50.293,117607.126,317
60,1686015842.709,-54.199,-736.816,91.309,-52.734,117607.132,317
61,1686015842.713,-41.992,-236.328,36.133,-43.945,117607.136,317
62,1686015842.717,-44.434,-367.188,-39.551,-41.504,117607.139,317
63,1686015842.721,-61.035,-784.18,73.73,-50.293,117607.143,317
64,1686015842.725,-59.57,-588.867,69.336,-55.176,117607.147,315
65,1686015842.729,-48.828,-614.258,-13.672,-46.387,117607.151,315
66,1686015842.732,-48.828,-797.852,0.0,-38.086,117607.155,315
67,1686015842.736,-55.176,-894.043,33.691,-43.945,117607.159,315
68,1686015842.74,-47.363,-701.172,55.176,-46.875,117607.163,313
69,1686015842.744,-37.109,-397.461,33.691,-43.457,117607.167,313
70,1686015842.748,-39.062,-476.074,18.066,-43.945,117607.171,313
71,1686015842.752,-53.711,-531.738,29.785,-47.852,117607.175,313
72,1686015842.753,-61.035,-390.137,24.414,-53.223,117607.188,313
73,1686015842.757,-57.129,-403.32,-5.371,-53.711,117607.192,313
74,1686015842.761,-48.828,-686.035,-6.348,-44.922,117607.196,313
75,1686015842.765,-43.945,-571.289,11.23,-38.086,117607.2,315
76,1686015842.769,-54.688,-528.32,-23.926,-46.387,117607.204,315
77,1686015842.773,-52.734,-815.43,4.883,-51.27,117607.208,315
78,1686015842.776,-42.48,-957.031,-62.012,-41.992,117607.212,315
79,1686015842.78,-54.199,-1000.0,-0.488,-41.016,117607.216,315
80,1686015842.784,-57.129,-514.16,85.938,-51.758,117607.22,317
81,1686015842.788,-48.34,-368.652,7.324,-49.316,117607.224,317
82,1686015842.792,-42.969,-618.164,71.777,-40.527,117607.227,317
83,1686015842.796,-40.039,-404.785,46.875,-41.016,117607.231,317
84,1686015842.812,-47.363,-232.91,-20.02,-53.711,117607.233,314
85,1686015842.816,-50.781,-476.074,-14.16,-54.688,117607.237,314
86,1686015842.82,-41.504,-659.18,44.922,-43.945,117607.241,314
87,1686015842.824,-42.969,-329.102,37.598,-40.527,117607.245,312
88,1686015842.828,-50.781,-333.984,-3.906,-47.852,117607.249,312
89,1686015842.832,-58.594,-763.184,-29.785,-58.105,117607.253,312
90,1686015842.835,-48.828,-986.816,18.555,-49.316,117607.257,313
91,1686015842.839,-42.48,-543.457,111.328,-45.41,117607.261,313
92,1686015842.843,-54.688,-232.422,7.324,-58.594,117607.264,313
93,1686015842.847,-62.988,-615.723,-14.648,-62.988,117607.268,313
94,1686015842.851,-60.059,-762.207,84.473,-58.105,117607.272,316
95,1686015842.855,-47.852,-361.816,51.27,-49.805,117607.276,316
96,1686015842.856,-41.504,-252.93,-8.301,-42.48,117607.277,316
97,1686015842.86,-54.688,-628.418,-24.902,-45.898,117607.281,316
98,1686015842.864,-59.082,-679.199,17.578,-48.34,117607.285,317
99,1686015842.868,-56.641,-313.477,41.016,-37.109,117607.288,317
100,1686015842.872,-55.664,-354.98,-8.301,-36.133,117607.292,317
101,1686015842.876,-54.688,-860.84,-66.895,-39.551,117607.296,316
102,1686015842.879,-54.688,-1000.0,10.254,-42.48,117607.3,316
103,1686015842.883,-49.316,-857.422,56.152,-46.875,117607.304,316
104,1686015842.887,-46.387,-738.281,22.949,-48.34,117607.308,316
105,1686015842.891,-54.199,-926.27,-52.734,-49.805,117607.312,313
106,1686015842.895,-60.059,-964.355,62.012,-57.129,117607.316,313
107,1686015842.899,-54.688,-444.336,86.914,-61.035,117607.32,313
108,1686015842.903,-51.27,-352.539,-19.043,-45.898,117607.324,312
109,1686015842.907,-43.457,-587.891,30.273,-42.48,117607.328,312
110,1686015842.911,-35.645,-441.406,19.043,-53.711,117607.332,312
111,1686015842.915,-32.715,-353.516,-4.395,-47.852,117607.336,313
112,1686015842.919,-29.297,-458.496,-10.254,-32.715,117607.34,313
113,1686015842.923,-31.738,-750.0,-8.789,-28.809,117607.344,313
114,1686015842.926,-43.945,-718.75,33.203,-43.457,117607.348,313
115,1686015842.93,-49.316,-387.695,24.902,-58.105,117607.352,313
116,1686015842.934,-48.34,-518.555,-28.32,-45.898,117607.356,316
117,1686015842.938,-48.828,-874.512,48.828,-33.203,117607.359,316
118,1686015842.942,-56.641,-732.91,62.5,-44.922,117607.363,316
119,1686015842.946,-64.941,-447.754,-20.996,-54.199,117607.367,316
120,1686015842.947,-60.547,-608.398,-6.836,-52.734,117607.367,316
121,1686015842.951,-53.711,-598.145,60.059,-49.805,117607.371,316
122,1686015842.955,-51.758,-418.945,-0.977,-57.617,117607.375,316
123,1686015842.959,-58.594,-459.473,-18.066,-72.266,117607.379,316
124,1686015842.963,-59.57,-712.891,-19.043,-67.871,117607.383,315
125,1686015842.967,-53.711,-799.805,-6.836,-58.594,117607.386,315
126,1686015842.97,-57.129,-704.102,23.926,-63.965,117607.39,315
127,1686015842.974,-63.477,-802.734,7.324,-76.172,117607.394,312
128,1686015842.978,-59.57,-961.914,-78.125,-70.312,117607.398,312
129,1686015842.982,-52.246,-961.426,58.105,-55.664,117607.402,312
130,1686015842.986,-49.805,-354.492,82.031,-61.035,117607.406,312
131,1686015842.99,-51.27,-257.812,-27.344,-70.801,117607.41,312
132,1686015843.008,-55.176,-811.035,27.344,-70.312,117607.429,314
133,1686015843.012,-52.246,-670.898,46.875,-56.152,117607.433,314
134,1686015843.016,-45.898,-195.801,1.953,-50.781,117607.437,316
135,1686015843.02,-49.316,-356.934,-42.48,-49.805,117607.441,316
136,1686015843.024,-61.035,-770.508,75.195,-41.504,117607.445,316
137,1686015843.028,-62.988,-713.867,58.594,-33.691,117607.448,316
138,1686015843.031,-49.805,-581.543,-9.766,-33.691,117607.452,316
139,1686015843.035,-53.711,-641.602,-16.602,-42.969,117607.456,316
140,1686015843.036,-56.152,-535.645,0.977,-57.617,117607.456,316
141,1686015843.039,-61.523,-886.23,20.02,-42.969,117607.46,316
142,1686015843.04,-50.781,-332.52,19.531,-54.199,117607.46,316
143,1686015843.043,-59.082,-562.5,54.199,-50.781,117607.464,314
144,1686015843.044,-47.363,-305.664,-7.812,-42.969,117607.464,314
145,1686015843.047,-54.199,-209.473,0.0,-51.27,117607.468,314
146,1686015843.048,-45.41,-607.422,-59.57,-39.551,117607.468,314
147,1686015843.051,-55.664,-447.754,-20.996,-45.898,117607.472,314
148,1686015843.052,-51.758,-682.129,-50.293,-48.828,117607.472,314
149,1686015843.056,-55.176,-682.129,-9.766,-61.035,117607.476,312
150,1686015843.059,-49.805,-783.203,-15.137,-52.246,117607.48,312
151,1686015843.063,-48.34,-886.23,-66.895,-40.039,117607.484,312
152,1686015843.067,-60.059,-606.445,-17.09,-49.805,117607.488,312
153,1686015843.071,-64.453,-297.852,7.812,-60.059,117607.492,312
154,1686015843.075,-60.547,-357.91,-22.461,-57.617,117607.495,312
155,1686015843.079,-56.152,-871.094,-63.477,-43.945,117607.499,312
156,1686015843.098,-55.664,-930.176,60.059,-44.434,117607.519,316
157,1686015843.102,-52.246,-359.375,28.809,-49.805,117607.523,316
158,1686015843.106,-57.129,-386.719,-59.082,-53.223,117607.526,316
159,1686015843.11,-78.613,-510.742,28.32,-58.594,117607.53,316
160,1686015843.114,-76.66,-296.387,1.953,-57.129,117607.534,316
161,1686015843.118,-66.895,-582.52,-34.18,-64.941,117607.538,316
162,1686015843.121,-61.035,-862.793,-10.742,-56.152,117607.542,316
163,1686015843.125,-58.594,-958.984,2.441,-39.062,117607.546,313
164,1686015843.128,-36.133,-164.062,22.949,-43.945,117607.56,313
165,1686015843.129,-55.176,-552.246,63.477,-46.875,117607.55,313
166,1686015843.132,-37.598,-172.363,-22.461,-46.387,117607.564,313
167,1686015843.133,-53.711,-240.723,-19.043,-60.059,117607.554,313
168,1686015843.136,-40.527,-604.004,-39.551,-49.316,117607.567,311
169,1686015843.137,-56.641,-575.195,-28.32,-58.594,117607.558,311
170,1686015843.14,-41.992,-547.363,19.043,-40.039,117607.571,311
171,1686015843.141,-45.898,-520.996,53.711,-50.293,117607.562,311
172,1686015843.144,-41.016,-317.871,3.418,-28.32,117607.575,311
173,1686015843.148,-37.109,-650.879,-38.086,-32.227,117607.579,311
174,1686015843.151,-38.574,-928.223,-29.785,-37.109,117607.583,311
175,1686015843.155,-42.48,-682.617,1.953,-34.668,117607.587,312
176,1686015843.159,-41.504,-566.406,12.695,-24.414,117607.591,312
177,1686015843.163,-42.48,-682.617,5.371,-22.461,117607.595,312
178,1686015843.167,-45.898,-901.855,-59.57,-21.484,117607.599,315
179,1686015843.171,-50.293,-1000.0,0.488,-16.113,117607.603,315
180,1686015843.173,-46.875,-539.062,82.52,-20.508,117607.606,315
181,1686015843.177,-41.504,-288.086,15.137,-25.879,117607.61,316
182,1686015843.181,-46.387,-516.602,21.484,-42.969,117607.614,316
183,1686015843.185,-45.41,-426.758,37.598,-52.246,117607.618,316
184,1686015843.189,-34.668,-281.738,36.621,-46.387,117607.622,316
185,1686015843.193,-35.156,-602.539,-6.836,-40.527,117607.626,316
186,1686015843.196,-42.48,-852.539,72.754,-36.133,117607.63,315
187,1686015843.2,-39.551,-479.004,85.449,-41.016,117607.633,315
188,1686015843.204,-40.039,-268.066,2.93,-39.551,117607.637,315
189,1686015843.208,-40.527,-419.922,6.836,-23.926,117607.641,312
190,1686015843.212,-38.086,-555.664,20.996,-18.066,117607.645,312
191,1686015843.216,-46.875,-603.516,13.184,-27.344,117607.649,312
192,1686015843.218,-48.828,-439.453,2.93,-26.367,117607.651,311
193,1686015843.222,-38.574,-548.828,1.953,-18.555,117607.655,311
194,1686015843.226,-37.598,-589.355,53.223,-27.344,117607.659,311
195,1686015843.23,-41.992,-334.961,19.043,-29.297,117607.663,311
196,1686015843.234,-38.086,-509.766,-32.715,11.23,117607.667,311
197,1686015843.238,-33.203,-916.504,-56.152,37.598,117607.67,312
198,1686015843.241,-33.691,-931.152,51.758,34.668,117607.674,312
199,1686015843.245,-35.645,-503.906,58.594,23.926,117607.678,312
200,1686015843.249,-43.945,-436.035,-9.766,3.906,117607.682,315
201,1686015843.253,-47.852,-855.469,-12.207,5.859,117607.686,315
202,1686015843.257,-46.387,-569.336,64.453,11.719,117607.69,315
203,1686015843.261,-41.504,-155.273,22.949,0.0,117607.694,316
204,1686015843.279,-42.48,-402.344,-39.062,-5.859,117607.7,314
205,1686015843.283,-42.969,-804.688,27.832,-3.418,117607.704,314
206,1686015843.287,-32.227,-587.891,52.246,4.395,117607.708,314
207,1686015843.291,-27.832,-219.727,12.695,1.953,117607.712,312
208,1686015843.295,-41.504,-427.246,-37.598,-7.324,117607.716,312
209,1686015843.299,-47.363,-946.777,32.227,-2.441,117607.72,312
210,1686015843.302,-39.551,-726.074,120.117,-0.488,117607.724,312
211,1686015843.306,-30.762,-181.152,22.949,-5.859,117607.728,312
212,1686015843.31,-32.227,-465.332,-41.992,-13.184,117607.732,312
213,1686015843.314,-41.504,-788.574,112.793,-8.301,117607.735,312
214,1686015843.318,-44.434,-435.059,77.637,0.488,117607.739,314
215,1686015843.321,-41.504,-490.723,-1.953,-15.625,117607.742,314
216,1686015843.322,-40.039,-242.676,-23.926,-2.93,117607.743,314
217,1686015843.325,-42.48,-556.152,25.391,-21.484,117607.746,314
218,1686015843.329,-30.273,-340.332,43.457,-6.836,117607.749,316
219,1686015843.333,-22.949,-304.688,18.555,4.883,117607.753,316
220,1686015843.337,-32.227,-727.539,-41.992,-5.371,117607.757,316
221,1686015843.341,-40.527,-954.102,-12.695,-20.996,117607.761,316
222,1686015843.344,-40.039,-828.613,42.969,-26.367,117607.765,316
223,1686015843.348,-39.551,-760.742,12.207,-25.391,117607.769,316
224,1686015843.352,-41.504,-916.016,-91.309,-16.602,117607.773,316
225,1686015843.356,-50.293,-1000.0,9.766,-24.902,117607.777,316
226,1686015843.36,-57.617,-550.781,96.191,-36.621,117607.781,314
227,1686015843.364,-41.016,-341.797,-4.883,-14.16,117607.785,314
228,1686015843.368,-23.926,-537.109,61.035,-4.883,117607.789,314
229,1686015843.372,-43.457,-378.418,61.523,-36.133,117607.793,312
230,1686015843.376,-54.199,-419.434,-30.273,-51.27,117607.797,312
231,1686015843.38,-38.574,-523.926,9.766,-34.18,117607.8,312
232,1686015843.384,-23.926,-476.562,37.598,-21.484,117607.804,312
233,1686015843.388,-29.785,-600.098,-2.441,-14.648,117607.808,312
234,1686015843.391,-43.457,-769.043,26.855,-27.832,117607.812,312
235,1686015843.395,-50.293,-816.406,0.977,-45.41,117607.816,312
236,1686015843.399,-54.199,-960.449,15.137,-41.504,117607.82,314
237,1686015843.403,-55.664,-565.43,107.422,-46.875,117607.824,314
238,1686015843.407,-49.316,-282.227,10.742,-49.805,117607.828,314
239,1686015843.411,-44.434,-615.723,1.465,-49.316,117607.832,315
240,1686015843.411,-34.668,-528.32,53.711,-46.387,117607.832,315
241,1686015843.415,-28.809,-202.148,23.438,-39.551,117607.836,315
242,1686015843.419,-39.062,-278.809,-0.977,-47.852,117607.84,315
243,1686015843.423,-41.992,-644.043,-10.254,-48.828,117607.843,315
244,1686015843.427,-29.785,-626.953,16.602,-35.156,117607.847,314
245,1686015843.431,-22.949,-583.008,26.855,-27.832,117607.851,314
246,1686015843.434,-30.273,-724.121,17.09,-37.109,117607.855,314
247,1686015843.438,-35.645,-922.852,-66.406,-37.598,117607.859,314
248,1686015843.442,-31.738,-1000.0,13.184,-24.414,117607.863,311
249,1686015843.446,-27.832,-650.391,90.82,-24.414,117607.867,311
250,1686015843.45,-34.668,-416.504,24.902,-22.949,117607.871,311
251,1686015843.454,-42.48,-759.766,55.176,-32.227,117607.875,309
252,1686015843.46,-40.039,-549.316,70.312,-40.527,117607.881,309
253,1686015843.464,-34.18,-175.293,20.508,-34.18,117607.885,309
254,1686015843.468,-35.645,-366.211,-12.695,-33.691,117607.889,310
255,1686015843.472,-37.109,-738.77,75.684,-32.227,117607.893,310
256,1686015843.476,-37.598,-509.277,62.5,-33.691,117607.897,310
257,1686015843.48,-28.32,-504.883,1.465,-26.367,117607.901,312
258,1686015843.483,-22.461,-769.043,13.184,-12.695,117607.905,312
259,1686015843.487,-34.18,-917.48,18.555,-20.02,117607.909,312
260,1686015843.491,-40.527,-572.754,54.199,-35.156,117607.913,312
261,1686015843.495,-32.715,-252.93,6.348,-28.809,117607.916,312
262,1686015843.499,-25.391,-438.965,39.551,-19.531,117607.92,312
263,1686015843.503,-30.273,-543.945,44.434,-25.879,117607.924,312
264,1686015843.531,-41.504,-587.402,9.766,-34.668,117607.952,307
265,1686015843.535,-33.691,-412.109,20.02,-24.414,117607.956,307
266,1686015843.539,-22.949,-553.223,-2.93,-18.555,117607.959,309
267,1686015843.543,-31.25,-543.457,30.762,-33.691,117607.963,309
268,1686015843.547,-39.062,-428.223,18.066,-35.645,117607.967,309
269,1686015843.551,-36.621,-715.82,19.531,-31.738,117607.971,316
270,1686015843.554,-36.133,-917.969,-31.738,-23.438,117607.975,316
271,1686015843.558,-35.156,-1000.0,-1.465,-9.277,117607.979,316
272,1686015843.561,-29.297,-150.879,-2.93,-36.621,117607.982,316
273,1686015843.562,-40.527,-696.777,110.352,-21.484,117607.983,325
274,1686015843.565,-42.48,-445.312,-16.602,-41.992,117607.985,325
275,1686015843.566,-43.457,-447.754,31.25,-29.785,117607.987,325
276,1686015843.569,-36.133,-806.641,22.949,-38.086,117607.989,325
277,1686015843.57,-33.203,-583.984,50.781,-21.484,117607.991,325
278,1686015843.573,-32.227,-455.566,60.547,-29.297,117607.993,325
279,1686015843.574,-26.367,-312.988,53.711,-26.855,117607.995,325
280,1686015843.577,-47.363,-213.867,-4.395,-38.086,117607.997,325
281,1686015843.581,-50.293,-702.637,-26.367,-48.828,117608.001,334
282,1686015843.584,-46.387,-850.586,117.188,-45.41,117608.005,334
283,1686015843.588,-39.062,-377.93,99.121,-37.598,117608.009,334
284,1686015843.592,-28.32,-370.605,-49.805,-30.762,117608.013,341
285,1686015843.596,-39.062,-729.492,9.277,-41.504,117608.017,341
286,1686015843.6,-40.527,-709.473,74.707,-44.922,117608.021,341
287,1686015843.604,-27.344,-416.992,32.715,-27.344,117608.024,347
288,1686015843.607,-31.738,-238.77,4.883,-23.438,117608.027,347
289,1686015843.611,-43.945,-618.652,-36.133,-31.738,117608.03,347
290,1686015843.615,-41.504,-832.031,109.863,-30.273,117608.034,347
291,1686015843.619,-36.133,-353.027,103.516,-23.438,117608.038,354
292,1686015843.623,-33.691,-353.516,-33.691,-22.461,117608.042,354
293,1686015843.627,-37.109,-844.727,-51.27,-32.715,117608.046,354
294,1686015843.63,-35.645,-947.754,32.227,-46.875,117608.05,354
295,1686015843.634,-29.785,-754.883,67.383,-41.504,117608.054,362
296,1686015843.638,-25.879,-649.902,5.371,-36.621,117608.058,362
297,1686015843.642,-33.203,-903.32,-44.434,-34.668,117608.062,362
298,1686015843.646,-44.434,-860.352,130.371,-40.039,117608.066,362
299,1686015843.65,-36.621,-334.961,105.469,-50.293,117608.07,368
300,1686015843.653,-25.879,-272.949,-2.93,-41.992,117608.074,368
301,1686015843.657,-33.691,-479.004,69.336,-45.898,117608.078,368
302,1686015843.661,-43.945,-396.973,44.434,-57.617,117608.082,369
303,1686015843.665,-42.969,-272.461,13.184,-57.129,117608.085,369
304,1686015843.669,-39.062,-364.746,0.977,-48.34,117608.089,369
305,1686015843.673,-32.715,-701.172,20.02,-46.875,117608.093,368
306,1686015843.676,-34.668,-658.203,56.641,-60.059,117608.097,368
307,1686015843.68,-42.48,-527.344,26.855,-61.523,117608.101,368
308,1686015843.684,-37.598,-738.77,-6.348,-42.48,117608.105,368
309,1686015843.688,-34.18,-953.125,33.691,-34.18,117608.109,368
310,1686015843.692,-36.621,-564.453,115.234,-53.711,117608.113,366
311,1686015843.696,-42.48,-653.809,4.883,-71.777,117608.117,366
312,1686015843.696,-45.41,-338.379,21.973,-74.707,117608.117,366
313,1686015843.7,-37.598,-484.375,75.195,-64.453,117608.121,366
314,1686015843.704,-43.457,-209.473,43.457,-62.5,117608.125,365
315,1686015843.708,-39.062,-346.68,-2.93,-55.664,117608.129,365
316,1686015843.712,-25.879,-749.512,-14.648,-47.852,117608.132,365
317,1686015843.716,-28.32,-779.297,24.414,-55.176,117608.136,366
318,1686015843.719,-42.969,-653.809,32.227,-64.941,117608.14,366
319,1686015843.723,-48.828,-738.77,15.137,-63.477,117608.144,366
320,1686015843.727,-40.039,-931.152,-65.43,-45.898,117608.148,366
321,1686015843.731,-31.738,-1000.0,68.359,-31.25,117608.152,366
322,1686015843.735,-30.273,-615.723,110.84,-33.691,117608.156,366
323,1686015843.739,-28.32,-448.242,-15.625,-25.391,117608.16,366
324,1686015843.744,-32.715,-812.988,56.641,-28.809,117608.166,363
325,1686015843.748,-21.484,-542.969,95.703,-32.227,117608.17,363
326,1686015843.752,-20.508,-203.613,17.578,-23.438,117608.174,363
327,1686015843.756,-38.086,-379.395,3.418,-27.344,117608.178,359
328,1686015843.76,-34.18,-632.324,24.414,-34.18,117608.182,359
329,1686015843.764,-23.438,-770.02,20.02,-41.504,117608.186,359
330,1686015843.767,-10.742,-581.543,55.664,-34.668,117608.19,359
331,1686015843.771,-7.324,-531.25,-6.836,-27.832,117608.193,356
332,1686015843.775,-18.066,-903.32,30.273,-36.133,117608.197,356
333,1686015843.779,-21.484,-566.406,107.91,-36.133,117608.201,356
334,1686015843.783,-15.625,-234.863,32.227,-22.949,117608.205,356
335,1686015843.787,-18.066,-432.129,14.16,-16.602,117608.209,356
336,1686015843.788,-29.785,-663.574,19.531,-23.438,117608.21,356
337,1686015843.792,-27.832,-614.746,59.082,-30.762,117608.214,356
338,1686015843.796,-8.301,-466.309,17.09,-21.484,117608.218,356
339,1686015843.8,-9.277,-687.5,-14.648,-24.414,117608.221,356
340,1686015843.804,-26.855,-665.527,42.48,-42.969,117608.225,356
341,1686015843.808,-28.32,-731.934,39.062,-41.016,117608.229,356
342,1686015843.811,-16.113,-821.289,26.855,-29.785,117608.233,356
343,1686015843.815,-17.09,-921.387,-65.918,-20.508,117608.237,354
344,1686015843.819,-23.926,-1000.0,-5.859,-10.254,117608.241,354
345,1686015843.823,-27.344,-636.719,108.398,-25.391,117608.245,354
346,1686015843.827,-26.855,-431.641,43.945,-32.227,117608.249,349
347,1686015843.831,-21.973,-588.867,91.797,-26.367,117608.253,349
348,1686015843.834,-20.508,-350.586,66.406,-30.762,117608.255,349
349,1686015843.838,-20.996,-238.281,10.742,-32.227,117608.259,349
350,1686015843.842,-17.578,-509.277,-2.441,-27.832,117608.263,343
351,1686015843.846,-15.137,-766.113,47.852,-22.461,117608.267,343
352,1686015843.85,-17.578,-458.496,45.41,-23.926,117608.271,343
353,1686015843.854,-26.855,-536.133,1.953,-30.273,117608.275,339
354,1686015843.857,-29.297,-869.629,0.488,-22.461,117608.279,339
355,1686015843.861,-21.484,-958.984,7.324,-10.254,117608.283,339
356,1686015843.865,-20.02,-583.008,122.559,-14.16,117608.286,337
357,1686015843.869,-24.902,-239.258,35.645,-26.855,117608.29,337
358,1686015843.873,-27.344,-522.949,-21.973,-37.598,117608.294,337
359,1686015843.877,-28.32,-556.641,59.57,-35.645,117608.298,337
360,1686015843.877,-25.391,-256.348,45.41,-28.32,117608.311,337
361,1686015843.881,-24.414,-238.281,-9.277,-29.297,117608.315,337
362,1686015843.885,-31.738,-652.344,-21.973,-28.809,117608.319,336
363,1686015843.889,-31.25,-595.215,20.02,-23.438,117608.323,336
364,1686015843.893,-19.043,-373.047,5.371,-16.113,117608.327,336
365,1686015843.897,-17.09,-687.988,0.977,-12.695,117608.331,333
366,1686015843.9,-28.809,-938.477,-80.566,-23.438,117608.335,333
367,1686015843.904,-35.645,-1000.0,15.625,-29.785,117608.339,333
368,1686015843.908,-36.133,-611.816,132.812,-25.879,117608.342,327
369,1686015843.912,-31.738,-286.133,-7.324,-9.277,117608.346,327
370,1686015843.916,-36.621,-800.781,-38.086,-8.789,117608.35,327
371,1686015843.92,-39.551,-646.484,44.922,-24.902,117608.354,327
372,1686015843.939,-29.785,-209.961,26.855,-18.555,117608.372,319
373,1686015843.943,-31.25,-344.727,-25.879,-17.578,117608.376,319
374,1686015843.947,-33.691,-623.535,26.367,-31.25,117608.38,319
375,1686015843.951,-33.691,-518.066,20.02,-35.645,117608.384,319
376,1686015843.955,-29.297,-355.957,-6.836,-25.391,117608.388,319
377,1686015843.959,-26.367,-614.746,-22.949,-10.254,117608.392,319
378,1686015843.962,-32.227,-937.988,14.648,-5.371,117608.396,319
379,1686015843.966,-41.992,-634.766,40.527,-20.508,117608.4,317
380,1686015843.97,-36.621,-539.062,-39.062,-21.484,117608.404,317
381,1686015843.974,-26.855,-724.121,1.953,-17.578,117608.408,317
382,1686015843.978,-31.738,-558.105,42.48,-22.949,117608.411,314
383,1686015843.982,-38.086,-417.48,-20.508,-30.273,117608.403,314
384,1686015843.982,-38.574,-374.023,18.066,-27.344,117608.415,314
385,1686015843.986,-30.762,-691.406,-7.812,-20.996,117608.407,314
386,1686015843.99,-28.32,-665.039,65.43,-20.02,117608.411,314
387,1686015843.994,-37.109,-350.586,20.02,-25.879,117608.415,309
388,1686015843.998,-39.551,-521.484,-38.086,-25.879,117608.419,309
389,1686015844.002,-27.344,-892.578,-44.922,-23.438,117608.422,309
390,1686015844.005,-24.902,-868.652,-2.93,-18.555,117608.426,305
391,1686015844.009,-39.551,-654.297,39.062,-30.762,117608.43,305
392,1686015844.013,-46.875,-615.234,-32.715,-39.551,117608.434,305
393,1686015844.017,-44.922,-928.711,-59.082,-25.391,117608.438,303
394,1686015844.021,-40.039,-823.73,78.125,-16.113,117608.442,303
395,1686015844.025,-35.645,-557.617,46.387,-18.555,117608.446,303
396,1686015844.03,-37.598,-570.312,-52.246,-26.367,117608.45,303
397,1686015844.034,-45.41,-913.086,-12.207,-22.949,117608.454,305
398,1686015844.038,-41.992,-724.121,119.141,-16.602,117608.458,305
399,1686015844.042,-33.691,-287.598,29.297,-6.348,117608.461,305
400,1686015844.046,-32.227,-455.566,-41.504,13.184,117608.465,304
401,1686015844.05,-35.645,-888.672,11.719,16.602,117608.469,304
402,1686015844.053,-29.297,-728.516,55.664,20.996,117608.473,304
403,1686015844.057,-23.926,-265.625,17.578,20.996,117608.477,304
404,1686015844.061,-39.062,-540.527,-42.969,7.324,117608.481,302
405,1686015844.065,-41.504,-943.848,54.688,8.301,117608.485,302
406,1686015844.069,-30.762,-559.57,88.379,7.812,117608.489,302
407,1686015844.073,-33.203,-258.789,12.695,-0.977,117608.493,302
408,1686015844.073,-35.645,-526.367,-7.812,-9.277,117608.495,302
409,1686015844.077,-30.762,-803.223,-4.395,-10.742,117608.499,298
410,1686015844.081,-33.691,-676.27,51.758,-4.395,117608.503,298
411,1686015844.085,-28.32,-358.398,23.926,3.906,117608.507,298
412,1686015844.089,-26.367,-699.219,-58.594,0.488,117608.511,297
413,1686015844.093,-39.062,-1000.0,24.902,-11.719,117608.515,297
414,1686015844.096,-39.062,-874.512,77.637,-17.578,117608.519,297
415,1686015844.1,-33.203,-757.812,31.25,-17.578,117608.523,299
416,1686015844.104,-33.691,-916.992,-78.125,-6.348,117608.527,299
417,1686015844.108,-34.668,-913.086,69.824,-5.859,117608.531,299
418,1686015844.112,-37.598,-503.418,74.219,-16.113,117608.534,299
419,1686015844.116,-34.668,-429.199,-7.812,-13.672,117608.538,301
420,1686015844.119,-32.715,-589.355,90.332,-10.254,117608.543,301
421,1686015844.123,-41.992,-420.898,41.992,-12.207,117608.546,301
422,1686015844.127,-40.039,-357.422,-9.766,-11.719,117608.55,303
423,1686015844.131,-39.551,-594.727,1.465,-8.301,117608.554,303
424,1686015844.135,-34.668,-840.82,14.16,-11.23,117608.558,303
425,1686015844.139,-23.438,-866.699,16.602,-14.16,117608.562,303
426,1686015844.142,-28.809,-741.699,53.223,-29.297,117608.566,303
427,1686015844.146,-27.832,-655.762,-14.16,-36.621,117608.57,301
428,1686015844.15,-20.996,-930.664,-12.695,-17.578,117608.574,301
429,1686015844.154,-27.344,-605.957,118.652,-20.02,117608.578,301
430,1686015844.158,-34.18,-323.242,21.484,-39.551,117608.582,300
431,1686015844.162,-35.156,-627.441,-19.043,-38.574,117608.586,300
432,1686015844.162,-26.367,-569.336,61.035,-23.926,117608.583,300
433,1686015844.166,-19.531,-286.133,21.973,-13.672,117608.587,300
434,1686015844.17,-26.367,-352.051,-14.648,-19.531,117608.591,301
435,1686015844.174,-25.879,-734.375,-26.855,-27.344,117608.595,301
436,1686015844.178,-21.484,-785.645,-14.648,-26.367,117608.599,301
437,1686015844.182,-28.809,-755.371,4.395,-22.461,117608.602,301
438,1686015844.185,-33.203,-885.742,-0.488,-25.391,117608.606,305
439,1686015844.189,-32.227,-973.633,-104.98,-24.902,117608.61,305
440,1686015844.193,-31.738,-1000.0,-13.672,-18.066,117608.614,305
441,1686015844.197,-26.855,-601.074,120.117,-28.32,117608.618,305
442,1686015844.201,-29.297,-385.742,19.043,-37.109,117608.622,309
443,1686015844.205,-33.203,-729.004,52.734,-42.969,117608.626,309
444,1686015844.209,-28.32,-541.504,61.523,-28.809,117608.63,309
445,1686015844.213,-9.766,-283.203,2.441,4.395,117608.634,312
446,1686015844.217,-11.719,-501.465,-26.855,-8.301,117608.638,312
447,1686015844.221,-33.203,-742.188,21.484,-37.109,117608.642,312
448,1686015844.225,-32.227,-606.934,30.762,-35.645,117608.646,312
449,1686015844.229,-20.508,-707.52,-2.441,-21.484,117608.65,312
450,1686015844.232,-14.16,-839.355,-13.672,-12.207,117608.654,312
451,1686015844.236,-26.367,-925.781,19.531,-22.461,117608.657,312
452,1686015844.24,-43.457,-720.215,57.129,-34.18,117608.661,313
453,1686015844.244,-43.945,-653.32,-7.812,-34.668,117608.665,313
454,1686015844.248,-36.133,-822.754,23.438,-28.32,117608.669,313
455,1686015844.252,-40.039,-729.004,70.312,-38.574,117608.673,318
456,1686015844.252,-38.086,-529.297,36.133,-45.898,117608.673,318
457,1686015844.256,-26.855,-538.574,14.648,-33.203,117608.677,318
458,1686015844.26,-16.113,-720.215,-0.488,-26.855,117608.681,318
459,1686015844.264,-19.043,-583.496,17.578,-32.715,117608.685,318
460,1686015844.268,-30.273,-512.695,5.371,-36.133,117608.689,325
461,1686015844.272,-29.785,-851.562,-0.977,-34.668,117608.693,325
462,1686015844.275,-26.367,-1000.0,-64.941,-24.414,117608.697,325
463,1686015844.279,-23.438,-985.84,21.484,-15.625,117608.701,330
464,1686015844.283,-28.32,-600.586,79.102,-36.621,117608.705,330
465,1686015844.287,-37.109,-516.602,19.531,-45.898,117608.708,330
466,1686015844.291,-34.668,-744.141,79.102,-41.504,117608.712,330
467,1686015844.295,-34.668,-623.047,40.039,-47.852,117608.716,330
468,1686015844.3,-35.645,-624.512,16.113,-42.48,117608.747,333
469,1686015844.304,-36.133,-648.926,-9.766,-35.156,117608.751,333
470,1686015844.308,-34.668,-889.648,1.953,-23.438,117608.755,335
471,1686015844.312,-26.367,-631.348,67.383,-16.113,117608.759,335
472,1686015844.316,-18.555,-375.977,25.879,-26.367,117608.763,335
473,1686015844.32,-24.414,-762.207,-23.926,-32.227,117608.767,335
474,1686015844.323,-26.367,-997.07,41.016,-24.902,117608.771,335
475,1686015844.327,-16.602,-588.867,94.727,-26.855,117608.774,335
476,1686015844.331,-22.461,-346.68,-3.418,-41.504,117608.778,335
477,1686015844.335,-25.879,-665.039,-8.301,-53.223,117608.782,335
478,1686015844.339,-29.297,-720.703,51.758,-54.688,117608.786,338
479,1686015844.343,-32.227,-448.73,28.809,-51.758,117608.79,338
480,1686015844.358,-24.414,-389.648,-13.672,-41.992,117608.778,343
481,1686015844.362,-23.438,-659.18,-43.945,-39.062,117608.782,345
482,1686015844.366,-28.32,-896.484,-7.324,-45.41,117608.786,345
483,1686015844.37,-25.879,-721.191,62.5,-39.551,117608.789,345
484,1686015844.374,-21.973,-541.992,2.93,-25.391,117608.793,345
485,1686015844.378,-29.297,-890.137,-87.891,-22.949,117608.797,344
486,1686015844.381,-43.945,-1000.0,12.695,-28.809,117608.801,344
487,1686015844.385,-41.504,-728.516,113.281,-27.832,117608.805,344
488,1686015844.389,-22.461,-431.152,3.418,-15.625,117608.809,344
489,1686015844.393,-20.02,-792.969,-47.852,-19.043,117608.813,342
490,1686015844.397,-29.785,-685.059,14.648,-34.18,117608.817,342
491,1686015844.401,-24.414,-412.109,3.418,-31.738,117608.821,342
492,1686015844.404,-21.484,-544.922,-21.484,-19.043,117608.825,341
493,1686015844.408,-23.438,-841.797,48.828,-16.602,117608.829,341
494,1686015844.412,-23.438,-683.594,55.664,-29.297,117608.833,341
495,1686015844.416,-23.926,-478.516,-5.859,-40.527,117608.837,341
496,1686015844.42,-15.625,-617.676,10.254,-38.086,117608.841,342
497,1686015844.424,-9.766,-833.984,1.953,-34.668,117608.845,342
498,1686015844.427,-15.137,-934.57,2.93,-36.621,117608.848,342
499,1686015844.431,-22.949,-795.898,57.129,-46.875,117608.852,343
500,1686015844.435,-17.578,-741.211,-13.672,-39.551,117608.856,343
501,1686015844.439,-14.648,-969.727,11.23,-13.672,117608.86,343
502,1686015844.443,-26.367,-675.781,114.746,-21.973,117608.864,342
503,1686015844.447,-26.855,-450.195,20.996,-30.273,117608.868,342
504,1686015844.448,-20.02,-688.965,-4.883,-20.508,117608.868,342
505,1686015844.452,-17.578,-619.629,43.945,-19.531,117608.872,342
506,1686015844.456,-23.926,-418.457,24.902,-21.973,117608.876,342
507,1686015844.46,-24.414,-489.746,9.766,-19.531,117608.88,337
508,1686015844.464,-5.859,-839.355,-9.277,-1.953,117608.884,337
509,1686015844.468,-15.137,-928.223,-5.859,-15.137,117608.888,337
510,1686015844.471,-42.969,-823.242,9.766,-58.594,117608.892,332
511,1686015844.475,-47.852,-912.598,8.301,-70.312,117608.896,332
512,1686015844.479,-45.41,-988.77,-81.055,-46.387,117608.9,332
513,1686015844.483,-56.152,-1000.0,4.395,-38.086,117608.904,332
514,1686015844.487,-66.895,-603.516,107.91,-59.57,117608.908,332
515,1686015844.491,-69.824,-450.684,9.277,-64.453,117608.911,327
516,1686015844.495,-69.824,-762.695,59.082,-63.965,117608.915,327
517,1686015844.499,-61.035,-544.434,53.223,-62.5,117608.919,327
518,1686015844.503,-48.34,-285.156,5.859,-45.898,117608.923,323
519,1686015844.507,-45.41,-447.754,-8.301,-50.781,117608.927,323
520,1686015844.511,-51.27,-789.062,-8.789,-55.664,117608.931,323
521,1686015844.515,-43.945,-926.27,3.906,-39.551,117608.935,315
522,1686015844.518,-34.18,-759.277,18.066,-28.809,117608.939,315
523,1686015844.522,-39.551,-630.371,-36.621,-34.668,117608.943,315
524,1686015844.526,-47.363,-905.762,17.09,-41.504,117608.946,315
525,1686015844.53,-49.316,-708.008,79.102,-44.434,117608.95,306
526,1686015844.534,-36.133,-630.859,11.23,-38.086,117608.954,306
527,1686015844.537,-39.551,-759.766,83.984,-43.945,117608.961,306
528,1686015844.538,-34.18,-821.289,27.344,-38.086,117608.958,306
529,1686015844.541,-32.227,-517.578,50.781,-34.18,117608.965,296
530,1686015844.545,-26.855,-469.238,4.883,-28.809,117608.969,296
531,1686015844.549,-25.391,-655.273,-15.137,-29.785,117608.973,296
532,1686015844.553,-24.902,-734.375,-40.527,-27.832,117608.977,288
533,1686015844.557,-23.438,-865.234,-1.465,-29.785,117608.981,288
534,1686015844.56,-16.113,-912.109,38.086,-24.902,117608.985,288
535,1686015844.564,-13.184,-963.379,-66.406,-12.695,117608.988,288
536,1686015844.568,-19.531,-1000.0,6.836,-12.207,117608.992,288
537,1686015844.572,-25.879,-598.633,72.266,-27.344,117608.996,283
538,1686015844.576,-19.043,-497.07,9.277,-26.367,117609.0,283
539,1686015844.58,-9.766,-690.43,75.684,-13.184,117609.004,283
540,1686015844.585,-18.555,-584.473,37.598,-18.555,117609.011,281
541,1686015844.589,-25.879,-628.418,10.254,-36.621,117609.015,281
542,1686015844.593,-28.32,-672.363,-2.93,-36.133,117609.019,281
543,1686015844.597,-22.949,-780.273,64.941,-23.926,117609.023,278
544,1686015844.601,-16.113,-523.438,68.848,-28.32,117609.027,278
545,1686015844.605,-24.902,-727.051,-16.113,-34.668,117609.031,278
546,1686015844.608,-31.738,-989.258,-8.789,-33.203,117609.035,278
547,1686015844.612,-19.043,-959.961,29.785,-19.531,117609.039,272
548,1686015844.616,-13.672,-565.918,89.355,-18.066,117609.043,272
549,1686015844.62,-19.531,-313.477,9.766,-33.691,117609.046,272
550,1686015844.624,-25.391,-676.758,-4.395,-39.551,117609.05,265
551,1686015844.627,-18.555,-370.117,35.645,-31.738,117609.061,265
552,1686015844.628,-24.902,-695.801,49.805,-31.738,117609.054,265
553,1686015844.631,-21.973,-361.816,-7.324,-38.574,117609.064,265
554,1686015844.635,-36.621,-756.836,-21.973,-47.363,117609.068,265
555,1686015844.639,-35.156,-883.789,4.883,-40.527,117609.072,259
556,1686015844.643,-26.855,-715.82,13.184,-21.973,117609.076,259
557,1686015844.647,-28.809,-782.227,-1.465,-25.879,117609.08,259
558,1686015844.65,-34.668,-952.637,-92.773,-29.785,117609.084,259
559,1686015844.654,-39.551,-1000.0,21.484,-23.926,117609.088,258
560,1686015844.658,-30.762,-658.691,232.422,-13.184,117609.092,258
561,1686015844.662,-23.438,-370.117,58.594,-6.836,117609.096,258
562,1686015844.666,-46.387,-684.082,28.809,-27.832,117609.1,258
563,1686015844.67,-55.176,-616.699,57.617,-36.621,117609.104,258
564,1686015844.688,-44.434,-438.477,11.719,-21.484,117609.112,259
565,1686015844.692,-40.039,-511.719,9.277,-6.836,117609.116,259
566,1686015844.696,-37.598,-703.613,44.922,-10.742,117609.12,257
567,1686015844.7,-36.133,-568.848,46.387,-14.648,117609.124,257
568,1686015844.704,-28.32,-457.52,20.508,-2.93,117609.128,257
569,1686015844.708,-19.043,-734.863,14.648,9.277,117609.132,255
570,1686015844.711,-19.531,-1000.0,48.828,7.812,117609.135,255
571,1686015844.715,-22.461,-874.023,102.051,6.348,117609.139,255
572,1686015844.719,-19.531,-515.625,54.688,27.344,117609.143,255
573,1686015844.723,-20.508,-647.461,0.488,38.574,117609.147,256
574,1686015844.727,-24.414,-818.848,119.141,35.645,117609.151,256
575,1686015844.731,-29.297,-533.691,94.238,27.832,117609.155,256
576,1686015844.747,-23.438,-498.047,4.883,22.461,117609.169,261
577,1686015844.751,-18.555,-709.961,33.203,27.344,117609.173,261
578,1686015844.755,-20.02,-625.0,51.758,29.297,117609.177,261
579,1686015844.759,-18.555,-458.008,37.109,19.043,117609.181,261
580,1686015844.763,-21.973,-601.074,0.0,15.137,117609.185,262
581,1686015844.767,-16.602,-925.781,4.395,25.391,117609.189,262
582,1686015844.77,-9.766,-965.82,39.551,25.879,117609.193,262
583,1686015844.774,-16.602,-769.531,56.641,13.672,117609.196,262
584,1686015844.778,-23.926,-729.98,10.742,2.93,117609.2,261
585,1686015844.778,-16.113,-505.371,14.648,11.23,117609.201,261
586,1686015844.782,-18.555,-965.332,-66.406,3.906,117609.204,261
587,1686015844.782,-25.391,-776.367,76.172,10.254,117609.205,261
588,1686015844.786,-13.672,-498.047,82.52,16.602,117609.209,261
589,1686015844.786,-9.766,-1000.0,39.551,15.137,117609.208,261
590,1686015844.79,-5.371,-312.988,4.883,21.484,117609.213,259
591,1686015844.79,-8.789,-583.984,122.559,18.066,117609.212,259
592,1686015844.794,-19.043,-530.273,-0.488,9.766,117609.217,259
593,1686015844.798,-24.414,-957.031,14.648,0.0,117609.221,259
594,1686015844.801,-12.207,-892.09,66.895,3.418,117609.225,259
595,1686015844.805,-1.953,-450.195,43.945,8.789,117609.229,260
596,1686015844.809,-6.836,-591.309,-26.855,5.371,117609.233,260
597,1686015844.813,-22.949,-824.219,42.969,-10.742,117609.236,260
598,1686015844.817,-16.602,-640.137,37.598,-11.23,117609.24,264
599,1686015844.821,-12.207,-695.801,21.973,-2.441,117609.244,264
600,1686015844.822,-19.043,-857.91,-25.391,-4.395,117609.244,264
601,1686015844.826,-20.508,-979.004,6.348,-16.113,117609.248,264
602,1686015844.83,-17.09,-711.426,105.469,-15.625,117609.252,264
603,1686015844.834,-8.301,-430.176,41.992,-2.441,117609.256,269
604,1686015844.838,-13.184,-694.824,-21.484,-4.883,117609.26,269
605,1686015844.842,-24.414,-944.824,-7.812,-21.973,117609.264,269
606,1686015844.845,-26.855,-946.777,28.32,-25.391,117609.268,271
607,1686015844.849,-20.508,-871.094,33.203,-17.578,117609.272,271
608,1686015844.853,-11.23,-940.43,-78.125,-3.906,117609.276,271
609,1686015844.857,-13.672,-1000.0,13.184,-3.418,117609.28,271
610,1686015844.861,-19.531,-588.379,75.195,-19.531,117609.283,271
611,1686015844.865,-16.113,-458.008,-10.254,-24.414,117609.287,271
612,1686015844.87,-7.812,-626.465,63.965,-14.16,117609.297,271
613,1686015844.874,-8.789,-620.117,24.414,-22.949,117609.301,272
614,1686015844.878,-18.555,-677.246,9.766,-44.434,117609.305,272
615,1686015844.882,-19.043,-628.906,5.859,-41.992,117609.309,272
616,1686015844.886,-12.207,-757.324,66.895,-30.762,117609.313,276
617,1686015844.89,-11.719,-833.984,57.617,-29.785,117609.317,276
618,1686015844.893,-17.578,-759.766,20.996,-33.691,117609.321,276
619,1686015844.897,-15.137,-683.594,-36.621,-26.855,117609.325,276
620,1686015844.901,-6.836,-900.879,18.066,-12.207,117609.328,282
621,1686015844.905,-15.625,-520.508,81.543,-16.602,117609.332,282
622,1686015844.909,-24.414,-312.5,-29.297,-31.25,117609.336,282
623,1686015844.913,-18.555,-691.895,2.441,-34.668,117609.34,282
624,1686015844.913,-11.719,-635.254,47.852,-27.344,117609.333,282
625,1686015844.917,-15.137,-332.031,17.09,-24.414,117609.337,287
626,1686015844.921,-21.973,-371.094,2.441,-30.273,117609.341,287
627,1686015844.925,-20.02,-780.273,-42.969,-40.527,117609.345,287
628,1686015844.929,-18.555,-925.781,-14.16,-37.598,117609.349,288
629,1686015844.933,-18.066,-816.895,36.621,-24.902,117609.352,288
630,1686015844.936,-19.531,-848.145,4.883,-30.762,117609.356,288
631,1686015844.94,-27.832,-960.938,-91.309,-34.18,117609.36,289
632,1686015844.944,-26.367,-1000.0,-4.395,-19.531,117609.364,289
633,1686015844.948,-14.16,-633.301,135.742,-8.789,117609.368,289
634,1686015844.952,-12.695,-375.0,28.809,-11.23,117609.372,289
635,1686015844.956,-16.113,-687.5,35.645,-20.508,117609.376,291
636,1686015844.958,-14.16,-583.984,43.457,-18.555,117609.382,291
637,1686015844.962,-11.23,-358.887,10.254,-9.766,117609.386,291
638,1686015844.966,-9.766,-471.191,-11.719,-14.16,117609.39,291
639,1686015844.97,-18.555,-704.102,25.879,-22.949,117609.394,296
640,1686015844.974,-20.996,-600.098,25.879,-20.02,117609.398,296
641,1686015844.978,-8.789,-702.637,8.301,-12.207,117609.402,296
642,1686015844.981,-4.883,-869.141,1.465,-13.672,117609.406,296
643,1686015844.985,-17.578,-967.773,-4.883,-22.461,117609.41,301
644,1686015844.989,-24.414,-770.02,90.82,-40.527,117609.413,301
645,1686015844.993,-16.602,-416.016,42.48,-45.898,117609.417,301
646,1686015844.997,-10.742,-522.949,0.977,-33.691,117609.421,304
647,1686015845.001,-15.137,-600.586,39.062,-28.32,117609.425,304
648,1686015845.002,-20.508,-449.219,12.695,-34.668,117609.423,304
649,1686015845.006,-13.672,-443.359,5.371,-29.297,117609.427,304
650,1686015845.01,8.789,-669.434,-6.348,-4.883,117609.431,305
651,1686015845.014,-0.977,-629.395,5.859,-13.184,117609.435,305
652,1686015845.018,-41.992,-610.84,-15.625,-48.34,117609.439,305
653,1686015845.022,-42.48,-888.184,-3.906,-40.039,117609.443,305
654,1686015845.025,-6.836,-998.047,-70.801,-6.836,117609.446,303
655,1686015845.029,-1.953,-991.699,-9.766,0.0,117609.45,303
656,1686015845.033,-19.531,-602.539,59.57,-19.043,117609.454,303
657,1686015845.037,-15.625,-597.168,-57.617,-16.602,117609.458,306
658,1686015845.041,-1.465,-926.27,-44.922,6.836,117609.462,306
659,1686015845.045,5.371,-574.219,37.598,4.883,117609.466,306
660,1686015845.065,0.488,-264.648,13.672,-8.301,117609.491,318
661,1686015845.069,-7.812,-510.254,-38.574,-10.742,117609.495,318
662,1686015845.073,-6.348,-850.586,20.02,0.0,117609.499,318
663,1686015845.077,-2.93,-504.395,45.41,5.371,117609.502,322
664,1686015845.081,-8.789,-291.016,-6.348,-3.418,117609.506,322
665,1686015845.085,-12.207,-756.836,-45.41,-9.766,117609.51,322
666,1686015845.088,-12.695,-999.023,13.184,-9.277,117609.514,322
667,1686015845.092,-7.324,-598.145,90.82,-7.324,117609.518,324
668,1686015845.093,1.465,-618.164,-3.906,-6.836,117609.529,324
669,1686015845.096,-0.977,-312.988,-5.859,-11.719,117609.522,324
670,1686015845.097,-0.488,-794.434,-11.23,-7.324,117609.533,324
671,1686015845.1,-5.371,-587.402,-40.039,-20.508,117609.526,324
672,1686015845.101,-11.719,-667.969,10.254,-24.902,117609.536,324
673,1686015845.104,-7.812,-720.215,24.902,-21.973,117609.53,324
674,1686015845.105,-4.395,-415.527,25.391,-20.996,117609.54,324
675,1686015845.108,-5.859,-514.16,18.555,-16.113,117609.534,325
676,1686015845.109,1.953,-440.43,1.953,-3.418,117609.544,325
677,1686015845.113,0.488,-833.008,-60.059,-0.977,117609.548,325
678,1686015845.116,7.812,-1000.0,-16.113,-12.695,117609.552,325
679,1686015845.12,11.23,-870.605,35.156,-13.184,117609.556,325
680,1686015845.124,10.742,-568.359,-1.465,-5.371,117609.56,325
681,1686015845.128,9.277,-830.078,-116.699,0.0,117609.564,325
682,1686015845.132,1.465,-1000.0,-3.906,-3.418,117609.568,325
683,1686015845.136,2.93,-627.93,99.609,-9.277,117609.572,326
684,1686015845.153,9.277,-442.871,-1.465,0.0,117609.573,329
685,1686015845.157,8.789,-621.582,38.574,2.441,117609.577,329
686,1686015845.161,0.977,-666.504,8.301,-8.301,117609.581,326
687,1686015845.165,-0.977,-627.93,21.484,-13.184,117609.585,326
688,1686015845.169,12.695,-545.41,-14.16,-0.488,117609.589,326
689,1686015845.173,14.16,-905.762,12.695,6.836,117609.593,326
690,1686015845.176,4.395,-828.125,78.613,-6.348,117609.597,325
691,1686015845.18,0.488,-450.195,4.883,-16.602,117609.601,325
692,1686015845.184,2.93,-609.375,-43.457,-11.719,117609.605,325
693,1686015845.188,9.277,-803.223,86.426,-1.953,117609.609,326
694,1686015845.192,12.207,-451.172,72.754,-2.441,117609.612,326
695,1686015845.196,0.977,-392.09,-37.109,-5.371,117609.616,326
696,1686015845.197,-2.93,-714.355,8.301,-1.465,117609.616,326
697,1686015845.201,4.395,-594.238,35.645,11.719,117609.62,329
698,1686015845.205,12.207,-312.988,3.418,22.949,117609.624,329
699,1686015845.209,6.836,-414.062,-9.766,9.277,117609.628,329
700,1686015845.213,-7.812,-791.992,-19.043,-12.695,117609.632,329
701,1686015845.217,3.418,-880.859,-2.93,-10.254,117609.636,336
702,1686015845.22,14.648,-782.227,10.254,-8.789,117609.64,336
703,1686015845.224,0.0,-870.605,-5.859,-15.625,117609.644,336
704,1686015845.228,-2.93,-981.445,-109.863,-2.93,117609.648,336
705,1686015845.232,7.324,-1000.0,-4.883,17.09,117609.652,340
706,1686015845.236,16.602,-547.852,166.504,18.555,117609.656,340
707,1686015845.24,18.555,-338.867,14.648,2.93,117609.659,340
708,1686015845.243,14.16,-683.594,43.945,-5.859,117609.664,343
709,1686015845.247,18.555,-480.469,64.453,3.418,117609.668,343
710,1686015845.251,18.066,-260.254,-9.277,7.324,117609.672,343
711,1686015845.255,9.766,-417.969,-18.555,-5.371,117609.675,343
712,1686015845.259,3.906,-663.086,9.277,-12.695,117609.679,344
713,1686015845.263,8.301,-807.617,-7.812,-0.488,117609.683,344
714,1686015845.266,18.066,-692.871,32.227,8.789,117609.687,344
715,1686015845.27,21.973,-596.191,-24.414,14.648,117609.691,345
716,1686015845.274,11.23,-947.266,-44.434,15.137,117609.695,345
717,1686015845.278,-4.883,-746.582,103.516,6.348,117609.699,345
718,1686015845.282,-4.395,-384.766,38.086,13.184,117609.703,350
719,1686015845.286,12.695,-573.242,-13.672,21.973,117609.707,350
720,1686015845.287,12.207,-645.996,35.645,14.16,117609.708,350
721,1686015845.291,2.93,-450.684,14.16,7.812,117609.712,350
722,1686015845.295,6.348,-444.336,-0.977,2.441,117609.716,350
723,1686015845.299,6.836,-644.043,-15.625,7.324,117609.72,354
724,1686015845.303,12.207,-713.867,-20.02,16.602,117609.723,354
725,1686015845.307,10.254,-843.262,11.719,11.719,117609.727,354
726,1686015845.31,10.254,-917.969,16.602,11.719,117609.731,354
727,1686015845.314,19.043,-970.215,-57.129,28.809,117609.735,355
728,1686015845.318,23.926,-1000.0,23.438,38.574,117609.739,355
729,1686015845.322,22.949,-641.113,68.848,21.484,117609.743,355
730,1686015845.326,23.926,-655.273,-27.344,26.855,117609.747,355
731,1686015845.33,24.414,-927.734,-3.906,64.453,117609.751,352
732,1686015845.334,23.438,-548.828,28.809,75.684,117609.755,352
733,1686015845.338,23.438,-286.133,-8.789,70.801,117609.759,352
734,1686015845.342,22.461,-573.242,-21.973,63.965,117609.763,350
735,1686015845.346,26.367,-686.523,52.734,64.453,117609.767,350
736,1686015845.35,31.738,-382.812,32.715,70.312,117609.771,350
737,1686015845.354,23.926,-574.219,-11.23,58.105,117609.775,348
738,1686015845.357,13.672,-901.367,0.488,48.34,117609.779,348
739,1686015845.361,25.879,-959.961,61.035,65.918,117609.782,348
740,1686015845.365,27.344,-538.086,120.605,66.406,117609.786,348
741,1686015845.369,21.973,-268.555,23.926,51.758,117609.79,350
742,1686015845.373,23.926,-639.648,3.418,47.852,117609.794,350
743,1686015845.377,19.531,-690.43,71.289,46.387,117609.798,350
744,1686015845.378,20.996,-472.656,55.176,48.828,117609.8,350
745,1686015845.382,23.926,-683.594,-8.789,50.781,117609.804,351
746,1686015845.386,20.996,-922.852,13.184,42.48,117609.808,351
747,1686015845.39,20.508,-735.84,108.887,49.316,117609.812,351
748,1686015845.394,24.414,-545.898,42.969,60.547,117609.816,349
749,1686015845.398,26.855,-742.188,14.16,47.852,117609.82,349
750,1686015845.401,24.902,-954.102,-42.969,42.969,117609.824,349
751,1686015845.405,20.996,-1000.0,45.41,42.969,117609.828,349
752,1686015845.409,29.785,-543.945,161.133,36.133,117609.832,345
753,1686015845.413,36.133,-325.684,28.32,44.434,117609.835,345
754,1686015845.417,30.762,-708.984,46.387,39.551,117609.839,345
755,1686015845.421,17.09,-608.398,60.547,26.367,117609.843,345
756,1686015845.424,14.648,-398.438,31.25,20.996,117609.857,342
757,1686015845.428,26.855,-457.031,33.203,22.461,117609.861,342
758,1686015845.432,19.531,-657.715,23.926,26.855,117609.865,342
759,1686015845.436,6.348,-752.93,16.113,23.438,117609.869,341
760,1686015845.44,7.324,-682.129,50.293,18.066,117609.873,341
761,1686015845.444,13.184,-754.883,-1.953,25.391,117609.877,341
762,1686015845.447,10.742,-989.258,20.996,34.18,117609.881,341
763,1686015845.451,2.93,-779.297,130.859,22.461,117609.885,342
764,1686015845.455,0.977,-477.051,52.246,15.137,117609.889,342
765,1686015845.459,8.789,-542.969,-1.953,29.297,117609.893,342
766,1686015845.463,14.16,-550.293,50.293,43.457,117609.897,343
767,1686015845.467,16.113,-484.863,12.695,21.973,117609.902,343
768,1686015845.467,18.066,-406.25,32.227,33.203,117609.9,343
769,1686015845.471,17.09,-707.52,14.16,22.949,117609.906,343
770,1686015845.475,25.391,-736.816,1.465,38.086,117609.91,343
771,1686015845.479,24.414,-470.703,5.859,44.434,117609.914,341
772,1686015845.483,11.719,-611.816,-47.363,27.344,117609.918,341
773,1686015845.487,11.719,-979.492,-40.527,25.879,117609.922,341
774,1686015845.49,22.949,-936.035,95.215,31.25,117609.925,341
775,1686015845.494,17.578,-808.105,48.34,20.02,117609.929,337
776,1686015845.498,8.301,-659.18,-17.578,18.555,117609.933,337
777,1686015845.502,14.648,-893.555,-62.988,38.086,117609.937,337
778,1686015845.506,16.602,-866.211,101.074,38.574,117609.941,336
779,1686015845.51,10.254,-377.441,75.684,23.438,117609.945,336
780,1686015845.529,16.113,-469.727,-38.086,27.832,117609.961,336
781,1686015845.533,7.324,-761.719,90.332,19.531,117609.965,338
782,1686015845.537,-0.977,-531.738,58.105,10.254,117609.969,338
783,1686015845.541,9.766,-395.996,-5.371,18.555,117609.973,338
784,1686015845.545,7.812,-544.434,-9.277,21.484,117609.976,338
785,1686015845.549,1.465,-921.387,28.809,13.672,117609.98,338
786,1686015845.552,9.766,-851.074,75.195,16.113,117609.984,338
787,1686015845.556,23.438,-427.734,33.691,33.203,117609.988,338
788,1686015845.56,20.02,-622.559,-39.551,32.715,117609.992,335
789,1686015845.564,9.766,-989.746,7.324,19.043,117609.996,335
790,1686015845.568,8.301,-699.707,101.562,12.207,117610.0,335
791,1686015845.572,17.09,-370.117,16.602,18.555,117610.004,335
792,1686015845.572,23.926,-577.637,-14.16,25.879,117609.993,335
793,1686015845.576,20.02,-681.152,46.387,22.461,117609.997,333
794,1686015845.58,15.625,-521.973,60.547,17.578,117610.001,333
795,1686015845.584,19.531,-433.105,17.578,27.832,117610.005,333
796,1686015845.588,19.531,-694.824,-39.062,30.762,117610.008,332
797,1686015845.592,9.766,-996.094,-21.484,15.625,117610.012,332
798,1686015845.595,7.324,-989.746,13.184,14.16,117610.016,332
799,1686015845.599,12.207,-912.109,3.906,20.996,117610.02,332
800,1686015845.603,14.16,-970.703,-95.215,19.531,117610.024,333
801,1686015845.607,8.301,-976.074,22.461,18.555,117610.028,333
802,1686015845.611,-1.953,-641.602,67.383,10.254,117610.032,333
803,1686015845.615,6.836,-710.938,-57.129,21.973,117610.036,336
804,1686015845.619,12.207,-957.52,-16.113,36.621,117610.04,336
805,1686015845.623,-0.488,-606.445,55.664,18.066,117610.044,336
806,1686015845.627,-1.953,-396.484,4.883,5.859,117610.048,336
807,1686015845.631,5.859,-659.668,-19.531,6.348,117610.052,336
808,1686015845.635,11.719,-737.793,49.805,16.602,117610.056,336
809,1686015845.639,18.066,-759.277,15.625,25.879,117610.06,336
810,1686015845.642,14.16,-829.59,16.602,10.254,117610.063,336
811,1686015845.646,3.906,-775.879,-27.832,9.766,117610.067,334
812,1686015845.65,10.254,-936.523,10.742,23.438,117610.071,334
813,1686015845.654,17.578,-588.379,101.562,20.02,117610.075,334
814,1686015845.658,4.395,-378.906,-6.836,5.371,117610.079,332
815,1686015845.662,-4.883,-718.262,-7.324,8.789,117610.083,332
816,1686015845.663,5.371,-673.828,58.594,27.344,117610.085,332
817,1686015845.667,9.766,-492.188,27.344,33.691,117610.089,332
818,1686015845.671,-1.465,-770.02,-6.348,17.578,117610.092,332
819,1686015845.675,-1.953,-928.711,2.93,11.23,117610.096,330
820,1686015845.679,2.441,-801.27,82.031,19.043,117610.1,330
821,1686015845.683,-2.93,-788.574,50.781,11.719,117610.104,330
822,1686015845.686,-7.812,-889.16,-1.953,10.254,117610.108,331
823,1686015845.69,-6.836,-982.422,-67.383,12.695,117610.112,331
824,1686015845.694,-7.812,-1000.0,53.223,12.207,117610.116,331
825,1686015845.698,-1.953,-521.484,145.508,7.324,117610.12,332
826,1686015845.702,3.906,-344.238,28.32,9.766,117610.124,332
827,1686015845.706,3.906,-769.531,68.359,11.719,117610.128,332
828,1686015845.709,-0.977,-659.668,63.477,10.254,117610.13,332
829,1686015845.713,3.906,-367.676,27.832,25.391,117610.134,329
830,1686015845.717,9.277,-437.988,19.531,27.832,117610.138,329
831,1686015845.721,-0.977,-690.918,43.945,14.648,117610.141,329
832,1686015845.725,-6.348,-755.371,-1.465,21.484,117610.145,324
833,1686015845.729,6.348,-902.344,0.977,37.598,117610.149,324
834,1686015845.732,11.23,-908.691,17.578,37.109,117610.153,324
835,1686015845.736,6.348,-962.891,5.371,35.156,117610.157,324
836,1686015845.74,1.465,-835.449,119.141,20.02,117610.161,320
837,1686015845.744,-5.859,-541.504,59.082,12.695,117610.165,320
838,1686015845.748,0.488,-589.355,16.602,35.645,117610.169,320
839,1686015845.752,7.324,-472.168,43.457,31.738,117610.173,320
840,1686015845.752,11.719,-615.723,62.988,42.969,117610.173,320
841,1686015845.756,-0.977,-528.32,26.367,25.879,117610.177,320
842,1686015845.76,10.254,-752.93,26.855,36.621,117610.18,320
843,1686015845.764,15.137,-606.934,71.777,34.668,117610.184,320
844,1686015845.768,1.953,-579.59,26.367,21.484,117610.188,321
845,1686015845.772,-10.742,-943.848,26.367,18.066,117610.192,321
846,1686015845.775,-2.441,-1000.0,-14.648,28.809,117610.196,321
847,1686015845.779,2.441,-999.512,35.645,37.598,117610.2,321
848,1686015845.783,-7.324,-662.598,140.625,25.391,117610.204,321
849,1686015845.787,-10.254,-502.93,29.785,13.672,117610.208,321
850,1686015845.791,-7.812,-873.047,-7.324,16.113,117610.212,321
851,1686015845.795,-9.277,-671.875,81.055,17.578,117610.216,318
852,1686015845.813,-12.207,-357.91,47.363,8.789,117610.234,315
853,1686015845.817,-19.531,-592.773,-4.395,-2.441,117610.238,315
854,1686015845.821,-19.531,-805.176,115.234,-3.418,117610.241,315
855,1686015845.825,-13.184,-523.926,101.074,6.348,117610.245,314
856,1686015845.829,-17.578,-425.293,24.902,6.348,117610.249,314
857,1686015845.833,-22.461,-782.715,0.0,1.465,117610.253,314
858,1686015845.836,-24.902,-996.582,45.41,4.395,117610.257,317
859,1686015845.84,-22.949,-629.395,135.254,8.301,117610.261,317
860,1686015845.844,-12.207,-353.516,41.016,13.672,117610.265,317
861,1686015845.848,-16.113,-667.48,2.93,8.301,117610.269,320
862,1686015845.852,-23.926,-816.895,73.242,3.418,117610.273,320
863,1686015845.856,-16.113,-518.555,58.105,11.23,117610.277,320
864,1686015845.857,-16.113,-396.973,18.066,16.113,117610.278,320
865,1686015845.861,-20.508,-695.312,-3.906,10.254,117610.282,320
866,1686015845.865,-16.113,-809.082,78.613,11.719,117610.285,321
867,1686015845.869,-11.719,-544.434,61.523,18.066,117610.289,321
868,1686015845.873,-11.23,-600.098,-29.297,18.555,117610.293,321
869,1686015845.877,-18.555,-930.176,-41.016,14.648,117610.297,321
870,1686015845.88,-29.785,-1000.0,60.547,1.465,117610.301,321
871,1686015845.884,-27.344,-805.664,103.027,-0.488,117610.305,321
872,1686015845.888,-16.602,-493.652,10.254,16.602,117610.309,321
873,1686015845.892,-19.531,-858.887,-62.988,20.02,117610.313,320
874,1686015845.896,-32.715,-901.855,92.773,5.371,117610.317,320
875,1686015845.9,-31.25,-592.773,68.848,-0.488,117610.321,320
876,1686015845.904,-20.508,-804.688,-12.207,10.254,117610.325,320
877,1686015845.908,-20.508,-936.523,41.504,17.09,117610.329,321
878,1686015845.912,-23.926,-728.027,18.555,5.371,117610.333,321
879,1686015845.916,-26.367,-552.246,1.465,-1.953,117610.337,321
880,1686015845.92,-26.855,-637.207,17.578,1.953,117610.341,325
881,1686015845.924,-21.484,-903.32,10.254,15.137,117610.345,325
882,1686015845.927,-29.785,-798.828,27.832,5.859,117610.348,325
883,1686015845.931,-41.016,-503.418,2.93,-14.648,117610.352,328
884,1686015845.935,-39.062,-677.246,-66.895,-6.348,117610.356,328
885,1686015845.939,-36.133,-947.754,9.766,12.695,117610.36,328
886,1686015845.943,-35.156,-580.078,58.105,14.648,117610.364,328
887,1686015845.947,-34.668,-451.66,-16.113,8.789,117610.368,330
888,1686015845.947,-29.785,-752.93,9.766,8.301,117610.374,330
889,1686015845.951,-20.996,-638.672,44.434,13.672,117610.377,330
890,1686015845.955,-20.508,-573.73,-8.789,14.648,117610.381,330
891,1686015845.959,-29.785,-870.117,-18.066,27.344,117610.385,329
892,1686015845.963,-37.109,-985.352,-23.926,56.641,117610.389,329
893,1686015845.967,-37.598,-935.547,26.367,71.777,117610.393,329
894,1686015845.97,-32.227,-902.832,15.137,68.359,117610.397,329
895,1686015845.974,-31.25,-932.129,-20.508,64.453,117610.401,328
896,1686015845.978,-39.062,-984.375,-86.426,62.012,117610.405,328
897,1686015845.982,-36.133,-1000.0,18.066,69.824,117610.409,328
898,1686015845.986,-27.832,-567.871,105.957,69.824,117610.413,328
899,1686015845.99,-31.25,-432.617,-17.09,56.152,117610.417,329
900,1686015845.993,-38.086,-774.414,44.922,36.621,117610.415,329
901,1686015845.997,-27.832,-571.289,48.828,32.227,117610.419,329
902,1686015846.001,-19.043,-311.035,-4.395,35.156,117610.422,333
903,1686015846.005,-24.414,-453.125,-11.719,27.344,117610.426,333
904,1686015846.009,-23.438,-759.277,5.371,22.461,117610.43,333
905,1686015846.013,-22.461,-834.473,28.809,23.926,117610.434,333
906,1686015846.016,-17.578,-826.66,37.598,31.25,117610.438,335
907,1686015846.02,-18.066,-845.215,-6.348,35.645,117610.442,335
908,1686015846.024,-32.715,-970.215,-10.254,29.785,117610.446,335
909,1686015846.028,-35.156,-803.711,107.422,24.414,117610.45,335
910,1686015846.032,-23.926,-459.473,44.434,21.973,117610.454,335
911,1686015846.036,-19.531,-553.223,-5.859,20.508,117610.458,335
912,1686015846.036,-35.645,-644.043,46.875,5.371,117610.457,335
913,1686015846.04,-45.41,-503.418,20.508,-9.766,117610.461,333
914,1686015846.044,-32.227,-542.48,-3.906,-8.301,117610.465,333
915,1686015846.048,-30.273,-687.5,-1.465,-2.441,117610.469,333
916,1686015846.052,-31.25,-666.016,3.418,7.324,117610.473,333
917,1686015846.056,-35.645,-815.918,20.996,-6.348,117610.477,332
918,1686015846.059,-38.086,-962.891,39.062,-12.207,117610.48,332
919,1686015846.063,-38.086,-973.633,-51.758,7.812,117610.484,332
920,1686015846.067,-46.875,-1000.0,15.137,9.277,117610.488,332
921,1686015846.071,-54.199,-699.219,135.742,-10.742,117610.492,333
922,1686015846.075,-52.734,-538.574,20.02,-14.648,117610.496,333
923,1686015846.079,-48.34,-752.441,66.406,-8.301,117610.5,333
924,1686015846.084,-52.246,-541.504,68.848,-12.695,117610.504,335
925,1686015846.088,-62.012,-348.145,-3.906,-18.066,117610.508,335
926,1686015846.092,-60.547,-569.336,3.418,-11.719,117610.512,335
927,1686015846.096,-50.293,-725.098,69.824,-4.395,117610.516,335
928,1686015846.1,-42.48,-471.191,49.805,-1.465,117610.52,336
929,1686015846.104,-41.992,-654.785,21.973,-7.324,117610.524,336
930,1686015846.107,-53.223,-968.75,1.953,-22.949,117610.528,336
931,1686015846.111,-48.34,-977.051,17.09,-18.555,117610.532,335
932,1686015846.115,-38.574,-688.477,76.172,-12.207,117610.536,335
933,1686015846.119,-50.293,-433.594,16.113,-19.043,117610.54,335
934,1686015846.123,-54.688,-677.734,-3.418,-24.414,117610.543,332
935,1686015846.127,-49.805,-733.887,74.707,-24.414,117610.547,332
936,1686015846.127,-41.504,-380.859,64.941,-16.602,117610.547,332
937,1686015846.131,-44.922,-335.449,-1.465,-15.137,117610.551,332
938,1686015846.135,-51.758,-706.055,-10.254,-20.02,117610.555,332
939,1686015846.139,-52.734,-700.684,62.988,-24.414,117610.559,330
940,1686015846.143,-49.316,-517.09,28.809,-24.902,117610.563,330
941,1686015846.147,-44.922,-755.371,14.648,-21.973,117610.567,330
942,1686015846.15,-48.34,-966.309,-51.27,-22.949,117610.571,330
943,1686015846.154,-55.176,-1000.0,39.551,-20.996,117610.574,331
944,1686015846.158,-48.828,-609.375,238.281,-25.391,117610.578,331
945,1686015846.162,-41.504,-352.051,61.523,-19.043,117610.582,331
946,1686015846.166,-48.828,-686.523,0.0,-20.02,117610.586,331
947,1686015846.17,-53.711,-595.703,49.805,-28.809,117610.59,333
948,1686015846.175,-47.363,-446.289,19.531,-19.531,117610.605,333
949,1686015846.179,-43.945,-716.797,3.418,-16.113,117610.609,333
950,1686015846.183,-38.086,-916.992,70.801,-15.137,117610.613,333
951,1686015846.187,-35.645,-625.977,87.891,-8.789,117610.617,333
952,1686015846.191,-34.18,-468.262,38.086,-3.418,117610.62,333
953,1686015846.195,-24.902,-808.594,6.836,2.441,117610.624,330
954,1686015846.198,-28.32,-981.445,63.965,6.348,117610.628,330
955,1686015846.202,-36.133,-650.391,116.699,-3.418,117610.632,330
956,1686015846.206,-36.621,-454.59,22.461,-10.742,117610.636,330
957,1686015846.21,-31.738,-620.117,-9.277,-2.93,117610.64,326
958,1686015846.214,-30.273,-639.16,47.363,4.395,117610.644,326
959,1686015846.216,-48.34,-492.188,14.648,-7.324,117610.651,326
960,1686015846.218,-40.039,-432.129,42.969,0.488,117610.648,326
961,1686015846.22,-46.875,-732.422,37.598,-8.789,117610.655,326
962,1686015846.224,-41.992,-598.145,93.75,-2.93,117610.659,326
963,1686015846.228,-40.039,-559.082,40.039,1.953,117610.663,326
964,1686015846.232,-50.781,-877.93,32.715,-6.348,117610.666,326
965,1686015846.236,-52.246,-991.699,-18.555,-5.859,117610.67,328
966,1686015846.239,-33.691,-1000.0,34.668,12.695,117610.674,328
967,1686015846.243,-27.832,-619.629,208.008,12.207,117610.678,328
968,1686015846.247,-39.062,-471.68,62.5,3.418,117610.682,328
969,1686015846.251,-45.41,-834.473,-17.578,-1.953,117610.686,329
970,1686015846.255,-37.598,-563.477,77.637,-0.488,117610.69,329
971,1686015846.259,-38.086,-221.191,32.227,3.906,117610.694,329
972,1686015846.277,-52.734,-482.91,-16.113,-10.254,117610.698,327
973,1686015846.281,-60.059,-778.809,108.398,-30.762,117610.702,327
974,1686015846.285,-51.758,-533.203,101.074,-28.809,117610.706,327
975,1686015846.289,-37.109,-286.621,29.297,-15.137,117610.71,327
976,1686015846.293,-39.062,-441.406,9.277,-14.16,117610.714,324
977,1686015846.297,-48.34,-894.531,39.551,-14.648,117610.717,324
978,1686015846.3,-52.734,-971.191,73.73,-6.348,117610.721,324
979,1686015846.304,-48.34,-652.344,97.168,-6.348,117610.725,325
980,1686015846.308,-46.875,-584.961,8.789,-15.625,117610.729,325
981,1686015846.312,-57.129,-936.035,-1.465,-22.949,117610.733,325
982,1686015846.316,-53.223,-721.191,127.441,-24.902,117610.737,325
983,1686015846.32,-41.992,-375.488,79.59,-16.602,117610.741,327
984,1686015846.321,-48.828,-520.996,20.996,-18.066,117610.742,327
985,1686015846.325,-54.199,-592.285,62.5,-20.996,117610.746,327
986,1686015846.329,-59.082,-600.098,32.227,-18.066,117610.75,327
987,1686015846.333,-60.547,-551.27,38.086,-12.695,117610.754,328
988,1686015846.337,-53.711,-685.059,8.301,-11.23,117610.758,328
989,1686015846.341,-56.152,-923.828,30.762,-20.02,117610.761,328
990,1686015846.344,-61.523,-910.645,65.43,-27.344,117610.765,326
991,1686015846.348,-53.711,-832.031,58.105,-26.855,117610.769,326
992,1686015846.352,-52.246,-923.34,-34.668,-6.836,117610.773,326
993,1686015846.356,-56.152,-1000.0,25.391,-4.395,117610.777,326
994,1686015846.36,-61.523,-583.984,145.508,-31.738,117610.781,323
995,1686015846.364,-63.477,-408.203,61.523,-35.156,117610.785,323
996,1686015846.368,-55.176,-615.723,99.121,-23.926,117610.789,323
997,1686015846.372,-49.805,-407.227,100.586,-11.719,117610.793,322
998,1686015846.376,-48.828,-278.809,39.551,-9.766,117610.797,322
999,1686015846.38,-46.875,-451.172,42.48,-20.02,117610.801,322
1000,1686015846.384,-41.992,-578.125,81.055,-14.16,117610.805,322
1001,1686015846.388,-42.969,-684.082,52.734,-18.555,117610.809,322
1002,1686015846.391,-49.805,-690.918,79.102,-39.062,117610.813,322
1003,1686015846.395,-48.828,-645.02,22.949,-36.133,117610.817,322
1004,1686015846.399,-46.875,-913.086,51.27,-13.672,117610.821,322
1005,1686015846.403,-42.48,-513.672,161.621,-8.301,117610.824,325
1006,1686015846.407,-43.945,-283.691,49.316,-16.602,117610.828,325
1007,1686015846.411,-53.223,-673.34,30.273,-24.414,117610.832,325
1008,1686015846.411,-47.363,-645.996,139.16,-18.555,117610.845,325
1009,1686015846.415,-32.715,-283.203,125.488,-3.418,117610.849,326
1010,1686015846.419,-39.551,-306.641,43.457,-13.184,117610.853,326
1011,1686015846.423,-46.875,-686.523,34.18,-20.02,117610.856,326
1012,1686015846.427,-41.016,-699.219,109.863,-20.02,117610.86,323
1013,1686015846.431,-32.715,-644.531,98.633,-15.625,117610.864,323
1014,1686015846.434,-40.039,-733.887,67.871,-17.578,117610.868,323
1015,1686015846.438,-52.246,-914.062,-35.645,-22.949,117610.872,323
1016,1686015846.442,-47.852,-1000.0,62.012,-18.555,117610.876,320
1017,1686015846.446,-40.527,-515.625,250.488,-16.113,117610.88,320
1018,1686015846.45,-38.086,-259.766,114.746,-14.16,117610.884,320
1019,1686015846.454,-43.945,-636.719,77.148,-26.855,117610.888,320
1020,1686015846.46,-52.734,-536.621,113.77,-36.133,117610.891,320
1021,1686015846.464,-46.387,-338.867,79.102,-34.668,117610.895,320
1022,1686015846.468,-40.527,-618.652,36.133,-24.414,117610.899,320
1023,1686015846.472,-46.387,-843.75,94.727,-20.508,117610.903,321
1024,1686015846.476,-42.48,-553.711,125.977,-31.25,117610.907,321
1025,1686015846.48,-41.992,-604.492,75.195,-28.32,117610.911,321
1026,1686015846.483,-47.852,-825.195,63.965,-22.461,117610.915,323
1027,1686015846.487,-50.293,-918.945,57.129,-23.438,117610.919,323
1028,1686015846.491,-57.129,-579.59,145.02,-29.785,117610.922,323
1029,1686015846.495,-54.199,-233.398,81.543,-24.414,117610.926,323
1030,1686015846.499,-46.387,-421.387,34.18,-15.137,117610.93,323
1031,1686015846.501,-52.246,-277.344,77.637,-30.762,117610.922,323
1032,1686015846.503,-47.852,-522.461,98.145,-21.973,117610.934,323
1033,1686015846.505,-47.852,-256.836,35.156,-28.809,117610.926,323
1034,1686015846.509,-33.691,-497.559,45.41,-17.09,117610.93,323
1035,1686015846.513,-32.715,-393.066,85.938,-14.648,117610.933,320
1036,1686015846.517,-39.551,-371.582,31.25,-24.902,117610.937,320
1037,1686015846.521,-43.457,-707.031,37.598,-35.156,117610.941,320
1038,1686015846.524,-42.48,-914.551,4.395,-20.02,117610.945,317
1039,1686015846.528,-41.504,-994.629,64.941,-8.789,117610.949,317
1040,1686015846.532,-44.922,-633.301,151.855,-26.855,117610.953,317
1041,1686015846.536,-41.992,-376.465,47.852,-32.715,117610.957,317
1042,1686015846.54,-34.668,-788.574,0.488,-19.531,117610.961,317
1043,1686015846.544,-30.273,-522.949,206.055,-14.16,117610.965,317
1044,1686015846.564,-35.156,-45.41,133.301,-24.414,117610.984,320
1045,1686015846.568,-41.992,-332.031,2.441,-20.508,117610.988,320
1046,1686015846.572,-41.992,-608.398,147.949,-15.137,117610.992,320
1047,1686015846.576,-41.504,-278.32,142.578,-18.555,117610.996,320
1048,1686015846.58,-44.434,-107.91,60.547,-23.926,117611.0,319
1049,1686015846.584,-47.852,-547.363,21.973,-34.18,117611.004,319
1050,1686015846.587,-41.992,-969.727,57.617,-33.691,117611.007,319
1051,1686015846.591,-31.25,-779.785,164.551,-20.02,117611.011,319
1052,1686015846.592,-36.621,-157.715,73.242,3.906,117611.026,319
1053,1686015846.595,-31.25,-292.969,101.562,-9.766,117611.015,316
1054,1686015846.596,-45.41,-392.578,61.523,25.879,117611.03,316
1055,1686015846.599,-43.457,-434.57,3.906,-17.578,117611.019,316
1056,1686015846.6,-45.41,-515.137,114.258,21.973,117611.034,316
1057,1686015846.603,-52.246,-750.488,93.262,-29.785,117611.023,316
1058,1686015846.604,-36.133,-247.07,120.605,22.949,117611.038,316
1059,1686015846.607,-43.457,-433.594,118.652,-22.461,117611.027,315
1060,1686015846.608,-42.48,-294.922,54.199,31.25,117611.042,315
1061,1686015846.612,-48.828,-704.59,11.23,23.438,117611.046,315
1062,1686015846.615,-48.34,-887.695,54.199,13.672,117611.05,315
1063,1686015846.619,-50.781,-665.039,116.699,12.695,117611.053,316
1064,1686015846.623,-44.434,-304.688,113.281,23.926,117611.057,316
1065,1686015846.627,-43.945,-724.121,-47.852,23.926,117611.061,316
1066,1686015846.631,-53.223,-1000.0,56.152,14.648,117611.065,316
1067,1686015846.635,-52.246,-557.617,266.602,-1.465,117611.069,319
1068,1686015846.653,-48.34,-260.742,146.973,0.488,117611.075,322
1069,1686015846.657,-46.875,-451.172,132.812,17.09,117611.079,322
1070,1686015846.661,-46.387,-260.742,133.789,13.672,117611.082,322
1071,1686015846.665,-55.664,-80.566,77.637,-9.277,117611.086,322
1072,1686015846.669,-53.711,-269.531,60.547,-18.066,117611.09,322
1073,1686015846.673,-52.246,-632.324,90.332,-15.137,117611.094,322
1074,1686015846.676,-58.594,-493.164,107.422,-17.578,117611.098,320
1075,1686015846.68,-67.871,-193.359,73.242,-28.32,117611.102,320
1076,1686015846.684,-67.383,-416.016,16.113,-23.926,117611.106,320
1077,1686015846.688,-68.848,-730.469,169.922,-13.672,117611.11,320
1078,1686015846.692,-74.707,-277.832,220.703,-21.973,117611.114,320
1079,1686015846.696,-75.684,-108.398,41.504,-35.645,117611.118,320
1080,1686015846.696,-77.148,-563.477,48.828,-35.156,117611.117,320
1081,1686015846.7,-74.707,-605.469,166.016,-20.996,117611.121,320
1082,1686015846.704,-69.824,-133.301,126.953,-22.461,117611.125,322
1083,1686015846.708,-66.895,-73.73,38.086,-37.109,117611.128,322
1084,1686015846.712,-62.5,-527.344,33.203,-38.086,117611.132,322
1085,1686015846.716,-62.988,-681.152,76.172,-32.715,117611.136,324
1086,1686015846.719,-65.918,-540.527,89.355,-23.926,117611.14,324
1087,1686015846.723,-64.941,-523.438,66.895,-22.461,117611.144,324
1088,1686015846.727,-66.406,-834.473,-49.316,-22.461,117611.148,324
1089,1686015846.731,-66.895,-1000.0,78.613,-15.625,117611.152,325
1090,1686015846.735,-64.941,-314.453,227.539,-15.625,117611.156,325
1091,1686015846.739,-68.848,-64.453,59.082,-22.949,117611.16,325
1092,1686015846.743,-80.566,-460.938,85.449,-41.992,117611.164,325
1093,1686015846.747,-74.707,-261.23,128.418,-37.598,117611.167,323
1094,1686015846.751,-61.035,-158.203,51.758,-22.949,117611.171,323
1095,1686015846.755,-58.105,-457.52,43.945,-28.809,117611.175,323
1096,1686015846.759,-56.152,-724.121,109.863,-36.133,117611.179,321
1097,1686015846.763,-52.246,-695.312,112.305,-38.574,117611.183,321
1098,1686015846.766,-52.246,-323.242,104.004,-32.227,117611.187,321
1099,1686015846.77,-46.387,-229.004,41.504,-27.832,117611.191,320
1100,1686015846.774,-43.945,-813.477,46.387,-34.18,117611.195,320
1101,1686015846.778,-55.664,-494.629,145.508,-43.457,117611.199,320
1102,1686015846.782,-59.57,-21.484,79.102,-42.48,117611.203,320
1103,1686015846.786,-45.898,-257.324,93.262,-46.387,117611.207,322
1104,1686015846.786,-48.34,-194.824,38.574,-41.992,117611.207,322
1105,1686015846.79,-51.27,-83.984,85.449,-52.246,117611.211,322
1106,1686015846.794,-46.875,-55.664,42.969,-50.293,117611.215,322
1107,1686015846.798,-42.969,-262.207,38.086,-35.645,117611.219,325
1108,1686015846.802,-44.922,-382.812,50.293,-31.25,117611.222,325
1109,1686015846.806,-48.828,-503.418,35.645,-38.086,117611.226,325
1110,1686015846.809,-47.363,-571.777,66.895,-41.016,117611.23,325
1111,1686015846.813,-37.598,-772.949,-26.367,-26.367,117611.234,325
1112,1686015846.817,-35.156,-1000.0,59.57,-15.625,117611.238,325
1113,1686015846.821,-42.969,-553.223,288.086,-30.273,117611.242,325
1114,1686015846.825,-46.387,-184.082,136.719,-35.645,117611.246,325
1115,1686015846.829,-36.133,-350.098,86.426,-25.879,117611.25,323
1116,1686015846.833,-32.227,-87.402,127.441,-24.414,117611.254,323
1117,1686015846.837,-34.18,86.914,63.477,-34.668,117611.258,323
1118,1686015846.841,-35.645,-185.059,26.855,-45.898,117611.262,322
1119,1686015846.845,-35.645,-327.637,97.168,-44.434,117611.266,322
1120,1686015846.849,-28.32,-44.922,100.098,-29.785,117611.27,322
1121,1686015846.853,-32.227,-172.852,41.016,-25.879,117611.274,322
1122,1686015846.856,-41.504,-486.816,38.574,-33.691,117611.278,322
1123,1686015846.86,-38.086,-863.281,66.895,-27.344,117611.281,322
1124,1686015846.864,-31.25,-620.605,154.297,-22.949,117611.285,322
1125,1686015846.868,-27.344,20.996,93.75,-27.832,117611.289,325
1126,1686015846.872,-24.902,-190.43,18.066,-27.832,117611.293,325
1127,1686015846.876,-29.297,-563.965,118.652,-33.691,117611.297,325
1128,1686015846.876,-26.855,-121.094,140.137,-33.203,117611.297,325
1129,1686015846.88,-29.297,141.113,68.359,-39.551,117611.301,327
1130,1686015846.884,-44.922,-186.523,37.598,-44.922,117611.305,327
1131,1686015846.888,-50.293,-222.656,102.539,-46.387,117611.309,327
1132,1686015846.892,-42.48,-93.262,81.543,-41.992,117611.313,327
1133,1686015846.896,-41.016,-278.32,50.293,-30.273,117611.317,327
1134,1686015846.899,-51.27,-647.461,-11.719,-30.762,117611.321,327
1135,1686015846.903,-58.594,-989.258,62.012,-38.574,117611.324,327
1136,1686015846.907,-57.129,-313.965,196.777,-38.086,117611.328,327
1137,1686015846.911,-51.27,125.0,85.938,-27.832,117611.332,325
1138,1686015846.915,-49.316,-329.102,30.273,-34.18,117611.336,325
1139,1686015846.919,-50.293,-267.578,84.961,-39.551,117611.34,325
1140,1686015846.937,-45.41,106.934,90.332,-33.691,117611.357,325
1141,1686015846.941,-35.156,9.766,39.062,-33.691,117611.361,325
1142,1686015846.945,-45.898,-545.898,68.359,-43.457,117611.365,325
1143,1686015846.949,-57.129,-266.113,123.535,-50.781,117611.369,328
1144,1686015846.953,-55.176,116.211,67.383,-43.457,117611.373,328
1145,1686015846.957,-48.828,-270.996,32.715,-29.785,117611.377,328
1146,1686015846.96,-41.016,-835.449,82.031,-27.344,117611.381,328
1147,1686015846.964,-50.293,-357.91,143.066,-40.527,117611.385,329
1148,1686015846.968,-56.152,-42.48,45.41,-43.457,117611.388,329
1149,1686015846.972,-47.363,-297.363,53.711,-30.762,117611.392,329
1150,1686015846.976,-46.387,-87.402,111.328,-21.484,117611.396,329
1151,1686015846.98,-56.152,164.551,75.684,-38.574,117611.4,328
1152,1686015846.982,-50.781,97.168,28.809,-52.734,117611.403,328
1153,1686015846.986,-41.016,-328.613,61.523,-40.527,117611.407,328
1154,1686015846.99,-41.992,-341.797,173.34,-32.715,117611.41,326
1155,1686015846.994,-50.293,117.676,108.398,-41.504,117611.414,326
1156,1686015846.998,-52.246,53.711,12.207,-46.875,117611.418,326
1157,1686015847.002,-50.781,-549.805,19.043,-41.504,117611.422,326
1158,1686015847.005,-52.246,-728.027,128.906,-39.551,117611.426,326
1159,1686015847.009,-54.688,-186.523,161.133,-42.969,117611.43,325
1160,1686015847.013,-57.617,137.695,64.941,-44.434,117611.434,325
1161,1686015847.017,-55.176,-525.879,-15.137,-39.062,117611.438,325
1162,1686015847.021,-45.41,-556.152,188.965,-27.344,117611.442,326
1163,1686015847.025,-43.457,263.184,171.875,-33.691,117611.446,326
1164,1686015847.028,-55.176,211.426,38.086,-46.875,117611.449,326
1165,1686015847.032,-48.828,-198.242,149.414,-41.992,117611.453,329
1166,1686015847.036,-34.668,12.695,154.785,-31.738,117611.457,329
1167,1686015847.04,-43.945,189.453,89.355,-36.621,117611.461,329
1168,1686015847.044,-50.781,-221.68,34.18,-41.016,117611.465,329
1169,1686015847.048,-49.805,-771.484,61.523,-39.551,117611.469,329
1170,1686015847.051,-46.387,-436.035,165.527,-41.992,117611.472,329
1171,1686015847.055,-37.109,239.746,118.164,-27.344,117611.476,329
1172,1686015847.059,-40.527,35.156,34.18,-19.043,117611.48,329
1173,1686015847.063,-51.27,-782.227,48.34,-22.461,117611.484,327
1174,1686015847.067,-55.176,-329.102,171.387,-36.133,117611.488,327
1175,1686015847.071,-40.039,305.664,124.023,-35.156,117611.492,327
1176,1686015847.072,-33.203,72.754,53.711,-27.832,117611.492,325
1177,1686015847.076,-46.875,27.344,105.957,-39.551,117611.496,325
1178,1686015847.08,-52.734,206.055,100.098,-48.828,117611.499,325
1179,1686015847.084,-43.457,273.438,83.984,-37.109,117611.503,325
1180,1686015847.088,-37.109,38.086,39.062,-32.715,117611.507,324
1181,1686015847.092,-36.133,-275.879,41.016,-28.809,117611.511,324
1182,1686015847.095,-34.668,-325.684,71.289,-31.25,117611.515,324
1183,1686015847.099,-31.738,-175.293,87.891,-34.18,117611.519,324
1184,1686015847.103,-27.344,-419.434,-2.441,-28.32,117611.523,327
1185,1686015847.107,-29.785,-986.816,47.363,-27.832,117611.527,327
1186,1686015847.111,-38.086,-368.164,239.258,-38.574,117611.531,327
1187,1686015847.115,-34.668,187.5,135.742,-34.668,117611.535,329
1188,1686015847.118,-28.809,34.18,122.07,-24.414,117611.539,329
1189,1686015847.122,-45.898,289.551,142.578,-40.039,117611.543,329
1190,1686015847.126,-47.363,414.551,66.406,-48.828,117611.547,329
1191,1686015847.13,-38.086,179.199,50.293,-53.711,117611.551,329
1192,1686015847.134,-30.273,62.5,102.051,-51.27,117611.555,329
1193,1686015847.138,-21.484,-3.906,69.824,-42.969,117611.559,329
1194,1686015847.141,-21.484,78.125,78.125,-41.992,117611.563,329
1195,1686015847.145,-29.785,83.984,40.039,-44.922,117611.567,327
1196,1686015847.149,-32.227,-720.703,49.316,-33.691,117611.571,327
1197,1686015847.153,-29.785,-329.59,181.641,-35.156,117611.574,327
1198,1686015847.157,-34.18,469.727,93.75,-52.734,117611.578,327
1199,1686015847.161,-40.039,140.625,36.133,-55.664,117611.582,325
1200,1686015847.161,-40.039,-119.629,142.578,-50.781,117611.582,325
1201,1686015847.165,-29.785,357.91,123.535,-37.109,117611.586,325
1202,1686015847.169,-23.926,369.141,14.648,-40.527,117611.59,325
1203,1686015847.173,-31.25,-22.461,25.879,-45.41,117611.593,325
1204,1686015847.177,-25.391,6.348,65.43,-37.109,117611.597,325
1205,1686015847.181,-14.648,9.277,70.312,-26.855,117611.601,325
1206,1686015847.184,-19.043,54.688,76.172,-32.227,117611.605,328
1207,1686015847.188,-18.066,-330.078,-18.555,-39.062,117611.609,328
1208,1686015847.192,-17.578,-927.734,61.523,-31.738,117611.613,328
1209,1686015847.196,-14.16,-14.16,187.5,-30.762,117611.617,328
1210,1686015847.2,-11.23,541.504,57.617,-31.738,117611.621,330
1211,1686015847.204,-20.02,-2.441,39.062,-31.738,117611.625,330
1212,1686015847.208,-26.855,62.5,99.609,-30.762,117611.629,330
1213,1686015847.212,-27.344,478.027,87.402,-28.32,117611.633,329
1214,1686015847.216,-31.25,408.203,34.668,-24.414,117611.636,329
1215,1686015847.22,-33.203,-147.949,67.871,-37.109,117611.64,329
1216,1686015847.224,-37.109,41.016,114.258,-58.105,117611.644,326
1217,1686015847.228,-33.203,182.617,54.199,-54.688,117611.648,326
1218,1686015847.231,-24.414,-44.922,51.758,-35.645,117611.652,326
1219,1686015847.235,-28.809,-540.527,53.711,-28.809,117611.656,326
1220,1686015847.239,-27.344,-119.629,119.629,-41.504,117611.66,326
1221,1686015847.243,-23.926,436.035,84.961,-48.828,117611.664,325
1222,1686015847.247,-25.391,267.09,29.785,-34.18,117611.668,325
1223,1686015847.251,-22.949,291.992,73.73,-27.344,117611.672,325
1224,1686015847.253,-30.762,429.688,65.43,-41.504,117611.674,327
1225,1686015847.257,-41.504,375.0,25.391,-47.852,117611.678,327
1226,1686015847.261,-36.621,1.465,58.594,-39.062,117611.682,327
1227,1686015847.265,-34.18,32.227,166.016,-34.18,117611.686,330
1228,1686015847.269,-39.062,281.738,63.477,-33.203,117611.69,330
1229,1686015847.273,-35.645,81.055,30.762,-33.691,117611.693,330
1230,1686015847.276,-26.855,-413.574,5.371,-19.531,117611.697,330
1231,1686015847.28,-21.973,-901.367,57.129,-6.836,117611.701,330
1232,1686015847.284,-27.832,23.926,168.945,-20.508,117611.705,332
1233,1686015847.288,-31.738,502.93,62.5,-31.738,117611.709,332
1234,1686015847.292,-27.344,101.074,51.758,-25.391,117611.713,332
1235,1686015847.296,-25.391,344.238,114.258,-20.996,117611.717,331
1236,1686015847.313,-31.738,636.719,77.148,-9.766,117611.733,329
1237,1686015847.317,-45.898,381.348,24.414,-7.812,117611.737,329
1238,1686015847.321,-43.945,27.832,120.605,-9.766,117611.741,329
1239,1686015847.325,-29.297,309.57,147.949,1.953,117611.745,329
1240,1686015847.329,-24.902,436.523,63.965,0.0,117611.749,329
1241,1686015847.333,-38.574,-21.484,29.297,-17.578,117611.752,329
1242,1686015847.336,-41.016,-812.988,40.527,-18.555,117611.756,331
1243,1686015847.34,-29.785,-363.77,212.402,-4.883,117611.76,331
1244,1686015847.341,-23.926,548.828,77.148,3.906,117611.779,331
1245,1686015847.344,-30.762,521.973,147.461,-7.812,117611.764,331
1246,1686015847.345,-28.32,294.434,60.059,-3.418,117611.783,331
1247,1686015847.348,-38.574,343.262,28.809,-19.531,117611.768,331
1248,1686015847.349,-30.273,177.246,121.094,-4.883,117611.787,331
1249,1686015847.352,-38.086,201.66,92.773,-27.344,117611.772,333
1250,1686015847.353,-30.762,378.418,114.258,-2.93,117611.79,333
1251,1686015847.356,-25.391,427.734,106.445,-8.789,117611.776,333
1252,1686015847.357,-24.414,470.703,61.523,1.953,117611.794,333
1253,1686015847.361,-21.973,-79.102,23.926,-3.418,117611.798,333
1254,1686015847.364,-33.691,-544.434,116.211,-11.719,117611.802,334
1255,1686015847.368,-41.016,-198.73,117.188,-20.02,117611.806,334
1256,1686015847.372,-41.504,84.961,75.684,-20.996,117611.81,334
1257,1686015847.376,-32.715,-290.527,-7.812,-13.672,117611.814,331
1258,1686015847.38,-22.461,-932.617,43.945,-12.207,117611.818,331
1259,1686015847.384,-25.391,-138.184,174.316,-22.461,117611.822,331
1260,1686015847.403,-28.32,459.473,114.746,-28.809,117611.824,328
1261,1686015847.407,-30.762,248.047,142.578,-26.855,117611.828,327
1262,1686015847.411,-35.645,416.992,126.953,-28.809,117611.832,327
1263,1686015847.415,-37.598,494.141,59.57,-33.203,117611.836,327
1264,1686015847.419,-36.621,274.902,58.594,-28.32,117611.84,329
1265,1686015847.423,-33.203,-87.402,91.797,-17.09,117611.844,329
1266,1686015847.426,-42.969,88.379,137.695,-24.902,117611.848,329
1267,1686015847.43,-52.246,492.676,101.562,-40.039,117611.852,329
1268,1686015847.434,-46.387,249.023,13.184,-35.645,117611.855,329
1269,1686015847.438,-34.668,-381.836,137.695,-13.672,117611.859,329
1270,1686015847.442,-41.504,-20.02,205.566,-17.09,117611.863,329
1271,1686015847.446,-49.316,493.164,83.984,-29.785,117611.867,328
1272,1686015847.446,-44.922,162.109,41.016,-30.762,117611.867,328
1273,1686015847.45,-35.156,-28.809,140.137,-24.902,117611.871,328
1274,1686015847.454,-31.25,391.602,145.02,-23.438,117611.875,328
1275,1686015847.458,-45.41,480.957,62.988,-39.551,117611.879,325
1276,1686015847.462,-47.852,82.52,39.551,-48.828,117611.883,325
1277,1686015847.466,-42.969,-90.82,81.543,-41.992,117611.887,325
1278,1686015847.469,-42.969,16.113,94.238,-29.785,117611.891,325
1279,1686015847.473,-52.734,165.039,69.824,-38.574,117611.895,325
1280,1686015847.477,-53.223,-275.879,-28.809,-47.363,117611.899,323
1281,1686015847.481,-44.922,-898.438,81.543,-36.621,117611.902,323
1282,1686015847.485,-47.852,88.379,198.242,-31.25,117611.906,323
1283,1686015847.489,-51.758,534.668,59.57,-40.039,117611.91,323
1284,1686015847.493,-49.316,-6.348,83.008,-53.711,117611.914,323
1285,1686015847.497,-47.363,155.273,144.043,-60.059,117611.918,323
1286,1686015847.501,-41.504,574.707,102.051,-40.527,117611.922,323
1287,1686015847.505,-39.062,443.848,34.668,-26.855,117611.926,325
1288,1686015847.509,-47.363,-172.852,95.703,-41.992,117611.93,325
1289,1686015847.513,-51.27,-184.082,125.0,-51.27,117611.933,325
1290,1686015847.516,-48.828,153.809,103.516,-48.34,117611.937,327
1291,1686015847.52,-45.898,222.656,62.012,-45.41,117611.941,327
1292,1686015847.524,-46.387,-518.066,43.945,-45.898,117611.945,327
1293,1686015847.528,-47.852,-181.641,140.137,-49.805,117611.949,325
1294,1686015847.532,-40.527,472.656,113.77,-42.48,117611.953,325
1295,1686015847.536,-38.574,312.012,59.57,-32.715,117611.957,325
