,timestamps,TP9,AF7,AF8,TP10,Secondary Timestamp,emg_signal
0,1686017786.86,-60.547,212.891,124.512,-38.574,119551.3,322.1128139433578
1,1686017786.87,-75.684,38.574,-26.855,-47.852,119551.303,310.94342596872946
2,1686017786.87,-72.754,-248.047,-107.91,-30.762,119551.307,309.4385060273452
3,1686017786.88,-70.801,267.09,156.738,-33.691,119551.311,305.8783965779509
4,1686017786.88,-68.848,471.68,147.461,-56.152,119551.315,310.1810612448996
5,1686017786.88,-74.219,-280.273,-208.008,-61.523,119551.319,316.19000341115634
6,1686017786.89,-74.219,-607.91,-251.953,-48.34,119551.323,315.05218551532147
7,1686017786.89,-58.594,283.691,192.383,-35.645,119551.327,317.6360359277379
8,1686017786.9,-52.246,468.262,135.742,-34.668,119551.331,318.3791304644127
9,1686017786.9,-56.641,-81.543,-83.496,-43.945,119551.335,312.7567697193038
10,1686017786.9,-57.617,-61.523,18.066,-48.828,119551.339,320.1760049971942
11,1686017786.91,-52.246,385.254,153.809,-28.809,119551.343,324.30752388975185
12,1686017786.93,-44.922,380.859,117.188,-13.672,119551.35,315.82417135665173
13,1686017786.93,-56.641,15.137,-19.531,-28.809,119551.354,312.26980490977354
14,1686017786.93,-66.406,-232.91,-139.16,-36.621,119551.358,312.99094162050574
15,1686017786.94,-54.199,103.027,46.387,-20.508,119551.362,316.1243517429646
16,1686017786.94,-47.363,426.758,138.672,-16.602,119551.365,308.1142232582856
17,1686017786.95,-60.059,-394.531,-260.254,-20.02,119551.369,309.72869367526744
18,1686017786.95,-63.477,-657.715,-231.934,-26.367,119551.373,316.0103867698033
19,1686017786.95,-44.922,205.566,153.809,-13.184,119551.377,321.7444146622482
20,1686017786.96,-45.898,281.25,90.332,-3.906,119551.381,310.6756389217394
21,1686017786.96,-61.523,-565.43,-263.672,-20.508,119551.385,316.078680851896
22,1686017786.96,-66.895,-501.953,-170.41,-25.879,119551.389,317.6817801805487
23,1686017786.97,-65.43,333.496,177.246,-24.414,119551.393,314.7788732773423
24,1686017786.97,-51.758,237.305,64.453,-9.766,119551.392,316.21840194820834
25,1686017786.97,-45.41,98.633,18.066,-12.695,119551.396,317.67044944591566
26,1686017786.98,-53.223,273.438,103.516,-36.133,119551.4,316.03600079989496
27,1686017786.98,-60.547,305.664,82.52,-29.785,119551.404,316.1745594194973
28,1686017786.99,-60.059,58.594,-11.23,-13.672,119551.408,317.63051193839436
29,1686017786.99,-60.059,-177.246,-49.805,-19.043,119551.412,317.5883835689369
30,1686017786.99,-74.707,-196.289,-57.617,-44.434,119551.416,315.15600983693713
31,1686017787.0,-82.52,126.953,68.848,-50.293,119551.42,313.4316673978973
32,1686017787.0,-72.266,-135.742,-75.195,-20.996,119551.424,312.4551663819567
33,1686017787.0,-65.43,-857.422,-347.168,-2.441,119551.427,316.63619755864715
34,1686017787.01,-70.312,-106.934,47.852,-17.09,119551.431,309.35171447727663
35,1686017787.01,-71.777,340.82,98.145,-36.133,119551.435,316.66491858692086
36,1686017787.02,-62.988,50.293,16.602,-20.02,119551.45,319.00183948861076
37,1686017787.02,-54.199,189.453,97.168,5.859,119551.454,315.4531008612459
38,1686017787.02,-53.711,390.625,115.234,-10.254,119551.458,318.8998446682317
39,1686017787.03,-62.5,229.98,21.973,-41.992,119551.462,312.077541668363
40,1686017787.03,-74.707,-18.066,-22.461,-42.969,119551.466,314.6686822763902
41,1686017787.04,-73.242,-106.445,24.902,-24.414,119551.47,315.7202498417076
42,1686017787.04,-68.359,-31.25,29.785,-28.809,119551.474,314.49006031344527
43,1686017787.04,-77.637,6.836,-8.301,-55.664,119551.477,316.6148354956128
44,1686017787.05,-85.449,-667.48,-378.906,-56.152,119551.481,318.2950823485999
45,1686017787.05,-80.078,-986.816,-378.418,-24.902,119551.485,313.0310419908901
46,1686017787.05,-73.73,-44.922,122.07,-19.043,119551.489,318.57365845893986
47,1686017787.06,-67.871,99.609,22.949,-36.621,119551.493,320.95526762975123
48,1686017787.06,-75.684,-146.484,-86.426,-47.363,119551.481,310.4564996490483
49,1686017787.06,-73.242,310.059,158.203,-36.133,119551.485,313.49839558133
50,1686017787.07,-60.059,564.453,214.844,-25.391,119551.489,310.9108409405031
51,1686017787.07,-65.43,232.422,17.09,-40.039,119551.493,311.92812033067565
52,1686017787.08,-70.312,-68.359,-68.359,-42.48,119551.497,319.3877854990108
53,1686017787.08,-64.941,-57.129,28.809,-26.855,119551.501,308.54873588144187
54,1686017787.08,-56.641,48.828,90.332,-15.625,119551.505,318.36545941921094
55,1686017787.09,-60.059,-264.648,-125.0,-23.438,119551.508,309.27356843339066
56,1686017787.09,-72.754,-586.914,-245.117,-38.574,119551.512,317.937710075186
57,1686017787.1,-68.359,3.418,83.008,-38.574,119551.516,305.95365125823275
58,1686017787.1,-52.246,209.473,145.996,-22.461,119551.52,309.97814343582274
59,1686017787.1,-48.34,-394.043,-155.273,-14.648,119551.524,312.64361198922137
60,1686017787.1,-66.406,-659.668,-239.746,-40.527,119551.526,308.94049947712915
61,1686017787.11,-78.613,140.625,114.258,-50.781,119551.53,315.2614271283059
62,1686017787.11,-70.801,335.449,95.215,-16.113,119551.534,319.1227128235639
63,1686017787.12,-63.477,210.938,100.098,-4.395,119551.538,316.15479895447766
64,1686017787.12,-68.848,226.562,90.82,-32.227,119551.542,315.453132779504
65,1686017787.12,-77.637,2.441,-10.742,-49.805,119551.546,317.68780350331343
66,1686017787.13,-80.566,-82.031,24.902,-42.969,119551.549,309.3895280267901
67,1686017787.13,-74.707,-431.641,-105.469,-25.879,119551.553,317.26469957473125
68,1686017787.14,-77.637,-558.105,-91.797,-33.203,119551.557,317.3137688296589
69,1686017787.14,-75.195,31.738,102.051,-46.387,119551.561,316.1501209489316
70,1686017787.14,-54.688,109.863,46.875,-24.414,119551.565,314.4516632154646
71,1686017787.15,-44.922,-14.16,3.418,-6.836,119551.569,315.633753383293
72,1686017787.15,-46.387,89.355,49.805,-21.484,119551.575,314.58107617078554
73,1686017787.16,-50.781,190.43,96.68,-36.621,119551.579,315.576400928206
74,1686017787.16,-50.293,88.867,-5.859,-20.996,119551.582,319.98380770716994
75,1686017787.16,-43.945,-580.566,-239.258,0.488,119551.586,308.66066944591176
76,1686017787.17,-47.852,-183.594,19.531,-7.324,119551.59,314.58844507297755
77,1686017787.17,-56.641,210.938,104.98,-28.809,119551.594,314.7754152885798
78,1686017787.17,-61.523,-375.0,-180.664,-29.785,119551.598,319.4199910810276
79,1686017787.18,-64.453,-537.109,-164.551,-15.137,119551.602,308.80874288584874
80,1686017787.18,-64.941,288.086,203.125,-19.043,119551.606,316.8119644785579
81,1686017787.19,-57.129,496.094,146.973,-21.484,119551.61,321.86835049448183
82,1686017787.19,-61.035,63.477,-44.922,-21.484,119551.614,317.6716645779625
83,1686017787.19,-62.988,168.945,49.316,-20.02,119551.618,319.85866488012084
84,1686017787.2,-43.457,512.695,181.641,-9.766,119551.63,304.3976691128
85,1686017787.2,-46.387,451.172,119.629,-17.09,119551.634,328.17990934702334
86,1686017787.2,-67.383,45.41,-54.199,-37.598,119551.638,318.9213353669477
87,1686017787.21,-67.383,-69.336,-18.066,-26.855,119551.642,318.3747507877343
88,1686017787.21,-54.199,245.605,120.117,-9.277,119551.646,310.19310148601596
89,1686017787.22,-59.57,243.652,76.172,-19.043,119551.65,314.39448905277504
90,1686017787.22,-70.801,-553.223,-277.344,-19.531,119551.654,322.0471497702869
91,1686017787.22,-64.453,-714.844,-278.809,-8.789,119551.658,312.1553481759929
92,1686017787.23,-60.059,4.883,130.859,3.906,119551.662,310.6479948724909
93,1686017787.23,-67.383,11.719,24.414,-3.906,119551.665,312.4312311573688
94,1686017787.23,-69.336,-339.844,-149.414,-26.855,119551.669,312.36832561711475
95,1686017787.24,-56.641,-106.934,-14.648,-26.367,119551.673,311.6343169383963
96,1686017787.24,-38.086,416.992,176.758,-8.301,119551.676,316.91344245821307
97,1686017787.24,-39.551,269.043,70.801,-13.184,119551.68,321.19218689931574
98,1686017787.25,-56.641,88.867,17.09,-35.645,119551.684,318.8613061753086
99,1686017787.25,-57.617,250.0,94.238,-38.086,119551.688,319.27588981548143
100,1686017787.26,-57.617,345.215,116.211,-20.996,119551.692,314.8063744061549
101,1686017787.26,-54.199,-99.609,-88.867,-6.348,119551.695,309.1222065453073
102,1686017787.26,-55.176,-512.695,-285.156,-10.742,119551.699,307.43032553000364
103,1686017787.27,-65.918,-254.883,-133.789,-26.855,119551.703,316.5057776543341
104,1686017787.27,-61.035,209.473,101.562,-22.949,119551.707,310.05928869737
105,1686017787.28,-51.758,-175.781,-111.328,-1.953,119551.711,315.4914198483642
106,1686017787.28,-49.805,-635.742,-262.207,-7.324,119551.715,316.4398236029428
107,1686017787.28,-62.012,98.633,109.375,-32.715,119551.719,317.4851248274002
108,1686017787.3,-65.43,247.07,72.754,-36.621,119551.735,319.66840472467095
109,1686017787.3,-54.199,8.789,-0.488,-18.555,119551.739,323.4093480052852
110,1686017787.31,-50.781,111.328,52.246,-8.301,119551.743,313.0173347713599
111,1686017787.31,-67.383,294.434,83.984,-32.227,119551.747,310.27431702602183
112,1686017787.32,-74.219,188.965,13.672,-41.992,119551.751,313.4931070634991
113,1686017787.32,-60.547,-208.008,-125.0,-23.926,119551.754,312.5444157315726
114,1686017787.32,-62.012,-107.91,-14.16,-14.648,119551.758,313.7810712481103
115,1686017787.33,-59.082,248.047,120.605,-26.367,119551.762,321.0325652752902
116,1686017787.33,-58.594,26.855,-34.668,-39.062,119551.766,307.85984791074435
117,1686017787.34,-57.129,-718.262,-373.047,-15.137,119551.77,320.2206378875209
118,1686017787.34,-46.875,-799.805,-245.117,8.301,119551.774,309.0000562560071
119,1686017787.34,-48.34,196.777,202.637,-11.719,119551.778,313.0769764195361
120,1686017787.36,-47.852,124.512,-10.254,-35.645,119551.781,315.60729449595124
121,1686017787.36,-48.828,-191.895,-106.445,-28.809,119551.785,318.0344865841272
122,1686017787.37,-47.363,309.082,155.273,-12.207,119551.789,323.90501198693727
123,1686017787.37,-50.293,532.227,194.824,-13.184,119551.793,323.53281544120193
124,1686017787.38,-60.547,68.359,-48.828,-30.762,119551.797,310.7198274926762
125,1686017787.38,-68.848,-427.734,-260.742,-38.574,119551.801,317.05377510202214
126,1686017787.38,-62.012,-59.57,29.297,-27.344,119551.805,324.3456097321388
127,1686017787.39,-45.898,458.984,223.145,-22.461,119551.809,307.6273403142549
128,1686017787.39,-57.617,-367.676,-151.367,-27.344,119551.825,318.63143068786684
129,1686017787.39,-48.34,-174.316,-160.156,-30.762,119551.813,312.3040708575254
130,1686017787.39,-67.383,-444.824,-148.926,-36.133,119551.828,313.7519121561369
131,1686017787.4,-59.082,-658.691,-272.949,-33.691,119551.817,309.3308205326265
132,1686017787.4,-65.43,297.852,162.109,-23.438,119551.832,311.44147852268367
133,1686017787.4,-56.641,11.719,62.988,-21.484,119551.82,312.50007098771135
134,1686017787.4,-48.828,363.77,92.285,-11.23,119551.836,319.09146703202754
135,1686017787.4,-54.199,188.965,91.797,-13.672,119551.824,321.1943960076422
136,1686017787.41,-43.457,142.578,44.922,-21.973,119551.84,306.78575413809267
137,1686017787.41,-54.199,-145.996,2.93,-33.691,119551.844,313.3624377792012
138,1686017787.41,-61.523,-27.344,35.156,-36.133,119551.848,308.3088346258211
139,1686017787.42,-60.059,246.582,95.703,-24.414,119551.852,310.1591546908811
140,1686017787.42,-63.477,-113.77,0.0,-21.484,119551.856,314.7014267634764
141,1686017787.42,-74.707,-167.48,1.953,-35.645,119551.86,319.37645607126655
142,1686017787.43,-79.59,221.191,105.957,-41.016,119551.864,309.1442364751581
143,1686017787.43,-63.477,297.852,99.121,-21.973,119551.868,306.00308060878876
144,1686017787.45,-48.34,-556.641,-285.156,-0.977,119551.881,315.2976749818141
145,1686017787.46,-59.082,-874.023,-331.055,-14.648,119551.885,312.0216056965351
146,1686017787.46,-78.613,80.078,100.586,-37.109,119551.888,318.3339720983585
147,1686017787.46,-73.73,77.637,-4.395,-22.949,119551.892,312.36908725638864
148,1686017787.47,-56.641,-206.055,-119.141,-11.719,119551.896,315.88513359959495
149,1686017787.47,-62.5,-21.484,51.758,-26.367,119551.9,316.21440944067086
150,1686017787.47,-75.195,-27.344,6.348,-44.434,119551.904,318.25480023329453
151,1686017787.48,-68.848,-344.238,-178.223,-41.016,119551.908,307.86135838749027
152,1686017787.48,-57.129,103.516,56.641,-18.555,119551.901,313.3706000134719
153,1686017787.48,-56.152,-454.59,-141.602,-20.508,119551.912,308.03815267470105
154,1686017787.48,-57.617,514.16,194.824,-16.113,119551.905,321.85209735755154
155,1686017787.49,-50.293,351.074,198.73,-30.762,119551.916,315.9898798903654
156,1686017787.49,-68.359,380.371,99.121,-39.551,119551.909,313.6898438120385
157,1686017787.49,-60.059,432.617,115.234,-49.316,119551.92,310.2663929121603
158,1686017787.49,-72.266,-9.277,-64.453,-47.363,119551.913,313.6371802190489
159,1686017787.49,-65.43,-56.641,-68.359,-40.039,119551.924,314.6663770397821
160,1686017787.5,-57.617,-112.793,-24.902,-26.855,119551.917,310.54365348333454
161,1686017787.5,-65.43,-2.441,75.684,-18.555,119551.921,311.46329229880143
162,1686017787.5,-82.031,-40.039,3.906,-39.062,119551.925,315.7722846150267
163,1686017787.51,-78.125,-168.945,-69.336,-42.48,119551.929,320.7705397736876
164,1686017787.51,-77.148,-148.438,-18.555,-22.949,119551.932,304.9462269155221
165,1686017787.52,-71.289,97.168,104.004,-9.277,119551.936,312.49094273571393
166,1686017787.52,-62.5,288.574,113.281,-16.113,119551.94,317.88869065578035
167,1686017787.52,-70.312,-557.129,-315.43,-24.414,119551.944,322.60994802794465
168,1686017787.52,-69.336,-951.66,-391.602,-11.719,119551.946,311.3681207695778
169,1686017787.53,-58.105,71.777,114.746,-7.812,119551.95,312.5923951452027
170,1686017787.53,-58.105,289.062,87.891,-15.137,119551.954,317.7610984749562
171,1686017787.54,-63.965,42.48,-12.207,-25.879,119551.958,315.8001080528398
172,1686017787.54,-66.895,258.789,91.797,-28.809,119551.962,310.7195324282478
173,1686017787.54,-54.199,160.645,90.82,-16.113,119551.965,315.93175161975336
174,1686017787.55,-46.387,-247.07,-112.793,-14.16,119551.969,310.24106000314407
175,1686017787.55,-54.688,-791.992,-343.75,-32.227,119551.973,311.70188703120436
176,1686017787.56,-59.57,-230.469,14.16,-41.992,119551.977,313.0950172429387
177,1686017787.56,-55.176,455.078,187.988,-38.086,119551.981,318.08195138568
178,1686017787.56,-53.223,240.234,108.887,-29.297,119551.985,315.23162476438637
179,1686017787.57,-61.523,217.773,103.516,-32.227,119551.989,315.6618613205136
180,1686017787.57,-57.129,402.344,127.93,-39.551,119552.005,311.6988862730804
181,1686017787.57,-41.016,349.609,93.75,-23.926,119552.008,312.86486695980005
182,1686017787.58,-41.504,221.191,97.656,-6.836,119552.012,315.8666491681212
183,1686017787.58,-48.828,240.723,103.516,-20.996,119552.016,312.3525385250986
184,1686017787.59,-63.965,266.602,68.359,-44.434,119552.02,313.30550652837474
185,1686017787.59,-71.777,49.316,25.879,-34.668,119552.024,317.23476622459435
186,1686017787.59,-56.641,-562.5,-195.801,-5.859,119552.028,309.3870954732607
187,1686017787.6,-58.105,-359.375,-46.387,-5.859,119552.032,316.57749156291624
188,1686017787.6,-63.965,45.41,61.523,-29.297,119552.036,329.58475267766505
189,1686017787.6,-74.219,-185.059,-102.539,-29.785,119552.04,313.0972898097515
190,1686017787.61,-66.895,-648.926,-252.441,-8.301,119552.044,317.4905272424909
191,1686017787.61,-44.434,-402.832,-70.801,-3.418,119552.048,319.7727354899791
192,1686017787.62,-46.387,430.664,171.875,-27.832,119552.05,308.54004807346473
193,1686017787.62,-54.199,94.238,-30.762,-41.992,119552.054,325.08796706949266
194,1686017787.62,-50.293,-35.156,2.93,-22.461,119552.058,316.8754748350066
195,1686017787.63,-43.457,407.715,168.457,0.0,119552.062,318.34884297983393
196,1686017787.63,-53.711,491.699,134.766,-21.484,119552.066,317.6301559081382
197,1686017787.64,-63.965,-222.168,-182.617,-36.621,119552.07,314.15235350489945
198,1686017787.64,-58.594,-597.656,-251.953,-20.508,119552.074,316.9544812243199
199,1686017787.64,-50.781,232.422,169.434,-9.766,119552.078,317.5355207456971
200,1686017787.65,-50.293,515.137,168.457,-8.301,119552.082,316.84081083448837
201,1686017787.65,-56.641,-27.344,-61.035,-24.414,119552.086,318.93712595130893
202,1686017787.65,-63.965,-84.473,-12.207,-32.227,119552.089,315.91441861884016
203,1686017787.66,-56.152,213.379,81.543,-17.09,119552.093,318.44407361889796
204,1686017787.68,-50.293,74.219,8.789,-19.531,119552.096,313.90080970413464
205,1686017787.68,-67.871,-353.027,-114.258,-42.969,119552.1,319.09999702132865
206,1686017787.68,-78.613,-283.691,-33.203,-43.457,119552.104,322.36471188098494
207,1686017787.69,-62.012,258.789,134.277,-23.926,119552.108,324.0916537101104
208,1686017787.69,-55.176,291.016,73.73,-17.09,119552.112,317.8502564786913
209,1686017787.7,-68.848,-148.926,-109.863,-29.785,119552.116,329.76893816818523
210,1686017787.7,-79.59,-377.441,-169.434,-45.41,119552.119,320.5634411409799
211,1686017787.7,-78.125,65.918,43.945,-30.273,119552.123,325.4639430996394
212,1686017787.71,-70.312,179.199,110.352,-16.602,119552.127,319.23410450888446
213,1686017787.71,-77.637,-662.598,-326.66,-35.645,119552.131,320.7700126322195
214,1686017787.71,-88.867,-718.75,-277.344,-58.594,119552.135,326.8494135620693
215,1686017787.72,-74.707,220.703,161.621,-47.852,119552.139,327.28217182070756
216,1686017787.74,-62.988,209.961,62.5,-26.367,119552.16,330.1996570900312
217,1686017787.74,-76.66,69.336,24.902,-35.156,119552.164,331.7877283419053
218,1686017787.74,-84.961,34.18,11.719,-48.34,119552.168,334.09821299173217
219,1686017787.75,-72.266,141.602,71.289,-42.969,119552.172,325.8920239075654
220,1686017787.75,-63.477,54.199,-30.273,-22.461,119552.176,335.00573145745074
221,1686017787.76,-65.43,-470.703,-289.551,-18.555,119552.18,339.2140127998963
222,1686017787.76,-66.895,-227.051,-81.543,-35.645,119552.184,342.8859086929688
223,1686017787.76,-63.965,218.75,119.629,-40.527,119552.187,337.549759959209
224,1686017787.76,-76.172,20.508,11.23,-41.504,119552.186,339.85832921483706
225,1686017787.77,-65.43,-191.406,-129.395,-16.602,119552.191,341.9249072747731
226,1686017787.77,-66.406,230.469,94.727,-26.367,119552.19,335.00219243964165
227,1686017787.77,-63.477,-584.961,-224.121,1.465,119552.195,341.0496039818366
228,1686017787.77,-68.359,448.73,133.301,-25.391,119552.194,350.76146450024805
229,1686017787.78,-74.219,163.086,135.254,-28.809,119552.199,344.50265019234195
230,1686017787.78,-72.266,257.324,20.02,-38.086,119552.198,344.547897475468
231,1686017787.78,-84.961,297.852,96.68,-48.828,119552.203,344.100998837779
232,1686017787.78,-60.547,-61.523,-52.246,-30.273,119552.202,334.83552761314587
233,1686017787.78,-48.828,-143.555,-21.973,-5.371,119552.206,345.7980854204764
234,1686017787.79,-50.293,-79.102,35.645,-15.137,119552.21,346.64687833113254
235,1686017787.79,-65.918,-167.969,-67.383,-46.875,119552.214,358.6047718830012
236,1686017787.8,-76.66,-462.891,-220.703,-52.246,119552.218,348.48224829449964
237,1686017787.8,-62.988,-128.418,6.348,-37.109,119552.222,350.7997168090544
238,1686017787.8,-47.852,412.598,176.758,-24.902,119552.226,351.894761994349
239,1686017787.81,-50.293,270.02,50.781,-26.855,119552.229,352.58990144740375
240,1686017787.81,-56.152,-645.508,-350.098,-20.996,119552.247,352.91620862205457
241,1686017787.81,-59.082,-903.809,-337.402,-5.859,119552.251,350.21690459104786
242,1686017787.82,-55.664,102.051,130.371,-4.395,119552.254,352.7697099713523
243,1686017787.82,-54.688,246.094,70.801,-12.207,119552.258,347.27753205668006
244,1686017787.83,-59.57,-25.391,-63.477,-30.273,119552.262,350.06130440404263
245,1686017787.83,-53.711,-27.832,21.484,-24.414,119552.266,365.0246023259582
246,1686017787.83,-53.711,134.766,133.789,-3.906,119552.27,345.031979418375
247,1686017787.84,-54.688,-97.656,-44.922,-1.465,119552.274,353.8400499008566
248,1686017787.84,-54.199,-871.582,-360.84,-13.184,119552.278,354.6064818045385
249,1686017787.84,-54.688,-216.309,22.949,-18.066,119552.282,356.143619269809
250,1686017787.85,-37.109,453.613,209.961,1.465,119552.286,353.58448444207096
251,1686017787.85,-32.227,174.316,82.52,2.441,119552.29,354.23009228130957
252,1686017787.86,-48.828,127.441,63.965,-29.297,119552.276,352.0253255440992
253,1686017787.86,-57.129,362.793,131.836,-36.133,119552.28,358.84869570782104
254,1686017787.86,-50.781,381.348,126.953,-6.836,119552.284,359.4163163855568
255,1686017787.87,-51.27,241.699,125.0,-4.883,119552.288,354.49299009548423
256,1686017787.87,-56.641,157.227,73.242,-24.414,119552.292,348.7942032832659
257,1686017787.88,-55.664,-58.594,-138.184,-29.297,119552.296,346.32992803000394
258,1686017787.88,-51.27,-166.016,-114.746,-15.625,119552.3,351.03445740381744
259,1686017787.88,-43.457,-233.398,-41.992,-2.93,119552.304,343.63808184679397
260,1686017787.89,-51.27,-226.562,-40.039,-20.02,119552.308,347.33323492996686
261,1686017787.89,-69.824,-119.141,0.0,-35.156,119552.312,347.5147957435619
262,1686017787.89,-62.988,-28.32,53.223,-17.09,119552.315,343.5816992946567
263,1686017787.9,-43.945,-650.879,-270.02,13.184,119552.319,347.47582924985034
264,1686017787.9,-44.922,-755.371,-224.609,3.906,119552.321,352.0645916406908
265,1686017787.9,-53.711,204.59,161.133,-28.809,119552.325,342.94589262914803
266,1686017787.91,-47.363,117.188,-1.465,-23.438,119552.329,351.34721489167976
267,1686017787.91,-38.086,66.406,41.016,2.441,119552.333,348.6729043562963
268,1686017787.92,-41.504,445.312,154.785,5.371,119552.337,343.1716392402938
269,1686017787.92,-62.012,209.961,63.477,-22.949,119552.341,339.98630721534744
270,1686017787.92,-60.547,-422.852,-188.477,-22.949,119552.344,347.65422964901785
271,1686017787.93,-46.387,-591.309,-196.777,-3.906,119552.348,349.7171029604305
272,1686017787.93,-39.062,258.789,183.594,0.488,119552.352,340.36255907033586
273,1686017787.94,-57.617,514.648,154.785,-30.762,119552.356,347.3838919681422
274,1686017787.94,-76.172,42.48,-27.832,-55.176,119552.36,338.177179631992
275,1686017787.94,-60.547,112.793,39.551,-23.438,119552.364,346.01706807142256
276,1686017787.96,-52.246,326.66,134.277,-1.465,119552.382,338.7452870290971
277,1686017787.96,-58.594,104.98,20.02,-21.973,119552.386,345.1590854132058
278,1686017787.97,-62.012,-318.848,-117.188,-38.574,119552.39,337.10308160715863
279,1686017787.97,-62.988,-162.109,20.02,-23.438,119552.394,340.03555145774453
280,1686017787.98,-53.223,319.824,124.023,-8.789,119552.398,342.0653200427785
281,1686017787.98,-53.223,108.398,27.344,-13.184,119552.402,333.67793785536855
282,1686017787.98,-64.453,-571.777,-220.703,-20.02,119552.406,335.967847989177
283,1686017787.99,-68.359,-404.297,-127.441,-21.484,119552.41,342.15017781047834
284,1686017787.99,-50.781,416.016,193.848,-22.461,119552.426,341.00321699059805
285,1686017787.99,-61.523,213.379,136.719,-18.066,119552.413,335.7876650973242
286,1686017787.99,-46.387,287.109,69.336,-16.113,119552.43,335.1345608899939
287,1686017788.0,-52.246,-15.137,9.277,-21.484,119552.417,337.71472098369077
288,1686017788.0,-51.758,38.574,-22.949,-33.203,119552.433,337.12386534011085
289,1686017788.0,-62.012,-380.859,-145.996,-35.645,119552.421,334.3696571793994
290,1686017788.0,-62.012,-28.32,3.906,-45.41,119552.437,332.81936753964663
291,1686017788.0,-65.43,-119.141,-0.977,-39.062,119552.425,337.62066307788166
292,1686017788.01,-61.523,202.148,102.539,-27.832,119552.441,342.22183016640105
293,1686017788.01,-46.387,-96.68,-91.309,-6.348,119552.445,339.59385542072425
294,1686017788.01,-42.48,-396.484,-190.918,-12.207,119552.449,341.42150723325017
295,1686017788.02,-58.594,104.004,96.68,-29.785,119552.453,345.3564305751422
296,1686017788.02,-52.734,352.539,154.297,-28.809,119552.457,340.53289459286214
297,1686017788.02,-35.645,-136.23,-96.191,-0.977,119552.461,330.36102915229526
298,1686017788.03,-45.41,-670.898,-236.328,0.0,119552.465,328.501344096604
299,1686017788.03,-54.199,-6.836,80.566,-31.25,119552.469,329.40349830562303
300,1686017788.05,-56.152,232.422,66.895,-37.109,119552.474,326.885380017291
301,1686017788.06,-52.734,73.73,76.66,-16.113,119552.478,331.90957855883244
302,1686017788.06,-39.551,250.488,137.695,-7.812,119552.482,338.50177041352504
303,1686017788.07,-49.805,394.043,121.094,-25.391,119552.486,330.87570074362065
304,1686017788.07,-59.57,180.176,31.25,-30.273,119552.49,328.3036719390979
305,1686017788.07,-49.316,-208.008,-105.957,-15.137,119552.494,337.80909426337956
306,1686017788.08,-40.527,-216.309,-49.316,0.977,119552.498,329.7550035037318
307,1686017788.08,-41.016,27.344,54.199,-4.883,119552.502,330.29568470610894
308,1686017788.08,-52.734,50.293,-8.789,-30.273,119552.505,329.019630162849
309,1686017788.09,-56.152,-672.852,-376.465,-19.531,119552.509,331.463213473182
310,1686017788.09,-45.898,-803.223,-252.441,-6.348,119552.513,326.57207854242284
311,1686017788.1,-65.918,231.934,17.09,-35.156,119552.516,327.73649062830737
312,1686017788.1,-51.27,211.914,197.266,-21.484,119552.517,318.69808845848115
313,1686017788.1,-56.641,-14.16,-52.734,-28.809,119552.52,325.51164142550124
314,1686017788.1,-31.738,329.102,145.996,-2.441,119552.524,325.28218910874256
315,1686017788.11,-40.039,487.793,176.758,-3.418,119552.528,328.11193782467234
316,1686017788.11,-72.266,150.391,-7.324,-35.645,119552.532,324.627514891073
317,1686017788.12,-83.984,-312.5,-191.406,-46.875,119552.536,327.4078980290975
318,1686017788.12,-68.848,-154.297,5.859,-20.508,119552.54,330.14550423203195
319,1686017788.12,-54.199,339.844,188.965,-6.836,119552.543,316.95669554657195
320,1686017788.13,-56.641,-183.105,-154.785,-19.043,119552.547,328.3504999888103
321,1686017788.13,-68.848,-751.953,-298.828,-32.227,119552.551,321.7831212822878
322,1686017788.13,-67.383,60.547,120.117,-27.344,119552.555,324.0920758461915
323,1686017788.14,-60.059,516.602,175.293,-10.742,119552.559,326.45845203468195
324,1686017788.14,-59.082,-125.0,-80.566,-20.508,119552.564,329.13719239982794
325,1686017788.14,-61.035,-320.312,-47.363,-36.621,119552.568,329.6797114507105
326,1686017788.15,-52.246,304.199,152.832,-19.531,119552.572,319.71487911486946
327,1686017788.15,-47.363,386.23,99.121,0.977,119552.576,320.10258778716377
328,1686017788.16,-58.594,164.062,41.016,-10.254,119552.58,322.2866885331841
329,1686017788.16,-63.965,-180.176,-88.379,-29.785,119552.584,320.4109134066506
330,1686017788.16,-64.453,-118.164,-18.066,-31.25,119552.588,318.03817390972546
331,1686017788.17,-50.293,332.031,160.156,-9.766,119552.592,328.79150271192367
332,1686017788.17,-40.039,-414.551,-245.117,-2.93,119552.596,315.1219675273052
333,1686017788.18,-46.875,-772.949,-278.32,-22.949,119552.6,321.7060970047159
334,1686017788.18,-55.664,85.449,98.145,-39.062,119552.603,322.62098127590014
335,1686017788.18,-50.781,0.977,-10.742,-21.973,119552.607,321.4807179608909
336,1686017788.19,-47.363,-89.355,2.441,-8.789,119552.61,311.12000118986265
337,1686017788.19,-49.316,282.715,129.395,-16.113,119552.613,322.4333657550688
338,1686017788.19,-48.828,382.812,126.953,-27.344,119552.617,321.09246201204456
339,1686017788.2,-51.27,14.648,-37.109,-11.719,119552.621,315.8611050477772
340,1686017788.2,-52.734,-136.23,-98.633,3.418,119552.625,309.2866289587008
341,1686017788.21,-61.523,-30.273,-4.883,-20.508,119552.629,312.63122701617027
342,1686017788.21,-65.43,61.035,68.359,-39.551,119552.633,313.594402640228
343,1686017788.21,-59.57,-114.746,-64.453,-23.926,119552.637,313.52461960644763
344,1686017788.22,-55.664,-809.57,-332.52,-1.953,119552.641,311.06864547278445
345,1686017788.22,-57.617,-153.809,58.105,-15.625,119552.645,312.85435462958645
346,1686017788.22,-64.453,370.117,133.789,-41.504,119552.649,313.3364692474942
347,1686017788.23,-62.012,-8.301,-53.711,-32.715,119552.652,308.4350875709792
348,1686017788.23,-51.27,147.949,54.199,-14.648,119552.655,312.1393208341116
349,1686017788.24,-42.969,294.434,111.328,-12.207,119552.659,316.94447776369947
350,1686017788.24,-54.688,-25.879,-39.062,-34.18,119552.662,317.52863963425716
351,1686017788.24,-62.5,-231.934,-144.043,-47.363,119552.666,308.2934926500748
352,1686017788.25,-54.688,38.574,18.555,-21.973,119552.67,311.3457514562547
353,1686017788.25,-56.641,83.008,61.035,-12.695,119552.674,313.0643802321321
354,1686017788.25,-59.082,-11.719,37.109,-32.715,119552.678,314.8678459503036
355,1686017788.26,-64.941,-531.25,-261.23,-35.156,119552.682,321.4853004307099
356,1686017788.26,-61.035,-826.172,-284.18,-19.043,119552.686,306.9397185868062
357,1686017788.27,-42.969,133.789,187.012,-11.23,119552.69,306.33404596744225
358,1686017788.27,-41.016,325.684,87.402,-20.508,119552.694,311.21721416573314
359,1686017788.27,-56.152,-323.242,-166.016,-26.855,119552.698,313.3484617801102
360,1686017788.28,-57.617,-43.945,43.945,-17.578,119552.696,305.1558186072731
361,1686017788.28,-44.922,514.16,226.074,-7.324,119552.7,305.26418448868594
362,1686017788.28,-44.922,261.23,25.879,-11.23,119552.704,309.07469888920264
363,1686017788.29,-53.223,0.488,-58.105,-31.25,119552.708,311.0660403973757
364,1686017788.29,-52.246,-5.859,23.926,-36.621,119552.711,307.4915568939694
365,1686017788.3,-49.805,22.949,75.684,-17.09,119552.715,304.56266998065644
366,1686017788.3,-48.828,-144.043,-85.938,-14.16,119552.719,311.007545374534
367,1686017788.3,-45.898,-780.762,-350.586,-24.902,119552.723,301.3794625295643
368,1686017788.31,-55.664,-300.781,-1.953,-34.668,119552.727,301.77396764532716
369,1686017788.31,-57.617,453.125,189.941,-22.461,119552.731,318.668715327869
370,1686017788.31,-49.805,177.246,73.73,-4.883,119552.735,309.55360107041497
371,1686017788.32,-43.457,56.152,54.199,-19.531,119552.739,309.5151411724073
372,1686017788.32,-55.664,335.938,96.68,-43.945,119552.757,305.6515147433149
373,1686017788.32,-62.012,288.574,74.707,-30.762,119552.761,303.11131274305006
374,1686017788.33,-49.316,143.555,103.027,-4.883,119552.765,314.15161707698576
375,1686017788.33,-52.734,263.184,129.395,-19.043,119552.769,305.903819295272
376,1686017788.34,-68.359,255.371,46.387,-44.922,119552.773,308.893500182369
377,1686017788.34,-67.383,23.926,29.785,-34.668,119552.777,307.64125153427085
378,1686017788.34,-52.246,-605.469,-240.723,1.953,119552.781,311.1759778394843
379,1686017788.35,-49.316,-595.215,-229.492,6.836,119552.785,306.29633743761883
380,1686017788.35,-49.316,-5.371,62.012,-23.926,119552.788,304.0122048729052
381,1686017788.36,-51.27,-139.16,-86.426,-41.504,119552.792,303.84267858330475
382,1686017788.36,-53.223,-537.109,-182.129,-25.879,119552.796,306.86144023224705
383,1686017788.36,-58.594,-166.992,49.316,-18.066,119552.8,302.35883771185786
384,1686017788.36,-70.312,520.996,208.008,-38.574,119552.801,304.2945519964
385,1686017788.37,-65.918,156.738,0.0,-42.48,119552.805,297.6217804283916
386,1686017788.37,-61.523,34.668,-20.996,-25.879,119552.809,305.9107399512844
387,1686017788.38,-59.57,399.414,150.879,-14.16,119552.813,305.38900901347284
388,1686017788.38,-66.406,446.289,136.23,-28.32,119552.817,303.2416928295041
389,1686017788.38,-72.266,-261.719,-218.262,-43.945,119552.821,304.0517696041762
390,1686017788.39,-62.012,-618.164,-266.602,-22.461,119552.825,308.8878076818457
391,1686017788.39,-57.617,166.992,145.508,-10.254,119552.828,302.1489145319873
392,1686017788.4,-65.918,526.855,178.711,-30.273,119552.832,304.9235501739024
393,1686017788.4,-73.73,-288.574,-193.359,-46.875,119552.836,312.17050186330033
394,1686017788.4,-68.848,-646.484,-234.375,-43.457,119552.84,299.6688077779343
395,1686017788.41,-54.199,255.859,170.41,-23.926,119552.844,305.12352125458335
396,1686017788.43,-53.223,416.016,118.652,-29.785,119552.846,298.5189583377769
397,1686017788.43,-62.988,12.695,-51.758,-54.199,119552.85,301.89461413948897
398,1686017788.43,-60.547,-2.441,-8.301,-49.805,119552.854,303.2938671444813
399,1686017788.44,-50.781,350.586,145.508,-30.762,119552.858,298.0699256785629
400,1686017788.44,-50.781,416.504,130.859,-23.438,119552.862,305.89378900230565
401,1686017788.45,-54.688,-134.766,-111.328,-30.762,119552.865,304.42364321654264
402,1686017788.45,-51.27,-322.266,-109.863,-31.25,119552.869,303.158174691005
403,1686017788.45,-58.105,201.172,130.859,-20.508,119552.873,299.6068903307739
404,1686017788.46,-67.383,291.504,122.07,-23.438,119552.877,297.3112529782918
405,1686017788.46,-63.965,-599.609,-294.922,-25.879,119552.881,301.1529743034207
406,1686017788.46,-69.336,-712.402,-279.785,-27.344,119552.885,293.2939374916794
407,1686017788.47,-70.312,117.676,112.305,-20.996,119552.889,306.8861991745893
408,1686017788.47,-57.617,-26.855,-4.883,1.953,119552.895,300.31864309631953
409,1686017788.48,-53.711,-244.141,-63.477,-1.953,119552.899,302.50063928134165
410,1686017788.48,-58.594,102.051,68.848,-19.043,119552.903,300.24357379215786
411,1686017788.48,-63.965,301.27,86.914,-18.066,119552.907,304.2889251472495
412,1686017788.49,-61.523,63.477,-1.953,-10.742,119552.91,311.9270056639187
413,1686017788.49,-55.664,-220.215,-61.035,-14.16,119552.914,304.8522449478087
414,1686017788.49,-67.383,-101.562,1.465,-34.668,119552.918,304.73965519690614
415,1686017788.5,-75.195,284.18,125.488,-45.41,119552.922,307.15524549891137
416,1686017788.5,-64.941,-184.57,-128.906,-22.461,119552.926,308.2371627670541
417,1686017788.51,-57.617,-616.211,-219.238,-0.488,119552.93,311.86583435487154
418,1686017788.51,-62.012,123.535,134.277,-20.996,119552.934,308.88386747658143
419,1686017788.51,-62.012,276.367,80.566,-35.645,119552.938,301.1781380345553
420,1686017788.52,-55.176,6.836,-21.973,-23.926,119552.95,301.8783536692075
421,1686017788.52,-54.688,142.09,41.504,-18.555,119552.954,304.2270296952261
422,1686017788.52,-58.594,120.117,49.316,-34.18,119552.958,305.14735402232606
423,1686017788.53,-65.43,-21.973,-9.277,-46.875,119552.962,304.90422764010805
424,1686017788.53,-61.035,-225.586,-136.719,-27.832,119552.966,302.2427438477305
425,1686017788.54,-50.781,-367.188,-134.766,6.836,119552.97,307.7067573502849
426,1686017788.54,-54.688,-173.828,20.996,3.418,119552.974,314.656866682213
427,1686017788.54,-66.895,43.457,29.297,-22.461,119552.978,304.8445792872822
428,1686017788.55,-72.754,-507.324,-284.18,-9.766,119552.982,304.79765283001296
429,1686017788.55,-66.406,-1000.0,-381.836,15.137,119552.985,308.97082319684125
430,1686017788.56,-60.547,-38.574,122.559,6.836,119552.989,313.22005025742834
431,1686017788.56,-58.594,223.145,83.496,-10.742,119552.993,317.1398392918759
432,1686017788.56,-64.453,-105.469,-62.988,-24.414,119553.01,309.56480017585426
433,1686017788.56,-64.941,243.652,142.09,-17.09,119553.014,312.7781517368254
434,1686017788.57,-56.152,512.695,214.844,4.883,119553.018,312.9399747394656
435,1686017788.57,-71.289,217.773,44.434,-11.23,119553.022,315.46837872261267
436,1686017788.58,-84.961,-124.023,-97.168,-36.621,119553.026,319.7793633265549
437,1686017788.58,-68.848,-134.277,-11.719,-21.973,119553.03,316.8559573825574
438,1686017788.58,-60.547,-80.566,55.664,-8.789,119553.034,317.30493441877235
439,1686017788.59,-72.754,-323.73,-107.91,-17.09,119553.037,317.9560285079099
440,1686017788.59,-82.52,-666.016,-291.016,-33.203,119553.041,320.11546995634643
441,1686017788.6,-68.359,-73.242,24.902,-26.855,119553.045,318.40340112689734
442,1686017788.6,-55.176,476.562,224.609,-9.766,119553.049,318.3387538426365
443,1686017788.6,-58.105,-142.578,-92.285,-14.16,119553.053,313.48525461446707
444,1686017788.6,-72.266,-505.371,-186.035,-28.809,119553.026,322.1228145861146
445,1686017788.61,-79.59,182.129,124.023,-38.574,119553.03,327.4931150636284
446,1686017788.61,-66.895,268.555,90.332,-22.461,119553.034,327.66745230812205
447,1686017788.62,-59.57,131.836,94.727,-13.184,119553.038,325.49598978828277
448,1686017788.62,-61.523,190.918,103.516,-25.391,119553.042,325.29275300151966
449,1686017788.62,-70.801,21.973,-3.418,-35.156,119553.046,322.1559105965451
450,1686017788.63,-66.406,-114.746,11.23,-28.32,119553.05,334.28706268800045
451,1686017788.63,-58.594,-528.809,-184.57,-12.695,119553.054,327.09277308639554
452,1686017788.64,-62.012,-693.848,-228.516,-19.043,119553.058,327.57921637276195
453,1686017788.64,-74.219,-52.734,67.871,-43.457,119553.061,326.3780670526432
454,1686017788.64,-74.219,102.539,48.34,-38.086,119553.065,319.1166698386687
455,1686017788.65,-65.43,-72.754,-14.648,-13.672,119553.069,328.75043474783735
456,1686017788.65,-71.777,181.152,99.609,-19.043,119553.071,323.4962167540286
457,1686017788.65,-85.938,411.621,150.391,-48.828,119553.075,329.49191434871113
458,1686017788.66,-85.938,141.602,12.695,-43.945,119553.079,329.73034917430584
459,1686017788.66,-70.801,-690.918,-305.664,-17.09,119553.083,329.1153749913069
460,1686017788.67,-67.871,-456.055,-89.844,-17.578,119553.086,326.5341591966228
461,1686017788.67,-66.895,120.117,104.004,-32.715,119553.09,325.14704697390073
462,1686017788.67,-64.941,-386.719,-196.289,-31.25,119553.094,328.7174893610451
463,1686017788.68,-77.637,-584.961,-173.828,-24.902,119553.098,327.39356710897164
464,1686017788.68,-81.055,227.539,205.078,-25.879,119553.102,323.0052109114645
465,1686017788.68,-68.359,525.879,162.598,-24.414,119553.106,323.47961653892634
466,1686017788.69,-69.336,-39.551,-32.715,-28.809,119553.11,321.10798186086
467,1686017788.69,-73.73,-17.578,24.902,-22.461,119553.114,323.00926340393835
468,1686017788.7,-58.105,483.887,185.547,-8.789,119553.13,327.68214322584856
469,1686017788.7,-55.664,402.344,103.027,-20.02,119553.134,323.66271366918585
470,1686017788.7,-69.824,-67.871,-68.359,-41.016,119553.138,317.57873039117806
471,1686017788.71,-65.43,-6.836,21.484,-41.016,119553.142,320.4077612158937
472,1686017788.71,-49.805,362.305,126.465,-19.043,119553.146,321.4084705841508
473,1686017788.72,-50.781,175.293,47.363,-23.438,119553.149,325.18921969382495
474,1686017788.72,-63.477,-566.406,-237.793,-38.574,119553.153,336.37153771196853
475,1686017788.72,-68.848,-507.324,-185.547,-37.109,119553.157,340.03450985064956
476,1686017788.73,-68.359,77.637,98.145,-18.555,119553.161,323.5110528336114
477,1686017788.73,-64.941,-16.113,39.551,-16.602,119553.165,328.5605944896046
478,1686017788.73,-73.242,-481.445,-195.801,-38.086,119553.169,332.39193110174136
479,1686017788.74,-75.195,-365.723,-120.117,-46.387,119553.173,327.5029681439493
480,1686017788.76,-69.336,188.965,123.535,-25.879,119553.18,319.5593228719997
481,1686017788.76,-63.477,-57.617,-36.133,-11.719,119553.184,319.46119314750604
482,1686017788.76,-60.059,-270.996,-89.844,-30.273,119553.188,324.5092309776097
483,1686017788.77,-64.941,78.125,84.961,-45.41,119553.192,320.0651276126519
484,1686017788.77,-57.617,314.453,116.699,-32.227,119553.196,316.9418469772571
485,1686017788.78,-48.34,-199.707,-149.414,-7.812,119553.199,313.76818297376576
486,1686017788.78,-51.27,-515.625,-214.844,-7.324,119553.203,325.09718515361084
487,1686017788.78,-61.035,91.797,111.328,-30.762,119553.207,321.8323832524897
488,1686017788.79,-56.641,354.492,118.164,-24.414,119553.211,317.63102128803166
489,1686017788.79,-43.945,-6.348,4.395,4.395,119553.215,317.49073692544926
490,1686017788.8,-39.551,-23.926,30.273,-7.324,119553.219,317.0162756396777
491,1686017788.8,-48.828,322.266,123.535,-32.715,119553.223,314.49188126862276
492,1686017788.8,-52.734,271.973,85.449,-25.391,119553.221,327.63639083139464
493,1686017788.8,-44.434,105.469,73.73,-7.812,119553.225,319.6326175475103
494,1686017788.81,-46.387,160.645,100.098,-6.836,119553.229,318.4932026754761
495,1686017788.81,-52.734,59.57,39.062,-18.066,119553.233,316.49327052817614
496,1686017788.82,-49.805,-11.23,-9.766,-20.02,119553.237,309.3458411835251
497,1686017788.82,-41.504,-226.562,-90.82,1.465,119553.241,320.12886197870574
498,1686017788.82,-47.363,-157.227,11.23,2.441,119553.245,319.48540362439536
499,1686017788.83,-65.918,259.766,122.07,-24.902,119553.249,322.5691625512022
500,1686017788.83,-73.242,34.18,-26.367,-38.574,119553.253,315.0924607796169
501,1686017788.84,-68.359,-672.363,-344.238,-16.602,119553.256,314.99229662204783
502,1686017788.84,-57.129,-980.957,-369.141,2.441,119553.26,316.0781780047649
503,1686017788.84,-50.781,-88.379,90.332,-10.254,119553.264,316.86257526070625
504,1686017788.84,-55.176,130.371,55.176,-28.809,119553.266,315.5587303487501
505,1686017788.85,-56.152,-83.496,-51.758,-30.273,119553.27,313.9868337643405
506,1686017788.85,-56.152,342.285,163.086,-12.207,119553.274,308.7439613462809
507,1686017788.86,-62.988,526.855,217.773,-9.277,119553.278,322.72454866727475
508,1686017788.86,-80.078,95.215,-29.785,-38.086,119553.282,317.4148471559958
509,1686017788.86,-81.543,-362.793,-233.887,-49.805,119553.286,313.30122903070367
510,1686017788.87,-70.312,-228.027,-38.086,-26.367,119553.29,313.7483317237941
511,1686017788.87,-70.312,188.965,155.762,-9.766,119553.293,305.49974453184444
512,1686017788.88,-77.637,-73.73,-83.984,-20.02,119553.297,323.4830212688491
513,1686017788.88,-87.891,-899.902,-416.504,-29.785,119553.301,317.081849300729
514,1686017788.88,-77.637,-229.004,21.484,-14.648,119553.305,315.70310557971703
515,1686017788.89,-57.617,461.914,222.656,-1.465,119553.309,311.8356589185264
516,1686017788.89,-64.941,151.855,13.184,-15.625,119553.311,307.6316469659671
517,1686017788.89,-73.242,73.242,6.348,-31.738,119553.315,307.882757768284
518,1686017788.9,-66.406,288.574,110.84,-26.367,119553.319,305.13699969579665
519,1686017788.9,-60.547,306.152,95.703,-5.859,119553.323,313.14479767359205
520,1686017788.91,-55.176,133.789,72.266,-13.672,119553.327,311.2229555088323
521,1686017788.91,-62.988,-195.312,-83.008,-34.18,119553.331,311.4003707354798
522,1686017788.91,-61.523,-123.535,-66.406,-30.762,119553.334,312.1094502986282
523,1686017788.92,-44.434,249.512,137.695,-8.789,119553.338,302.380852588587
524,1686017788.92,-56.641,-460.938,-225.586,2.441,119553.342,305.10974306562946
525,1686017788.92,-82.031,-926.758,-400.391,-28.809,119553.346,308.97276205925624
526,1686017788.93,-84.473,-66.895,50.293,-45.898,119553.35,305.0358311662113
527,1686017788.93,-71.289,218.262,89.355,-17.578,119553.354,314.5326352314062
528,1686017788.94,-61.035,-279.297,-140.137,2.441,119553.356,308.0952934901127
529,1686017788.94,-71.289,-39.551,13.184,-12.695,119553.36,312.04997021359367
530,1686017788.94,-77.637,352.051,132.812,-27.344,119553.364,308.0479536365847
531,1686017788.95,-70.801,53.711,2.93,-17.578,119553.368,304.0448894091809
532,1686017788.95,-60.547,33.691,26.855,-16.113,119553.372,311.9511288133872
533,1686017788.96,-59.57,-5.371,37.598,-27.832,119553.376,313.41061176544406
534,1686017788.96,-69.336,-175.293,1.465,-44.922,119553.38,320.05943889408206
535,1686017788.96,-74.707,-394.531,-152.832,-34.668,119553.384,303.2529229463024
536,1686017788.97,-65.918,-552.246,-173.34,-1.953,119553.388,308.88571353300756
537,1686017788.97,-54.688,202.637,182.617,-13.184,119553.392,310.960853249293
538,1686017788.97,-62.012,414.062,133.789,-32.715,119553.396,303.93854291908735
539,1686017788.98,-63.477,-198.242,-56.641,-20.996,119553.399,310.670123534222
540,1686017788.98,-54.688,-97.656,37.109,-2.93,119553.401,302.88561043584144
541,1686017788.98,-62.5,467.285,188.965,-15.625,119553.405,306.83587093834984
542,1686017788.99,-72.266,349.609,99.609,-35.156,119553.409,312.2451450346776
543,1686017788.99,-71.289,-44.922,-56.152,-31.25,119553.413,307.2457930473707
544,1686017789.0,-65.918,58.105,12.695,-14.648,119553.417,313.49297642381424
545,1686017789.0,-57.617,127.93,77.148,-6.836,119553.421,309.511180142783
546,1686017789.0,-56.152,-33.691,9.277,-24.902,119553.425,303.05614422798084
547,1686017789.01,-66.406,-442.871,-182.129,-32.715,119553.429,308.8063749808713
548,1686017789.01,-66.895,-592.285,-139.16,-7.812,119553.433,304.082001353091
549,1686017789.02,-62.012,123.047,160.645,10.254,119553.436,309.7680859436892
550,1686017789.02,-64.453,325.684,88.379,-4.395,119553.44,311.2976739474794
551,1686017789.02,-73.73,-357.422,-194.824,-33.203,119553.444,307.07941794592597
552,1686017789.03,-71.777,-143.555,-6.836,-28.32,119553.45,301.005210342937
553,1686017789.03,-62.988,322.754,136.719,-6.836,119553.454,311.4198886627925
554,1686017789.03,-52.246,-87.402,-57.129,-1.465,119553.457,306.4280205538504
555,1686017789.04,-49.316,-312.5,-120.117,-17.578,119553.461,300.85195291121954
556,1686017789.04,-75.684,95.215,72.754,-41.992,119553.465,299.1688304345076
557,1686017789.05,-80.078,163.574,123.535,-35.156,119553.469,293.3765392777807
558,1686017789.05,-67.871,-276.855,-125.488,-15.137,119553.473,301.0041373454805
559,1686017789.05,-77.637,-551.758,-210.938,-30.273,119553.477,294.4966715195394
560,1686017789.06,-89.355,30.762,103.516,-53.223,119553.481,300.18375700681696
561,1686017789.06,-78.613,434.57,163.574,-28.32,119553.485,292.47721787896876
562,1686017789.06,-68.848,177.246,72.754,-10.254,119553.489,295.38780899810007
563,1686017789.07,-80.078,123.535,43.457,-30.762,119553.493,302.40570407083413
564,1686017789.07,-83.008,279.297,99.609,-53.223,119553.505,294.1620259927077
565,1686017789.07,-70.312,240.234,64.453,-37.598,119553.509,283.3044963914393
566,1686017789.08,-65.918,160.156,119.141,-17.578,119553.513,289.7151243722316
567,1686017789.08,-73.242,210.449,126.953,-24.902,119553.516,289.26959526581646
568,1686017789.09,-79.59,5.859,-42.969,-38.086,119553.52,287.4026667756852
569,1686017789.09,-69.336,-164.551,-90.82,-32.715,119553.524,283.36924201848626
570,1686017789.09,-64.453,-606.934,-282.227,-15.137,119553.528,282.519078284251
571,1686017789.1,-65.43,-657.715,-214.844,-17.09,119553.532,282.9711443780336
572,1686017789.1,-66.895,-48.34,39.062,-34.668,119553.536,283.5780118196296
573,1686017789.1,-67.871,-121.582,-50.781,-33.691,119553.54,277.2494697192797
574,1686017789.11,-55.664,-316.895,-66.406,-13.672,119553.544,280.70668696806104
575,1686017789.11,-52.246,60.547,83.008,-19.531,119553.548,273.88436601147856
576,1686017789.12,-54.199,515.625,194.336,-25.879,119553.551,288.1247478204948
577,1686017789.12,-50.293,108.398,-0.977,-20.508,119553.554,270.95721403829714
578,1686017789.12,-57.617,-32.227,-4.395,-19.043,119553.558,277.6335704794482
579,1686017789.13,-53.711,380.371,167.969,-7.812,119553.562,275.2692636887115
580,1686017789.13,-57.617,441.895,144.531,-21.484,119553.566,269.835524940317
581,1686017789.14,-67.871,-190.43,-148.926,-29.785,119553.57,269.0720639209738
582,1686017789.14,-63.965,-633.789,-277.344,-12.207,119553.574,272.45594325985553
583,1686017789.14,-51.758,-100.098,47.363,-3.906,119553.578,271.4274900443886
584,1686017789.15,-48.34,452.637,219.238,-17.578,119553.582,273.87761946937474
585,1686017789.15,-55.664,-104.004,-122.07,-30.762,119553.586,273.6921631682232
586,1686017789.15,-59.57,-609.863,-279.297,-22.461,119553.59,271.95887821597427
587,1686017789.16,-54.199,85.449,129.883,-3.906,119553.594,269.6946702565862
588,1686017789.18,-50.781,399.902,152.832,9.277,119553.596,267.83179015023654
589,1686017789.18,-68.359,63.965,-53.711,-13.184,119553.6,273.7463729292335
590,1686017789.18,-71.777,6.836,-13.184,-30.273,119553.604,269.0660877399372
591,1686017789.19,-57.617,283.691,116.699,-2.93,119553.608,271.4976171532019
592,1686017789.19,-61.035,312.012,77.637,5.371,119553.612,269.9292423752632
593,1686017789.2,-69.336,-156.25,-118.652,-18.555,119553.616,265.21877107920903
594,1686017789.2,-63.965,-281.25,-90.332,-26.855,119553.62,274.72836599915684
595,1686017789.2,-53.223,188.477,113.281,-11.719,119553.623,269.81879418666136
596,1686017789.21,-43.945,176.758,73.242,-1.465,119553.627,265.53732112261713
597,1686017789.21,-47.363,-624.512,-317.383,-7.324,119553.631,268.78664827891305
598,1686017789.21,-62.988,-894.531,-399.414,-27.344,119553.635,265.38228381575044
599,1686017789.22,-65.918,28.32,71.289,-23.926,119553.639,271.53874460197346
600,1686017789.24,-50.293,264.16,103.516,-5.859,119553.656,265.25943407467884
601,1686017789.24,-49.316,19.043,4.883,-19.043,119553.66,267.7236215462152
602,1686017789.24,-53.711,179.199,62.988,-36.621,119553.664,269.94070675185253
603,1686017789.25,-54.199,317.383,110.352,-36.133,119553.668,269.52407032990436
604,1686017789.25,-52.734,155.273,32.227,-22.949,119553.672,261.7749519160029
605,1686017789.26,-58.594,-171.875,-57.129,-14.648,119553.676,266.0410542375665
606,1686017789.26,-72.266,-109.863,11.719,-44.434,119553.679,275.4357544503038
607,1686017789.26,-74.219,239.746,117.188,-55.176,119553.683,268.83500652712826
608,1686017789.26,-58.105,-304.688,-106.445,-19.043,119553.687,267.60398905889434
609,1686017789.27,-61.035,-140.625,-82.031,-26.855,119553.687,267.3757993506248
610,1686017789.27,-48.34,-198.242,27.344,1.953,119553.691,268.0150827698906
611,1686017789.27,-57.617,-568.848,-181.641,-12.695,119553.691,271.4183816373987
612,1686017789.27,-37.598,378.906,170.41,-0.488,119553.695,271.63788740934797
613,1686017789.27,-66.406,111.328,135.742,-27.832,119553.695,269.17986965976604
614,1686017789.28,-54.688,206.055,41.016,-16.113,119553.699,278.9640237682185
615,1686017789.28,-63.965,287.109,67.383,-39.551,119553.699,274.1346849296516
616,1686017789.28,-92.285,-97.168,-76.66,-42.48,119553.703,268.22720759719954
617,1686017789.28,-80.566,-154.297,-20.996,-31.738,119553.707,275.00702020781307
618,1686017789.29,-58.105,37.598,99.121,-13.184,119553.711,274.68795015194394
619,1686017789.29,-75.195,137.207,45.41,-32.715,119553.715,263.8239590258253
620,1686017789.3,-91.797,-380.859,-202.148,-55.664,119553.719,277.18494864131054
621,1686017789.3,-75.684,-282.227,-71.289,-28.809,119553.723,267.50041519826954
622,1686017789.3,-58.594,352.539,196.777,-16.602,119553.726,274.82212461258575
623,1686017789.31,-66.406,311.035,104.492,-32.715,119553.73,282.1819988558342
624,1686017789.31,-76.66,-654.785,-354.492,-30.273,119553.731,266.6464989011654
625,1686017789.31,-67.871,-714.355,-250.488,-14.16,119553.735,278.1783863641141
626,1686017789.32,-59.082,157.227,170.41,-10.254,119553.739,275.8600350842731
627,1686017789.32,-65.43,-112.793,-61.523,-17.09,119553.743,284.8696065827694
628,1686017789.33,-67.871,-391.113,-171.875,-23.926,119553.747,280.1154384656563
629,1686017789.33,-67.871,-192.871,6.348,-16.602,119553.751,270.1958867968071
630,1686017789.33,-63.477,159.18,152.832,-1.953,119553.755,280.4926161155598
631,1686017789.34,-62.5,-34.668,-62.988,-8.301,119553.759,283.3997957949907
632,1686017789.34,-64.941,-715.332,-361.816,-26.367,119553.763,281.78737241615244
633,1686017789.34,-65.43,-106.445,33.203,-25.879,119553.767,274.3147588520745
634,1686017789.35,-64.941,474.121,198.242,-11.23,119553.771,289.19789483494264
635,1686017789.35,-62.988,175.781,53.223,-18.066,119553.774,281.91354521635026
636,1686017789.37,-65.43,92.773,45.898,-30.762,119553.791,290.41454088906585
637,1686017789.37,-66.895,343.75,117.188,-29.785,119553.795,289.30082895611247
638,1686017789.38,-61.523,337.891,82.52,-17.578,119553.799,290.79851831918376
639,1686017789.38,-58.105,187.988,91.797,-14.16,119553.803,288.6696970482219
640,1686017789.39,-62.012,151.367,82.52,-32.227,119553.807,299.6500282917233
641,1686017789.39,-62.988,-67.383,-50.293,-35.645,119553.811,286.15565771363003
642,1686017789.39,-54.688,-121.094,4.395,-16.113,119553.815,285.845631324393
643,1686017789.4,-50.293,-527.344,-204.59,6.348,119553.818,288.95548265409076
644,1686017789.4,-61.035,45.41,40.039,2.441,119553.821,299.4001423374542
645,1686017789.4,-58.105,-844.727,-301.758,-2.441,119553.822,279.6548115728915
646,1686017789.4,-69.336,430.176,141.602,-22.461,119553.825,298.62247824161
647,1686017789.4,-58.105,-131.836,71.289,-23.438,119553.826,293.45666222747053
648,1686017789.41,-64.941,56.152,-21.484,-21.973,119553.829,297.56724193664564
649,1686017789.41,-55.664,179.688,90.332,-5.859,119553.83,284.21933047639425
650,1686017789.41,-54.688,13.672,4.395,-10.742,119553.833,289.41676196425146
651,1686017789.41,-55.664,-195.801,-78.613,13.184,119553.834,291.6238539011424
652,1686017789.42,-54.688,356.445,135.742,-18.066,119553.837,293.554381631072
653,1686017789.42,-66.406,17.578,-24.414,-32.227,119553.841,295.6508629050127
654,1686017789.42,-64.941,-312.988,-170.898,-40.039,119553.845,291.9787050826341
655,1686017789.43,-48.34,-183.594,-33.203,-18.555,119553.848,303.0740214257532
656,1686017789.43,-48.34,72.266,103.027,-5.371,119553.852,301.03213432169383
657,1686017789.44,-58.105,382.812,145.508,-30.762,119553.856,293.9454571086286
658,1686017789.44,-63.477,-197.266,-161.133,-36.621,119553.86,300.69272803916385
659,1686017789.44,-61.523,-919.922,-396.973,-10.742,119553.864,300.1959702818692
660,1686017789.44,-55.176,-86.426,54.688,-12.207,119553.88,306.1624423511907
661,1686017789.45,-47.852,425.293,162.598,-27.344,119553.884,299.84513961566705
662,1686017789.45,-52.246,17.578,-56.641,-34.18,119553.888,290.94617341300676
663,1686017789.46,-62.5,111.328,46.875,-40.039,119553.892,294.8257572410529
664,1686017789.46,-56.641,327.148,133.789,-23.926,119553.895,301.3814859828453
665,1686017789.46,-59.57,129.395,53.223,-19.531,119553.899,299.48865617224106
666,1686017789.47,-66.406,-538.574,-222.168,-33.203,119553.903,304.9414168165358
667,1686017789.47,-67.383,-500.488,-172.852,-33.691,119553.907,304.58596553669565
668,1686017789.48,-55.176,115.723,139.16,-20.508,119553.911,299.9967144799869
669,1686017789.48,-46.875,20.02,36.133,-12.695,119553.915,305.985214338208
670,1686017789.48,-53.711,-517.578,-179.199,-12.695,119553.919,299.9605762524012
671,1686017789.49,-71.289,-338.379,-22.461,-26.855,119553.923,309.79904827063183
672,1686017789.49,-77.637,426.758,217.773,-25.391,119553.925,305.93509239589815
673,1686017789.49,-69.824,279.785,67.871,-6.836,119553.929,303.7237978521034
674,1686017789.5,-64.453,-43.457,-69.824,-16.113,119553.933,307.90618208394204
675,1686017789.5,-57.617,140.625,58.105,-24.902,119553.937,306.51091107147323
676,1686017789.51,-55.176,406.738,183.105,-17.578,119553.941,309.8619153458582
677,1686017789.51,-59.082,-4.883,-45.41,-15.625,119553.945,307.5167184961193
678,1686017789.51,-68.848,-381.836,-178.711,-27.344,119553.949,300.86503821337783
679,1686017789.52,-70.801,57.617,83.008,-41.992,119553.953,305.07475174601115
680,1686017789.52,-65.918,322.754,141.602,-34.18,119553.957,303.755365358569
681,1686017789.52,-55.176,-100.586,-61.523,-14.648,119553.961,303.732198703866
682,1686017789.53,-43.457,-264.16,-115.723,-13.672,119553.965,309.97317011327846
683,1686017789.53,-56.641,219.238,98.633,-31.25,119553.968,310.13097486185296
684,1686017789.58,-64.453,128.906,23.438,-37.109,119554.001,321.20142703097775
685,1686017789.58,-52.246,-297.363,-91.309,-9.766,119554.005,321.8820466637363
686,1686017789.59,-51.758,-140.625,13.184,-2.93,119554.009,314.0434241681804
687,1686017789.59,-67.871,336.426,115.723,-25.391,119554.013,319.3890453065645
688,1686017789.6,-66.406,116.211,21.484,-30.273,119554.016,323.365124473121
689,1686017789.6,-69.824,191.895,25.879,-26.855,119554.017,320.64803349220364
690,1686017789.6,-56.152,-70.801,-46.875,-22.949,119554.02,318.71721935427
691,1686017789.6,-55.176,-242.676,-140.625,-11.23,119554.021,316.6096674390484
692,1686017789.6,-55.664,-164.062,-25.879,-9.766,119554.024,315.62429243336106
693,1686017789.6,-38.086,333.984,134.766,-7.324,119554.024,321.95838807039434
694,1686017789.61,-39.062,332.52,114.746,-10.742,119554.028,314.0058679279431
695,1686017789.61,-63.965,245.605,139.16,-22.949,119554.028,313.5697788433312
696,1686017789.61,-63.477,97.168,14.648,-34.668,119554.032,316.6014078604541
697,1686017789.61,-45.41,-181.641,-117.188,-22.949,119554.032,325.9642104826212
698,1686017789.62,-61.523,-686.523,-339.355,-24.902,119554.036,308.14272957298954
699,1686017789.62,-46.875,-557.617,-323.242,-20.996,119554.036,319.5303663559503
700,1686017789.62,-37.598,-137.207,-5.371,-8.789,119554.04,322.23873448394465
701,1686017789.62,-54.688,-696.777,-264.648,-10.254,119554.04,322.2757834172978
702,1686017789.62,-40.527,428.711,202.148,-0.488,119554.044,315.3332781244511
703,1686017789.62,-56.152,185.059,157.715,-21.484,119554.044,318.2643472566715
704,1686017789.63,-56.152,-133.301,-138.672,-12.207,119554.048,319.68285290050807
705,1686017789.63,-57.617,-516.113,-225.098,-17.578,119554.051,316.5072684192769
706,1686017789.63,-50.781,195.801,139.648,1.953,119554.055,315.08579876035
707,1686017789.64,-40.527,459.473,172.852,20.508,119554.059,315.8158319398773
708,1686017789.64,-49.316,-69.336,-39.551,5.859,119554.076,319.1203263852563
709,1686017789.64,-62.5,-218.75,-34.18,-17.578,119554.079,310.8808653170473
710,1686017789.65,-56.152,228.516,119.141,-7.324,119554.083,318.5428954597097
711,1686017789.65,-44.434,444.336,141.602,3.906,119554.087,315.76112601347904
712,1686017789.66,-52.734,-265.137,-187.5,0.977,119554.091,315.7599817119631
713,1686017789.66,-64.941,-819.336,-338.379,-10.254,119554.095,317.9436891959662
714,1686017789.66,-55.176,-301.758,-86.426,-18.066,119554.099,322.30587235881194
715,1686017789.67,-54.688,30.273,68.359,-4.883,119554.103,316.01284020117043
716,1686017789.67,-51.27,-430.176,-204.102,-5.371,119554.107,318.882619113096
717,1686017789.68,-53.711,-1000.0,-437.5,-23.926,119554.111,319.1287784191718
718,1686017789.68,-61.523,-205.566,31.738,-31.738,119554.115,320.19381413907604
719,1686017789.68,-50.781,291.016,118.652,-13.672,119554.119,323.85900879840165
720,1686017789.69,-44.434,158.691,53.223,-6.348,119554.106,325.13234085668984
721,1686017789.69,-59.082,333.984,134.277,-27.344,119554.11,317.5220520013485
722,1686017789.69,-71.289,393.066,119.141,-43.457,119554.114,315.27666363144095
723,1686017789.7,-60.059,120.605,10.254,-19.043,119554.118,323.87029988097316
724,1686017789.7,-49.805,99.609,11.719,1.953,119554.122,317.41767593880206
725,1686017789.71,-61.035,60.059,14.648,-12.207,119554.126,322.5227606091553
726,1686017789.71,-78.613,-22.461,27.344,-36.621,119554.129,310.00383010892705
727,1686017789.71,-68.848,-124.512,-57.129,-25.391,119554.133,320.16449427762575
728,1686017789.72,-53.711,-314.453,-138.184,-7.812,119554.137,318.4886052912014
729,1686017789.72,-62.988,84.473,80.566,-38.574,119554.141,313.10164388815485
730,1686017789.72,-72.754,403.809,146.973,-64.453,119554.145,315.35542711790816
731,1686017789.73,-69.824,-245.605,-178.711,-50.293,119554.149,314.7673127054735
732,1686017789.73,-62.988,-730.957,-246.094,-32.227,119554.151,312.2517905990877
733,1686017789.73,-53.711,138.184,159.668,-28.32,119554.155,318.1727733129628
734,1686017789.74,-46.387,354.492,94.727,-30.273,119554.159,317.6562721912192
735,1686017789.74,-63.477,13.184,-51.758,-40.527,119554.163,320.89715720735086
736,1686017789.75,-79.102,104.004,2.93,-34.668,119554.167,308.25861518420453
737,1686017789.75,-66.406,55.176,37.598,-3.906,119554.171,320.04094356696174
738,1686017789.75,-49.316,-55.664,7.812,-1.953,119554.175,322.44119967948006
739,1686017789.76,-55.664,-488.281,-238.281,-26.367,119554.179,311.82177104472856
740,1686017789.76,-60.059,-633.301,-199.707,-20.02,119554.182,311.22638626860294
741,1686017789.76,-41.992,89.844,137.695,-1.953,119554.186,305.6012005947184
742,1686017789.77,-53.223,264.648,84.473,-20.02,119554.19,314.7778037956216
743,1686017789.77,-71.777,-600.586,-309.57,-38.086,119554.194,311.0224641293893
744,1686017789.78,-66.895,-531.25,-147.461,-30.762,119554.196,304.19232527163734
745,1686017789.78,-54.688,410.645,212.402,-16.113,119554.2,304.94938963044723
746,1686017789.78,-53.223,249.023,48.828,-12.207,119554.204,313.04879046269497
747,1686017789.79,-63.477,-25.879,-34.668,-28.32,119554.208,301.1741897316634
748,1686017789.79,-59.57,151.855,48.34,-32.227,119554.212,303.4456120808936
749,1686017789.8,-49.316,113.281,84.961,-12.207,119554.216,294.7300119015674
750,1686017789.8,-52.246,-246.094,-104.004,-3.906,119554.22,313.548074492046
751,1686017789.8,-63.477,-603.027,-266.602,-14.648,119554.224,304.52079949550296
752,1686017789.81,-62.5,-65.918,67.871,-27.344,119554.228,302.84850164985903
753,1686017789.81,-53.711,355.469,167.48,-21.484,119554.231,305.37561178527415
754,1686017789.81,-54.199,155.273,111.328,-14.648,119554.235,302.19944148383166
755,1686017789.82,-55.176,118.652,88.379,-30.273,119554.239,308.57326107915463
756,1686017789.84,-58.105,284.668,67.383,-40.039,119554.259,306.2696808477529
757,1686017789.84,-57.617,173.34,35.156,-25.879,119554.263,307.8144718469453
758,1686017789.84,-51.27,-279.785,-70.801,-3.906,119554.267,308.5229125011506
759,1686017789.85,-53.711,-120.605,19.531,-15.137,119554.271,302.7766326897342
760,1686017789.85,-62.5,283.691,113.281,-27.832,119554.275,308.9120925314506
761,1686017789.86,-63.965,22.949,-31.25,-16.113,119554.279,307.81016547913697
762,1686017789.86,-59.57,-622.559,-272.461,8.789,119554.283,304.64913592861745
763,1686017789.86,-54.199,-427.734,-98.633,1.953,119554.287,313.04741716398877
764,1686017789.86,-56.641,431.641,173.828,-32.715,119554.301,307.9275912201411
765,1686017789.87,-56.641,63.965,55.664,-26.367,119554.291,308.9631317016753
766,1686017789.87,-67.383,123.535,-12.207,-36.621,119554.305,303.73649310701273
767,1686017789.87,-50.781,-150.391,-69.336,-33.203,119554.294,312.19596976984235
768,1686017789.87,-65.43,-13.672,-20.02,-18.066,119554.309,308.4095153406311
769,1686017789.88,-42.969,-394.043,-110.84,-10.742,119554.298,304.7634536407286
770,1686017789.88,-58.105,347.168,164.062,-7.812,119554.313,319.9483679877064
771,1686017789.88,-46.875,-105.469,24.414,-4.395,119554.302,304.13967889163365
772,1686017789.88,-71.777,179.688,84.473,-19.531,119554.317,309.98450970650356
773,1686017789.88,-77.148,-347.168,-178.711,-28.809,119554.32,312.1220663513352
774,1686017789.89,-68.359,-331.055,-146.973,-21.973,119554.324,313.0511789137769
775,1686017789.89,-58.594,197.266,137.695,-12.695,119554.328,321.1080918454503
776,1686017789.9,-62.5,448.73,182.617,-20.996,119554.332,313.7649473323033
777,1686017789.9,-69.824,-175.781,-157.715,-42.969,119554.336,325.86300030178836
778,1686017789.9,-64.453,-934.082,-404.297,-40.527,119554.34,322.41962904028384
779,1686017789.91,-62.5,-169.922,64.941,-19.043,119554.344,327.6978431314433
780,1686017789.92,-61.035,396.973,185.059,-20.508,119554.346,328.1346441622572
781,1686017789.93,-70.801,-38.574,-55.664,-39.062,119554.35,324.8940564032258
782,1686017789.93,-72.266,-27.832,-1.465,-43.457,119554.354,329.59290972110176
783,1686017789.94,-55.176,327.148,137.207,-19.043,119554.358,334.95142046945375
784,1686017789.94,-47.363,331.543,107.91,-7.812,119554.361,334.9954850023726
785,1686017789.94,-52.246,-135.742,-91.797,-29.785,119554.365,327.8670185654185
786,1686017789.95,-56.641,-385.254,-176.27,-42.969,119554.369,340.25666712729384
787,1686017789.95,-50.293,-78.613,19.043,-25.391,119554.373,336.8799086994316
788,1686017789.96,-43.457,122.559,116.211,-7.324,119554.377,332.2714305580136
789,1686017789.96,-54.688,-551.27,-261.719,-11.23,119554.381,339.8255438229148
790,1686017789.96,-64.453,-909.18,-400.391,-21.484,119554.385,334.7757270912347
791,1686017789.97,-54.688,-13.672,69.824,-20.508,119554.389,340.60495364990624
792,1686017789.97,-48.34,251.465,113.77,-3.906,119554.391,343.60923807408113
793,1686017789.97,-48.34,79.59,20.508,-6.836,119554.395,349.5413109081993
794,1686017789.98,-53.223,249.023,102.051,-26.367,119554.399,336.9663198910077
795,1686017789.98,-55.664,334.473,102.539,-29.297,119554.403,347.9022259658683
796,1686017789.99,-45.898,125.977,17.578,-19.043,119554.407,347.3397642936624
797,1686017789.99,-53.223,-244.141,-70.801,-18.555,119554.411,345.82383512840414
798,1686017789.99,-61.035,-98.145,16.113,-29.785,119554.414,346.4230885012484
799,1686017790.0,-53.223,285.645,136.719,-27.832,119554.418,342.8225861662455
800,1686017790.0,-60.059,-149.414,-83.984,-22.461,119554.422,346.2531755738911
801,1686017790.0,-68.848,-728.027,-299.316,-10.742,119554.426,352.5289286524898
802,1686017790.01,-64.453,-159.668,-18.066,-16.113,119554.43,345.565393499
803,1686017790.01,-61.523,181.641,71.777,-34.668,119554.434,346.42400549194497
804,1686017790.02,-59.082,-249.023,-62.988,-18.555,119554.436,354.93493110099627
805,1686017790.02,-48.828,-204.59,-9.277,5.371,119554.44,348.519665505503
806,1686017790.02,-53.223,340.82,147.949,-12.695,119554.444,346.47157211214443
807,1686017790.03,-68.848,230.469,42.969,-39.062,119554.448,347.4806367444037
808,1686017790.03,-61.523,-17.578,-2.93,-30.762,119554.452,339.27167934196274
809,1686017790.04,-55.664,-131.348,10.254,-14.648,119554.456,352.29942329005183
810,1686017790.04,-66.406,-5.859,51.758,-20.508,119554.459,345.6094940862854
811,1686017790.04,-75.195,215.82,96.191,-37.109,119554.463,349.45727405744776
812,1686017790.05,-73.242,-535.156,-308.105,-24.902,119554.467,353.3276895615788
813,1686017790.05,-67.383,-776.367,-263.184,0.0,119554.471,350.8569975137258
814,1686017790.05,-67.871,238.281,215.82,-9.277,119554.475,347.99746068717883
815,1686017790.06,-74.707,226.074,47.852,-30.273,119554.479,349.08664566192715
816,1686017790.06,-73.242,-202.637,-101.074,-35.645,119554.481,344.9328384006157
817,1686017790.06,-75.195,99.121,78.125,-24.414,119554.485,347.1770644332049
818,1686017790.07,-75.684,514.648,218.262,-20.508,119554.489,341.88802367665494
819,1686017790.07,-75.684,153.32,-25.391,-39.551,119554.493,345.6567516293091
820,1686017790.08,-76.172,-417.48,-213.379,-46.875,119554.497,353.2091482744979
821,1686017790.08,-68.359,-275.391,2.441,-28.32,119554.5,342.141716722587
822,1686017790.08,-62.5,156.25,135.254,-12.207,119554.504,352.53349915040036
823,1686017790.09,-59.57,-23.926,-56.641,-14.648,119554.508,340.6135522759828
824,1686017790.09,-71.777,-614.258,-296.387,-20.508,119554.512,343.0731907845992
825,1686017790.1,-78.613,-68.848,40.527,-24.414,119554.516,344.9919632482257
826,1686017790.1,-65.43,362.793,163.574,-13.672,119554.52,342.87570143692943
827,1686017790.1,-59.082,121.582,8.301,-9.766,119554.524,344.15838285643576
828,1686017790.1,-67.383,63.477,1.465,-21.973,119554.527,340.5144613871467
829,1686017790.11,-71.777,250.488,98.145,-27.344,119554.531,346.9196727154595
830,1686017790.11,-64.453,135.742,35.156,-13.184,119554.534,341.3685438760813
831,1686017790.12,-57.129,-299.805,-83.496,-2.93,119554.538,340.17631522912643
832,1686017790.12,-67.871,-229.98,-27.832,-22.461,119554.542,332.8691783299341
833,1686017790.12,-81.543,-108.398,-70.801,-41.504,119554.546,338.9534047997845
834,1686017790.13,-72.266,-117.676,-36.133,-17.09,119554.55,342.8293899806596
835,1686017790.13,-59.57,-456.543,-141.113,3.906,119554.554,340.7201457681265
836,1686017790.14,-67.871,-674.805,-185.547,-15.625,119554.558,345.7099959947088
837,1686017790.14,-72.266,-11.23,84.961,-34.668,119554.562,340.4279057882034
838,1686017790.14,-65.918,219.727,100.586,-25.391,119554.566,343.1443335741869
839,1686017790.15,-51.758,-287.598,-99.121,-6.836,119554.57,336.02186576286215
840,1686017790.15,-57.129,-138.672,7.812,-10.742,119554.571,344.0781682720009
841,1686017790.15,-75.195,367.188,164.551,-25.879,119554.575,348.1311082838048
842,1686017790.16,-60.059,92.773,-6.348,-15.137,119554.579,335.816320608697
843,1686017790.16,-45.41,3.906,-1.465,1.953,119554.583,334.53064773704546
844,1686017790.17,-54.688,282.227,134.766,-13.184,119554.587,337.9290886399366
845,1686017790.17,-62.012,71.289,13.184,-32.227,119554.591,340.48651316144634
846,1686017790.17,-57.617,-399.414,-241.699,-31.25,119554.595,336.85933221379133
847,1686017790.18,-52.246,-850.098,-345.703,-9.277,119554.599,333.6722844604023
848,1686017790.18,-47.852,-177.246,41.992,-6.836,119554.603,329.9819618158244
849,1686017790.18,-52.246,401.855,149.902,-31.738,119554.606,335.8656501326367
850,1686017790.19,-53.711,-25.879,-43.457,-39.551,119554.61,335.04977351633477
851,1686017790.19,-44.434,36.133,41.504,-22.461,119554.614,335.7718566624667
852,1686017790.2,-49.805,429.199,179.688,-11.23,119554.63,331.1415758419693
853,1686017790.2,-58.594,367.676,105.469,-30.762,119554.634,331.6775270164857
854,1686017790.2,-68.848,-38.574,-65.918,-49.316,119554.638,340.57051181872924
855,1686017790.21,-73.242,22.949,21.484,-45.41,119554.642,329.40348556707625
856,1686017790.21,-67.383,308.105,121.094,-31.738,119554.645,328.9606157972453
857,1686017790.22,-66.406,92.773,25.391,-29.785,119554.649,329.27508943477267
858,1686017790.22,-70.312,-578.125,-266.113,-32.715,119554.653,331.27817487495673
859,1686017790.22,-75.195,-564.941,-217.285,-31.738,119554.657,330.34938931118637
860,1686017790.23,-74.707,-29.297,62.988,-14.648,119554.661,330.4798667753208
861,1686017790.23,-77.637,11.23,32.227,-12.695,119554.665,323.33585682028894
862,1686017790.23,-88.867,-554.199,-238.281,-35.645,119554.669,318.52829904287876
863,1686017790.24,-88.867,-559.57,-185.059,-41.504,119554.673,326.64017235417356
864,1686017790.26,-73.73,304.199,171.387,-23.926,119554.676,331.07527063370986
865,1686017790.26,-67.383,263.184,88.867,-16.602,119554.68,319.6916541373573
866,1686017790.26,-77.148,49.316,18.555,-37.109,119554.684,318.995777428154
867,1686017790.27,-77.637,228.027,86.914,-45.898,119554.688,315.9583180884271
868,1686017790.27,-64.941,335.449,128.906,-23.438,119554.692,307.32355060519706
869,1686017790.28,-66.406,-112.305,-77.637,-8.301,119554.696,311.62427146037544
870,1686017790.28,-69.336,-420.898,-165.527,-24.902,119554.7,314.6842932719149
871,1686017790.28,-73.242,51.758,76.66,-46.387,119554.704,311.35725240169916
872,1686017790.29,-64.453,367.676,151.855,-40.527,119554.708,309.7097997747742
873,1686017790.29,-50.293,-75.195,-31.25,-16.602,119554.712,313.55862806049174
874,1686017790.29,-62.012,-483.398,-180.176,-20.508,119554.715,307.1035890492409
875,1686017790.3,-73.242,32.715,56.641,-47.852,119554.719,303.28984517920526
876,1686017790.3,-71.777,325.684,111.816,-49.805,119554.721,303.58734994506636
877,1686017790.3,-74.219,-139.16,-27.832,-30.762,119554.725,307.26212201294686
878,1686017790.31,-74.707,-169.922,12.207,-26.855,119554.729,293.82951747701327
879,1686017790.31,-74.219,270.508,97.168,-40.039,119554.733,296.8421198875298
880,1686017790.32,-74.219,182.617,26.367,-38.086,119554.737,304.5242052766889
881,1686017790.32,-65.918,-188.477,-93.75,-15.625,119554.741,308.2503158030558
882,1686017790.32,-55.664,-104.004,-1.953,-4.395,119554.745,298.9101379131842
883,1686017790.33,-63.477,275.879,125.0,-22.949,119554.748,291.34059302125587
884,1686017790.33,-79.102,111.816,-20.508,-43.945,119554.752,290.6419945050873
885,1686017790.34,-69.824,-676.27,-351.074,-23.926,119554.756,290.86073443509883
886,1686017790.34,-69.824,-729.004,-225.586,-6.836,119554.76,286.68653395651285
887,1686017790.34,-83.496,245.117,177.734,-34.668,119554.764,294.6587671652952
888,1686017790.34,-80.566,107.422,-25.391,-47.852,119554.766,292.8482596910455
889,1686017790.35,-75.195,-295.41,-114.746,-41.992,119554.77,288.9916350804128
890,1686017790.35,-63.965,180.664,131.348,-26.367,119554.774,284.0146764878901
891,1686017790.36,-56.641,516.602,192.383,-28.32,119554.778,287.78322531592505
892,1686017790.36,-65.43,96.191,-42.969,-47.363,119554.782,292.36384826846245
893,1686017790.36,-62.988,-425.293,-233.398,-47.852,119554.786,286.4939274857446
894,1686017790.37,-55.176,-146.973,17.09,-32.715,119554.789,294.01531645164846
895,1686017790.37,-61.035,382.812,190.43,-19.531,119554.793,293.93513119382925
896,1686017790.38,-69.336,-101.562,-127.93,-24.902,119554.797,285.33735739006136
897,1686017790.38,-77.148,-688.965,-268.555,-38.086,119554.801,284.5666248713057
898,1686017790.38,-69.336,18.066,111.328,-24.902,119554.805,278.6709405052379
899,1686017790.39,-55.176,414.551,165.039,-1.953,119554.809,288.3204293855386
900,1686017790.39,-60.547,96.68,-11.23,-16.602,119554.811,284.009329421828
901,1686017790.39,-76.172,10.254,-7.324,-42.48,119554.815,277.2865009532296
902,1686017790.4,-75.684,259.766,109.375,-39.551,119554.819,284.83973538606205
903,1686017790.4,-61.035,213.867,82.52,-19.531,119554.823,291.624502658833
904,1686017790.41,-57.617,-298.34,-104.98,-20.02,119554.827,287.4039029493065
905,1686017790.41,-66.895,-564.941,-247.559,-36.133,119554.83,278.3445037936954
906,1686017790.41,-72.266,-160.156,-55.176,-23.438,119554.834,279.5609998469982
907,1686017790.42,-71.289,232.91,122.07,-0.488,119554.838,291.34558854553114
908,1686017790.42,-67.871,-494.141,-276.367,-1.465,119554.842,282.72612831107097
909,1686017790.42,-76.172,-743.164,-290.039,-25.879,119554.846,283.27893576956467
910,1686017790.43,-76.66,65.43,98.633,-43.457,119554.85,281.24731235366124
911,1686017790.43,-69.824,-48.34,-24.902,-26.855,119554.854,285.2909384129207
912,1686017790.44,-69.336,-136.719,-17.09,-19.043,119554.87,285.1533369501356
913,1686017790.44,-72.266,209.961,114.258,-37.598,119554.874,288.3312184534335
914,1686017790.44,-79.59,324.707,108.398,-38.086,119554.878,297.0588628602376
915,1686017790.45,-72.754,96.191,14.16,-13.672,119554.882,282.87916631964214
916,1686017790.45,-61.523,5.371,-5.371,-3.906,119554.886,286.9867606849121
917,1686017790.46,-58.594,-61.523,9.277,-29.297,119554.89,293.002602551643
918,1686017790.46,-64.941,-164.551,-17.578,-59.082,119554.894,288.75134257908354
919,1686017790.46,-60.547,-360.352,-178.711,-42.48,119554.898,295.76719929408904
920,1686017790.47,-48.34,-786.621,-313.477,-14.648,119554.902,289.7263105449043
921,1686017790.47,-49.805,-163.086,41.992,-20.508,119554.906,288.185181907131
922,1686017790.47,-54.199,403.32,143.555,-38.086,119554.909,291.14673234271504
923,1686017790.48,-58.594,-194.824,-118.652,-38.086,119554.913,299.33929819585455
924,1686017790.5,-63.965,-224.121,-18.555,-24.414,119554.916,296.76774191770227
925,1686017790.5,-64.941,431.152,208.984,-26.855,119554.92,289.99312043985674
926,1686017790.5,-73.73,335.449,95.703,-49.316,119554.924,295.33225362398275
927,1686017790.51,-80.566,-31.738,-22.461,-55.176,119554.928,288.38757553591756
928,1686017790.51,-72.266,101.562,54.199,-28.32,119554.932,295.00421200366543
929,1686017790.52,-67.383,127.93,83.496,-20.508,119554.936,292.40495235207374
930,1686017790.52,-76.172,-81.055,15.137,-43.457,119554.94,295.4596739694547
931,1686017790.52,-83.984,-524.902,-215.82,-47.852,119554.944,297.541745252132
932,1686017790.52,-70.312,-701.66,-255.859,-39.551,119554.946,287.25515035928356
933,1686017790.53,-76.66,-633.301,-201.172,-26.855,119554.948,302.7727328778241
934,1686017790.53,-61.035,318.359,209.473,-18.555,119554.95,299.96812482503077
935,1686017790.53,-57.129,-106.445,73.73,-25.391,119554.951,291.71350785969895
936,1686017790.53,-60.547,281.25,89.844,-24.902,119554.954,296.4424705804356
937,1686017790.53,-54.199,47.852,52.246,-34.18,119554.955,296.7742887583525
938,1686017790.54,-58.105,21.484,-3.906,-41.016,119554.958,295.6836012320272
939,1686017790.54,-67.871,-621.582,-317.383,-46.875,119554.959,301.2488861788797
940,1686017790.54,-56.641,231.445,77.637,-44.434,119554.962,304.1286231233632
941,1686017790.54,-60.547,112.305,68.359,-30.273,119554.966,295.6491760901983
942,1686017790.55,-61.035,-235.352,-84.961,-21.484,119554.97,290.6815351146073
943,1686017790.55,-69.824,-208.984,-122.559,-42.48,119554.974,296.2569214489467
944,1686017790.56,-82.031,180.664,86.426,-52.734,119554.978,294.41173761070553
945,1686017790.56,-73.73,465.82,186.035,-29.785,119554.981,300.7184206604936
946,1686017790.56,-61.035,-52.246,-51.27,-13.672,119554.985,298.36566709515256
947,1686017790.57,-62.988,-747.07,-297.852,-30.762,119554.989,304.9955016027355
948,1686017790.59,-64.941,-108.398,32.715,-57.129,119555.008,293.9974261762866
949,1686017790.59,-52.246,360.84,138.184,-35.156,119555.011,298.03959207951124
950,1686017790.59,-47.852,-115.234,-39.062,-1.953,119555.015,304.53350694509896
951,1686017790.6,-64.941,-180.664,5.859,-20.996,119555.019,303.8400287539043
952,1686017790.6,-68.848,228.516,90.82,-39.551,119555.023,297.36744976274605
953,1686017790.61,-53.223,81.543,21.973,-26.855,119555.027,303.291902193763
954,1686017790.61,-49.316,-536.133,-190.918,-9.277,119555.031,298.75850655470697
955,1686017790.61,-53.223,-438.477,-113.281,-12.207,119555.035,301.55476741137085
956,1686017790.62,-62.988,409.668,147.949,-34.668,119555.055,308.7275766010756
957,1686017790.62,-55.664,69.824,83.008,-33.203,119555.039,304.86184936881216
958,1686017790.62,-68.848,31.25,-48.828,-41.992,119555.059,303.6975057097427
959,1686017790.62,-56.641,-101.074,-27.832,-35.156,119555.043,304.6208925778383
960,1686017790.62,-65.918,-184.082,-57.617,-23.438,119555.063,306.8744639272154
961,1686017790.62,-55.176,-351.074,-102.539,-17.09,119555.047,301.33271561282214
962,1686017790.63,-59.082,294.434,162.598,-12.695,119555.066,304.91982816453344
963,1686017790.63,-56.152,-70.801,39.062,-12.207,119555.05,309.47423634026023
964,1686017790.63,-63.477,448.242,135.742,-19.531,119555.07,304.51398069413784
965,1686017790.64,-75.195,-219.238,-208.984,-29.785,119555.074,304.5451420028819
966,1686017790.64,-70.801,-588.379,-268.066,-24.414,119555.078,303.7299303840023
967,1686017790.64,-58.594,90.82,111.328,-14.648,119555.082,306.11057658197905
968,1686017790.65,-66.406,515.137,206.543,-21.973,119555.086,310.86621328171674
969,1686017790.65,-72.266,-112.305,-132.324,-42.48,119555.09,298.541511104006
970,1686017790.66,-69.336,-802.246,-367.676,-33.691,119555.094,301.4010976071641
971,1686017790.66,-64.453,-26.855,73.73,-11.23,119555.098,305.90057929965116
972,1686017790.68,-61.035,463.867,186.523,-10.742,119555.096,316.0144093274032
973,1686017790.68,-69.824,36.621,-36.621,-28.809,119555.1,313.284465309954
974,1686017790.68,-77.148,-5.371,-7.812,-34.18,119555.104,318.35813387684425
975,1686017790.69,-73.73,259.766,106.445,-20.02,119555.108,308.4758845866894
976,1686017790.69,-63.965,283.691,129.395,-15.137,119555.112,311.4011480459185
977,1686017790.7,-69.336,-456.055,-209.961,-19.043,119555.116,306.854019692116
978,1686017790.7,-82.031,-737.305,-293.945,-24.902,119555.12,303.2997732951214
979,1686017790.7,-75.195,109.863,107.91,-17.578,119555.123,309.7836565298856
980,1686017790.71,-54.199,228.027,114.746,-8.789,119555.127,311.00613800462287
981,1686017790.71,-49.316,-598.145,-263.672,-11.719,119555.131,314.1640789833328
982,1686017790.71,-59.57,-602.051,-223.633,-28.32,119555.135,302.8295716682018
983,1686017790.72,-55.664,288.574,160.645,-21.484,119555.139,313.24718322655235
984,1686017790.72,-42.969,305.664,98.145,0.0,119555.142,313.0202825271073
985,1686017790.72,-45.41,115.723,52.734,-9.277,119555.145,314.7514066204432
986,1686017790.73,-50.781,227.051,86.914,-34.668,119555.149,305.62706054366623
987,1686017790.73,-46.875,342.773,127.441,-38.086,119555.153,302.33157429495964
988,1686017790.74,-26.855,174.805,39.062,-11.23,119555.157,309.7187719107492
989,1686017790.74,-27.832,-178.223,-115.234,-6.348,119555.161,310.71113405759814
990,1686017790.74,-55.664,-148.438,-44.434,-28.809,119555.165,312.2584691498238
991,1686017790.75,-52.246,-67.871,27.832,-35.645,119555.169,310.7157289009334
992,1686017790.75,-40.039,-324.707,-131.348,-10.254,119555.173,314.6246561489177
993,1686017790.76,-50.781,-807.129,-339.355,-1.465,119555.177,320.6521427664668
994,1686017790.76,-67.871,-242.676,11.23,-30.762,119555.181,309.0562842587382
995,1686017790.76,-68.848,261.719,133.301,-41.504,119555.185,314.27867543894286
996,1686017790.76,-60.547,4.395,-19.043,-20.508,119555.186,316.3459654219225
997,1686017790.77,-48.828,165.527,57.617,-10.742,119555.19,311.1468020712552
998,1686017790.77,-53.223,385.742,145.508,-33.691,119555.194,317.570289856706
999,1686017790.78,-61.035,211.914,34.668,-47.363,119555.198,315.4332968715303
1000,1686017790.78,-61.523,-75.684,-12.207,-42.969,119555.202,322.7019581031898
1001,1686017790.78,-54.199,-190.43,-12.207,-33.203,119555.206,316.2357023202854
1002,1686017790.79,-50.781,-7.324,36.133,-29.785,119555.21,314.0807557328331
1003,1686017790.79,-61.035,219.238,96.68,-46.875,119555.214,314.19494603583684
1004,1686017790.8,-62.988,-497.07,-273.438,-43.945,119555.218,316.4411315530076
1005,1686017790.8,-59.57,-898.926,-377.441,-21.484,119555.222,304.8852135246089
1006,1686017790.8,-55.176,62.5,112.793,-18.555,119555.225,311.6854877459278
1007,1686017790.81,-60.547,292.969,86.914,-39.062,119555.229,311.55033232086913
1008,1686017790.81,-64.453,-194.336,-60.547,-53.223,119555.231,308.54673928789333
1009,1686017790.81,-62.5,57.617,95.703,-40.527,119555.235,316.9017384653878
1010,1686017790.82,-60.547,469.727,156.738,-29.785,119555.239,310.755975438049
1011,1686017790.82,-68.359,233.398,44.434,-46.875,119555.243,304.8623491650228
1012,1686017790.83,-76.172,-7.812,-39.551,-62.012,119555.247,315.44087472761714
1013,1686017790.83,-70.312,-3.418,13.184,-45.898,119555.251,308.6151286571625
1014,1686017790.83,-58.594,-36.621,65.918,-29.297,119555.255,314.9907577412223
1015,1686017790.84,-59.082,-300.293,-119.629,-35.156,119555.258,307.8400262009142
1016,1686017790.84,-79.102,-649.414,-328.613,-58.594,119555.262,307.71440557978025
1017,1686017790.84,-74.219,-7.324,53.711,-69.824,119555.266,311.7408547203875
1018,1686017790.85,-52.734,377.93,146.973,-43.945,119555.27,316.4145715932318
1019,1686017790.85,-50.293,26.855,-33.203,-33.691,119555.274,312.881963116451
1020,1686017790.86,-55.664,-184.082,-45.898,-53.711,119555.276,312.88250076668106
1021,1686017790.86,-52.734,89.355,78.613,-54.688,119555.28,307.55733095630717
1022,1686017790.86,-46.875,395.02,131.836,-38.086,119555.284,309.78629990125836
1023,1686017790.87,-46.387,-47.363,-25.879,-26.855,119555.288,316.19824110621073
1024,1686017790.87,-55.664,-187.012,-5.859,-38.086,119555.292,306.6541122457994
1025,1686017790.88,-58.105,-79.102,-34.668,-53.223,119555.296,313.9582203354141
1026,1686017790.88,-46.387,-85.938,-41.016,-34.668,119555.3,313.4612197130507
1027,1686017790.88,-46.387,-393.555,-131.348,-10.254,119555.303,307.59529217481463
1028,1686017790.89,-57.129,-656.738,-218.75,-20.02,119555.307,314.18651351545384
1029,1686017790.89,-59.082,7.812,62.012,-35.156,119555.311,315.3165221660116
1030,1686017790.89,-52.734,216.797,90.82,-17.578,119555.315,306.06148524327386
1031,1686017790.9,-36.133,15.625,58.105,4.883,119555.319,307.6770661821047
1032,1686017790.9,-34.668,231.445,132.324,-4.883,119555.321,312.4957459294843
1033,1686017790.9,-54.688,405.762,121.582,-25.391,119555.325,312.6005935661049
1034,1686017790.91,-55.664,90.82,-29.297,-14.16,119555.329,315.9854199052809
1035,1686017790.91,-40.039,-498.535,-200.684,9.277,119555.333,308.43255208694023
1036,1686017790.92,-42.48,-144.043,16.113,-5.371,119555.337,317.4979755919663
1037,1686017790.92,-47.852,134.766,54.199,-26.855,119555.341,325.2710993600527
1038,1686017790.92,-46.387,-385.742,-221.191,-28.32,119555.345,316.0712498642219
1039,1686017790.93,-45.41,-604.492,-206.055,-16.113,119555.348,319.2368425914458
1040,1686017790.93,-41.992,105.469,150.879,-7.812,119555.352,314.52583472895077
1041,1686017790.94,-50.781,452.637,155.273,-20.996,119555.356,319.40718355701483
1042,1686017790.94,-71.777,62.5,-12.207,-40.527,119555.36,317.0899156055495
1043,1686017790.94,-71.777,55.176,23.438,-32.715,119555.364,314.90415144755264
1044,1686017790.94,-56.152,390.137,148.926,-15.625,119555.38,314.0518849965103
1045,1686017790.95,-57.129,354.98,101.074,-21.973,119555.384,322.2354734971002
1046,1686017790.95,-59.57,-26.855,-72.754,-31.738,119555.388,311.98882330906997
1047,1686017790.96,-60.059,62.5,20.508,-22.949,119555.392,317.1265484141283
1048,1686017790.96,-51.27,273.438,95.703,-6.836,119555.396,320.3455828890844
1049,1686017790.96,-42.969,77.637,0.977,-5.371,119555.4,313.8618372367292
1050,1686017790.97,-57.617,-604.98,-309.57,-17.09,119555.404,309.6402079327806
1051,1686017790.97,-58.594,-666.504,-267.09,-19.043,119555.408,314.5823419402879
1052,1686017790.98,-45.898,11.23,113.77,-5.371,119555.412,316.40923047891806
1053,1686017790.98,-37.109,-104.004,1.953,-4.883,119555.416,317.1923948838018
1054,1686017790.98,-52.246,-229.492,-16.113,-32.227,119555.419,314.5699521505089
1055,1686017790.99,-62.012,41.016,67.383,-34.18,119555.423,320.43960864693406
1056,1686017790.99,-51.758,421.387,176.27,-15.625,119555.426,317.1212821590236
1057,1686017790.99,-43.457,310.059,66.406,-11.23,119555.429,315.1677416727116
1058,1686017791.0,-43.945,-525.391,-247.559,-18.555,119555.433,315.0914415209109
1059,1686017791.0,-62.012,-362.305,-46.387,-39.551,119555.437,312.9742127078628
1060,1686017791.01,-61.035,341.309,162.598,-34.18,119555.441,312.32980406776863
1061,1686017791.01,-52.246,-125.488,-110.84,-9.766,119555.445,313.7197457890976
1062,1686017791.01,-60.059,-486.816,-191.406,-20.02,119555.449,317.7683528808423
1063,1686017791.02,-66.406,-50.781,37.598,-42.969,119555.453,317.8028988508674
1064,1686017791.02,-64.453,42.48,49.805,-32.227,119555.457,321.8116119957653
1065,1686017791.02,-50.781,-312.012,-116.211,-4.395,119555.461,314.1311414773408
1066,1686017791.03,-49.316,-678.711,-270.02,-2.441,119555.465,315.8284120776946
1067,1686017791.03,-54.688,-75.684,12.695,-23.438,119555.468,329.5536343902944
1068,1686017791.05,-50.781,257.812,104.492,-17.578,119555.471,315.70348364625875
1069,1686017791.05,-42.48,55.664,33.203,-0.488,119555.475,319.19587726053254
1070,1686017791.06,-41.992,180.664,87.402,-2.93,119555.479,316.7321012753538
1071,1686017791.06,-48.34,342.773,118.652,-13.184,119555.483,306.89545535188864
1072,1686017791.07,-50.781,213.379,36.133,-16.113,119555.487,317.48381390122233
1073,1686017791.07,-55.176,-130.859,-75.684,-9.277,119555.491,310.006877521932
1074,1686017791.07,-53.711,-224.609,-54.199,-5.859,119555.495,315.2755389884661
1075,1686017791.08,-51.758,116.699,85.938,-17.578,119555.498,319.0477468729191
1076,1686017791.08,-62.012,98.145,21.484,-36.133,119555.502,323.2283985334722
1077,1686017791.08,-63.477,-647.949,-332.031,-23.926,119555.506,325.68211179240717
1078,1686017791.09,-56.641,-835.938,-292.48,-6.836,119555.51,320.23762565173934
1079,1686017791.09,-62.012,30.273,139.648,-18.555,119555.514,315.32232255526054
1080,1686017791.1,-61.523,162.109,29.785,-34.18,119555.516,319.301246107756
1081,1686017791.1,-56.641,-270.02,-83.008,-27.832,119555.52,315.4890147374973
1082,1686017791.1,-43.457,63.965,92.773,-5.859,119555.524,324.55364010211383
1083,1686017791.11,-38.574,442.383,155.273,-6.836,119555.528,320.61452895998184
1084,1686017791.11,-57.617,131.348,-0.488,-28.809,119555.532,319.66964397665913
1085,1686017791.12,-60.547,-335.449,-215.82,-28.32,119555.536,312.0243787578067
1086,1686017791.12,-54.199,-68.848,-9.277,-15.625,119555.54,329.7182036346386
1087,1686017791.12,-53.711,440.918,193.848,-9.277,119555.544,317.0962615386515
1088,1686017791.13,-62.988,-60.059,-117.676,-23.926,119555.547,317.84256291095863
1089,1686017791.13,-70.312,-655.762,-276.855,-29.785,119555.551,319.7249058567294
1090,1686017791.13,-57.617,62.012,114.258,-17.09,119555.555,311.97059103283465
1091,1686017791.14,-41.016,466.797,185.547,2.93,119555.559,316.20696165145466
1092,1686017791.14,-43.457,47.852,-34.668,3.418,119555.563,314.1272310887555
1093,1686017791.14,-57.617,-238.281,-180.664,-29.297,119555.567,317.1257383454308
1094,1686017791.15,-62.5,104.004,32.227,-32.227,119555.571,310.0601348391689
1095,1686017791.15,-56.641,381.348,141.602,-14.648,119555.575,317.94698072799895
1096,1686017791.16,-58.594,-128.906,-77.148,-22.949,119555.579,318.55674365099384
1097,1686017791.16,-65.918,-530.273,-224.609,-37.598,119555.583,318.8657361061043
1098,1686017791.16,-62.012,-222.656,-135.742,-30.762,119555.586,311.9044490649861
1099,1686017791.17,-54.688,210.449,55.664,-14.16,119555.59,317.3322323948508
1100,1686017791.17,-53.223,-383.301,-224.121,-16.602,119555.594,323.8629047554263
1101,1686017791.18,-53.223,-835.449,-337.402,-26.367,119555.598,327.41456286741754
1102,1686017791.18,-60.059,50.293,115.234,-34.18,119555.602,322.74837893119724
1103,1686017791.18,-61.523,249.023,81.055,-21.484,119555.606,320.2222780296475
1104,1686017791.19,-55.176,103.516,16.602,-17.578,119555.607,319.34385236956
1105,1686017791.19,-61.035,246.094,108.887,-34.668,119555.611,312.83919430891274
1106,1686017791.19,-72.754,291.016,96.191,-48.828,119555.615,317.87322115413554
1107,1686017791.2,-71.289,9.766,-2.441,-35.645,119555.619,314.38613238337535
1108,1686017791.2,-53.711,-146.484,-70.312,-11.23,119555.623,313.6653799486188
1109,1686017791.21,-48.828,-97.168,-30.273,-20.508,119555.626,317.3348679935607
1110,1686017791.21,-60.547,17.09,58.594,-41.992,119555.63,317.6300597858626
1111,1686017791.21,-62.5,-164.062,-112.793,-23.926,119555.634,322.66580439431056
1112,1686017791.22,-58.105,-767.578,-351.562,-7.812,119555.638,319.42679439968146
1113,1686017791.22,-61.035,-80.078,51.27,-29.297,119555.642,322.47314000542224
1114,1686017791.22,-62.988,362.793,112.305,-44.922,119555.646,308.605126117969
1115,1686017791.23,-60.059,-25.391,-49.316,-33.203,119555.65,317.21113921344545
1116,1686017791.24,-50.293,57.129,43.457,-14.648,119555.666,317.5359124794333
1117,1686017791.25,-50.781,380.371,148.438,-12.695,119555.67,323.2916280953283
1118,1686017791.25,-66.406,301.758,86.914,-28.809,119555.674,323.47090209324745
1119,1686017791.26,-74.219,-6.836,-50.293,-34.668,119555.678,321.0216145169246
1120,1686017791.26,-66.895,89.844,11.23,-15.625,119555.682,316.88150793499034
1121,1686017791.26,-55.176,56.152,43.457,-6.348,119555.686,319.9682580359908
1122,1686017791.27,-53.223,-148.926,-32.715,-22.461,119555.69,319.86674611982033
1123,1686017791.27,-52.734,-578.125,-325.195,-28.32,119555.694,318.3247416501812
1124,1686017791.28,-52.246,-25.391,31.25,-19.043,119555.696,318.4738979394942
1125,1686017791.28,-52.734,-991.211,-433.105,-12.695,119555.698,318.43062354834115
1126,1686017791.28,-42.48,476.074,214.355,-9.766,119555.7,321.74464348014857
1127,1686017791.28,-50.781,-153.32,73.242,-1.465,119555.701,324.47236292669965
1128,1686017791.28,-50.781,267.09,61.035,-14.648,119555.704,316.09569451073423
1129,1686017791.28,-45.898,258.789,110.352,-3.906,119555.705,319.95960485017304
1130,1686017791.29,-67.383,-31.25,-44.922,-31.25,119555.708,319.4854983432712
1131,1686017791.29,-50.781,-259.766,-153.32,-19.531,119555.709,314.9175615677847
1132,1686017791.29,-64.453,150.879,68.848,-36.621,119555.712,320.815330350597
1133,1686017791.3,-55.176,102.051,66.895,-19.531,119555.716,322.31194886987174
1134,1686017791.3,-49.316,-216.309,-85.449,-21.973,119555.72,321.3649372683254
1135,1686017791.3,-53.711,-228.516,-128.418,-35.645,119555.723,308.7816114619877
1136,1686017791.31,-60.547,-20.996,-18.555,-40.039,119555.727,313.210449623188
1137,1686017791.31,-51.27,-1.465,38.086,-29.785,119555.731,309.5615779802771
1138,1686017791.31,-45.41,-250.488,-98.145,-15.137,119555.735,323.9326606467619
1139,1686017791.32,-53.223,-817.871,-342.285,-16.113,119555.739,322.7373245466296
1140,1686017791.32,-55.664,-280.273,-11.23,-35.645,119555.754,317.3383983852396
1141,1686017791.32,-42.48,265.625,125.488,-27.832,119555.758,321.48950398958897
1142,1686017791.33,-42.969,118.164,92.285,-11.719,119555.762,322.9190949580183
1143,1686017791.33,-49.316,216.309,129.883,-14.16,119555.766,316.918304056175
1144,1686017791.34,-54.199,270.508,78.125,-29.785,119555.77,326.3800485863711
1145,1686017791.34,-60.059,16.602,18.066,-31.25,119555.774,315.1736602176923
1146,1686017791.34,-58.594,-582.031,-187.012,-10.254,119555.778,318.4275811857454
1147,1686017791.35,-60.547,-471.191,-119.141,-14.648,119555.782,320.65755875001656
1148,1686017791.35,-62.988,13.184,65.43,-39.551,119555.786,322.45941544299535
1149,1686017791.36,-68.848,-172.852,-59.082,-41.992,119555.79,318.6049641357222
1150,1686017791.36,-56.641,-404.785,-111.328,-22.949,119555.794,320.8136373302697
1151,1686017791.36,-50.781,-338.867,-31.25,-15.625,119555.797,319.6775345794867
1152,1686017791.37,-71.777,184.082,116.699,-38.574,119555.8,321.5156962661937
1153,1686017791.37,-70.801,121.582,-1.953,-44.434,119555.803,311.8614919425423
1154,1686017791.37,-58.105,-236.328,-74.707,-20.996,119555.807,314.44290573104416
1155,1686017791.38,-57.129,125.488,120.605,-15.625,119555.811,319.99627999812407
1156,1686017791.38,-68.848,437.012,161.133,-35.645,119555.815,312.20418857046167
1157,1686017791.39,-79.59,-122.07,-118.164,-51.27,119555.819,318.61214374094703
1158,1686017791.39,-71.289,-529.785,-200.684,-31.25,119555.823,318.15286897806124
1159,1686017791.39,-58.105,174.805,171.387,-6.348,119555.827,320.26496598480026
1160,1686017791.4,-58.594,451.172,144.531,-9.766,119555.831,320.3875697324099
1161,1686017791.4,-69.336,-106.445,-65.43,-18.066,119555.835,314.81097947719275
1162,1686017791.4,-71.777,-212.402,-23.438,-14.16,119555.839,326.79241693475745
1163,1686017791.41,-60.059,289.062,145.996,-7.324,119555.842,319.319184563036
1164,1686017791.42,-54.199,389.16,133.301,-1.465,119555.847,319.06881574069257
1165,1686017791.43,-65.918,-29.297,-79.102,-20.508,119555.851,319.02499148020524
1166,1686017791.43,-73.73,-252.441,-160.156,-29.297,119555.855,317.4089801408886
1167,1686017791.44,-68.359,138.184,73.73,-14.648,119555.859,314.3979316178783
1168,1686017791.44,-61.035,401.855,178.223,-9.277,119555.863,317.3994819458429
1169,1686017791.44,-65.918,-417.48,-241.211,-18.066,119555.867,317.746460164541
1170,1686017791.45,-77.148,-758.789,-303.711,-34.668,119555.871,319.5816824127992
1171,1686017791.45,-72.754,154.785,143.555,-24.414,119555.875,307.6998492912079
1172,1686017791.46,-58.105,224.609,94.727,-6.836,119555.879,311.3567349402156
1173,1686017791.46,-58.105,-532.227,-187.988,-16.113,119555.883,313.00403579694233
1174,1686017791.46,-72.266,-471.68,-117.188,-29.297,119555.887,317.64460681433536
1175,1686017791.47,-59.082,233.887,140.137,-26.367,119555.89,318.8400783410881
1176,1686017791.47,-49.805,223.145,93.75,-20.996,119555.892,315.04040390694286
1177,1686017791.47,-63.965,83.984,44.922,-27.344,119555.896,316.05164783619097
1178,1686017791.48,-64.453,189.453,78.125,-36.133,119555.9,322.61796752504506
1179,1686017791.48,-65.43,256.348,93.75,-32.715,119555.904,312.637240130189
1180,1686017791.49,-61.523,-8.789,-35.156,-10.254,119555.908,322.39422946272197
1181,1686017791.49,-54.688,-351.074,-154.297,-10.254,119555.912,315.4774063872624
1182,1686017791.49,-61.035,-367.188,-95.703,-32.227,119555.916,315.49984685614663
1183,1686017791.5,-68.359,-21.484,63.477,-36.133,119555.92,319.6947597791809
1184,1686017791.5,-65.918,-112.793,-53.711,-18.555,119555.924,315.1208750290113
1185,1686017791.5,-65.918,-748.535,-338.379,-3.906,119555.928,331.0925648879441
1186,1686017791.51,-73.242,-131.836,18.066,-20.02,119555.932,321.13036461041236
1187,1686017791.51,-77.637,277.344,99.121,-42.969,119555.935,317.9968461354484
1188,1686017791.52,-76.66,-20.02,-39.062,-31.738,119555.936,314.48760900776574
1189,1686017791.52,-69.336,63.965,26.367,-14.16,119555.94,316.9732982361813
1190,1686017791.52,-75.195,288.086,119.629,-28.32,119555.944,320.6737579280888
1191,1686017791.53,-79.102,230.469,57.617,-35.645,119555.948,317.5896077130449
1192,1686017791.53,-70.801,-30.762,-40.039,-17.578,119555.952,316.1227467928088
1193,1686017791.54,-65.43,-170.898,-35.156,-10.742,119555.956,326.31531859604496
1194,1686017791.54,-67.871,-73.73,19.531,-12.695,119555.96,313.9757048174058
1195,1686017791.54,-75.684,-41.016,-18.066,-22.461,119555.963,314.2070187400376
1196,1686017791.55,-68.848,-596.191,-354.492,-17.578,119555.967,315.4914162693208
1197,1686017791.55,-61.523,-1000.0,-420.898,2.441,119555.971,324.4846059533526
1198,1686017791.55,-62.988,-138.184,74.707,-14.648,119555.975,315.37748919052257
1199,1686017791.56,-54.199,224.121,83.496,-34.668,119555.979,324.92503947290453
1200,1686017791.56,-57.129,-43.945,-18.555,-40.039,119556.011,318.9484854064579
1201,1686017791.56,-55.664,292.969,159.668,-23.926,119556.015,317.2010499121446
1202,1686017791.57,-43.945,533.691,186.035,-6.836,119556.018,319.8487851861919
1203,1686017791.57,-47.852,218.75,27.344,-20.02,119556.022,321.77111148214584
1204,1686017791.58,-68.848,-103.027,-76.66,-35.156,119556.026,322.1150561282156
1205,1686017791.58,-70.312,-138.672,-6.836,-23.438,119556.03,318.08906579200163
1206,1686017791.58,-54.199,121.094,127.93,0.0,119556.034,316.0991976450394
1207,1686017791.59,-49.805,-8.789,-44.922,-2.441,119556.038,310.2110311484928
1208,1686017791.59,-57.129,-595.215,-331.055,-23.438,119556.042,314.52991232942026
1209,1686017791.6,-70.312,-166.992,-27.832,-32.715,119556.046,315.12516472061645
1210,1686017791.6,-76.172,147.461,103.516,-23.926,119556.05,316.0792380639198
1211,1686017791.6,-75.684,-256.836,-116.699,-30.273,119556.054,309.3291583347981
1212,1686017791.6,-72.266,-299.805,-110.352,-47.363,119556.026,311.8459361273679
1213,1686017791.61,-66.406,237.793,124.512,-43.945,119556.03,316.1596403202734
1214,1686017791.61,-56.152,304.688,98.145,-19.043,119556.034,311.4545100080357
1215,1686017791.62,-56.152,165.039,72.754,-16.113,119556.038,313.0111482465986
1216,1686017791.62,-70.801,101.074,34.18,-40.527,119556.042,310.917052810844
1217,1686017791.62,-68.359,-89.355,-86.426,-43.457,119556.045,311.6278983179037
1218,1686017791.63,-49.805,-234.375,-74.219,-10.742,119556.049,319.2964753257175
1219,1686017791.63,-44.434,-146.484,-26.367,11.23,119556.053,320.3230231134621
1220,1686017791.64,-64.453,-158.691,-56.152,-15.137,119556.057,323.9476268705364
1221,1686017791.64,-73.242,-70.312,31.25,-31.25,119556.061,314.625727603323
1222,1686017791.64,-59.57,102.051,63.965,-15.137,119556.065,313.1557483376096
1223,1686017791.65,-55.176,-215.332,-80.566,2.441,119556.069,312.76781120549356
1224,1686017791.65,-62.012,-278.32,-59.082,-3.906,119556.074,320.5535386791973
1225,1686017791.66,-68.359,71.777,54.688,-38.086,119556.078,315.1056633646695
1226,1686017791.66,-64.941,157.227,43.945,-45.41,119556.082,319.79880346192544
1227,1686017791.66,-51.758,-694.336,-349.121,-6.836,119556.086,316.2893957599076
1228,1686017791.67,-52.734,-744.141,-251.953,-9.277,119556.09,314.2991425162475
1229,1686017791.67,-67.871,-1.465,96.68,-43.457,119556.094,316.8263111835334
1230,1686017791.67,-73.242,-280.762,-141.113,-33.203,119556.098,321.73669037809447
1231,1686017791.68,-63.965,-555.176,-120.605,-4.395,119556.102,316.91383309045926
1232,1686017791.68,-59.57,121.582,198.73,0.488,119556.106,320.1363460591026
1233,1686017791.69,-63.965,465.82,152.832,-22.461,119556.11,318.8311273337407
1234,1686017791.69,-69.336,-36.621,-43.945,-29.785,119556.114,315.9919111323755
1235,1686017791.69,-54.199,-86.426,12.695,-5.859,119556.117,321.4377581778969
1236,1686017791.7,-41.992,395.02,198.73,-0.488,119556.13,315.2155835696299
1237,1686017791.7,-51.27,405.762,119.141,-12.207,119556.134,311.00844495503156
1238,1686017791.7,-57.617,-145.02,-92.285,-20.996,119556.137,318.9005727929673
1239,1686017791.71,-58.594,-213.379,-21.484,-21.484,119556.141,325.421297987889
1240,1686017791.71,-56.641,269.043,135.254,-18.066,119556.145,318.22154346409786
1241,1686017791.72,-60.547,178.711,61.523,-30.762,119556.149,320.7684480130811
1242,1686017791.72,-71.289,-580.566,-284.18,-32.715,119556.153,329.6034052782341
1243,1686017791.72,-74.707,-706.543,-259.766,-16.113,119556.157,320.0420621703499
1244,1686017791.73,-53.223,-11.719,132.324,2.93,119556.161,321.3840931001995
1245,1686017791.73,-44.434,71.777,48.828,7.812,119556.165,315.60497467825513
1246,1686017791.73,-59.082,-348.633,-116.211,-15.625,119556.169,321.798021971712
1247,1686017791.74,-65.918,-245.605,-31.738,-26.367,119556.173,311.8116680902284
1248,1686017791.76,-52.246,396.973,184.082,-12.695,119556.177,317.9708971083167
1249,1686017791.76,-47.852,331.055,88.867,-7.324,119556.181,315.7541137231361
1250,1686017791.76,-62.012,33.203,-41.504,-21.973,119556.185,313.65221735229676
1251,1686017791.77,-62.012,185.059,58.594,-30.762,119556.188,325.7129035407431
1252,1686017791.77,-53.223,311.035,97.656,-18.066,119556.192,319.21504446351975
1253,1686017791.78,-35.645,-94.727,-61.035,1.465,119556.196,305.3415254650426
1254,1686017791.78,-38.574,-596.68,-224.609,-9.277,119556.2,316.836156294609
1255,1686017791.78,-61.523,-247.559,-13.672,-36.133,119556.204,319.10108813402786
1256,1686017791.79,-61.035,363.281,196.289,-29.297,119556.208,317.73807695248007
1257,1686017791.79,-45.41,-61.035,-59.57,-0.977,119556.212,322.6549363405014
1258,1686017791.8,-57.617,-472.168,-190.43,-11.23,119556.216,317.3123502449095
1259,1686017791.8,-64.941,169.434,105.957,-38.574,119556.22,321.5444183191589
1260,1686017791.8,-62.5,304.199,92.285,-36.133,119556.234,317.73999592613234
1261,1686017791.8,-57.129,68.359,6.836,-11.719,119556.238,314.6851614394011
1262,1686017791.81,-56.641,109.863,33.691,-5.859,119556.242,314.8994741923193
1263,1686017791.81,-62.5,271.973,93.262,-27.344,119556.246,316.65435981248197
1264,1686017791.82,-58.594,233.887,62.012,-40.039,119556.25,316.44012600037547
1265,1686017791.82,-41.016,-110.352,-74.219,-17.09,119556.254,321.25699053939337
1266,1686017791.82,-46.387,-115.234,-23.438,-14.16,119556.258,326.0820718225201
1267,1686017791.83,-67.871,180.176,67.871,-35.645,119556.262,320.17359275753967
1268,1686017791.83,-66.895,-46.875,-103.516,-40.039,119556.266,320.0244785935958
1269,1686017791.84,-55.176,-677.246,-382.324,-28.809,119556.27,314.12444957717935
1270,1686017791.84,-55.664,-998.535,-409.18,-8.789,119556.273,316.3045781744291
1271,1686017791.84,-64.941,-195.312,41.504,-22.461,119556.277,318.36872975513216
1272,1686017791.86,-66.406,107.91,51.758,-44.434,119556.281,315.9179246564642
1273,1686017791.86,-64.941,-71.289,-22.949,-35.645,119556.285,322.19173171232256
1274,1686017791.87,-52.246,301.27,146.484,-12.695,119556.289,321.1516963884217
1275,1686017791.87,-46.387,496.582,176.758,-20.02,119556.293,322.21286583977604
1276,1686017791.88,-53.711,129.395,-21.484,-43.457,119556.297,320.88938106815755
1277,1686017791.88,-56.152,-358.398,-177.734,-38.086,119556.301,318.05775638492116
1278,1686017791.88,-50.781,-83.008,49.805,-15.625,119556.305,321.3485407039879
1279,1686017791.89,-48.828,458.008,208.008,-18.066,119556.308,316.36421510670874
1280,1686017791.89,-62.988,-232.422,-128.418,-40.527,119556.311,314.0926814968982
1281,1686017791.89,-53.711,-49.316,-125.0,-47.852,119556.312,318.79453261866286
1282,1686017791.89,-74.707,-483.398,-195.801,-59.082,119556.315,319.65285044667417
1283,1686017791.9,-66.406,-623.535,-276.855,-60.059,119556.316,321.2604214841771
1284,1686017791.9,-55.176,158.691,95.703,-34.668,119556.319,317.42489325043516
1285,1686017791.9,-63.965,-148.926,46.875,-41.016,119556.32,321.05725355085616
1286,1686017791.9,-45.41,309.082,103.027,-16.113,119556.323,322.6336148347285
1287,1686017791.9,-51.758,210.449,127.441,-26.367,119556.324,310.5505504995954
1288,1686017791.91,-53.223,34.668,-36.621,-22.461,119556.327,320.1718061404491
1289,1686017791.91,-54.199,-307.617,-208.496,-25.391,119556.331,319.51594356178697
1290,1686017791.91,-44.434,-230.469,-121.094,-20.02,119556.335,313.22396283654666
1291,1686017791.92,-38.086,75.684,31.25,7.324,119556.339,312.995587573123
1292,1686017791.92,-42.48,-198.73,-95.703,-0.488,119556.343,319.33026785818146
1293,1686017791.92,-56.641,-241.211,-82.52,-35.156,119556.346,314.59542419125165
1294,1686017791.93,-62.012,191.895,92.285,-31.738,119556.35,317.11915610935546
1295,1686017791.93,-42.48,277.832,98.633,-9.766,119556.354,318.4422558114517
