,timestamps,TP9,AF7,AF8,TP10,Secondary Timestamp,emg_signal
0,1686274535.96,-51.27,-73.73,-17.578,-52.246,1241.863,347.71298393594134
1,1686274535.97,-6.836,384.766,201.172,15.137,1241.867,353.4464225639514
2,1686274535.97,35.645,388.184,122.559,19.531,1241.871,343.6642644157115
3,1686274535.98,-17.578,-117.676,-65.918,-51.27,1241.874,353.8273779761091
4,1686274535.98,-81.543,-89.844,11.23,-83.008,1241.878,352.4294971540106
5,1686274535.98,-40.039,107.422,94.238,-13.672,1241.882,358.31107129375215
6,1686274535.99,37.598,-69.336,18.066,24.902,1241.886,350.1196017352066
7,1686274535.99,11.719,-349.121,-89.355,-36.621,1241.89,360.6469916256293
8,1686274536.0,-59.57,-149.902,9.766,-86.914,1241.894,357.73025155679125
9,1686274536.0,-49.316,326.66,163.086,-32.715,1241.898,362.5469695275933
10,1686274536.0,23.438,251.953,64.941,28.32,1241.902,363.41990641266466
11,1686274536.01,20.996,-691.406,-306.152,1.953,1241.906,361.7996746141778
12,1686274536.04,-50.293,-496.094,-119.629,-66.895,1241.938,349.3617454282321
13,1686274536.04,-61.523,354.98,188.965,-48.34,1241.942,355.2444426188906
14,1686274536.05,10.742,-122.07,-85.938,46.875,1241.946,360.1128081462476
15,1686274536.05,42.48,-179.199,-68.848,29.297,1241.95,355.59452454223606
16,1686274536.06,-19.531,270.02,109.863,-58.105,1241.954,354.72451188671687
17,1686274536.06,-65.918,89.355,31.738,-41.016,1241.957,361.2540139802517
18,1686274536.06,-16.113,-410.645,-134.766,52.734,1241.961,352.81913631167976
19,1686274536.07,37.109,-808.105,-282.715,68.359,1241.965,351.07372606986735
20,1686274536.07,28.32,404.297,158.203,-32.715,1241.965,358.3476867644315
21,1686274536.07,-2.441,-94.727,53.711,-38.086,1241.969,348.87378452074546
22,1686274536.07,-36.133,277.832,46.875,-80.566,1241.968,358.29424685337034
23,1686274536.07,-62.5,348.633,139.16,-81.055,1241.973,359.61152749653513
24,1686274536.08,-42.48,-12.695,-18.555,-19.043,1241.972,361.02365578437406
25,1686274536.08,-29.785,56.152,-5.371,5.371,1241.977,346.74636113113206
26,1686274536.08,22.949,176.758,83.496,31.738,1241.976,352.023800904817
27,1686274536.08,39.062,128.418,62.012,43.945,1241.981,347.7695882079299
28,1686274536.08,34.18,266.113,66.895,-11.23,1241.98,347.9131324797624
29,1686274536.09,-23.926,-92.285,-50.781,-68.359,1241.984,353.2621416757726
30,1686274536.09,-56.152,-374.023,-132.324,-42.969,1241.988,362.82032330261296
31,1686274536.1,-8.789,-242.676,-30.273,26.855,1241.992,363.6066966134222
32,1686274536.1,41.992,526.367,178.711,26.855,1242.009,355.8250737084525
33,1686274536.1,36.621,61.523,98.633,12.695,1241.996,355.3708075783448
34,1686274536.1,-10.742,105.957,-45.898,-48.34,1242.013,347.8272973878603
35,1686274536.1,-12.207,-7.812,-20.508,-63.477,1242.0,360.65555020685423
36,1686274536.11,-84.961,-922.852,-473.633,-49.805,1242.017,351.19764534810105
37,1686274536.11,-80.078,-149.902,-60.059,-70.801,1242.004,350.641660977706
38,1686274536.11,-57.617,-716.309,-198.242,14.648,1242.021,343.7410380802643
39,1686274536.11,-28.32,248.047,137.695,7.324,1242.008,348.8934899633557
40,1686274536.11,33.691,341.309,216.309,35.645,1242.025,349.6027761258196
41,1686274536.12,16.602,-43.457,-66.406,-12.207,1242.029,353.32568648796286
42,1686274536.12,-66.895,-366.699,-108.398,-89.355,1242.033,354.7973088681439
43,1686274536.12,-64.453,29.297,72.754,-62.012,1242.036,347.68493006562835
44,1686274536.13,10.742,373.535,164.551,11.23,1242.04,351.6956423849582
45,1686274536.13,19.531,-96.68,-79.59,-3.418,1242.044,355.10592323613747
46,1686274536.14,-58.594,-770.508,-284.18,-69.336,1242.048,345.2253451166973
47,1686274536.14,-75.195,75.195,102.051,-77.637,1242.052,354.3651827250071
48,1686274536.17,-0.488,452.637,157.715,2.441,1242.069,354.9734243150366
49,1686274536.18,41.992,238.77,93.262,11.23,1242.073,354.66124974721316
50,1686274536.18,-14.16,301.27,120.605,-71.289,1242.077,348.53437362223985
51,1686274536.18,-68.359,431.641,138.672,-88.379,1242.081,348.16392955060905
52,1686274536.19,-20.508,295.41,80.566,-3.418,1242.085,341.5548783132428
53,1686274536.19,27.832,-91.797,0.0,22.461,1242.089,352.3375157737009
54,1686274536.2,-15.625,-191.406,-7.812,-55.176,1242.093,347.0561360487063
55,1686274536.2,-79.102,-47.852,29.297,-88.379,1242.097,342.99350689508424
56,1686274536.2,-51.758,150.879,75.195,-20.996,1242.101,351.86501479458974
57,1686274536.2,-48.828,89.355,-42.48,-41.016,1242.1,359.77363477356243
58,1686274536.21,24.414,-268.066,-145.996,34.668,1242.104,350.70177863631096
59,1686274536.21,17.09,-613.281,-255.371,54.688,1242.104,337.8174337665995
60,1686274536.21,6.836,-729.492,-202.148,-0.488,1242.108,345.96767689974536
61,1686274536.21,41.992,250.0,140.625,-0.488,1242.108,342.530741352662
62,1686274536.22,-34.668,421.387,156.738,-89.844,1242.111,348.0250145797297
63,1686274536.22,-47.363,329.102,203.613,-87.402,1242.112,356.81321989795117
64,1686274536.22,-73.73,79.102,20.996,-81.055,1242.115,350.746133788017
65,1686274536.22,-15.137,-180.664,-20.508,13.184,1242.119,354.2604781183884
66,1686274536.23,23.438,20.02,65.43,17.09,1242.123,352.8053299512939
67,1686274536.23,-25.391,288.086,103.516,-68.848,1242.127,362.01570459746233
68,1686274536.24,-80.566,-33.203,13.184,-88.379,1242.131,357.87750373377963
69,1686274536.24,-42.969,-15.137,73.73,-12.207,1242.135,351.9785249313531
70,1686274536.24,28.32,427.246,184.57,25.391,1242.139,347.9270191589007
71,1686274536.25,0.977,432.617,130.859,-51.758,1242.143,346.14117465795226
72,1686274536.25,-72.266,-409.18,-252.93,-81.543,1242.158,347.3723126909747
73,1686274536.25,-61.035,-760.254,-236.328,-16.113,1242.162,352.8917651423087
74,1686274536.26,27.344,215.332,193.359,15.137,1242.166,357.7350822426913
75,1686274536.26,34.668,386.719,79.102,-24.902,1242.17,342.8470828215649
76,1686274536.26,-41.504,-4.883,-38.086,-74.219,1242.174,350.0108893430209
77,1686274536.27,-57.129,-87.891,4.883,-45.898,1242.178,361.30849222464377
78,1686274536.27,14.648,-34.668,19.043,16.113,1242.182,353.5568892960352
79,1686274536.28,37.598,15.625,36.621,-4.395,1242.186,342.4911607053463
80,1686274536.28,-30.273,-640.625,-277.832,-60.547,1242.189,344.6715648822612
81,1686274536.28,-66.406,-772.949,-254.395,-53.711,1242.193,350.46390407634453
82,1686274536.29,-13.184,296.875,212.402,2.93,1242.197,343.7788774455881
83,1686274536.29,34.18,311.035,52.734,24.902,1242.201,358.6904408443344
84,1686274536.29,-8.301,19.531,-46.387,-53.223,1242.189,352.6706581769445
85,1686274536.3,-63.965,298.34,112.305,-84.473,1242.193,344.4540160045053
86,1686274536.3,-30.273,417.969,154.297,-12.207,1242.197,360.84207973098233
87,1686274536.3,29.785,-97.656,-86.914,32.227,1242.201,348.03505274280104
88,1686274536.31,6.348,-322.754,-176.758,-25.879,1242.205,343.50540169172507
89,1686274536.31,-63.965,-19.531,44.922,-83.008,1242.209,350.51292749063805
90,1686274536.32,-62.5,-15.137,36.621,-38.086,1242.213,346.1014856530788
91,1686274536.32,15.137,-344.727,-131.836,30.762,1242.217,353.2328346057487
92,1686274536.32,18.066,-310.547,-119.629,-7.324,1242.221,344.13650423078246
93,1686274536.33,-45.41,339.355,143.555,-89.844,1242.225,345.24199533451446
94,1686274536.33,-71.289,397.461,93.262,-66.406,1242.228,341.83652495683265
95,1686274536.34,-18.066,-84.473,-41.016,10.254,1242.232,354.83553499472566
96,1686274536.34,21.973,-73.73,59.082,-5.371,1242.235,346.8758877547073
97,1686274536.34,-25.391,401.367,156.738,-78.125,1242.239,335.77215694922336
98,1686274536.35,-71.777,253.906,16.602,-76.66,1242.243,346.7968588554445
99,1686274536.35,-21.484,86.426,51.758,-1.465,1242.247,346.69277515317384
100,1686274536.35,36.133,188.965,90.332,23.926,1242.25,357.08324110831586
101,1686274536.36,2.93,22.461,-9.766,-42.969,1242.254,355.577148205222
102,1686274536.36,-56.641,-104.492,-7.812,-79.102,1242.258,347.6376248620432
103,1686274536.36,-41.016,-663.086,-316.406,2.441,1242.262,350.5692945996414
104,1686274536.37,24.414,-933.594,-331.055,52.734,1242.266,351.3847803899673
105,1686274536.37,12.695,-13.184,79.59,-40.039,1242.27,365.5026606481108
106,1686274536.38,-62.988,147.461,-7.324,-101.562,1242.274,346.02941512242717
107,1686274536.38,-66.895,-3.906,-50.293,-42.48,1242.278,347.1116631078089
108,1686274536.4,18.066,355.957,149.414,25.391,1242.294,338.6790933353659
109,1686274536.4,38.086,455.566,159.668,-16.113,1242.298,354.5908255693689
110,1686274536.41,-40.527,61.523,-2.93,-88.867,1242.302,353.0791688297807
111,1686274536.41,-75.195,-48.34,-10.254,-66.895,1242.306,349.0786486673082
112,1686274536.42,-0.488,285.645,130.859,14.648,1242.31,352.2424507673161
113,1686274536.42,43.457,181.641,101.562,10.742,1242.314,353.3463305608351
114,1686274536.42,-22.949,-457.52,-195.801,-62.988,1242.318,346.725074722671
115,1686274536.43,-76.66,-686.035,-247.07,-71.289,1242.322,337.9433251232476
116,1686274536.43,-29.297,323.242,151.855,-18.555,1242.354,359.9137822282207
117,1686274536.43,-29.785,-20.02,104.492,-8.301,1242.326,343.4999977367972
118,1686274536.43,41.992,304.199,88.867,38.574,1242.357,357.4378608045471
119,1686274536.43,38.086,358.887,128.906,20.996,1242.33,350.1492934322242
120,1686274536.44,22.461,91.309,35.156,-9.766,1242.361,357.34663051468937
121,1686274536.44,0.488,-105.469,-31.738,-43.945,1242.334,351.92408362689366
122,1686274536.44,-51.27,200.195,120.605,-73.73,1242.365,348.71443035079886
123,1686274536.44,-65.43,-201.172,8.301,-85.449,1242.337,349.97338744243956
124,1686274536.44,-60.059,327.637,124.512,-33.203,1242.369,357.4700178551768
125,1686274536.45,16.602,30.273,38.574,44.922,1242.373,349.9608093033569
126,1686274536.45,40.039,-310.059,-91.309,21.484,1242.377,339.64259395522845
127,1686274536.46,-29.297,-293.945,-117.188,-61.523,1242.381,353.0126696543543
128,1686274536.46,-56.641,153.32,83.008,-49.805,1242.385,340.9900177845849
129,1686274536.46,2.441,238.77,99.609,36.621,1242.389,341.9648561677236
130,1686274536.47,31.738,-698.242,-321.289,57.617,1242.393,343.5814778537413
131,1686274536.47,-23.438,-863.281,-315.918,-24.414,1242.397,360.5849267947381
132,1686274536.47,-65.918,134.277,127.441,-67.871,1242.384,349.91195506862783
133,1686274536.48,-13.672,252.441,86.426,4.883,1242.388,359.1441464345705
134,1686274536.48,52.734,98.633,20.02,39.062,1242.392,358.1141266894827
135,1686274536.48,16.602,385.254,124.512,-35.156,1242.396,346.7007995597467
136,1686274536.49,-44.434,399.414,95.215,-77.148,1242.4,343.97875022599356
137,1686274536.49,-34.18,-247.07,-137.207,-0.488,1242.404,341.7453260298223
138,1686274536.5,24.414,-500.977,-166.992,45.41,1242.407,349.8614072273294
139,1686274536.5,26.367,104.492,72.754,-31.738,1242.411,345.1307537171532
140,1686274536.5,-41.016,323.73,87.891,-94.238,1242.415,334.8163715623915
141,1686274536.51,-65.43,-63.965,-8.301,-43.457,1242.419,345.94120044758205
142,1686274536.51,1.953,8.789,78.613,36.621,1242.423,355.41887415851704
143,1686274536.52,38.086,421.387,173.828,19.043,1242.427,346.46505864979474
144,1686274536.53,-14.648,358.398,93.75,-62.5,1242.429,365.4441061043499
145,1686274536.54,-60.547,-452.637,-209.961,-45.898,1242.433,343.58101934940856
146,1686274536.54,-23.926,-504.883,-119.629,24.902,1242.437,356.3047051924967
147,1686274536.55,35.156,397.949,196.289,18.066,1242.441,348.7400503243683
148,1686274536.55,-4.883,292.48,51.758,-39.062,1242.445,346.29294870125915
149,1686274536.55,-72.266,-225.098,-82.031,-49.316,1242.449,341.28477518755625
150,1686274536.56,-47.852,-257.324,-43.945,24.902,1242.453,353.5709165461562
151,1686274536.56,19.531,-6.348,65.43,54.199,1242.457,347.5909884550758
152,1686274536.56,10.254,137.695,63.477,-14.648,1242.461,348.75815629950625
153,1686274536.57,-62.012,-638.184,-328.125,-44.434,1242.465,350.53847980573545
154,1686274536.57,-59.57,-631.836,-196.289,11.23,1242.468,341.14862042951256
155,1686274536.58,29.297,388.184,212.402,64.941,1242.472,351.01553755272784
156,1686274536.58,35.645,209.961,17.578,22.949,1242.475,358.33192314125944
157,1686274536.58,-34.668,-35.156,-53.223,-46.875,1242.478,352.8650814924324
158,1686274536.59,-49.316,240.234,106.934,-12.695,1242.482,343.64048926898107
159,1686274536.59,4.883,351.562,137.695,62.012,1242.486,340.65033767439206
160,1686274536.59,22.461,-143.555,-89.844,61.523,1242.49,350.7306694761919
161,1686274536.6,-34.668,-564.941,-247.07,-12.695,1242.494,353.5595479994548
162,1686274536.6,-66.406,-122.07,17.578,-30.273,1242.498,343.82070910094984
163,1686274536.6,-12.207,388.184,183.105,45.41,1242.502,346.8300705295581
164,1686274536.61,32.227,-203.125,-129.395,78.613,1242.506,347.8143810153174
165,1686274536.61,-6.348,-618.652,-208.496,10.254,1242.51,352.5481077809017
166,1686274536.62,-52.734,190.43,140.625,-40.527,1242.514,344.65437462496567
167,1686274536.62,-30.273,345.215,108.887,25.879,1242.517,350.42719420521144
168,1686274536.62,32.227,132.812,60.059,78.613,1242.52,344.54902637105755
169,1686274536.63,22.461,205.566,113.77,20.996,1242.524,354.7356848258563
170,1686274536.63,-44.434,368.164,134.277,-43.945,1242.527,351.343646070442
171,1686274536.64,-47.363,246.094,60.547,-0.977,1242.531,346.45530458837004
172,1686274536.64,20.02,60.059,18.066,65.918,1242.535,347.8658307764221
173,1686274536.64,31.738,-83.984,5.859,34.18,1242.539,349.8660323287397
174,1686274536.65,-41.992,-215.332,-41.016,-47.852,1242.543,352.7068561523957
175,1686274536.65,-67.871,-129.395,0.977,-40.039,1242.547,344.22939499126664
176,1686274536.65,0.977,-671.387,-274.902,60.547,1242.551,347.28640811377136
177,1686274536.66,33.203,-910.156,-317.871,58.594,1242.555,346.2511251046671
178,1686274536.66,-17.09,15.625,82.52,-54.199,1242.559,337.85632698025506
179,1686274536.67,-61.035,136.719,14.648,-72.266,1242.563,357.1322540665976
180,1686274536.67,-22.461,40.039,10.742,9.766,1242.564,345.2016643338518
181,1686274536.67,38.574,419.434,177.246,41.992,1242.568,344.2457601935575
182,1686274536.68,12.207,457.52,150.391,-19.531,1242.572,345.09742922810943
183,1686274536.68,-55.176,66.895,18.066,-54.688,1242.576,344.0755511870232
184,1686274536.68,-32.715,-36.621,-1.953,7.324,1242.58,341.4125369798535
185,1686274536.69,40.039,-1.465,18.555,58.594,1242.584,346.7714318921593
186,1686274536.69,24.414,140.137,87.891,-4.883,1242.588,339.8311115495972
187,1686274536.7,-43.457,-220.703,-137.695,-62.012,1242.591,352.5630691403076
188,1686274536.7,-50.781,-671.875,-264.16,-16.602,1242.595,354.02819467369176
189,1686274536.7,23.926,-23.926,106.934,39.062,1242.599,336.86057934676234
190,1686274536.71,46.875,323.242,147.949,11.719,1242.603,335.0709362026037
191,1686274536.71,-24.414,-157.227,-50.293,-55.176,1242.607,357.771341466491
192,1686274536.71,-59.57,-284.18,-25.391,-38.086,1242.609,342.720069368093
193,1686274536.72,3.906,340.82,183.105,35.645,1242.613,349.6773443212956
194,1686274536.72,54.199,337.891,90.82,32.715,1242.617,349.25678839588437
195,1686274536.72,6.348,114.258,50.293,-46.387,1242.621,348.3806581051158
196,1686274536.73,-53.711,202.637,120.117,-58.594,1242.625,357.5728407940087
197,1686274536.73,-14.648,69.336,56.152,20.02,1242.629,349.23392105636043
198,1686274536.74,49.316,-73.242,44.434,44.922,1242.633,348.89459055461083
199,1686274536.74,8.301,-665.527,-290.527,-5.859,1242.637,350.0397011124127
200,1686274536.74,-63.965,-721.191,-255.859,-52.734,1242.641,352.84292167541895
201,1686274536.75,-30.762,268.066,197.754,-19.043,1242.644,347.6110021841979
202,1686274536.75,45.898,303.223,84.961,50.293,1242.648,352.98690287925854
203,1686274536.76,44.434,-77.148,-44.922,12.207,1242.652,346.299268745652
204,1686274536.76,-16.602,20.02,54.688,-63.965,1242.656,339.55771208648764
205,1686274536.76,-41.504,404.297,198.73,-41.992,1242.659,349.6087775873071
206,1686274536.77,16.602,64.941,-35.645,43.457,1242.663,349.76674210666357
207,1686274536.77,37.598,-240.234,-138.184,28.32,1242.667,346.3788375569289
208,1686274536.77,-20.02,161.621,59.082,-58.105,1242.671,347.33297968532867
209,1686274536.78,-52.246,87.891,19.531,-47.852,1242.675,353.84933840087683
210,1686274536.78,-6.836,-450.684,-154.785,38.086,1242.679,345.6858766571822
211,1686274536.78,41.016,-550.781,-151.367,48.34,1242.683,351.4798231493055
212,1686274536.79,2.441,191.406,130.371,-53.711,1242.687,349.8780264231609
213,1686274536.79,-58.105,278.809,64.941,-84.961,1242.691,344.5429001321828
214,1686274536.8,-20.02,81.055,70.801,-2.441,1242.695,337.2265208803493
215,1686274536.8,57.617,230.469,145.996,38.574,1242.698,345.1185751340112
216,1686274536.8,37.109,400.879,145.508,-33.203,1242.714,353.8656248696279
217,1686274536.81,-46.387,227.539,57.129,-89.844,1242.718,348.8387300456394
218,1686274536.81,-39.551,-134.277,-43.945,-32.227,1242.722,353.6611550493942
219,1686274536.82,34.18,80.566,82.031,25.879,1242.726,337.8950484174774
220,1686274536.82,32.227,358.398,139.16,-20.508,1242.729,341.64018670405426
221,1686274536.82,-47.852,50.781,-29.785,-93.262,1242.733,349.5272742975011
222,1686274536.83,-79.102,-708.496,-331.543,-50.293,1242.737,343.7187196148115
223,1686274536.83,-10.742,-804.199,-254.395,29.785,1242.741,343.8110468968918
224,1686274536.84,37.109,156.25,149.902,-1.953,1242.745,353.35797943785064
225,1686274536.84,-17.09,187.5,26.855,-67.871,1242.749,338.93396102082494
226,1686274536.84,-76.66,-266.113,-78.613,-62.5,1242.753,348.70542049194637
227,1686274536.85,-30.762,129.883,117.188,0.977,1242.757,352.2120763030613
228,1686274536.85,34.18,465.82,157.715,18.555,1242.759,344.83744679397364
229,1686274536.85,-5.859,116.699,2.93,-43.457,1242.763,342.01590560476177
230,1686274536.86,-69.824,-59.57,-35.645,-83.008,1242.767,353.79199640549075
231,1686274536.86,-35.645,275.391,120.117,-24.902,1242.771,349.81778646492967
232,1686274536.86,39.062,296.387,110.352,26.855,1242.775,362.20359614766755
233,1686274536.87,17.09,-364.258,-180.664,-5.371,1242.779,345.4363381536575
234,1686274536.87,-63.965,-776.367,-289.062,-60.547,1242.783,343.6668740960832
235,1686274536.88,-59.082,-41.504,62.988,-39.551,1242.786,354.04306110620143
236,1686274536.88,23.438,448.242,159.668,28.809,1242.79,344.73196489023354
237,1686274536.88,26.367,-262.207,-135.742,5.371,1242.794,349.23692984196026
238,1686274536.89,-50.293,-486.328,-137.207,-74.707,1242.798,347.5569435159984
239,1686274536.89,-71.289,265.625,154.785,-66.406,1242.802,353.5681515986559
240,1686274536.91,-5.859,319.824,101.562,14.648,1242.804,352.25684601866686
241,1686274536.91,38.574,83.984,50.293,16.113,1242.808,351.94555088175326
242,1686274536.92,-13.184,115.723,78.125,-60.547,1242.812,353.02555855286175
243,1686274536.92,-60.547,310.059,117.188,-75.684,1242.816,351.50789681841206
244,1686274536.92,-14.16,243.652,74.219,0.977,1242.82,351.0175622508051
245,1686274536.93,35.156,-142.578,-45.898,30.762,1242.824,352.49036648001567
246,1686274536.93,-7.812,-327.637,-97.656,-35.156,1242.828,360.2020712477571
247,1686274536.94,-77.148,-306.152,-138.184,-70.801,1242.832,354.8497225279003
248,1686274536.94,-57.129,-202.637,-89.355,-7.812,1242.836,356.1268791504558
249,1686274536.94,17.578,-723.145,-290.039,63.965,1242.84,353.3922502924468
250,1686274536.95,10.742,-771.973,-225.586,11.23,1242.844,364.1729898197525
251,1686274536.95,-47.852,129.883,129.883,-71.289,1242.847,360.6283426800869
252,1686274536.95,-58.594,119.629,12.695,-27.832,1242.85,354.94365347285054
253,1686274536.96,8.789,68.848,22.461,44.434,1242.854,359.1897015696147
254,1686274536.96,43.945,386.23,146.484,11.23,1242.857,349.6637725633954
255,1686274536.96,-25.879,395.508,106.934,-76.66,1242.861,350.4735052316336
256,1686274536.97,-66.406,41.504,5.859,-67.383,1242.865,349.0226791432559
257,1686274536.97,-1.953,-255.371,-50.293,20.996,1242.869,370.3968076795039
258,1686274536.98,40.039,-59.082,35.645,22.949,1242.873,346.8653803277392
259,1686274536.98,-9.766,324.219,165.527,-59.57,1242.877,362.01406140042684
260,1686274536.98,-64.453,-273.926,-147.461,-67.383,1242.881,360.83364223056503
261,1686274536.99,-25.879,-695.312,-258.789,9.277,1242.885,357.99783920752884
262,1686274536.99,45.898,57.617,136.23,29.297,1242.889,361.68657743721104
263,1686274537.0,10.742,309.57,102.539,-41.992,1242.893,360.6388055706489
264,1686274537.0,-62.988,-160.156,-62.012,-78.613,1242.894,368.120375709035
265,1686274537.0,-45.41,-115.234,37.598,-17.09,1242.898,355.98134562932097
266,1686274537.01,25.391,427.246,170.41,30.273,1242.902,366.4223363641475
267,1686274537.01,17.578,321.289,78.125,-23.438,1242.906,371.1915512148214
268,1686274537.01,-49.316,-2.441,-15.137,-85.449,1242.91,365.9525889780028
269,1686274537.02,-62.5,-117.188,13.184,-50.781,1242.914,363.11025275556443
270,1686274537.02,2.441,-138.184,-6.348,24.902,1242.918,375.40898895296147
271,1686274537.02,25.391,-80.078,3.906,3.906,1242.922,368.7162339742853
272,1686274537.03,-38.086,-665.039,-292.969,-63.965,1242.926,360.436143042874
273,1686274537.03,-76.172,-714.844,-223.145,-57.617,1242.93,371.82054298138365
274,1686274537.04,-20.996,321.289,239.746,-1.465,1242.933,376.45363804464046
275,1686274537.04,32.715,304.199,85.938,8.301,1242.937,367.9729491936713
276,1686274537.04,-12.695,-161.621,-107.91,-61.035,1242.941,374.4240048713064
277,1686274537.05,-71.777,-10.742,24.414,-87.891,1242.945,372.1946158678146
278,1686274537.05,-36.133,424.316,205.078,-29.297,1242.949,382.9946210556596
279,1686274537.06,28.32,106.445,-20.508,14.648,1242.953,384.16681160673613
280,1686274537.06,-6.836,-295.898,-174.316,-36.621,1242.957,373.6280529520254
281,1686274537.06,-77.148,-133.301,-8.789,-85.449,1242.961,379.07413995520596
282,1686274537.07,-55.176,30.273,53.711,-33.691,1242.964,374.2264729914224
283,1686274537.07,20.508,-306.152,-147.461,41.504,1242.968,381.25142431056594
284,1686274537.08,23.926,-546.875,-186.035,10.254,1242.972,376.73799851543816
285,1686274537.08,-41.016,185.547,146.484,-74.219,1242.976,376.2162651668448
286,1686274537.08,-63.965,376.465,130.859,-48.34,1242.98,393.25012450526134
287,1686274537.09,0.977,193.848,128.906,31.738,1242.984,395.72632380832334
288,1686274537.09,41.016,261.719,141.602,15.625,1242.985,398.0882113232175
289,1686274537.09,-16.113,411.133,143.066,-64.941,1242.989,394.984833752827
290,1686274537.1,-57.129,210.449,57.129,-61.523,1242.993,409.5687603793271
291,1686274537.1,-9.766,-90.82,-41.016,18.066,1242.997,409.6130505626916
292,1686274537.1,46.875,95.215,59.082,28.809,1243.0,401.5836520066317
293,1686274537.11,7.812,35.645,34.668,-41.992,1243.004,404.8778898084409
294,1686274537.11,-53.223,-164.062,-26.855,-65.43,1243.008,417.8296994670651
295,1686274537.12,-23.926,-701.172,-281.738,21.973,1243.012,423.31415201189805
296,1686274537.12,29.785,-780.273,-209.473,59.082,1243.016,418.8467001424523
297,1686274537.12,15.625,226.074,198.242,-24.902,1243.02,429.1423815447439
298,1686274537.13,-50.781,233.398,17.578,-80.078,1243.024,420.4456757638802
299,1686274537.13,-53.223,-28.809,-71.289,-31.738,1243.028,415.7916582696701
300,1686274537.13,26.855,255.859,116.699,37.598,1243.029,429.03714079820514
301,1686274537.14,41.504,472.168,167.48,2.441,1243.033,444.0912471532135
302,1686274537.14,-30.762,158.203,10.254,-73.242,1243.037,435.75054912157196
303,1686274537.14,-61.523,65.918,27.832,-55.664,1243.041,444.8944625330498
304,1686274537.15,-6.348,315.43,113.281,30.273,1243.045,437.4172921985259
305,1686274537.15,20.996,109.375,50.781,27.344,1243.049,444.8264918886001
306,1686274537.16,-36.621,-405.273,-171.387,-43.457,1243.053,458.396818486885
307,1686274537.16,-75.684,-901.367,-331.543,-42.48,1243.057,452.75173021720764
308,1686274537.16,-17.578,-104.492,101.074,19.043,1243.061,461.12617749455376
309,1686274537.17,40.527,446.777,166.504,30.762,1243.065,447.4235480005765
310,1686274537.17,-3.418,125.977,3.418,-48.828,1243.068,460.3077111921886
311,1686274537.18,-68.359,160.645,88.379,-92.285,1243.072,457.4451876331695
312,1686274537.18,-41.016,403.32,160.156,-21.973,1243.103,457.81424612577024
313,1686274537.18,33.691,387.207,109.375,41.504,1243.107,463.1613352254565
314,1686274537.19,15.625,96.191,48.828,-11.719,1243.111,450.48520524369593
315,1686274537.19,-60.059,111.328,91.309,-75.684,1243.115,462.45314016098354
316,1686274537.19,-66.895,247.07,94.238,-37.598,1243.119,463.02371244740925
317,1686274537.2,4.883,62.5,29.297,38.086,1243.123,458.6498474965217
318,1686274537.2,16.113,-633.789,-243.164,27.832,1243.127,467.8727048193606
319,1686274537.2,-50.781,-654.785,-199.707,-60.547,1243.131,458.5303526307052
320,1686274537.21,-73.242,-36.133,87.402,-70.801,1243.135,461.44963684461123
321,1686274537.21,-8.789,-86.426,-21.973,9.277,1243.139,460.092256954186
322,1686274537.22,39.551,-497.07,-152.344,14.648,1243.142,456.06088336194955
323,1686274537.22,-10.254,-168.945,45.41,-78.125,1243.146,456.05279468845146
324,1686274537.22,-55.176,391.113,183.105,-96.191,1243.134,459.5238016667955
325,1686274537.23,-19.531,135.254,22.949,-3.906,1243.138,446.1549264866959
326,1686274537.23,33.691,81.055,27.832,27.832,1243.142,457.682572755733
327,1686274537.24,0.977,309.082,127.93,-42.48,1243.146,453.33811293845946
328,1686274537.24,-73.73,366.211,119.629,-92.285,1243.15,458.5566687187312
329,1686274537.24,-67.383,-214.355,-98.633,-28.809,1243.153,464.88470613571434
330,1686274537.25,1.465,-480.957,-121.582,22.949,1243.157,451.4280898597265
331,1686274537.25,5.859,224.121,178.711,-46.875,1243.161,449.21314622440997
332,1686274537.25,-62.988,367.676,124.023,-104.98,1243.165,447.39602167145335
333,1686274537.26,-74.707,-77.637,-14.16,-57.129,1243.169,462.609596957777
334,1686274537.26,2.93,-142.578,5.371,15.625,1243.173,455.198921742238
335,1686274537.27,27.344,67.383,100.586,0.488,1243.177,447.56463558798833
336,1686274537.28,-49.316,248.535,134.277,-73.73,1243.185,439.5704987422279
337,1686274537.29,-94.238,-381.836,-173.34,-56.641,1243.189,432.4599556993349
338,1686274537.29,-26.855,-566.895,-151.855,18.555,1243.192,429.1170245070679
339,1686274537.3,40.527,307.129,177.734,6.836,1243.196,432.0738198313952
340,1686274537.3,0.488,232.91,41.992,-61.523,1243.2,431.77670796357984
341,1686274537.3,-63.965,-243.164,-118.164,-73.73,1243.204,424.190707055745
342,1686274537.31,-26.855,-284.18,-39.062,-2.441,1243.208,430.7444624012299
343,1686274537.31,38.086,-47.852,82.031,28.32,1243.212,428.39237479278256
344,1686274537.31,2.93,112.305,63.965,-44.922,1243.216,430.4024093661204
345,1686274537.32,-80.078,-633.789,-313.477,-75.684,1243.22,419.654819208881
346,1686274537.32,-67.871,-605.469,-174.805,-19.531,1243.224,425.02425373336814
347,1686274537.33,25.391,403.809,220.703,23.438,1243.228,415.7658264879849
348,1686274537.33,32.715,210.449,41.504,-12.695,1243.226,426.13480903748285
349,1686274537.33,-39.062,-195.801,-73.242,-75.195,1243.23,424.27753850613
350,1686274537.34,-51.27,78.613,70.312,-49.805,1243.234,406.5656485867979
351,1686274537.34,16.113,476.074,192.383,16.113,1243.238,413.06113101240953
352,1686274537.34,28.809,24.414,-52.734,13.184,1243.242,421.87226759543347
353,1686274537.35,-42.969,-544.922,-272.949,-58.105,1243.245,408.1823409531224
354,1686274537.35,-70.801,-277.344,-55.664,-61.035,1243.249,403.0518156788519
355,1686274537.36,-11.719,205.078,156.25,15.137,1243.253,409.9179607390588
356,1686274537.36,41.992,-210.938,-108.887,35.645,1243.257,410.59186586140555
357,1686274537.36,0.0,-633.301,-240.723,-39.551,1243.261,413.98534636225696
358,1686274537.37,-62.988,140.625,139.16,-86.914,1243.265,406.6805162386866
359,1686274537.37,-21.484,336.914,108.887,-8.789,1243.269,397.255762512588
360,1686274537.37,51.758,184.082,84.473,41.992,1243.27,392.7175998101416
361,1686274537.38,22.949,257.324,146.973,-27.344,1243.274,398.04307897605065
362,1686274537.38,-51.27,386.23,157.227,-84.473,1243.278,397.3462171730335
363,1686274537.38,-58.594,242.676,81.055,-28.32,1243.282,388.41642925290205
364,1686274537.39,13.184,-54.199,1.953,43.457,1243.286,412.50417942792234
365,1686274537.39,37.598,-151.367,-11.23,-0.977,1243.29,398.7646878002974
366,1686274537.4,-25.879,-143.555,-22.461,-78.613,1243.294,382.6177384318491
367,1686274537.4,-50.293,-53.711,30.273,-47.852,1243.297,380.0163704706845
368,1686274537.4,11.719,-639.648,-237.305,50.781,1243.301,392.8750089914889
369,1686274537.41,41.016,-785.156,-208.008,38.574,1243.305,384.96962214210293
370,1686274537.41,-5.371,204.59,183.105,-64.453,1243.309,387.11947471459837
371,1686274537.42,-50.781,227.539,64.941,-68.359,1243.313,377.47961016983
372,1686274537.42,-8.789,69.336,51.27,13.672,1243.314,384.8263056433408
373,1686274537.42,55.176,380.859,163.574,34.18,1243.318,381.440164970338
374,1686274537.43,27.832,433.594,142.09,-33.691,1243.322,375.1318737904492
375,1686274537.43,-39.062,101.074,25.879,-66.406,1243.326,380.2980191734188
376,1686274537.43,-23.438,68.848,57.129,-4.883,1243.33,375.7601782696975
377,1686274537.44,49.805,110.84,60.547,47.852,1243.334,370.18664464940696
378,1686274537.44,33.203,-0.488,22.949,-5.859,1243.338,366.5297426511092
379,1686274537.44,-58.105,-402.832,-167.969,-71.289,1243.342,365.967246813498
380,1686274537.45,-69.824,-864.258,-300.781,-25.391,1243.345,376.36109568525393
381,1686274537.45,17.09,19.043,123.535,36.621,1243.349,368.51048160087106
382,1686274537.46,37.598,426.27,125.977,6.836,1243.353,363.10553381425495
383,1686274537.46,-35.156,12.695,-48.34,-59.57,1243.357,367.0417718241013
384,1686274537.46,-60.059,70.312,38.574,-49.805,1243.359,373.1331189546321
385,1686274537.47,11.23,367.188,161.133,19.531,1243.363,365.88277847518566
386,1686274537.47,55.664,297.363,86.914,22.949,1243.367,362.3314350972978
387,1686274537.48,1.953,12.695,6.836,-46.875,1243.371,362.3287814127766
388,1686274537.48,-60.059,63.477,37.598,-60.059,1243.375,370.0776762700247
389,1686274537.48,-22.949,-15.137,-3.418,16.602,1243.379,359.8892438342189
390,1686274537.49,46.875,-52.246,33.691,46.875,1243.383,350.62975263606774
391,1686274537.49,9.277,-610.84,-236.328,-6.348,1243.387,363.610296551361
392,1686274537.49,-60.059,-753.906,-249.512,-57.129,1243.391,352.6113759584461
393,1686274537.5,-34.18,-14.648,98.145,-23.926,1243.394,357.01931053561225
394,1686274537.5,52.246,-69.824,-32.715,49.316,1243.398,355.68617125359003
395,1686274537.51,46.387,-203.613,-69.336,7.812,1243.402,347.78769667739596
396,1686274537.51,-44.434,200.684,126.465,-75.195,1243.405,351.98091277801825
397,1686274537.51,-56.641,444.336,165.527,-39.551,1243.409,343.8383302035493
398,1686274537.52,15.625,203.613,46.875,41.016,1243.413,347.7487874826428
399,1686274537.52,41.504,151.367,71.777,17.09,1243.417,354.320354812431
400,1686274537.52,-25.391,322.754,125.0,-77.148,1243.421,351.8290069795764
401,1686274537.53,-72.266,151.367,58.105,-77.148,1243.425,361.0603151729235
402,1686274537.53,-21.484,-436.523,-141.113,15.625,1243.429,348.90140054633173
403,1686274537.54,27.344,-566.895,-137.207,27.344,1243.432,343.97930406700226
404,1686274537.54,-8.301,225.098,166.992,-68.359,1243.436,345.82229162536015
405,1686274537.54,-60.059,346.68,113.77,-90.332,1243.44,339.98212833682027
406,1686274537.55,-32.715,136.23,96.191,-6.836,1243.444,344.3287598195089
407,1686274537.55,35.645,82.031,64.453,33.203,1243.448,350.2051741155533
408,1686274537.55,19.043,35.645,41.016,-42.969,1243.478,338.10957353400556
409,1686274537.56,-52.734,109.863,76.172,-85.938,1243.481,341.7863106666723
410,1686274537.56,-44.434,-46.875,-9.277,-24.414,1243.485,341.32557158879115
411,1686274537.57,27.344,83.008,59.082,21.484,1243.489,335.9432975359964
412,1686274537.57,29.785,297.852,95.703,-24.902,1243.493,337.23605774193214
413,1686274537.57,-43.457,48.828,-3.418,-94.727,1243.497,322.6912488092792
414,1686274537.58,-77.637,-691.406,-309.57,-49.316,1243.501,336.40827506420345
415,1686274537.58,-11.719,-711.426,-196.289,33.691,1243.505,334.13504387468663
416,1686274537.58,34.668,270.996,209.473,10.742,1243.509,337.31105017719875
417,1686274537.59,-25.391,178.711,6.348,-69.336,1243.513,332.5447418849548
418,1686274537.59,-75.195,-59.082,-35.645,-77.148,1243.517,336.0807648748099
419,1686274537.6,-15.625,312.988,129.395,3.906,1243.521,325.0029346333107
420,1686274537.61,41.992,527.832,187.988,11.719,1243.51,331.47463896322665
421,1686274537.62,-2.441,61.523,-56.152,-64.453,1243.514,327.1901626276889
422,1686274537.62,-70.312,-503.418,-279.785,-82.52,1243.518,327.706556794393
423,1686274537.63,-53.223,-16.113,47.363,-12.695,1243.522,328.4548607310514
424,1686274537.63,21.484,467.773,203.125,28.32,1243.526,337.1430879191623
425,1686274537.63,14.16,-187.012,-123.047,-12.207,1243.53,326.3745579877526
426,1686274537.64,-67.383,-887.695,-331.055,-63.477,1243.534,330.7778424185888
427,1686274537.64,-69.336,-132.324,56.641,-35.645,1243.538,321.8214426126079
428,1686274537.64,18.555,488.281,193.359,30.762,1243.542,324.6379501433343
429,1686274537.65,28.32,-70.801,-18.555,0.488,1243.545,326.14088129063805
430,1686274537.65,-50.293,-199.707,-16.113,-79.102,1243.549,318.4359989062079
431,1686274537.66,-70.801,338.867,140.625,-62.988,1243.553,316.38634707200265
432,1686274537.66,2.93,379.395,134.766,16.602,1243.554,320.1096579636107
433,1686274537.66,36.133,128.906,25.879,8.301,1243.558,327.1831727190822
434,1686274537.67,-27.344,113.77,34.668,-67.871,1243.562,311.12561260175124
435,1686274537.67,-74.219,337.891,135.742,-73.73,1243.566,329.2701357515949
436,1686274537.67,-22.949,271.973,85.938,7.812,1243.57,328.85643378814626
437,1686274537.68,42.48,-121.094,-36.621,39.062,1243.574,323.9949866059947
438,1686274537.68,12.207,-247.559,-54.199,-33.203,1243.578,316.87195481619796
439,1686274537.68,-47.363,-185.059,-28.809,-83.008,1243.582,320.4715737923725
440,1686274537.69,-30.273,-113.281,20.02,-25.879,1243.586,313.28595507108696
441,1686274537.69,29.297,-673.828,-279.785,50.781,1243.59,321.4020760266857
442,1686274537.7,15.625,-794.922,-296.387,-1.953,1243.594,316.0449988604099
443,1686274537.7,-41.504,152.832,136.719,-83.984,1243.597,329.9727674940235
444,1686274537.7,-57.129,138.672,42.48,-39.551,1243.599,316.34223868284136
445,1686274537.71,6.836,3.418,6.348,30.273,1243.603,320.419548938874
446,1686274537.71,31.25,352.051,151.855,1.465,1243.607,322.6665746528703
447,1686274537.72,-36.621,444.824,154.785,-73.242,1243.611,321.56005653885813
448,1686274537.72,-58.594,119.629,21.973,-50.781,1243.615,328.21766570745
449,1686274537.72,7.324,-175.293,-29.785,36.621,1243.619,316.68119877853036
450,1686274537.73,42.969,36.621,48.34,21.484,1243.623,314.40816292617893
451,1686274537.73,-15.625,196.289,75.684,-72.266,1243.627,327.4634956471186
452,1686274537.73,-73.242,-400.879,-188.477,-69.824,1243.631,313.4845607965515
453,1686274537.74,-35.156,-825.684,-292.969,13.672,1243.635,311.20812233954314
454,1686274537.74,34.18,49.805,119.141,26.855,1243.639,306.4069033143074
455,1686274537.75,11.23,396.973,116.699,-44.922,1243.642,321.07514561375103
456,1686274537.75,-69.824,81.543,38.086,-79.59,1243.644,317.07971005512786
457,1686274537.75,-69.336,216.309,141.602,-23.438,1243.648,313.5045566363231
458,1686274537.76,15.625,465.82,157.715,28.32,1243.652,311.84266207061887
459,1686274537.76,18.066,336.426,79.102,-16.113,1243.656,327.8889998384169
460,1686274537.76,-60.059,-5.859,4.395,-84.961,1243.66,316.9253666138919
461,1686274537.77,-76.172,-102.051,24.902,-45.898,1243.664,314.44050198159107
462,1686274537.77,0.488,-119.141,14.648,32.715,1243.668,313.037256951738
463,1686274537.78,25.391,-88.867,-0.977,1.465,1243.672,315.3261583073438
464,1686274537.78,-49.316,-675.293,-297.852,-62.988,1243.676,321.1523620511707
465,1686274537.78,-80.566,-731.445,-224.609,-62.5,1243.68,333.05288185592616
466,1686274537.79,-10.742,92.285,160.156,4.395,1243.683,314.4737535749273
467,1686274537.79,31.738,18.066,-23.926,22.461,1243.687,321.702910085721
468,1686274537.79,-23.438,-182.617,-64.453,-62.012,1243.689,333.555181229497
469,1686274537.8,-72.754,245.605,148.438,-94.727,1243.693,316.48684155921234
470,1686274537.8,-38.574,474.121,161.133,-17.09,1243.697,325.48102968625494
471,1686274537.8,25.391,211.914,56.641,33.203,1243.701,315.85817703024856
472,1686274537.81,8.789,89.844,-2.441,-33.691,1243.705,320.7465906338693
473,1686274537.81,-62.5,1.953,-18.066,-82.52,1243.709,336.0324812546007
474,1686274537.82,-54.199,29.297,73.73,-23.926,1243.713,318.9124642244286
475,1686274537.82,20.996,-272.949,-93.262,37.598,1243.717,316.89096822946755
476,1686274537.82,27.344,-549.805,-183.594,-0.977,1243.721,314.6604466969672
477,1686274537.83,-40.039,207.52,145.996,-83.496,1243.725,331.97228392909767
478,1686274537.83,-68.848,398.926,123.535,-53.223,1243.728,308.771645162333
479,1686274537.84,-4.883,175.293,94.238,40.039,1243.732,314.2771727124192
480,1686274537.84,21.973,76.172,62.012,16.113,1243.738,321.7567296030718
481,1686274537.84,-31.738,148.926,88.867,-80.078,1243.741,317.616713726581
482,1686274537.85,-65.43,261.23,75.684,-72.266,1243.745,326.5316538105598
483,1686274537.85,-20.02,-68.359,-39.551,25.391,1243.749,318.92053506431904
484,1686274537.86,38.086,10.742,43.945,43.945,1243.753,335.2873071300161
485,1686274537.86,3.906,89.844,17.578,-48.34,1243.757,335.01008591410584
486,1686274537.86,-60.059,-51.27,1.465,-87.402,1243.761,333.87768695199117
487,1686274537.87,-36.133,-642.09,-220.703,8.789,1243.765,328.5693707539035
488,1686274537.87,34.18,-688.965,-167.969,52.246,1243.769,328.4234018467931
489,1686274537.87,21.973,331.055,204.59,-38.574,1243.773,326.9802995200981
490,1686274537.88,-50.293,210.938,16.113,-84.961,1243.777,336.6562288192508
491,1686274537.88,-45.41,-46.387,-49.805,-28.809,1243.781,336.10031959958775
492,1686274537.88,29.297,350.098,147.461,32.715,1243.779,323.02983113990757
493,1686274537.89,33.203,508.301,170.41,-5.859,1243.783,324.6522772179052
494,1686274537.89,-35.645,88.867,-28.32,-82.52,1243.787,327.64071742595655
495,1686274537.9,-74.219,-231.934,-103.516,-62.988,1243.791,334.4930338552091
496,1686274537.9,-20.02,120.117,66.895,6.348,1243.795,320.65334712491335
497,1686274537.9,27.344,157.227,72.754,3.418,1243.799,337.44396250096537
498,1686274537.91,-38.086,-407.715,-184.57,-62.012,1243.803,337.6463443381808
499,1686274537.91,-104.004,-890.137,-323.242,-72.754,1243.807,344.1285128506846
500,1686274537.91,-41.504,-94.727,95.703,-10.254,1243.811,342.9150452605894
501,1686274537.92,31.25,479.004,174.805,9.277,1243.814,334.3324608988395
502,1686274537.92,-10.254,134.766,-6.348,-68.848,1243.818,336.2196395174238
503,1686274537.93,-81.055,116.699,45.41,-106.445,1243.822,335.62390140390664
504,1686274537.93,-60.547,339.355,141.602,-30.762,1243.853,334.4149048646816
505,1686274537.93,7.812,336.426,104.492,22.949,1243.857,331.45324939738083
506,1686274537.94,-9.277,125.977,59.57,-32.715,1243.861,335.32555444476407
507,1686274537.94,-75.195,150.879,85.938,-102.539,1243.864,340.4611612183272
508,1686274537.94,-72.266,278.809,107.91,-61.035,1243.868,332.6068862410468
509,1686274537.95,-5.371,93.75,44.922,17.09,1243.872,333.31251616403534
510,1686274537.95,-1.953,-494.629,-132.812,-4.395,1243.876,344.608815149195
511,1686274537.96,-67.871,-578.125,-116.699,-79.59,1243.88,334.92743705894077
512,1686274537.96,-87.891,-39.551,88.867,-78.125,1243.884,339.3299649017515
513,1686274537.96,-27.832,149.902,76.172,-7.812,1243.888,332.6196250058467
514,1686274537.97,21.973,-514.16,-176.27,2.93,1243.892,347.85191918602135
515,1686274537.97,-9.766,-441.406,-71.289,-72.754,1243.896,336.8683397231467
516,1686274537.97,-72.266,236.328,110.352,-109.863,1243.884,344.24746494645683
517,1686274537.98,-52.734,142.09,37.598,-37.598,1243.887,338.6089616536413
518,1686274537.98,13.184,72.754,12.207,4.883,1243.891,340.3717098005788
519,1686274537.98,-12.207,279.297,86.914,-73.73,1243.895,340.70303321154415
520,1686274537.99,-81.543,361.328,112.793,-132.812,1243.899,344.540514255632
521,1686274537.99,-76.172,-274.902,-144.043,-57.617,1243.903,342.01715726620665
522,1686274538.0,-16.113,-556.641,-185.059,8.789,1243.907,343.73061651795075
523,1686274538.0,-10.742,209.961,145.02,-59.57,1243.911,340.0329108944415
524,1686274538.0,-78.613,149.414,32.715,-122.07,1243.915,339.95893670671506
525,1686274538.01,-86.426,-314.941,-76.172,-71.777,1243.919,347.33313625246905
526,1686274538.01,-5.859,-36.621,58.594,-1.465,1243.923,344.81768721659824
527,1686274538.02,23.926,416.992,162.598,-21.973,1243.926,348.64982712945397
528,1686274538.03,-40.039,368.652,86.426,-93.75,1243.929,350.1365536203407
529,1686274538.04,-80.566,-341.309,-144.043,-75.195,1243.933,345.3815692950997
530,1686274538.04,-19.043,-335.938,-31.25,2.441,1243.937,344.03257260729714
531,1686274538.04,31.738,412.109,165.527,-2.441,1243.941,343.68632226779897
532,1686274538.05,-22.461,293.457,43.945,-69.824,1243.945,340.695533966707
533,1686274538.05,-80.078,-225.586,-105.469,-78.613,1243.949,337.6522330763314
534,1686274538.06,-36.621,-256.836,-49.316,-9.766,1243.953,344.2094263435411
535,1686274538.06,35.645,-52.734,7.812,20.996,1243.957,336.82263387820194
536,1686274538.06,8.301,-10.254,8.789,-47.363,1243.961,327.3024822234997
537,1686274538.07,-74.707,-626.953,-263.184,-85.938,1243.964,348.24766620646403
538,1686274538.07,-67.871,-670.41,-225.586,-34.18,1243.968,338.0554456917342
539,1686274538.08,19.043,164.062,180.176,13.184,1243.972,346.18545374781735
540,1686274538.08,24.414,70.312,-1.465,-16.602,1243.975,343.3071247865228
541,1686274538.08,-56.152,-148.438,-105.469,-92.773,1243.979,332.7059722209825
542,1686274538.09,-69.336,208.984,111.816,-66.895,1243.983,345.73535577000666
543,1686274538.09,-0.977,472.656,182.617,18.555,1243.987,335.676782496316
544,1686274538.09,20.996,61.035,-45.898,3.906,1243.99,349.1023481105478
545,1686274538.1,-42.969,-509.766,-262.207,-77.148,1243.994,336.6786254886382
546,1686274538.1,-83.008,-119.629,10.254,-94.238,1243.998,336.4285273707585
547,1686274538.1,-24.902,437.988,202.148,-27.832,1244.002,340.84422800251866
548,1686274538.11,29.297,-160.156,-101.562,6.836,1244.006,329.67375250884936
549,1686274538.11,-22.949,-616.699,-202.637,-60.547,1244.01,338.73687032476874
550,1686274538.12,-74.707,191.895,159.668,-115.234,1244.014,325.9864243021773
551,1686274538.12,-30.273,391.113,127.441,-39.062,1244.018,334.20291177096624
552,1686274538.12,38.086,187.988,99.609,20.508,1244.024,337.40239249579116
553,1686274538.13,16.602,58.594,59.57,-39.062,1244.027,332.51999353668026
554,1686274538.13,-54.199,96.68,48.34,-91.309,1244.031,328.74581507939564
555,1686274538.14,-58.594,268.555,91.797,-32.227,1244.035,326.28072996239024
556,1686274538.14,10.742,-158.691,-65.918,42.48,1244.039,335.8943443411255
557,1686274538.14,26.367,-359.375,-62.988,2.441,1244.043,321.3249274842801
558,1686274538.15,-44.922,-129.395,-9.766,-84.473,1244.047,325.84124177454254
559,1686274538.15,-76.172,-49.805,-8.301,-72.266,1244.051,332.90178574412266
560,1686274538.16,-18.555,-640.137,-263.184,25.391,1244.055,323.4523936478739
561,1686274538.16,20.996,-675.781,-185.059,19.531,1244.059,325.4628985824128
562,1686274538.16,-22.461,303.711,185.547,-88.379,1244.063,322.08070196836934
563,1686274538.17,-67.871,209.473,24.414,-91.797,1244.067,319.424770011492
564,1686274538.18,-23.926,90.82,38.574,-9.766,1244.079,308.28547415444086
565,1686274538.19,36.133,436.035,156.25,11.23,1244.083,308.6560007388664
566,1686274538.19,-2.93,476.562,126.953,-63.965,1244.087,312.2646983153505
567,1686274538.2,-73.73,83.984,-0.488,-97.656,1244.091,310.6458410654343
568,1686274538.2,-51.27,-188.965,-30.273,-32.227,1244.095,310.6220435208212
569,1686274538.2,13.184,-85.449,25.879,17.578,1244.099,300.4532516295234
570,1686274538.21,-9.277,6.836,22.949,-37.598,1244.103,301.479340747644
571,1686274538.21,-71.777,-348.145,-180.176,-86.914,1244.107,300.0496734706858
572,1686274538.21,-85.449,183.105,63.477,-76.66,1244.109,303.04007436915407
573,1686274538.22,-74.707,-898.926,-346.191,-28.809,1244.111,315.9074534914253
574,1686274538.22,-16.602,427.246,164.062,0.977,1244.113,294.8820799133366
575,1686274538.22,-0.977,-121.582,97.656,15.137,1244.115,296.03849770935983
576,1686274538.22,29.785,386.719,117.188,8.301,1244.117,305.1779383635318
577,1686274538.22,18.555,464.844,169.922,-20.02,1244.118,300.42096808675944
578,1686274538.22,-31.738,128.418,52.246,-73.73,1244.121,292.586939351939
579,1686274538.23,-51.758,150.391,2.93,-83.008,1244.122,295.7848243463653
580,1686274538.23,-84.961,143.066,76.66,-87.402,1244.125,293.12815432083653
581,1686274538.23,-41.504,99.609,39.551,0.488,1244.129,307.0269105608963
582,1686274538.24,31.25,-79.59,-1.953,49.316,1244.133,292.6974906639073
583,1686274538.24,6.836,-259.277,-89.355,-7.324,1244.137,280.5167356358942
584,1686274538.24,-69.336,-201.66,-9.766,-69.824,1244.141,288.34211180362183
585,1686274538.25,-54.199,236.328,152.832,-19.043,1244.145,277.0630811468958
586,1686274538.25,20.02,289.062,80.566,49.316,1244.148,279.74995121137147
587,1686274538.26,10.742,-659.668,-319.336,22.949,1244.152,280.1275319293458
588,1686274538.29,-69.824,-872.559,-326.172,-57.129,1244.184,267.14178281366884
589,1686274538.29,-68.848,145.508,125.0,-51.27,1244.188,280.1266462018696
590,1686274538.3,13.184,271.484,91.797,36.621,1244.192,260.70759216186804
591,1686274538.3,44.922,113.281,17.578,24.902,1244.196,266.85093774998927
592,1686274538.3,-19.043,336.426,102.539,-68.848,1244.2,264.5836618348149
593,1686274538.31,-60.059,211.914,67.383,-68.359,1244.204,260.5529258461637
594,1686274538.31,2.441,-379.395,-163.574,31.25,1244.208,255.06518919736564
595,1686274538.32,44.434,-563.965,-167.969,44.434,1244.212,262.7407881002976
596,1686274538.32,4.883,155.273,131.348,-49.316,1244.216,262.8143143983696
597,1686274538.32,22.949,448.242,173.34,-36.621,1244.22,258.4375497686323
598,1686274538.32,-50.781,196.777,59.082,-56.641,1244.22,257.42301443051554
599,1686274538.32,-50.781,289.551,61.523,-84.473,1244.224,259.43508736201585
600,1686274538.33,-33.691,-293.945,-65.43,24.414,1244.223,253.26662418388867
601,1686274538.33,-41.504,47.363,32.227,-26.855,1244.228,255.72180879543055
602,1686274538.33,37.598,-75.684,47.363,37.598,1244.227,258.74615257004257
603,1686274538.33,32.227,265.625,137.695,39.551,1244.232,260.22865961768355
604,1686274538.34,34.18,376.953,105.469,-3.906,1244.236,246.33779126472916
605,1686274538.34,-41.504,-10.742,-19.043,-53.711,1244.24,260.4099211253469
606,1686274538.34,-55.664,-266.113,-41.016,-17.09,1244.243,257.43977870821664
607,1686274538.35,26.855,-128.418,40.527,47.363,1244.247,255.6673118424665
608,1686274538.35,26.367,126.465,82.031,28.32,1244.259,244.5355822295603
609,1686274538.35,62.5,248.047,139.16,22.461,1244.251,249.29295936994427
610,1686274538.35,-8.301,18.066,-16.113,-38.086,1244.263,258.7667503907169
611,1686274538.36,-4.883,119.629,16.113,-60.059,1244.255,250.81725992311698
612,1686274538.36,-73.242,-802.246,-389.648,-46.875,1244.267,249.3529499144074
613,1686274538.36,-57.129,-225.586,-82.031,-55.664,1244.259,263.5924561616373
614,1686274538.36,-39.062,-504.395,-143.066,13.184,1244.271,256.48494656533114
615,1686274538.36,-18.066,-23.438,17.578,20.508,1244.263,251.85730723697594
616,1686274538.36,39.551,404.785,185.547,46.387,1244.274,249.50296536095988
617,1686274538.37,9.766,-90.82,-74.219,-7.324,1244.278,252.59259334346922
618,1686274538.37,-64.453,-375.0,-128.418,-70.801,1244.282,244.76829577784557
619,1686274538.38,-52.246,216.309,139.648,-30.273,1244.286,248.37977447218864
620,1686274538.38,20.508,503.906,207.52,43.457,1244.29,256.2826509156431
621,1686274538.38,28.32,-170.41,-136.23,24.414,1244.294,250.8664835183968
622,1686274538.39,-43.457,-917.48,-362.793,-43.945,1244.298,256.2695708782414
623,1686274538.39,-66.895,-176.758,53.223,-52.734,1244.302,257.6848654059769
624,1686274538.41,4.395,191.406,83.008,22.949,1244.308,257.6757261135568
625,1686274538.41,45.41,109.863,71.289,17.578,1244.312,254.14618294945285
626,1686274538.42,-16.113,95.215,57.617,-65.918,1244.315,259.69505557160227
627,1686274538.42,-79.102,79.102,44.434,-84.473,1244.319,256.7523998776314
628,1686274538.42,-31.25,401.855,157.227,-14.648,1244.323,253.7013350121963
629,1686274538.43,22.949,-340.332,-185.059,39.551,1244.327,270.89353944215
630,1686274538.43,-16.602,-874.023,-295.898,-28.32,1244.331,262.4186425683563
631,1686274538.44,-61.035,-28.32,98.633,-91.797,1244.335,263.7409059108803
632,1686274538.44,-38.574,316.406,104.004,-32.227,1244.339,264.7350132359819
633,1686274538.44,19.531,-293.457,-104.004,29.785,1244.343,263.46260616846365
634,1686274538.45,14.16,-115.723,63.477,-28.809,1244.347,267.9797102175658
635,1686274538.45,-54.199,449.707,177.734,-102.051,1244.351,261.14066024421425
636,1686274538.45,-64.453,141.602,5.859,-61.523,1244.35,258.8839343753717
637,1686274538.46,2.93,114.258,32.715,8.789,1244.353,261.18234201530925
638,1686274538.46,25.391,443.359,158.203,-22.461,1244.357,258.1709297234944
639,1686274538.47,-34.18,463.379,135.254,-95.703,1244.361,271.7173644889058
640,1686274538.47,-73.242,83.008,5.859,-69.336,1244.365,272.2472910595387
641,1686274538.47,-10.742,-165.527,-44.922,17.578,1244.369,271.52885918242197
642,1686274538.48,34.668,-82.031,18.066,16.113,1244.373,279.05517102421027
643,1686274538.48,-24.414,166.016,112.305,-70.801,1244.377,277.6987934192491
644,1686274538.48,-70.312,-187.988,-117.676,-69.336,1244.381,273.9930279779375
645,1686274538.49,-33.203,-819.336,-299.316,14.16,1244.385,273.56660109470107
646,1686274538.49,18.555,24.414,103.516,15.137,1244.389,275.6612959596492
647,1686274538.5,-9.766,435.059,126.953,-54.688,1244.392,279.7251646724023
648,1686274538.5,-72.754,105.957,57.617,-89.844,1244.394,277.57630641788717
649,1686274538.5,-42.48,212.402,117.188,-13.672,1244.398,279.8634500359328
650,1686274538.51,38.574,440.918,159.668,47.852,1244.402,278.30176622112737
651,1686274538.51,27.832,354.492,85.938,-9.277,1244.406,291.73661053018935
652,1686274538.52,-37.598,34.18,-11.23,-65.43,1244.41,284.65271396267036
653,1686274538.52,-44.922,-125.0,6.348,-17.578,1244.414,289.498718765536
654,1686274538.52,22.461,-108.887,22.461,51.27,1244.418,284.16585987658755
655,1686274538.53,48.828,-12.207,68.359,22.949,1244.422,297.10267391154974
656,1686274538.53,-25.879,-584.473,-247.07,-41.016,1244.425,290.6234446487537
657,1686274538.53,-77.637,-968.262,-328.125,-33.691,1244.429,292.8464744286632
658,1686274538.54,-10.254,34.18,148.438,21.973,1244.433,296.2653506198353
659,1686274538.54,57.129,292.48,96.68,31.738,1244.437,285.97761981626763
660,1686274538.54,3.418,17.578,-22.461,-50.781,1244.44,291.1751642506121
661,1686274538.55,-58.594,327.148,125.977,-80.566,1244.444,301.36325519047045
662,1686274538.55,-20.996,476.562,169.922,4.395,1244.448,289.1065549283593
663,1686274538.56,39.062,243.652,57.617,44.434,1244.452,292.80112169576444
664,1686274538.56,15.625,60.059,-17.09,-27.832,1244.455,291.86204256502236
665,1686274538.56,-57.129,7.812,-3.418,-77.148,1244.459,285.0401543340462
666,1686274538.57,-55.176,26.855,57.129,-28.32,1244.463,302.4249498746526
667,1686274538.57,20.508,-324.707,-143.066,38.574,1244.467,297.76951400451605
668,1686274538.57,21.973,-526.367,-183.594,-0.977,1244.471,307.6627132023358
669,1686274538.58,-47.363,129.883,131.348,-86.426,1244.475,307.43266163759057
670,1686274538.58,-64.941,120.605,36.133,-62.5,1244.479,308.9252877348183
671,1686274538.59,4.395,-271.973,-57.129,10.254,1244.483,306.425415983239
672,1686274538.59,41.992,-67.383,65.918,0.977,1244.484,306.47352228500256
673,1686274538.59,-18.066,390.137,137.207,-82.031,1244.488,302.63418545049745
674,1686274538.6,-62.5,255.371,47.852,-78.125,1244.492,314.59815795843167
675,1686274538.6,-11.719,146.973,93.75,16.113,1244.496,322.8589245853101
676,1686274538.6,38.086,301.758,141.113,33.203,1244.5,320.2036321817439
677,1686274538.61,0.488,61.523,6.348,-33.691,1244.504,314.9427549342977
678,1686274538.61,-63.965,-109.863,-19.043,-58.594,1244.508,312.77596447034557
679,1686274538.62,-43.457,-659.668,-257.324,24.414,1244.511,317.4037283132174
680,1686274538.62,24.414,-708.984,-182.129,58.594,1244.515,327.387578784327
681,1686274538.62,18.555,323.242,211.914,-36.133,1244.519,327.30366408441034
682,1686274538.63,-61.523,220.703,26.855,-82.031,1244.523,317.3381947697941
683,1686274538.63,-61.523,-10.742,-33.691,-32.715,1244.527,322.43502812806815
684,1686274538.63,19.043,225.098,69.336,28.32,1244.533,327.854466187149
685,1686274538.64,24.414,272.949,106.934,0.0,1244.536,320.8892027916234
686,1686274538.64,-41.504,-52.246,-42.48,-67.871,1244.54,322.9406185679559
687,1686274538.65,-69.824,-281.25,-123.047,-45.41,1244.544,325.2174769109366
688,1686274538.65,-0.977,200.684,115.723,35.156,1244.548,320.1640372741442
689,1686274538.65,38.086,205.078,80.566,31.738,1244.552,328.38836758469256
690,1686274538.66,-21.484,-387.207,-153.32,-52.734,1244.556,328.7408139357967
691,1686274538.66,-62.5,-637.207,-189.941,-57.617,1244.56,325.0877222170026
692,1686274538.66,-10.742,169.922,153.32,13.672,1244.564,329.64097282946864
693,1686274538.67,48.828,420.41,137.695,42.48,1244.568,331.45939747647355
694,1686274538.67,15.625,91.797,5.859,-23.438,1244.572,329.1588388453557
695,1686274538.68,-58.594,121.582,52.246,-73.242,1244.576,333.44738218173256
696,1686274538.68,-45.41,364.258,153.32,-7.812,1244.603,337.7346478439264
697,1686274538.68,31.738,352.539,120.605,48.34,1244.607,336.8565878713191
698,1686274538.69,15.137,82.031,36.621,-18.555,1244.611,336.0570377893627
699,1686274538.69,-67.871,-116.699,-9.766,-82.031,1244.615,336.590326253859
700,1686274538.69,-66.895,-0.977,34.18,-36.621,1244.619,353.06457095189916
701,1686274538.7,11.719,63.477,95.703,26.367,1244.623,341.1867775163602
702,1686274538.7,24.414,-579.102,-236.328,15.625,1244.627,334.80512573119574
703,1686274538.7,-54.688,-1000.0,-395.508,-52.246,1244.631,341.39747396594527
704,1686274538.71,-75.684,-115.234,90.332,-70.801,1244.634,335.1004558025673
705,1686274538.71,1.465,303.711,113.77,-0.977,1244.638,337.9685233579497
706,1686274538.72,42.969,122.559,15.625,0.488,1244.642,336.83116215282723
707,1686274538.72,-6.836,327.148,141.113,-88.379,1244.646,341.02707069729706
708,1686274538.72,-54.199,431.641,167.969,-98.145,1244.634,341.7042464373526
709,1686274538.73,-24.902,91.309,-10.254,-13.184,1244.638,334.5607921793414
710,1686274538.73,35.645,-139.16,-83.984,16.113,1244.642,334.04990361266454
711,1686274538.74,18.555,319.336,157.715,-59.57,1244.646,329.56630482709403
712,1686274538.74,-48.34,341.797,120.117,-89.844,1244.65,338.5797210010169
713,1686274538.74,-45.41,-303.711,-158.203,-7.812,1244.654,335.1227185925512
714,1686274538.75,19.531,-537.109,-199.219,42.969,1244.658,326.80368449488583
715,1686274538.75,24.414,-9.766,83.496,-16.602,1244.661,344.3644542407806
716,1686274538.75,-48.828,278.32,118.652,-85.938,1244.665,332.5139818313908
717,1686274538.76,-70.801,-113.281,-32.715,-49.805,1244.669,342.13006045381223
718,1686274538.76,2.93,-87.891,26.367,27.832,1244.673,343.4681503305824
719,1686274538.77,29.785,361.328,139.648,2.441,1244.677,327.48233641202836
720,1686274538.78,-31.25,375.977,129.395,-79.102,1244.679,345.9160050691825
721,1686274538.79,-66.895,-385.254,-186.035,-54.199,1244.683,341.6512893563908
722,1686274538.79,-6.348,-618.164,-223.145,30.762,1244.687,355.3027903311748
723,1686274538.8,52.734,251.953,138.184,28.32,1244.691,344.63418397346646
724,1686274538.8,6.348,308.594,69.824,-53.711,1244.695,340.43353469945345
725,1686274538.8,-58.594,-178.711,-108.887,-82.52,1244.699,348.0492954076171
726,1686274538.81,-23.438,-317.871,-66.895,-9.766,1244.703,345.71706755796595
727,1686274538.81,46.387,-93.75,52.246,27.832,1244.707,346.9474097359918
728,1686274538.81,17.578,56.152,54.199,-34.668,1244.711,353.82448915082165
729,1686274538.82,-61.035,-666.016,-315.43,-70.312,1244.714,359.7230126153916
730,1686274538.82,-52.734,-793.457,-266.602,-26.367,1244.718,354.58767503559545
731,1686274538.83,33.691,188.477,166.016,8.789,1244.722,352.50531178341276
732,1686274538.83,30.762,48.828,11.23,-25.391,1244.724,349.521782184551
733,1686274538.83,-46.875,-111.816,-37.109,-95.703,1244.728,365.0568756063345
734,1686274538.84,-52.734,297.852,131.348,-69.336,1244.732,373.7280815511991
735,1686274538.84,16.602,478.516,172.852,10.254,1244.736,354.1651053862325
736,1686274538.84,39.551,204.59,24.902,0.488,1244.74,363.44389823170934
737,1686274538.85,-32.715,-266.602,-116.699,-69.824,1244.744,364.7102757441589
738,1686274538.85,-87.402,-102.539,31.738,-76.172,1244.748,369.3725867516242
739,1686274538.86,-25.879,426.758,214.355,1.953,1244.752,370.58046560363107
740,1686274538.86,41.016,-79.59,-74.707,35.156,1244.756,366.36107373234773
741,1686274538.86,0.488,-580.078,-183.594,-35.645,1244.759,361.8596503613041
742,1686274538.87,-54.199,131.836,167.48,-87.402,1244.763,372.2860762598689
743,1686274538.87,-20.508,161.133,76.66,-17.09,1244.767,373.94857792063465
744,1686274538.87,43.945,-143.066,-15.625,37.109,1244.769,373.8085889510859
745,1686274538.88,19.531,45.898,83.496,-26.855,1244.773,365.6273372441362
746,1686274538.88,-47.852,355.469,148.926,-79.102,1244.777,381.8455176826005
747,1686274538.88,-35.156,312.5,86.426,-26.855,1244.781,371.9823563191231
748,1686274538.89,41.016,-81.543,-39.551,41.504,1244.785,375.1335878047761
749,1686274538.89,42.969,-227.539,-10.254,3.906,1244.789,380.8840324001369
750,1686274538.9,-35.645,-135.742,16.113,-75.684,1244.792,369.51362386755716
751,1686274538.9,-57.129,-60.059,41.992,-52.734,1244.796,377.38060758304664
752,1686274538.9,8.301,-630.859,-181.641,46.387,1244.8,373.5021077776574
753,1686274538.91,40.527,-693.848,-170.898,42.969,1244.804,373.69166016496223
754,1686274538.91,-6.836,323.73,181.641,-62.012,1244.808,386.09148758787927
755,1686274538.92,-53.223,208.008,34.668,-79.59,1244.812,383.6075840228899
756,1686274538.92,-9.766,62.988,35.645,-0.977,1244.818,378.1796285931579
757,1686274538.92,45.41,225.098,104.492,19.531,1244.822,382.81347636187047
758,1686274538.93,2.93,261.719,146.484,-56.152,1244.826,384.62197306375754
759,1686274538.93,-65.918,-0.977,-37.598,-88.867,1244.83,384.870263789554
760,1686274538.94,-44.434,-294.922,-152.832,-20.508,1244.834,373.1052427980465
761,1686274538.94,35.156,-88.379,32.715,38.574,1244.838,378.03953701850423
762,1686274538.94,26.367,126.953,114.746,-15.137,1244.842,384.5905597428874
763,1686274538.95,-55.176,-194.336,-86.914,-73.242,1244.845,380.1421435381606
764,1686274538.95,-67.871,-585.449,-194.336,-21.973,1244.849,386.38453094020724
765,1686274538.95,16.602,287.109,198.73,34.668,1244.853,380.63835842596706
766,1686274538.96,36.133,480.957,133.789,6.348,1244.857,368.65376713619355
767,1686274538.96,-39.551,92.285,32.715,-71.289,1244.861,375.32852786284184
768,1686274538.96,-79.102,147.949,99.121,-67.871,1244.859,374.037108530989
769,1686274538.97,-16.602,404.785,174.805,14.16,1244.863,371.02141383900727
770,1686274538.97,36.621,333.496,101.562,21.973,1244.867,380.56916592186667
771,1686274538.98,-20.02,39.062,23.438,-67.383,1244.871,389.8438802918267
772,1686274538.98,-76.66,-101.562,23.438,-90.332,1244.875,378.89525961544194
773,1686274538.98,-33.203,-157.227,-21.973,-0.488,1244.879,378.23861819270013
774,1686274538.99,34.18,-62.988,53.711,34.18,1244.883,379.5710283436181
775,1686274538.99,-2.441,-572.754,-223.633,-29.785,1244.887,377.78551279944605
776,1686274538.99,-76.66,-995.605,-379.883,-72.266,1244.891,379.32695843955185
777,1686274539.0,-51.758,-72.754,113.77,-28.32,1244.894,367.97055692989795
778,1686274539.0,30.762,311.523,123.535,29.297,1244.898,373.3168323902082
779,1686274539.01,26.855,108.887,6.836,-19.043,1244.902,378.5947167194893
780,1686274539.01,-45.41,295.898,109.375,-92.773,1244.914,368.4631562527236
781,1686274539.01,-45.898,396.484,149.902,-45.898,1244.918,374.91016969715906
782,1686274539.02,26.855,201.66,54.688,39.551,1244.922,369.7731855454167
783,1686274539.02,51.758,135.742,33.203,10.742,1244.926,369.34895398771675
784,1686274539.02,-12.695,301.758,98.145,-72.266,1244.93,367.8788952415956
785,1686274539.03,-56.641,101.074,39.551,-54.199,1244.934,378.24042152287825
786,1686274539.03,-5.859,-421.387,-143.066,47.852,1244.938,378.9259266652376
787,1686274539.04,21.973,-720.703,-237.305,48.34,1244.942,364.98392070613835
788,1686274539.04,-29.297,0.488,72.266,-66.895,1244.945,368.6768093041574
789,1686274539.04,-77.637,401.855,143.555,-91.797,1244.949,368.55272249612784
790,1686274539.05,-49.805,48.34,14.16,-8.789,1244.953,372.44965041397774
791,1686274539.05,7.324,97.168,79.102,21.484,1244.957,368.5285251130975
792,1686274539.05,-7.324,417.969,169.434,-55.176,1244.963,363.41765919618035
793,1686274539.06,-76.66,270.508,57.617,-102.539,1244.967,369.0507781120797
794,1686274539.06,-73.242,25.391,47.852,-46.875,1244.971,369.4119898905534
795,1686274539.07,3.418,160.156,116.699,16.602,1244.975,363.1308833491455
796,1686274539.07,1.953,259.766,66.895,-25.391,1244.979,366.7279161644433
797,1686274539.07,-66.406,29.785,2.441,-93.75,1244.983,360.86936857102876
798,1686274539.08,-88.867,-661.133,-258.301,-44.922,1244.986,370.91156638344916
799,1686274539.08,-22.461,-639.648,-182.129,23.926,1244.99,373.43419265420584
800,1686274539.08,19.531,282.715,185.547,-17.578,1244.994,366.9801642948339
801,1686274539.09,-39.551,140.625,-4.395,-92.285,1244.998,365.13178442907014
802,1686274539.09,-79.59,-595.703,-205.566,-77.148,1245.002,363.8309451291299
803,1686274539.1,-18.555,-206.055,62.988,11.719,1245.006,354.81436522742814
804,1686274539.1,40.527,509.766,224.609,19.043,1245.009,374.1813842093743
805,1686274539.1,-4.395,145.996,9.277,-51.758,1245.013,356.54561051036274
806,1686274539.11,-62.988,-48.34,-25.391,-74.219,1245.017,354.28940255399885
807,1686274539.11,-25.391,299.316,140.137,-8.301,1245.021,367.00872746228936
808,1686274539.11,38.086,426.27,172.363,36.133,1245.025,358.8892953289883
809,1686274539.12,8.301,-210.449,-134.766,-8.301,1245.029,367.7800990709404
810,1686274539.12,-62.5,-645.02,-232.91,-61.523,1245.033,367.1869090534539
811,1686274539.12,-56.641,89.355,132.812,-36.133,1245.037,367.94280553330384
812,1686274539.13,23.926,406.738,139.16,26.855,1245.041,362.5882499121663
813,1686274539.13,23.926,12.695,6.836,-2.93,1245.044,368.3345222286968
814,1686274539.14,-50.781,-28.809,36.621,-71.777,1245.048,366.1042559946901
815,1686274539.14,-65.43,210.938,86.914,-50.293,1245.052,359.9915505952285
816,1686274539.16,1.953,41.992,24.414,28.32,1245.054,364.49636366739725
817,1686274539.16,36.621,-284.18,-58.594,27.832,1245.058,358.925126042649
818,1686274539.17,-31.25,-135.254,28.32,-59.082,1245.062,368.5762609449202
819,1686274539.17,-70.312,291.992,128.418,-68.359,1245.066,372.34568824340937
820,1686274539.18,-9.277,228.516,52.734,22.461,1245.07,365.6733659066317
821,1686274539.18,39.551,-134.766,-60.547,46.387,1245.074,353.56588619322196
822,1686274539.18,-5.371,-286.621,-73.242,-31.738,1245.078,354.3695272277006
823,1686274539.19,-66.406,-112.793,30.273,-75.684,1245.082,365.1960534023751
824,1686274539.19,-39.551,107.422,77.148,-17.578,1245.086,363.412587781881
825,1686274539.19,19.043,-605.957,-273.438,53.711,1245.089,366.65184730567944
826,1686274539.2,11.23,-645.508,-183.105,1.953,1245.093,358.226069359232
827,1686274539.2,-47.363,322.266,192.871,-83.984,1245.097,368.3560766697571
828,1686274539.2,-58.105,147.461,24.414,-34.668,1245.1,364.6709870035251
829,1686274539.21,11.719,33.691,6.836,32.715,1245.103,345.41873877986745
830,1686274539.21,23.926,121.582,44.922,-4.883,1245.107,357.81650863197035
831,1686274539.22,-44.922,109.375,73.73,-83.496,1245.111,366.25280609131653
832,1686274539.22,-67.871,-72.754,-65.918,-61.035,1245.115,357.73354712517136
833,1686274539.22,-4.395,-479.492,-206.543,29.785,1245.119,354.27587065286764
834,1686274539.23,46.387,-91.309,59.57,17.578,1245.123,353.0101176921403
835,1686274539.23,-10.742,364.258,167.48,-75.684,1245.127,363.97487002021586
836,1686274539.23,-69.336,-210.938,-124.512,-76.172,1245.131,353.9721384127719
837,1686274539.24,-26.855,-595.703,-177.734,17.578,1245.135,363.19075006408076
838,1686274539.24,39.062,261.23,205.078,25.879,1245.139,355.1059911078881
839,1686274539.25,10.254,335.449,91.797,-44.922,1245.142,355.493108033793
840,1686274539.26,-52.734,-36.133,-32.227,-69.336,1245.159,352.3467724826434
841,1686274539.27,-41.016,141.113,80.566,-19.531,1245.163,347.8107583347792
842,1686274539.27,25.879,405.762,156.25,26.367,1245.167,335.2993867935072
843,1686274539.28,20.02,310.547,101.074,-16.113,1245.171,335.7516731413078
844,1686274539.28,-63.477,1.465,-14.16,-78.613,1245.175,336.6286977266996
845,1686274539.28,-76.66,-135.254,-16.113,-43.945,1245.179,344.707325370866
846,1686274539.29,-3.418,-126.465,9.766,25.391,1245.183,331.3082567218336
847,1686274539.29,19.043,-64.941,33.691,0.488,1245.187,330.83613248991355
848,1686274539.29,-0.977,106.934,-3.418,-65.43,1245.189,322.12185279637885
849,1686274539.29,-42.969,-622.559,-270.508,-58.594,1245.191,334.9316594133034
850,1686274539.3,-65.918,329.102,138.672,-92.285,1245.193,325.87400747673786
851,1686274539.3,-86.914,-983.887,-351.562,-52.246,1245.195,318.8489357186267
852,1686274539.3,-33.203,395.508,135.254,-17.09,1245.197,328.64799633732014
853,1686274539.3,-22.949,10.254,135.254,-2.441,1245.199,319.29979699737845
854,1686274539.3,37.598,199.707,46.875,26.367,1245.201,322.49910723884966
855,1686274539.31,41.016,334.473,96.191,8.301,1245.202,321.0772122743966
856,1686274539.31,10.742,88.379,10.742,-35.645,1245.205,316.02880716525067
857,1686274539.31,-67.383,49.805,40.527,-90.82,1245.209,315.7031394717028
858,1686274539.32,-65.918,-64.453,35.645,-34.668,1245.213,324.9115297975308
859,1686274539.32,3.418,-300.781,-55.664,29.297,1245.217,323.79424043452156
860,1686274539.32,7.324,-258.301,-12.207,-16.602,1245.221,308.76827628047505
861,1686274539.33,-58.105,216.797,121.094,-83.984,1245.224,315.06690456910786
862,1686274539.33,-62.5,403.809,166.016,-51.27,1245.228,320.5640517246054
863,1686274539.34,7.812,-262.695,-98.633,46.387,1245.232,317.0308837353434
864,1686274539.34,32.715,-792.969,-280.762,31.25,1245.234,294.88012114835277
865,1686274539.34,-23.926,79.59,106.445,-80.566,1245.238,315.79404059642445
866,1686274539.35,-67.383,313.965,114.258,-83.008,1245.242,307.3588777329923
867,1686274539.35,-13.672,112.793,75.195,-1.953,1245.246,308.34789128147304
868,1686274539.35,40.039,220.215,105.957,6.836,1245.25,315.3073482028403
869,1686274539.36,-8.301,62.5,10.254,-63.477,1245.254,314.9398380217607
870,1686274539.36,-75.195,-37.109,43.945,-90.82,1245.258,311.144052754739
871,1686274539.36,-56.641,-631.348,-209.473,-2.441,1245.262,305.61731026081014
872,1686274539.37,10.742,-711.426,-192.383,41.992,1245.266,303.6428857701408
873,1686274539.37,8.301,283.203,180.176,-46.387,1245.269,309.06194231816175
874,1686274539.38,-58.594,80.078,-5.371,-96.68,1245.273,314.13858199568887
875,1686274539.38,-55.664,-204.102,-60.059,-39.551,1245.277,313.98047332805714
876,1686274539.38,26.367,304.688,150.879,21.973,1245.28,296.0479071452516
877,1686274539.39,39.062,574.707,201.66,-27.832,1245.284,309.49401498978654
878,1686274539.39,-41.992,55.664,-65.918,-92.285,1245.288,312.4566692824528
879,1686274539.4,-76.172,-334.473,-164.551,-55.664,1245.291,298.77769091056314
880,1686274539.4,-9.277,228.027,142.578,14.648,1245.295,301.38246344457
881,1686274539.4,21.484,269.531,106.934,1.953,1245.299,310.2719079242547
882,1686274539.41,-40.527,-395.996,-186.523,-70.801,1245.303,312.29330404650227
883,1686274539.41,-94.238,-666.992,-214.355,-78.613,1245.307,309.1121708315398
884,1686274539.41,-45.41,137.207,153.809,-17.578,1245.311,305.67416593539457
885,1686274539.42,29.297,490.723,165.039,7.324,1245.315,304.80472352909504
886,1686274539.42,-10.742,148.926,7.324,-51.758,1245.319,301.3358640560708
887,1686274539.43,-72.266,145.508,51.758,-75.684,1245.323,302.75547415216244
888,1686274539.43,-41.504,252.441,98.145,-8.789,1245.368,309.40679635930604
889,1686274539.43,13.184,106.445,36.133,33.691,1245.372,306.39253129719316
890,1686274539.44,6.836,-198.73,-35.156,-22.949,1245.376,310.3505412749816
891,1686274539.44,-58.594,-85.938,39.551,-89.844,1245.38,299.7308479513698
892,1686274539.44,-61.035,220.703,90.332,-44.434,1245.384,316.8162345382668
893,1686274539.45,20.996,90.82,67.871,33.691,1245.388,298.2954628384628
894,1686274539.45,28.32,-521.484,-182.129,15.137,1245.392,311.0573409475967
895,1686274539.46,-50.293,-810.547,-292.48,-54.199,1245.396,316.66962048601107
896,1686274539.46,-70.312,66.406,83.008,-62.988,1245.399,308.9605771698144
897,1686274539.46,5.371,262.207,87.891,14.648,1245.403,303.5213187621988
898,1686274539.47,49.805,-119.629,-8.789,21.973,1245.407,314.8488392068863
899,1686274539.47,-2.93,159.18,125.0,-61.035,1245.411,312.03700334306143
900,1686274539.47,-50.781,428.711,167.969,-72.266,1245.383,315.66507823468487
901,1686274539.48,-14.16,165.527,39.551,7.324,1245.387,316.23213492900925
902,1686274539.48,38.086,63.965,13.184,29.785,1245.391,315.95592141639327
903,1686274539.49,6.348,105.957,38.574,-41.992,1245.395,301.7079180151411
904,1686274539.49,-54.688,65.43,32.715,-82.031,1245.399,317.13654978474176
905,1686274539.49,-31.738,-297.852,-142.09,-7.324,1245.403,316.95581310064233
906,1686274539.5,35.156,-671.387,-259.766,45.898,1245.407,315.6991091709135
907,1686274539.5,27.344,-27.344,57.129,-29.297,1245.411,325.2458246269908
908,1686274539.5,-35.645,410.156,178.711,-85.938,1245.415,310.3255294770211
909,1686274539.51,-55.664,-245.605,-131.836,-26.367,1245.419,316.3380032088
910,1686274539.51,-7.324,-538.574,-215.332,32.715,1245.422,320.5893868256956
911,1686274539.52,13.672,296.875,188.477,-16.113,1245.426,314.5838534845087
912,1686274539.53,-41.016,324.219,103.516,-82.52,1245.43,315.8498784756709
913,1686274539.54,-78.613,-118.164,-45.41,-62.988,1245.434,321.9208975309561
914,1686274539.54,-27.832,34.18,72.754,-0.977,1245.438,325.79285075127177
915,1686274539.54,22.949,406.25,157.715,-8.789,1245.441,326.9917865831189
916,1686274539.55,-20.996,355.469,98.633,-74.219,1245.445,319.35053954999694
917,1686274539.55,-84.961,-487.305,-250.0,-64.453,1245.449,322.3992218837998
918,1686274539.56,-51.758,-778.809,-238.281,16.113,1245.453,324.59127962362834
919,1686274539.56,20.508,-134.277,53.223,31.25,1245.457,317.91505994861154
920,1686274539.56,1.465,22.461,34.668,-41.992,1245.461,319.4700710271339
921,1686274539.57,-59.082,-626.465,-273.926,-69.824,1245.465,328.2919966535948
922,1686274539.57,-48.828,-673.828,-223.633,-18.066,1245.469,320.84396982745665
923,1686274539.58,25.879,357.91,194.336,18.555,1245.473,327.79063559518994
924,1686274539.58,27.832,250.488,22.949,-18.555,1245.474,320.7282632571305
925,1686274539.58,-41.504,19.043,-18.555,-83.496,1245.478,327.71375481749885
926,1686274539.59,-50.781,289.062,119.141,-54.688,1245.482,317.7582147972533
927,1686274539.59,19.043,468.262,168.457,16.113,1245.486,321.3669799854923
928,1686274539.59,34.18,120.117,-32.227,2.93,1245.49,315.5523131664525
929,1686274539.6,-37.598,-426.27,-225.098,-67.871,1245.494,323.26638285607675
930,1686274539.6,-74.707,-93.75,25.391,-71.289,1245.498,329.1103384261353
931,1686274539.6,-12.695,390.137,176.758,4.883,1245.502,316.5577783536981
932,1686274539.61,37.598,-140.137,-94.727,36.133,1245.506,320.7911188927376
933,1686274539.61,-16.602,-862.793,-313.477,-29.297,1245.509,329.58256448720766
934,1686274539.62,-77.148,-103.027,73.73,-90.332,1245.513,342.4119998835901
935,1686274539.62,-47.852,410.156,164.062,-26.855,1245.517,337.4828426997168
936,1686274539.62,25.391,103.027,-6.348,31.25,1245.52,328.89003823257843
937,1686274539.63,14.648,137.207,40.527,-31.25,1245.524,333.5251414135996
938,1686274539.63,-53.711,358.398,150.391,-92.285,1245.527,325.69983077502377
939,1686274539.64,-53.711,286.133,89.844,-40.527,1245.531,329.58982364890056
940,1686274539.64,12.695,63.477,24.414,33.691,1245.535,332.9586804869326
941,1686274539.64,15.625,-114.746,-5.371,-2.441,1245.539,328.74794627157553
942,1686274539.65,-48.34,-181.641,-28.809,-78.125,1245.543,332.4065636892175
943,1686274539.65,-68.359,-70.312,30.762,-59.082,1245.547,334.8870536994348
944,1686274539.65,-14.16,-634.277,-214.355,27.832,1245.551,314.61930927237955
945,1686274539.66,15.625,-697.754,-177.734,16.602,1245.555,322.83642147313884
946,1686274539.66,-25.391,212.402,157.227,-87.402,1245.559,327.7352244704083
947,1686274539.67,-68.848,-36.133,-53.711,-83.008,1245.563,332.2711124583648
948,1686274539.68,-30.273,-271.973,-53.223,1.953,1245.58,331.61368750545375
949,1686274539.69,29.297,307.617,192.383,18.555,1245.583,324.017696637399
950,1686274539.69,0.0,516.113,179.688,-52.246,1245.587,341.41524321496814
951,1686274539.7,-56.152,109.375,11.719,-86.914,1245.591,331.92266482670374
952,1686274539.7,-42.969,7.324,18.066,-23.438,1245.595,333.96925071710643
953,1686274539.7,23.438,83.008,66.895,14.16,1245.599,335.68264080822763
954,1686274539.71,22.949,30.762,37.598,-28.32,1245.603,328.08240036577547
955,1686274539.71,-53.223,-397.461,-179.688,-69.336,1245.607,336.80613491779707
956,1686274539.71,-115.723,127.93,45.41,-111.328,1245.613,340.5398346354797
957,1686274539.72,-88.867,-632.324,-186.523,-53.711,1245.611,331.81532377470234
958,1686274539.72,-58.594,193.359,87.891,-37.598,1245.617,329.2641419298286
959,1686274539.72,-19.043,242.676,191.406,-12.695,1245.615,332.6322816636702
960,1686274539.72,-20.996,-24.414,-11.719,-44.434,1245.62,343.4291994271247
961,1686274539.72,-0.488,495.117,155.273,-37.109,1245.619,335.359018622519
962,1686274539.73,-84.961,-322.754,-84.961,-132.324,1245.624,335.89452938380214
963,1686274539.73,-78.613,121.094,9.277,-109.863,1245.622,339.10121932794766
964,1686274539.73,-134.277,-132.812,25.879,-145.508,1245.628,346.0481634088186
965,1686274539.73,-91.309,73.73,72.266,-72.266,1245.632,327.2497722075915
966,1686274539.74,-44.922,-115.234,3.906,-41.992,1245.636,337.65346498653724
967,1686274539.74,-98.633,-398.926,-62.988,-122.559,1245.64,340.72666922229195
968,1686274539.74,-169.434,-167.969,37.598,-176.758,1245.644,327.68897074542684
969,1686274539.75,-139.648,350.098,160.156,-121.094,1245.648,330.205558721912
970,1686274539.75,-54.199,285.645,88.379,-61.035,1245.652,344.91320831101524
971,1686274539.76,-65.918,-632.324,-280.762,-81.543,1245.656,330.19456552327046
972,1686274539.76,-145.996,-713.867,-214.844,-153.809,1245.654,333.4788945962987
973,1686274539.76,-154.785,307.617,199.707,-143.555,1245.658,339.7832958830146
974,1686274539.77,-83.984,244.141,65.918,-65.43,1245.662,329.62355588775773
975,1686274539.77,-56.641,63.965,9.766,-90.82,1245.666,338.5040748055147
976,1686274539.77,-121.094,69.824,28.809,-163.086,1245.67,337.08809714991554
977,1686274539.78,-144.531,-9.766,31.738,-140.625,1245.674,337.27273744176915
978,1686274539.78,-79.59,-285.645,-119.141,-53.223,1245.678,335.94682548139156
979,1686274539.78,-35.645,-809.082,-286.133,-43.945,1245.682,332.6238840247914
980,1686274539.79,-69.824,-127.93,67.871,-138.672,1245.686,324.86257781469493
981,1686274539.79,-113.77,436.523,146.484,-156.25,1245.689,338.9000085152857
982,1686274539.8,-83.496,181.641,39.551,-71.777,1245.693,336.0396716246019
983,1686274539.8,-11.23,268.555,111.328,-35.156,1245.697,336.8230927497127
984,1686274539.8,-28.32,479.98,158.691,-97.168,1245.713,326.0796951900245
985,1686274539.81,-104.98,318.359,70.801,-154.297,1245.717,333.0670379852221
986,1686274539.81,-86.426,98.145,77.637,-82.52,1245.721,325.1510840053267
987,1686274539.82,1.953,273.438,165.527,-4.395,1245.725,336.0617877630865
988,1686274539.82,2.441,405.273,135.254,-55.664,1245.729,336.3670959155802
989,1686274539.82,-76.172,129.395,39.551,-123.047,1245.733,341.2870810862978
990,1686274539.83,-89.844,-630.371,-267.09,-63.965,1245.737,333.08256978096057
991,1686274539.83,-5.859,-761.719,-245.605,27.832,1245.741,340.4905017088752
992,1686274539.83,21.484,12.207,130.859,-16.602,1245.745,334.38449718169295
993,1686274539.84,-44.434,183.105,42.48,-115.234,1245.748,344.13551273790347
994,1686274539.84,-88.867,-496.094,-203.125,-90.332,1245.752,340.03547779127433
995,1686274539.85,-36.621,-247.559,39.551,2.441,1245.756,336.16925513734145
996,1686274539.85,41.016,514.16,193.848,12.207,1245.759,337.36992631928575
997,1686274539.85,0.977,211.914,8.789,-58.105,1245.763,323.45969579262686
998,1686274539.86,-68.848,7.324,-8.789,-88.379,1245.767,336.84375439749374
999,1686274539.86,-26.367,266.113,100.098,-10.742,1245.771,334.36406393983765
1000,1686274539.86,37.598,391.602,141.602,31.738,1245.775,331.1515605649784
1001,1686274539.87,12.695,-175.781,-125.977,-19.531,1245.779,326.60667808190016
1002,1686274539.87,-49.805,-686.523,-276.855,-62.5,1245.783,342.8995701158693
1003,1686274539.88,-45.898,9.277,103.516,-34.668,1245.786,332.00651530166704
1004,1686274539.88,32.715,477.539,186.523,20.02,1245.79,338.069173836095
1005,1686274539.88,56.152,-124.023,-87.402,4.395,1245.794,337.9994722503035
1006,1686274539.89,-18.555,-310.547,-64.941,-60.547,1245.798,327.6958716885175
1007,1686274539.89,-46.387,290.527,141.602,-48.828,1245.802,337.28917179987405
1008,1686274539.91,23.926,355.957,93.262,29.297,1245.804,324.83521088034536
1009,1686274539.91,57.617,46.387,-6.836,27.344,1245.808,338.1870879929188
1010,1686274539.92,6.348,10.254,-3.906,-50.781,1245.812,330.34663828707033
1011,1686274539.92,-35.156,281.738,108.398,-57.129,1245.816,342.2305752905919
1012,1686274539.92,19.531,279.785,90.332,28.32,1245.82,330.8016665584287
1013,1686274539.93,74.219,-96.68,-47.852,54.199,1245.824,328.39777919012926
1014,1686274539.93,33.691,-270.996,-83.008,-11.23,1245.828,334.3023749100893
1015,1686274539.94,-36.621,-138.672,0.977,-62.012,1245.832,344.7102332054867
1016,1686274539.94,-5.859,99.121,66.895,-9.277,1245.836,336.5849431417557
1017,1686274539.94,73.73,-550.781,-253.906,73.242,1245.84,334.4995861560218
1018,1686274539.95,60.547,-674.805,-224.121,28.809,1245.844,334.50629304487575
1019,1686274539.95,-2.93,218.262,132.324,-49.316,1245.847,340.0470702347538
1020,1686274539.95,-8.789,-97.656,-70.312,-6.836,1245.849,337.6578823857619
1021,1686274539.96,73.242,-318.848,-84.473,72.754,1245.853,344.06798995587445
1022,1686274539.96,85.449,229.98,134.277,35.645,1245.857,342.2538021860824
1023,1686274539.96,-7.324,419.434,140.625,-57.617,1245.861,339.9726249714339
1024,1686274539.97,-47.852,80.078,2.93,-27.344,1245.865,327.7637882870693
1025,1686274539.97,5.371,-206.543,-75.684,45.41,1245.869,347.75067595021164
1026,1686274539.98,44.922,13.672,59.57,28.32,1245.873,333.605012717114
1027,1686274539.98,7.324,413.086,151.855,-34.18,1245.877,333.75569664518656
1028,1686274539.98,-37.109,-214.844,-115.234,-33.203,1245.881,331.8479381665021
1029,1686274539.99,-1.465,-652.832,-162.598,65.918,1245.885,329.60256876073475
1030,1686274539.99,55.664,221.191,155.273,84.961,1245.888,322.22534640045205
1031,1686274540.0,21.973,375.977,117.676,-0.488,1245.892,341.6563990182716
1032,1686274540.0,-40.527,34.668,-20.02,-46.387,1245.895,336.9591755882063
1033,1686274540.0,-12.207,138.672,24.902,1.953,1245.899,336.5408789784844
1034,1686274540.01,65.918,242.188,93.262,56.152,1245.903,327.49554528321625
1035,1686274540.01,52.734,27.832,-4.883,17.09,1245.906,329.40888125831987
1036,1686274540.02,-28.809,-286.133,-135.742,-51.758,1245.91,344.1529643435267
1037,1686274540.02,-41.992,-298.828,-79.102,-19.043,1245.914,340.2717053572889
1038,1686274540.02,31.738,-108.887,9.277,46.387,1245.918,335.3074655940374
1039,1686274540.03,53.711,-43.457,-13.672,26.855,1245.922,325.1950118621993
1040,1686274540.03,-19.531,-619.629,-317.871,-44.434,1245.926,335.97378953422174
1041,1686274540.03,-53.223,-745.605,-229.004,-23.438,1245.93,332.83827965662834
1042,1686274540.04,20.02,278.32,193.848,47.852,1245.934,340.58981279066575
1043,1686274540.04,60.059,281.25,20.02,39.551,1245.938,332.7223876785742
1044,1686274540.06,9.277,20.508,-53.711,-37.598,1245.955,333.6465514543018
1045,1686274540.06,-51.758,295.898,101.562,-69.824,1245.959,339.47279083286526
1046,1686274540.07,-22.949,424.805,131.348,4.883,1245.963,323.6962603321457
1047,1686274540.07,54.688,216.797,29.297,49.316,1245.966,337.7798419259262
1048,1686274540.07,39.551,-9.277,-56.641,-19.531,1245.97,341.344231363582
1049,1686274540.08,-38.574,-59.082,-38.574,-59.57,1245.974,343.2873335985447
1050,1686274540.08,-34.668,-78.125,-6.836,-3.906,1245.978,345.9878061488763
1051,1686274540.08,35.156,-328.613,-150.391,47.363,1245.982,327.480978531333
1052,1686274540.09,55.664,66.406,8.789,26.367,1245.984,340.98391101461556
1053,1686274540.09,31.25,-806.641,-285.156,7.324,1245.986,332.7784034213942
1054,1686274540.09,6.836,346.191,130.371,-47.852,1245.988,331.68157310468297
1055,1686274540.09,-32.227,-210.938,26.855,-70.801,1245.99,337.04854372000557
1056,1686274540.1,-39.551,230.957,20.508,-37.598,1245.992,341.72893977908353
1057,1686274540.1,-39.062,348.633,144.531,-45.898,1245.994,341.4240709949219
1058,1686274540.1,-4.883,57.129,38.086,32.227,1245.996,337.6796954220839
1059,1686274540.1,25.879,90.332,-6.836,42.969,1245.998,330.5277425076588
1060,1686274540.1,49.316,201.66,105.469,39.062,1246.0,333.3721461455
1061,1686274540.11,11.719,62.012,-54.688,-39.062,1246.004,337.21330696990293
1062,1686274540.11,-41.992,-219.727,-149.902,-59.082,1246.008,337.75874868200725
1063,1686274540.12,-12.207,-451.172,-166.016,9.277,1246.011,331.9180498160412
1064,1686274540.12,43.457,-223.633,-20.996,24.414,1246.015,335.36444799925414
1065,1686274540.12,24.902,297.852,151.367,-38.086,1246.019,344.5779925974702
1066,1686274540.13,-41.016,264.16,68.848,-90.332,1246.023,349.9733379776749
1067,1686274540.13,-51.27,-643.555,-322.266,-24.902,1246.027,343.48907663052495
1068,1686274540.13,10.742,-877.93,-320.801,45.41,1246.03,338.08701779508584
1069,1686274540.14,39.551,131.348,117.676,-18.555,1246.034,337.48113048552773
1070,1686274540.14,-26.367,189.941,22.949,-94.727,1246.038,332.6302627442603
1071,1686274540.14,-52.734,47.852,7.324,-60.059,1246.042,342.5448453519668
1072,1686274540.15,21.973,340.332,117.676,27.344,1246.045,339.76734199728867
1073,1686274540.15,60.547,214.355,69.336,21.484,1246.049,337.7165363457002
1074,1686274540.16,-1.953,-315.43,-145.508,-45.898,1246.053,342.2224448503639
1075,1686274540.16,-54.199,-600.586,-221.191,-40.527,1246.057,339.79261299375946
1076,1686274540.16,-7.324,161.133,144.043,17.578,1246.061,343.7140927704696
1077,1686274540.17,48.828,484.375,146.484,30.762,1246.065,336.37926225030367
1078,1686274540.17,18.555,-17.578,-55.176,-30.273,1246.069,349.2709345635702
1079,1686274540.18,-44.922,-73.242,10.254,-77.148,1246.073,336.101814597599
1080,1686274540.18,-27.344,351.562,166.504,-30.762,1246.088,346.7523973528565
1081,1686274540.18,43.457,411.621,126.953,30.762,1246.092,338.5899458781244
1082,1686274540.19,16.113,62.012,-10.254,-17.09,1246.096,345.26697377921295
1083,1686274540.19,-48.828,55.664,36.133,-84.961,1246.1,331.4422543816032
1084,1686274540.19,-27.832,284.668,106.445,-43.945,1246.104,334.8221036787213
1085,1686274540.2,43.457,110.84,62.5,28.32,1246.108,345.2603582249858
1086,1686274540.2,47.363,-613.77,-257.324,30.762,1246.111,350.01090302361445
1087,1686274540.2,-23.926,-751.465,-270.508,-42.48,1246.115,347.22424697355893
1088,1686274540.21,-49.805,177.734,178.711,-70.801,1246.119,339.19472658050734
1089,1686274540.21,7.812,292.969,88.867,8.789,1246.123,340.0944835201765
1090,1686274540.22,40.039,17.09,-10.254,13.672,1246.127,346.978562916954
1091,1686274540.22,-14.16,192.383,110.84,-75.684,1246.131,341.0427659178813
1092,1686274540.24,-63.477,271.484,103.027,-86.426,1246.138,351.63877451048995
1093,1686274540.24,-23.438,-109.863,-61.523,0.0,1246.142,342.6603163712863
1094,1686274540.25,30.273,-297.852,-58.105,29.785,1246.146,350.2756025698769
1095,1686274540.25,-2.93,165.039,128.418,-51.27,1246.15,336.501518960443
1096,1686274540.26,-57.617,346.68,137.207,-88.867,1246.154,349.1052812022338
1097,1686274540.26,-41.992,-215.332,-110.352,-10.742,1246.157,359.26358063660973
1098,1686274540.26,42.969,-469.727,-173.828,52.734,1246.161,353.88684949144556
1099,1686274540.27,43.457,151.367,132.324,-11.719,1246.165,341.18665613072517
1100,1686274540.27,-42.969,378.906,145.996,-88.379,1246.169,341.62769623715246
1101,1686274540.27,-61.035,-224.609,-100.098,-32.715,1246.173,355.6292783127911
1102,1686274540.28,13.184,-307.129,-100.586,37.598,1246.177,346.6280164315846
1103,1686274540.28,44.922,341.309,176.27,-6.836,1246.181,342.6211158705779
1104,1686274540.28,-27.344,276.855,103.027,-75.195,1246.18,350.03512730502126
1105,1686274540.29,-71.289,-20.996,-21.484,-66.406,1246.184,347.2371268912696
1106,1686274540.29,-19.531,113.281,56.641,10.742,1246.188,347.8679895524677
1107,1686274540.3,30.273,186.523,96.191,20.02,1246.192,355.3441281568176
1108,1686274540.3,-14.16,-117.188,-26.855,-66.406,1246.195,357.53970762269057
1109,1686274540.3,-73.242,-393.555,-117.676,-91.309,1246.199,355.67467433119594
1110,1686274540.31,-47.852,-324.219,-22.461,-23.438,1246.203,355.4685529721124
1111,1686274540.31,12.207,-135.254,38.574,5.371,1246.207,354.6423432615663
1112,1686274540.31,-10.742,47.363,59.082,-61.523,1246.211,358.0010016437371
1113,1686274540.32,-68.359,-510.742,-223.145,-81.543,1246.215,343.6622730973715
1114,1686274540.32,-57.617,-981.934,-316.406,-13.184,1246.219,350.61996012983553
1115,1686274540.33,4.395,53.223,155.273,6.836,1246.223,353.33498525510026
1116,1686274540.33,0.977,258.789,79.59,-40.039,1246.224,355.3089769247215
1117,1686274540.33,-68.359,-33.203,-12.207,-112.793,1246.228,349.7742810875437
1118,1686274540.34,-85.449,325.684,170.898,-97.656,1246.232,358.11651920694834
1119,1686274540.34,-12.695,504.883,190.918,-17.578,1246.236,352.4180177569849
1120,1686274540.34,28.32,233.887,41.504,-15.137,1246.24,355.60888660116143
1121,1686274540.35,-41.504,-194.336,-74.219,-88.379,1246.244,352.88654616631584
1122,1686274540.35,-83.496,-196.777,-16.602,-95.215,1246.248,354.1346078771706
1123,1686274540.36,-22.949,162.109,130.859,-12.695,1246.252,350.44834602189496
1124,1686274540.36,33.691,-83.008,-49.805,10.254,1246.256,348.52493309864644
1125,1686274540.36,-11.23,-823.242,-305.664,-45.41,1246.26,351.76297331613654
1126,1686274540.37,-65.43,-185.059,55.176,-86.426,1246.263,356.8507952553436
1127,1686274540.37,-26.367,405.762,167.48,-17.578,1246.267,357.7573549469417
1128,1686274540.37,30.762,192.383,131.348,30.762,1246.269,352.91301971697544
1129,1686274540.38,12.207,219.238,144.531,-43.945,1246.273,345.4498685318776
1130,1686274540.38,-51.758,396.973,123.047,-89.844,1246.277,353.02851447071333
1131,1686274540.38,-49.316,309.082,64.453,-30.762,1246.281,367.5487424045696
1132,1686274540.39,31.738,121.094,57.617,28.809,1246.285,355.8557028271931
1133,1686274540.39,59.082,-52.734,36.133,7.812,1246.289,360.80260760700736
1134,1686274540.4,-6.836,-162.598,-19.531,-54.199,1246.293,358.68114243824857
1135,1686274540.4,-42.969,-101.074,23.926,-52.734,1246.297,352.86588855146584
1136,1686274540.4,21.484,-609.375,-230.469,43.457,1246.301,355.7856664588723
1137,1686274540.41,46.387,-972.656,-312.5,52.734,1246.304,352.03874813375035
1138,1686274540.41,-3.418,-37.109,98.633,-50.781,1246.308,357.84499551612106
1139,1686274540.42,-39.062,277.832,77.148,-60.059,1246.312,361.9703151569393
1140,1686274540.42,5.371,102.051,22.949,18.066,1246.321,350.13341252945247
1141,1686274540.42,68.848,395.508,160.156,41.016,1246.325,350.168012558574
1142,1686274540.43,27.344,502.441,157.715,-33.203,1246.329,359.72831407048415
1143,1686274540.43,-43.945,153.32,4.395,-62.012,1246.333,355.70004117135744
1144,1686274540.43,-22.949,51.758,26.367,15.137,1246.337,361.1665736748051
1145,1686274540.44,46.387,109.375,80.566,56.152,1246.34,347.6655031936793
1146,1686274540.44,27.344,52.734,50.293,-3.906,1246.344,353.4287954212441
1147,1686274540.44,-48.34,-267.578,-130.371,-45.898,1246.348,358.83711256616186
1148,1686274540.45,-48.828,-561.523,-158.203,0.488,1246.352,362.1421802305258
1149,1686274540.45,32.227,217.285,185.547,45.41,1246.356,358.62723935934196
1150,1686274540.46,55.664,474.609,120.605,20.02,1246.36,359.2108551072282
1151,1686274540.46,-16.602,-52.734,-42.969,-52.246,1246.364,350.043683934977
1152,1686274540.46,-51.758,-31.738,30.273,-53.711,1246.359,359.3576036291337
1153,1686274540.47,26.367,408.691,161.133,32.227,1246.363,342.9128976410904
1154,1686274540.47,78.125,375.0,108.887,45.41,1246.367,355.9587226418886
1155,1686274540.48,17.09,15.625,-31.25,-37.109,1246.371,347.6246634381108
1156,1686274540.48,-34.668,-0.977,-16.602,-46.387,1246.375,346.81521136304593
1157,1686274540.48,0.488,-7.324,7.324,38.086,1246.379,361.10791735860914
1158,1686274540.49,45.898,-38.086,30.273,58.105,1246.383,361.49008475917594
1159,1686274540.49,6.348,-570.801,-264.16,2.93,1246.387,356.2849898164304
1160,1686274540.49,-56.641,-783.691,-339.355,-38.086,1246.391,348.1376155374007
1161,1686274540.5,-30.273,156.738,116.699,-11.719,1246.395,356.3178657668401
1162,1686274540.5,28.32,311.035,104.004,43.457,1246.399,367.84604357528707
1163,1686274540.51,21.484,52.734,-45.41,-0.488,1246.402,370.7868484708406
1164,1686274540.51,-43.457,144.531,45.898,-70.312,1246.408,351.2989682690802
1165,1686274540.51,-50.293,298.34,138.672,-33.691,1246.412,354.4408805827309
1166,1686274540.52,20.996,-58.105,-56.152,43.457,1246.416,368.2959410352869
1167,1686274540.52,34.18,-268.066,-104.98,18.555,1246.42,363.9438012107837
1168,1686274540.52,-24.414,134.766,63.477,-66.406,1246.424,368.7815735433341
1169,1686274540.53,-54.199,65.918,-23.926,-53.711,1246.428,354.28715452617513
1170,1686274540.53,-5.859,-426.758,-225.586,43.945,1246.432,361.3297509169008
1171,1686274540.54,34.668,-583.496,-190.918,52.734,1246.436,362.6531103219151
1172,1686274540.54,-16.113,95.703,119.629,-47.852,1246.44,360.8832722079822
1173,1686274540.54,-68.359,357.422,125.0,-70.801,1246.443,363.69465874494006
1174,1686274540.55,-20.508,82.031,15.625,18.555,1246.447,361.7914045701606
1175,1686274540.55,38.086,144.043,41.992,55.176,1246.451,361.14746972531475
1176,1686274540.55,0.977,395.508,145.02,-30.273,1246.463,369.8781169912112
1177,1686274540.56,-66.895,283.691,63.477,-77.148,1246.467,358.4907629353533
1178,1686274540.56,-59.082,67.871,44.434,-5.859,1246.471,353.6762029734919
1179,1686274540.56,8.301,176.758,90.82,52.734,1246.475,357.60727655284154
1180,1686274540.57,17.578,97.656,14.16,11.23,1246.479,363.78412300438964
1181,1686274540.57,-49.316,-118.164,-19.043,-64.941,1246.482,360.55666129722
1182,1686274540.58,-72.754,-624.023,-305.176,-22.949,1246.486,361.6461826597122
1183,1686274540.58,-6.836,-929.688,-357.422,61.523,1246.49,357.329059701954
1184,1686274540.58,41.504,-56.152,87.402,19.531,1246.494,356.4293128576631
1185,1686274540.59,-10.254,188.965,38.086,-62.988,1246.498,355.2380489155534
1186,1686274540.59,-58.594,-101.562,-45.898,-60.059,1246.502,366.5239673622316
1187,1686274540.6,-2.93,242.188,134.277,20.508,1246.506,344.2650577767416
1188,1686274540.6,46.875,520.508,174.805,35.156,1246.509,371.3160306644784
1189,1686274540.6,-11.719,159.18,8.301,-47.363,1246.513,365.4329937073821
1190,1686274540.61,-76.66,-68.359,-46.875,-81.543,1246.517,359.04949076288443
1191,1686274540.61,-31.738,283.691,125.488,-6.836,1246.521,367.2428149623629
1192,1686274540.61,40.527,451.172,180.176,30.273,1246.524,360.4237536883059
1193,1686274540.62,20.508,-163.574,-112.305,-15.625,1246.528,352.9039713540769
1194,1686274540.62,-47.363,-653.809,-249.512,-48.828,1246.532,362.9441806980669
1195,1686274540.62,-51.758,-171.875,56.152,-26.367,1246.536,365.2527378179634
1196,1686274540.63,16.113,344.238,209.473,20.02,1246.54,366.451669651788
1197,1686274540.63,24.414,-137.207,-90.82,-2.93,1246.544,364.26002131445654
1198,1686274540.64,-49.316,-547.852,-213.867,-69.336,1246.548,358.74340271963933
1199,1686274540.64,-62.988,154.297,147.461,-58.105,1246.552,365.54927898509607
1200,1686274540.67,12.207,355.957,139.648,22.461,1246.57,360.6156499130025
1201,1686274540.68,53.711,158.203,91.309,17.09,1246.573,364.9260252421948
1202,1686274540.68,-1.953,131.836,104.004,-64.453,1246.577,363.07538743447094
1203,1686274540.68,-50.293,263.184,109.863,-72.754,1246.581,365.53982528301617
1204,1686274540.69,-10.742,211.426,50.293,10.742,1246.585,358.5950278761764
1205,1686274540.69,37.109,-121.094,-66.406,53.711,1246.589,363.40087753135
1206,1686274540.7,-12.695,-306.641,-62.988,-31.25,1246.593,356.18964084229697
1207,1686274540.7,-79.59,-180.176,10.254,-84.961,1246.597,367.7008737682867
1208,1686274540.7,-68.359,218.262,91.309,-43.457,1246.599,368.72112450528425
1209,1686274540.7,-43.457,77.148,94.238,-16.602,1246.601,353.01418485663623
1210,1686274540.71,1.465,40.039,23.438,29.297,1246.603,376.4933098503869
1211,1686274540.71,14.648,-550.293,-209.961,56.152,1246.605,355.2154896598995
1212,1686274540.71,14.648,318.359,146.973,-5.859,1246.607,367.1134231201375
1213,1686274540.71,-9.277,-847.656,-275.391,7.324,1246.609,368.92998763511787
1214,1686274540.72,-46.875,438.477,166.016,-83.008,1246.611,360.16380956220513
1215,1686274540.72,-72.754,112.305,150.879,-88.379,1246.613,359.13847530074327
1216,1686274540.72,-83.984,154.785,23.926,-66.406,1246.615,379.4197978858456
1217,1686274540.72,-22.949,-161.621,-15.137,26.855,1246.619,369.6043748251521
1218,1686274540.73,24.414,-66.895,81.055,33.203,1246.623,364.2928788845118
1219,1686274540.73,-23.926,294.922,151.855,-61.035,1246.627,368.9934551324331
1220,1686274540.73,-71.777,-105.469,-57.617,-72.754,1246.631,358.6135153551453
1221,1686274540.74,-34.668,-352.539,-104.98,8.789,1246.635,367.88910019863613
1222,1686274540.74,32.227,344.238,203.613,19.531,1246.638,370.8561476440292
1223,1686274540.75,9.766,412.598,163.574,-51.758,1246.642,364.92330823929524
1224,1686274540.75,-78.125,-422.363,-183.594,-82.031,1246.644,366.46409606585564
1225,1686274540.75,-63.477,-819.824,-256.348,-20.02,1246.648,373.4498287671147
1226,1686274540.76,37.109,82.031,112.305,16.602,1246.652,374.9139136443054
1227,1686274540.76,36.133,319.336,104.98,-39.551,1246.656,363.03866405599996
1228,1686274540.76,-41.992,-41.992,-0.977,-96.191,1246.66,370.247216330361
1229,1686274540.77,-64.941,-163.086,-3.418,-51.758,1246.664,363.3169594807466
1230,1686274540.77,-2.93,-119.629,0.488,14.648,1246.668,358.8663213526985
1231,1686274540.78,27.344,34.18,62.5,-6.836,1246.672,362.54209417555217
1232,1686274540.78,-37.109,-567.383,-231.934,-58.105,1246.676,371.80716719747244
1233,1686274540.78,-70.312,-756.348,-243.164,-48.34,1246.679,365.833721799575
1234,1686274540.79,2.441,268.555,198.242,9.766,1246.683,371.69075612116075
1235,1686274540.79,50.781,319.336,55.664,14.16,1246.687,366.3039649097079
1236,1686274540.79,-3.418,29.297,-48.34,-65.918,1246.689,370.31318579946594
1237,1686274540.8,-66.895,236.816,86.914,-82.031,1246.693,352.28830034268935
1238,1686274540.8,-40.039,253.906,88.867,-6.836,1246.697,370.5026296362342
1239,1686274540.8,33.203,-148.926,-110.352,41.504,1246.701,369.3050435879708
1240,1686274540.81,14.648,-345.703,-187.5,-20.508,1246.705,370.27538773919474
1241,1686274540.81,-60.547,-211.426,-105.469,-75.195,1246.709,373.87356048142277
1242,1686274540.82,-51.758,13.672,7.324,-24.414,1246.713,369.14009876432425
1243,1686274540.82,27.344,-181.641,-98.633,41.016,1246.717,383.6293906844285
1244,1686274540.82,17.09,-593.262,-254.883,8.301,1246.721,366.599519629953
1245,1686274540.83,-59.082,36.621,42.969,-66.895,1246.724,374.1876060082794
1246,1686274540.83,-70.312,300.781,72.266,-40.039,1246.728,371.83354435722254
1247,1686274540.84,13.672,-14.648,-48.34,28.32,1246.732,371.9328410166012
1248,1686274540.84,47.363,-13.184,-25.879,8.789,1246.735,367.5096121679051
1249,1686274540.84,-21.973,233.887,78.613,-65.918,1246.738,364.20112312183204
1250,1686274540.85,-64.941,131.836,2.441,-64.453,1246.742,364.66072255484363
1251,1686274540.85,-4.395,-77.637,-94.727,8.789,1246.746,377.99986520588266
1252,1686274540.85,56.641,-3.418,-30.273,26.855,1246.75,368.8659562647704
1253,1686274540.86,6.348,-163.086,-131.836,-51.758,1246.754,374.0610979470839
1254,1686274540.86,-54.688,-332.031,-193.359,-94.238,1246.758,375.9401021133861
1255,1686274540.86,-13.184,-717.773,-383.301,21.973,1246.762,360.28229480691016
1256,1686274540.87,41.016,-903.809,-414.551,68.359,1246.766,362.1768762654294
1257,1686274540.87,-4.883,-92.285,29.297,-58.594,1246.77,377.96130728631334
1258,1686274540.88,-72.754,57.617,-47.852,-106.445,1246.774,375.9114138688543
1259,1686274540.88,-68.359,-189.941,-138.184,-46.875,1246.778,372.48440817535123
1260,1686274540.88,-4.883,175.293,75.684,10.742,1246.78,376.38937226397724
1261,1686274540.89,12.695,388.184,109.863,-20.508,1246.784,367.27049552976564
1262,1686274540.89,-67.383,-15.625,-134.766,-89.355,1246.787,370.88651074200425
1263,1686274540.9,-90.82,-170.898,-148.926,-58.105,1246.791,374.4471462443687
1264,1686274540.9,-4.395,131.836,62.5,16.113,1246.795,372.2390216647908
1265,1686274540.9,25.391,-31.25,-76.172,0.0,1246.799,358.11660320011225
1266,1686274540.91,-48.828,-514.648,-310.059,-63.477,1246.803,365.2980971498818
1267,1686274540.91,-94.238,-805.176,-405.273,-66.895,1246.807,375.2201148380818
1268,1686274540.91,-46.387,-284.668,-87.402,-6.836,1246.811,362.744548622938
1269,1686274540.92,22.461,253.418,99.609,11.719,1246.815,360.45672225976426
1270,1686274540.92,-5.371,-228.516,-149.902,-56.152,1246.819,369.31822491754264
1271,1686274540.93,-67.871,-485.84,-221.191,-91.309,1246.823,356.9092407517074
1272,1686274540.94,-33.203,-4.883,4.395,-25.879,1246.845,364.02933088000214
1273,1686274540.95,44.434,129.883,21.484,25.391,1246.849,369.8881885710272
1274,1686274540.95,36.133,-72.266,-137.695,-27.344,1246.853,380.8986846156434
1275,1686274540.96,-41.992,-43.457,-35.156,-85.449,1246.857,374.8196894458071
1276,1686274540.96,-41.016,63.477,5.859,-40.527,1246.861,372.34083272441035
1277,1686274540.96,28.809,-105.957,-115.723,25.879,1246.865,366.6777836947431
1278,1686274540.97,29.785,-659.668,-365.234,20.02,1246.869,370.6214081072779
1279,1686274540.97,-39.062,-832.031,-367.188,-50.293,1246.872,368.92762824510805
1280,1686274540.98,-52.734,-20.02,45.41,-56.152,1246.876,376.71788853804287
1281,1686274540.98,20.508,135.742,5.859,27.344,1246.88,357.8761999095078
1282,1686274540.98,47.363,-455.566,-206.543,23.926,1246.884,363.74348785781046
1283,1686274540.99,-5.371,-272.461,-49.805,-60.547,1246.888,375.7619440865353
1284,1686274540.99,-37.598,256.836,99.609,-69.336,1246.886,375.42417911300805
1285,1686274540.99,-9.277,1.953,-59.082,5.859,1246.89,360.06487447980606
1286,1686274541.0,37.598,-257.324,-141.602,31.738,1246.893,381.8795307633839
1287,1686274541.0,17.578,85.449,45.898,-48.828,1246.897,376.89403349572876
1288,1686274541.0,-40.039,217.285,60.547,-97.168,1246.901,381.5054729837826
1289,1686274541.01,-26.367,-347.656,-203.125,-14.648,1246.905,373.7365019147182
1290,1686274541.01,46.387,-486.328,-200.195,41.016,1246.909,367.7996226158739
1291,1686274541.02,45.898,54.199,49.316,-25.879,1246.913,360.32816651409127
1292,1686274541.02,-26.855,243.652,78.125,-81.055,1246.917,377.0870064040543
1293,1686274541.02,-41.992,-218.75,-143.555,-31.738,1246.921,370.4335529920786
1294,1686274541.03,14.16,-1000.0,-469.238,50.293,1246.925,371.06050201386347
1295,1686274541.03,33.691,-442.871,-117.188,11.23,1246.929,363.03788943752
