,timestamps,TP9,AF7,AF8,TP10,Secondary Timestamp,emg_signal
0,1686274582.27,-19.531,219.727,146.973,10.254,1288.168,351
1,1686274582.274,47.852,441.406,145.508,19.043,1288.172,351
2,1686274582.278,7.324,169.922,-7.324,-47.363,1288.176,351
3,1686274582.282,-60.547,144.531,50.781,-87.402,1288.18,352
4,1686274582.286,-36.133,272.461,70.312,-33.691,1288.184,352
5,1686274582.289,34.668,145.996,35.156,30.273,1288.188,352
6,1686274582.293,21.973,-489.746,-208.008,6.348,1288.192,352
7,1686274582.297,-56.152,-730.469,-254.883,-57.617,1288.196,352
8,1686274582.301,-64.453,116.699,120.605,-43.457,1288.2,352
9,1686274582.305,3.906,328.613,74.707,30.762,1288.204,352
10,1686274582.309,22.949,-182.129,-83.008,23.926,1288.208,352
11,1686274582.313,-36.621,-191.406,-13.672,-61.523,1288.211,352
12,1686274582.314,-69.824,349.609,155.273,-73.73,1288.223,352
13,1686274582.318,-15.625,273.926,60.547,15.625,1288.227,352
14,1686274582.322,33.691,-60.547,-57.617,35.156,1288.231,352
15,1686274582.326,-13.184,179.199,76.66,-44.922,1288.235,352
16,1686274582.33,-68.848,389.16,131.348,-68.848,1288.239,352
17,1686274582.333,-37.109,-29.297,-70.312,4.395,1288.243,352
18,1686274582.337,21.973,-794.434,-325.684,47.363,1288.247,352
19,1686274582.341,2.441,-368.652,-55.664,-28.32,1288.251,352
20,1686274582.345,-65.43,363.77,133.789,-85.449,1288.255,352
21,1686274582.349,-62.988,113.281,26.855,-28.32,1288.259,352
22,1686274582.353,6.836,143.066,74.707,34.18,1288.263,352
23,1686274582.357,12.207,436.523,153.809,-8.301,1288.266,352
24,1686274582.359,-49.805,346.68,108.398,-76.66,1288.269,352
25,1686274582.363,-62.012,-85.449,-29.785,-42.48,1288.273,352
26,1686274582.367,1.465,-49.316,30.273,32.227,1288.277,352
27,1686274582.371,35.156,340.332,141.602,11.719,1288.281,352
28,1686274582.375,-18.066,322.266,62.988,-65.918,1288.285,352
29,1686274582.378,-65.918,-351.074,-158.203,-44.922,1288.289,352
30,1686274582.382,-22.461,-585.449,-159.668,26.367,1288.292,352
31,1686274582.386,33.203,-102.051,33.203,30.762,1288.296,352
32,1686274582.39,-13.184,168.457,94.727,-53.711,1288.3,352
33,1686274582.394,-91.309,-487.793,-255.371,-83.496,1288.304,352
34,1686274582.398,-61.523,-685.059,-258.789,-10.742,1288.308,352
35,1686274582.402,22.461,305.176,162.598,10.254,1288.312,352
36,1686274582.418,10.254,269.531,22.949,-45.41,1288.315,352
37,1686274582.422,-48.34,-38.086,-56.641,-83.984,1288.319,352
38,1686274582.426,-37.598,185.547,76.66,-33.691,1288.323,352
39,1686274582.43,30.762,330.566,120.117,30.762,1288.326,352
40,1686274582.434,31.738,-19.531,-54.688,2.93,1288.33,351
41,1686274582.437,-40.527,-595.703,-264.648,-60.547,1288.334,351
42,1686274582.441,-70.801,-266.602,-30.762,-55.176,1288.338,351
43,1686274582.445,-10.254,426.758,197.754,12.207,1288.342,351
44,1686274582.449,27.832,4.395,-93.75,23.438,1288.346,351
45,1686274582.453,-28.809,-486.328,-223.633,-49.805,1288.35,351
46,1686274582.457,-68.359,178.223,129.883,-68.359,1288.354,351
47,1686274582.461,-13.184,448.73,145.508,15.625,1288.358,351
48,1686274582.463,38.086,140.625,32.227,40.039,1288.359,351
49,1686274582.467,-1.953,100.586,48.34,-43.945,1288.363,351
50,1686274582.471,-63.477,327.637,147.461,-89.355,1288.367,351
51,1686274582.475,-33.203,331.055,122.07,-16.602,1288.371,350
52,1686274582.479,37.598,160.645,98.145,39.062,1288.375,350
53,1686274582.482,21.973,-71.289,19.043,-11.23,1288.379,350
54,1686274582.486,-51.758,-222.656,-94.238,-74.707,1288.383,350
55,1686274582.49,-49.316,-121.582,-57.129,-31.738,1288.387,350
56,1686274582.494,27.832,-530.762,-246.094,55.664,1288.391,350
57,1686274582.498,30.762,-1000.0,-354.492,25.391,1288.395,350
58,1686274582.502,-35.645,-175.781,47.852,-79.102,1288.399,350
59,1686274582.506,-61.035,269.531,73.242,-74.219,1288.402,350
60,1686274582.509,-0.488,123.047,28.809,17.09,1288.405,350
61,1686274582.513,44.434,379.883,146.484,27.832,1288.409,350
62,1686274582.517,-6.348,494.141,137.207,-45.898,1288.412,350
63,1686274582.521,-55.664,131.348,-5.371,-52.246,1288.416,350
64,1686274582.525,-23.926,-55.176,-60.547,20.02,1288.42,350
65,1686274582.528,21.973,-26.367,-5.859,38.574,1288.424,350
66,1686274582.532,-5.859,109.863,104.98,-27.832,1288.428,350
67,1686274582.536,-66.406,-29.785,-64.941,-68.848,1288.432,350
68,1686274582.54,-61.035,-591.309,-303.223,-6.348,1288.436,350
69,1686274582.544,9.277,-178.223,35.156,41.992,1288.44,350
70,1686274582.548,20.508,366.699,162.109,-20.996,1288.444,350
71,1686274582.552,-48.828,-107.91,-105.469,-78.125,1288.448,350
72,1686274582.568,-65.918,-306.152,-121.582,-35.156,1288.465,349
73,1686274582.572,10.254,322.266,157.715,26.855,1288.469,349
74,1686274582.576,39.551,397.949,122.559,4.395,1288.473,350
75,1686274582.58,-26.855,125.488,-6.836,-77.148,1288.476,350
76,1686274582.584,-70.312,115.723,43.945,-73.242,1288.48,350
77,1686274582.587,-18.555,44.434,51.27,4.883,1288.484,350
78,1686274582.591,29.297,-73.242,17.09,20.508,1288.488,350
79,1686274582.595,-22.461,-532.227,-227.539,-35.645,1288.492,350
80,1686274582.599,-72.266,-14.648,29.297,-89.355,1288.496,350
81,1686274582.599,-78.125,-838.379,-319.824,-58.594,1288.496,350
82,1686274582.603,-35.156,101.562,114.746,-15.137,1288.5,350
83,1686274582.603,-61.523,407.715,173.34,-56.152,1288.5,350
84,1686274582.607,38.086,396.484,110.84,18.555,1288.504,350
85,1686274582.607,22.461,271.973,61.523,19.531,1288.504,350
86,1686274582.611,11.719,-80.566,-47.363,-31.25,1288.508,350
87,1686274582.611,27.344,-140.137,-66.406,-6.836,1288.508,350
88,1686274582.615,-46.387,49.805,34.18,-83.496,1288.512,350
89,1686274582.618,-69.824,76.66,32.715,-62.988,1288.516,350
90,1686274582.622,2.93,-245.605,-92.773,16.602,1288.52,350
91,1686274582.626,38.086,-154.785,-89.355,15.137,1288.524,350
92,1686274582.63,-20.02,226.562,80.078,-65.43,1288.528,350
93,1686274582.634,-59.57,405.762,148.926,-67.383,1288.532,350
94,1686274582.638,-16.602,-67.383,-72.754,25.879,1288.535,350
95,1686274582.642,30.762,-535.156,-169.434,51.27,1288.539,350
96,1686274582.645,-0.977,139.648,141.602,-45.898,1288.553,349
97,1686274582.649,-62.988,339.844,90.332,-89.355,1288.557,349
98,1686274582.653,-48.828,-112.793,-27.832,-15.137,1288.561,349
99,1686274582.657,16.113,21.484,65.918,27.344,1288.565,349
100,1686274582.661,7.324,355.957,102.539,-38.086,1288.569,349
101,1686274582.664,-65.43,102.051,-1.953,-87.891,1288.573,349
102,1686274582.668,-73.73,-591.797,-282.715,-23.926,1288.576,349
103,1686274582.672,4.395,-865.723,-318.359,46.387,1288.58,349
104,1686274582.676,35.645,21.484,89.844,-6.836,1288.584,349
105,1686274582.68,-25.391,247.559,37.109,-88.867,1288.588,349
106,1686274582.684,-48.34,-42.969,-21.973,-69.336,1288.592,349
107,1686274582.688,7.812,112.305,70.801,16.113,1288.596,349
108,1686274582.689,45.898,312.5,117.676,18.066,1288.6,349
109,1686274582.693,-2.93,189.941,39.551,-70.312,1288.604,349
110,1686274582.697,-62.5,-40.039,-69.824,-78.125,1288.608,349
111,1686274582.701,-25.391,243.652,99.121,13.672,1288.612,349
112,1686274582.705,47.852,318.359,112.305,48.828,1288.616,349
113,1686274582.708,23.926,-151.367,-130.859,-11.719,1288.62,349
114,1686274582.712,-51.27,-762.207,-323.73,-38.086,1288.623,348
115,1686274582.716,-24.902,-230.957,34.668,2.441,1288.627,348
116,1686274582.72,50.781,460.938,189.941,40.527,1288.631,348
117,1686274582.724,22.949,22.461,-53.711,3.418,1288.635,348
118,1686274582.728,-59.082,-110.84,-38.574,-59.082,1288.639,348
119,1686274582.732,-65.918,304.688,141.113,-37.109,1288.643,348
120,1686274582.764,7.812,394.043,156.738,26.367,1288.66,349
121,1686274582.768,19.531,105.469,20.508,6.348,1288.664,349
122,1686274582.772,-47.363,36.133,0.488,-68.848,1288.668,349
123,1686274582.776,-67.871,279.785,119.629,-61.523,1288.672,349
124,1686274582.78,-10.254,340.332,134.766,13.672,1288.676,349
125,1686274582.783,27.832,-26.367,-33.691,26.367,1288.679,349
126,1686274582.787,-14.16,-368.164,-173.34,-46.875,1288.683,349
127,1686274582.791,-71.289,-285.156,-77.637,-81.543,1288.687,349
128,1686274582.793,-63.965,236.816,72.754,-44.434,1288.69,349
129,1686274582.795,-40.039,-38.086,63.477,-17.578,1288.691,349
130,1686274582.797,15.137,95.703,18.066,26.855,1288.694,349
131,1686274582.799,21.973,-495.117,-206.543,28.32,1288.695,349
132,1686274582.801,27.344,326.172,152.344,-13.672,1288.698,349
133,1686274582.803,-11.719,-924.316,-336.914,-33.203,1288.699,349
134,1686274582.805,-47.852,397.461,128.418,-88.867,1288.701,349
135,1686274582.807,-76.172,-69.824,86.914,-99.609,1288.703,349
136,1686274582.809,-69.824,105.957,-0.488,-54.688,1288.705,349
137,1686274582.812,0.977,-239.258,-98.145,28.809,1288.709,349
138,1686274582.816,25.391,-44.434,35.156,8.789,1288.713,349
139,1686274582.82,-37.109,344.238,172.363,-72.754,1288.717,350
140,1686274582.824,-76.66,-11.719,-68.359,-66.406,1288.721,350
141,1686274582.828,-25.391,-269.531,-158.691,15.625,1288.725,350
142,1686274582.832,18.066,42.969,84.473,12.695,1288.729,350
143,1686274582.836,-24.414,290.527,164.062,-74.219,1288.733,350
144,1686274582.838,-83.008,-206.055,-147.949,-86.426,1288.735,350
145,1686274582.842,-66.895,-954.59,-376.465,-8.301,1288.739,350
146,1686274582.846,1.953,-198.242,43.457,14.648,1288.743,350
147,1686274582.85,-6.836,361.328,126.953,-47.363,1288.746,350
148,1686274582.854,-74.219,20.996,-58.594,-86.426,1288.75,350
149,1686274582.857,-73.73,-151.367,-66.895,-39.551,1288.754,350
150,1686274582.861,10.254,-113.281,1.465,28.32,1288.758,350
151,1686274582.865,26.855,14.648,58.105,-4.395,1288.762,350
152,1686274582.869,-55.664,-477.051,-203.613,-72.266,1288.766,350
153,1686274582.873,-81.543,-866.699,-300.293,-46.875,1288.77,350
154,1686274582.877,7.812,126.465,143.555,16.602,1288.774,350
155,1686274582.881,58.594,441.895,130.859,29.297,1288.778,350
156,1686274582.884,-15.625,-233.887,-111.816,-34.18,1288.781,350
157,1686274582.888,-84.473,-105.469,-1.465,-67.871,1288.785,350
158,1686274582.892,-41.504,489.746,195.312,-13.672,1288.789,350
159,1686274582.896,11.719,289.551,33.691,13.672,1288.793,350
160,1686274582.9,-35.156,-171.875,-76.172,-55.664,1288.797,350
161,1686274582.903,-108.398,-99.609,12.207,-102.051,1288.801,350
162,1686274582.907,-86.426,55.664,73.73,-35.645,1288.804,350
163,1686274582.911,-23.438,-141.113,-70.312,13.184,1288.808,350
164,1686274582.915,-38.574,-456.543,-195.312,-37.109,1288.812,350
165,1686274582.919,-88.867,64.941,100.098,-94.727,1288.816,350
166,1686274582.923,-85.938,460.938,161.133,-46.387,1288.82,350
167,1686274582.927,-30.762,207.031,74.219,15.625,1288.824,350
168,1686274582.929,-7.812,173.34,77.637,-19.043,1288.825,350
169,1686274582.933,-64.453,370.605,117.188,-87.402,1288.829,350
170,1686274582.937,-97.168,272.949,79.59,-69.336,1288.832,350
171,1686274582.941,-33.691,-21.484,-4.395,11.23,1288.836,350
172,1686274582.945,24.902,83.008,40.527,11.719,1288.84,350
173,1686274582.948,-19.531,40.039,4.883,-62.988,1288.844,350
174,1686274582.952,-81.055,-100.586,10.254,-77.148,1288.848,350
175,1686274582.956,-48.828,-533.203,-188.965,6.836,1288.852,350
176,1686274582.96,7.812,-957.52,-310.059,48.828,1288.856,350
177,1686274582.964,-14.16,-63.477,78.613,-29.785,1288.86,350
178,1686274582.968,-74.219,301.27,62.5,-80.078,1288.864,350
179,1686274582.972,-54.688,53.711,8.301,-22.949,1288.868,351
180,1686274582.974,27.344,303.223,113.77,35.645,1288.87,351
181,1686274582.978,21.484,500.977,176.758,-13.184,1288.874,351
182,1686274582.982,-55.176,199.219,17.09,-67.383,1288.878,351
183,1686274582.986,-58.105,13.672,-52.734,-29.297,1288.882,351
184,1686274582.99,15.137,276.855,106.445,31.25,1288.886,351
185,1686274582.993,36.133,141.602,50.293,20.996,1288.89,351
186,1686274582.997,-22.461,-256.836,-182.129,-46.387,1288.894,351
187,1686274583.001,-61.035,-841.309,-385.742,-24.414,1288.897,351
188,1686274583.005,-5.859,-290.527,15.625,34.18,1288.901,351
189,1686274583.009,52.734,452.148,175.781,20.508,1288.905,351
190,1686274583.013,-1.465,115.723,-2.93,-44.434,1288.909,351
191,1686274583.017,-64.453,93.75,59.57,-55.664,1288.913,351
192,1686274583.018,-15.625,407.227,164.062,29.297,1288.928,351
193,1686274583.022,53.711,437.988,135.742,56.641,1288.932,351
194,1686274583.026,25.391,95.703,-9.277,-11.23,1288.936,351
195,1686274583.03,-38.086,58.105,17.578,-49.316,1288.94,352
196,1686274583.034,-20.996,279.785,105.469,0.0,1288.944,352
197,1686274583.037,59.082,154.785,81.543,63.477,1288.948,352
198,1686274583.041,46.387,-506.836,-220.215,42.48,1288.952,351
199,1686274583.045,-48.828,-776.855,-349.121,-32.227,1288.956,351
200,1686274583.049,-57.617,-123.047,39.062,-35.156,1288.96,351
201,1686274583.053,14.16,200.684,78.125,39.062,1288.964,351
202,1686274583.057,37.598,-224.121,-79.59,41.504,1288.967,352
203,1686274583.061,-19.531,-167.969,20.996,-48.34,1288.971,352
204,1686274583.078,-56.641,367.676,139.648,-60.547,1288.975,352
205,1686274583.082,-4.883,230.469,64.941,26.367,1288.979,352
206,1686274583.086,45.898,109.863,38.086,37.598,1288.983,352
207,1686274583.09,-1.465,246.582,95.703,-40.527,1288.987,352
208,1686274583.094,-58.594,311.035,104.492,-75.195,1288.991,352
209,1686274583.097,-37.598,-144.531,-115.723,-1.953,1288.995,352
210,1686274583.101,28.32,-452.148,-146.973,49.316,1288.999,352
211,1686274583.105,19.531,78.613,113.77,-19.043,1289.003,352
212,1686274583.109,-55.176,348.633,124.023,-69.824,1289.006,352
213,1686274583.109,-40.039,125.488,76.66,-75.684,1289.019,352
214,1686274583.113,-55.176,-73.242,-71.289,-16.113,1289.01,352
215,1686274583.113,-81.055,-212.891,-70.801,-51.27,1289.023,352
216,1686274583.117,17.09,-344.727,-187.5,33.691,1289.014,352
217,1686274583.117,-8.301,-255.859,-62.012,27.344,1289.027,352
218,1686274583.121,35.156,-76.66,-16.113,-10.254,1289.018,352
219,1686274583.121,40.039,328.613,168.457,14.16,1289.031,352
220,1686274583.125,-14.648,301.758,86.426,-62.988,1289.034,352
221,1686274583.128,-89.355,-153.809,-101.562,-76.66,1289.038,352
222,1686274583.132,-54.199,-305.176,-66.895,-5.371,1289.042,352
223,1686274583.136,18.555,-102.539,36.133,29.297,1289.046,352
224,1686274583.14,-16.113,159.668,68.848,-45.41,1289.05,352
225,1686274583.144,-83.496,-452.148,-228.027,-69.824,1289.054,352
226,1686274583.148,-61.523,-812.012,-250.488,-1.465,1289.058,352
227,1686274583.152,24.414,190.43,168.945,22.949,1289.062,352
228,1686274583.169,18.066,286.621,47.852,-19.531,1289.066,352
229,1686274583.173,-62.5,-214.355,-144.531,-66.895,1289.07,352
230,1686274583.177,-64.941,7.324,27.832,-34.668,1289.074,352
231,1686274583.181,9.766,458.984,193.359,19.043,1289.078,351
232,1686274583.185,19.531,239.746,6.348,-3.906,1289.081,351
233,1686274583.188,-47.363,-549.805,-267.09,-65.43,1289.085,351
234,1686274583.192,-65.918,-359.863,-47.363,-58.105,1289.089,351
235,1686274583.196,5.371,412.109,194.824,24.902,1289.093,351
236,1686274583.2,36.621,57.617,-89.844,32.227,1289.097,351
237,1686274583.204,-22.949,-483.887,-232.422,-58.594,1289.101,351
238,1686274583.208,-73.242,54.199,98.633,-89.844,1289.105,351
239,1686274583.212,-30.762,332.52,110.84,-2.93,1289.109,351
240,1686274583.214,26.855,96.191,1.465,30.273,1289.11,351
241,1686274583.218,-6.348,79.59,25.879,-53.223,1289.114,351
242,1686274583.222,-64.941,255.371,118.652,-97.656,1289.118,352
243,1686274583.226,-40.527,226.562,72.754,-19.043,1289.122,352
244,1686274583.23,31.738,-89.844,-71.777,45.41,1289.126,352
245,1686274583.233,28.32,-265.625,-117.676,-4.395,1289.13,351
246,1686274583.237,-47.852,-227.051,-147.461,-77.148,1289.133,351
247,1686274583.241,-69.824,-111.816,-86.914,-53.711,1289.137,351
248,1686274583.245,-4.883,-507.812,-250.977,24.902,1289.141,351
249,1686274583.249,10.254,-953.125,-355.469,12.695,1289.145,351
250,1686274583.253,-45.898,-125.488,54.688,-67.383,1289.149,351
251,1686274583.257,-76.66,254.883,75.195,-54.688,1289.153,351
252,1686274583.274,-23.438,121.582,13.672,26.367,1289.169,351
253,1686274583.278,25.391,323.73,114.746,20.996,1289.173,351
254,1686274583.282,-20.508,416.992,148.438,-68.359,1289.177,351
255,1686274583.286,-70.312,179.688,31.25,-91.797,1289.181,351
256,1686274583.29,-35.156,26.367,-38.574,-25.391,1289.185,351
257,1686274583.293,30.273,-24.414,3.906,21.484,1289.189,351
258,1686274583.297,10.742,-113.281,-9.277,-28.809,1289.193,351
259,1686274583.301,-48.34,-266.113,-194.824,-68.848,1289.197,351
260,1686274583.303,-52.734,73.73,58.594,-59.57,1289.2,351
261,1686274583.305,-44.434,-815.918,-369.141,0.977,1289.201,351
262,1686274583.307,16.602,430.176,169.922,26.855,1289.204,351
263,1686274583.309,37.109,-221.191,23.926,54.688,1289.205,351
264,1686274583.311,49.805,439.453,121.582,18.555,1289.208,351
265,1686274583.313,57.617,468.75,154.297,4.395,1289.209,351
266,1686274583.315,-15.625,106.445,1.465,-64.453,1289.212,351
267,1686274583.317,-23.926,75.684,-22.461,-78.613,1289.212,351
268,1686274583.319,-59.082,17.578,-8.789,-74.219,1289.216,351
269,1686274583.322,-8.301,41.992,44.434,16.113,1289.219,351
270,1686274583.326,32.715,-99.121,-7.324,32.227,1289.223,351
271,1686274583.33,-2.441,-283.691,-87.402,-49.316,1289.227,351
272,1686274583.334,-61.035,-130.859,-8.301,-83.496,1289.231,351
273,1686274583.338,-45.898,42.969,55.176,-23.438,1289.235,351
274,1686274583.342,24.902,201.66,88.867,16.113,1289.239,351
275,1686274583.346,2.441,-398.926,-229.492,-24.902,1289.243,351
276,1686274583.348,-79.102,-1000.0,-390.625,-68.359,1289.259,351
277,1686274583.352,-63.477,-116.211,86.914,-46.387,1289.263,351
278,1686274583.356,22.461,276.855,98.145,16.113,1289.267,351
279,1686274583.36,32.715,104.004,-0.977,-15.137,1289.271,350
280,1686274583.364,-32.227,256.836,61.523,-86.914,1289.275,350
281,1686274583.367,-52.734,121.582,25.391,-52.246,1289.279,350
282,1686274583.371,-2.93,-211.426,-90.332,26.367,1289.283,350
283,1686274583.375,23.926,-479.492,-196.777,5.371,1289.287,351
284,1686274583.379,-27.344,5.859,41.992,-81.543,1289.29,351
285,1686274583.383,-76.172,381.836,114.258,-90.332,1289.294,351
286,1686274583.387,-27.344,132.812,28.32,-14.16,1289.298,351
287,1686274583.391,35.156,-46.875,-10.254,8.789,1289.302,351
288,1686274583.394,-4.395,82.52,50.293,-65.918,1289.294,351
289,1686274583.398,-70.312,321.777,116.211,-106.934,1289.298,351
290,1686274583.402,-53.223,-166.504,-58.105,-32.715,1289.301,350
291,1686274583.406,27.832,-253.418,-34.18,16.602,1289.305,350
292,1686274583.41,30.762,276.367,118.652,-38.574,1289.309,350
293,1686274583.413,-42.969,42.48,2.441,-89.355,1289.313,350
294,1686274583.417,-45.41,-373.047,-115.234,-31.25,1289.317,350
295,1686274583.421,14.16,-262.207,9.766,28.32,1289.321,350
296,1686274583.425,18.555,206.055,119.141,-20.996,1289.325,351
297,1686274583.429,-41.992,388.184,93.75,-79.59,1289.329,351
298,1686274583.433,-75.195,-443.359,-220.703,-34.18,1289.333,351
299,1686274583.437,-19.043,-661.621,-174.805,53.711,1289.337,351
300,1686274583.453,35.645,403.809,225.586,27.344,1289.35,352
301,1686274583.457,-9.277,359.863,76.66,-55.176,1289.354,352
302,1686274583.461,-56.641,-121.094,-48.828,-62.5,1289.358,352
303,1686274583.465,-11.23,162.109,114.746,7.324,1289.362,352
304,1686274583.469,55.664,491.211,183.105,35.156,1289.366,353
305,1686274583.472,34.668,44.922,-53.223,-9.277,1289.37,353
306,1686274583.476,-34.668,-803.223,-329.59,-16.113,1289.374,353
307,1686274583.48,-19.531,-370.605,-36.133,25.391,1289.377,353
308,1686274583.484,69.824,535.645,214.355,67.383,1289.381,354
309,1686274583.488,72.754,255.371,36.621,31.738,1289.385,354
310,1686274583.492,-8.301,117.676,29.785,-41.016,1289.389,354
311,1686274583.496,-18.066,365.723,142.578,-21.484,1289.393,355
312,1686274583.499,59.082,450.684,170.41,54.199,1289.399,355
313,1686274583.503,69.824,252.441,117.188,49.316,1289.403,355
314,1686274583.507,-4.883,166.504,81.543,-42.48,1289.407,357
315,1686274583.511,-27.832,352.539,124.512,-41.016,1289.411,357
316,1686274583.515,24.902,290.039,82.52,44.922,1289.415,357
317,1686274583.518,56.641,-212.891,-57.129,61.523,1289.419,357
318,1686274583.522,17.09,-422.852,-66.406,-8.301,1289.423,359
319,1686274583.526,-36.133,-210.938,-10.254,-43.457,1289.427,359
320,1686274583.53,-7.324,-37.598,69.336,18.555,1289.431,359
321,1686274583.534,50.293,-535.645,-175.781,70.801,1289.434,359
322,1686274583.538,20.996,-780.762,-264.648,20.02,1289.438,363
323,1686274583.542,-41.504,91.309,80.078,-54.199,1289.442,363
324,1686274583.544,-37.109,150.391,41.992,-13.672,1289.441,363
325,1686274583.548,41.016,72.754,70.312,46.875,1289.444,363
326,1686274583.552,57.617,345.215,138.184,13.672,1289.448,365
327,1686274583.556,-27.344,442.871,169.922,-63.477,1289.452,365
328,1686274583.56,-50.293,190.43,61.523,-41.504,1289.456,365
329,1686274583.563,19.043,-160.156,-50.781,54.199,1289.46,369
330,1686274583.567,47.852,26.855,66.406,39.062,1289.464,369
331,1686274583.571,-14.648,145.996,76.66,-56.641,1289.468,369
332,1686274583.575,-59.57,-189.941,-91.797,-47.852,1289.472,369
333,1686274583.579,-8.301,-842.773,-319.824,56.641,1289.476,374
334,1686274583.583,49.316,-336.914,-2.441,53.711,1289.48,374
335,1686274583.587,16.113,469.727,194.336,-39.062,1289.484,374
336,1686274583.603,-49.805,124.023,39.062,-64.941,1289.5,379
337,1686274583.607,-36.621,134.277,102.539,0.977,1289.504,385
338,1686274583.611,31.25,494.629,185.547,51.758,1289.507,385
339,1686274583.615,21.973,453.125,160.156,-1.465,1289.511,385
340,1686274583.619,-45.898,69.336,22.461,-63.477,1289.515,390
341,1686274583.622,-53.223,-91.797,-5.371,-20.996,1289.519,390
342,1686274583.626,17.578,-41.016,59.57,51.758,1289.523,390
343,1686274583.63,41.504,53.223,69.336,11.719,1289.527,390
344,1686274583.634,-27.344,-457.031,-185.547,-59.57,1289.531,396
345,1686274583.634,-1.465,-5.371,23.438,-63.477,1289.53,396
346,1686274583.638,-67.383,-839.355,-281.25,-33.691,1289.535,396
347,1686274583.638,-56.641,155.273,128.418,-81.543,1289.534,396
348,1686274583.642,-4.883,-38.086,118.164,15.625,1289.539,396
349,1686274583.642,-20.508,495.117,202.148,-0.977,1289.537,396
350,1686274583.646,43.457,318.848,137.695,5.859,1289.543,402
351,1686274583.646,36.133,335.938,105.469,24.414,1289.541,402
352,1686274583.65,8.301,132.324,51.758,-41.504,1289.545,402
353,1686274583.653,-45.898,2.441,43.945,-71.289,1289.549,402
354,1686274583.657,-37.109,134.766,113.281,-12.207,1289.553,402
355,1686274583.661,21.973,75.684,7.324,41.016,1289.557,409
356,1686274583.665,31.738,-103.027,-78.613,-8.301,1289.561,409
357,1686274583.669,-38.574,268.066,115.234,-69.824,1289.565,409
358,1686274583.673,-75.195,480.957,163.086,-42.48,1289.569,409
359,1686274583.677,-15.137,-48.828,-59.082,20.996,1289.573,415
360,1686274583.679,-3.418,-719.238,-291.504,0.0,1289.579,415
361,1686274583.683,-65.918,-108.887,28.809,-86.914,1289.583,415
362,1686274583.687,-83.984,380.859,144.043,-71.289,1289.586,423
363,1686274583.691,-28.809,-73.73,-2.93,15.625,1289.59,423
364,1686274583.695,22.949,-139.648,14.16,11.719,1289.594,423
365,1686274583.698,-8.301,55.176,42.48,-63.477,1289.598,423
366,1686274583.702,-56.152,-20.02,31.738,-80.078,1289.602,423
367,1686274583.706,-25.391,-512.207,-178.711,11.23,1289.606,430
368,1686274583.71,24.902,-811.523,-240.723,60.059,1289.61,430
369,1686274583.714,10.254,99.609,109.375,-33.691,1289.614,430
370,1686274583.718,-42.48,311.035,62.012,-85.449,1289.618,437
371,1686274583.722,-25.879,110.84,42.48,-25.391,1289.622,437
372,1686274583.723,49.316,356.934,152.832,39.062,1289.62,437
373,1686274583.727,51.27,549.805,200.195,7.324,1289.624,437
374,1686274583.731,-30.762,192.383,30.273,-63.477,1289.628,442
375,1686274583.735,-61.523,-206.543,-110.352,-41.504,1289.632,442
376,1686274583.739,15.625,110.352,79.59,27.344,1289.636,442
377,1686274583.742,45.41,113.77,76.172,18.066,1289.639,442
378,1686274583.746,-16.113,-249.512,-131.836,-41.504,1289.643,447
379,1686274583.75,-59.082,-814.453,-371.094,-26.367,1289.647,447
380,1686274583.754,-7.812,-338.867,-23.926,31.738,1289.651,447
381,1686274583.758,49.805,457.52,185.059,24.902,1289.655,451
382,1686274583.762,1.953,125.977,-3.418,-39.551,1289.659,451
383,1686274583.766,-60.059,22.461,30.762,-71.289,1289.663,451
384,1686274583.769,-28.32,335.449,139.16,-10.254,1289.665,454
385,1686274583.773,37.109,434.082,161.133,36.133,1289.669,454
386,1686274583.777,16.602,138.672,17.578,-20.508,1289.672,454
387,1686274583.781,-59.57,75.195,42.969,-66.895,1289.676,454
388,1686274583.785,-50.781,211.426,93.75,-13.184,1289.68,454
389,1686274583.788,30.273,44.434,28.32,49.805,1289.684,455
390,1686274583.792,30.762,-500.488,-219.727,16.113,1289.688,455
391,1686274583.796,-40.527,-836.914,-366.699,-49.805,1289.692,455
392,1686274583.8,-59.57,-119.141,38.086,-49.316,1289.696,454
393,1686274583.804,12.207,354.492,127.93,22.949,1289.7,454
394,1686274583.808,46.387,-375.488,-182.129,30.273,1289.704,454
395,1686274583.812,-19.043,-412.598,-68.848,-62.988,1289.708,454
396,1686274583.828,-60.059,396.973,193.848,-87.891,1289.725,452
397,1686274583.832,-5.859,303.711,72.754,-1.465,1289.729,452
398,1686274583.836,51.758,86.426,-0.488,29.297,1289.733,452
399,1686274583.84,8.789,249.512,95.215,-51.27,1289.737,450
400,1686274583.844,-59.57,358.887,110.352,-83.496,1289.741,450
401,1686274583.847,-39.551,-53.223,-84.473,11.23,1289.745,450
402,1686274583.851,23.926,-568.359,-210.938,63.965,1289.749,450
403,1686274583.855,6.836,-100.098,21.484,-26.855,1289.752,447
404,1686274583.859,-62.5,161.621,44.922,-89.355,1289.756,447
405,1686274583.863,-63.477,-365.234,-184.57,-28.32,1289.76,447
406,1686274583.867,13.184,-266.113,-108.398,43.945,1289.764,445
407,1686274583.871,31.738,373.535,171.875,7.324,1289.768,445
408,1686274583.874,-38.086,349.121,86.426,-68.359,1289.769,445
409,1686274583.878,-63.965,20.508,-26.855,-52.246,1289.773,445
410,1686274583.882,5.859,114.258,37.598,31.738,1289.777,440
411,1686274583.886,48.34,369.141,130.859,34.18,1289.781,440
412,1686274583.89,-4.883,311.523,54.688,-52.734,1289.785,440
413,1686274583.893,-64.453,-239.746,-114.258,-59.082,1289.789,440
414,1686274583.897,-30.762,-391.113,-44.434,15.625,1289.793,437
415,1686274583.901,31.25,-96.68,37.598,26.855,1289.797,437
416,1686274583.905,1.953,164.551,74.707,-47.852,1289.801,437
417,1686274583.909,-65.43,-390.625,-213.379,-75.195,1289.805,432
418,1686274583.913,-54.688,-878.418,-362.793,-9.277,1289.809,432
419,1686274583.917,29.785,-49.805,68.848,36.133,1289.812,432
420,1686274583.934,36.133,202.637,83.008,-11.23,1289.83,429
421,1686274583.938,-44.434,-151.855,-102.051,-68.359,1289.833,423
422,1686274583.942,-63.477,94.238,39.551,-39.551,1289.837,423
423,1686274583.946,9.277,446.289,158.203,17.09,1289.841,423
424,1686274583.95,38.574,257.324,41.504,6.836,1289.845,419
425,1686274583.953,-30.762,-209.961,-177.734,-52.734,1289.849,419
426,1686274583.957,-74.219,-124.023,-47.852,-49.805,1289.853,419
427,1686274583.961,-4.883,386.23,183.594,31.738,1289.857,414
428,1686274583.965,47.363,71.777,-62.988,54.199,1289.861,414
429,1686274583.969,-6.836,-552.734,-260.254,-26.367,1289.865,414
430,1686274583.973,-57.129,26.367,83.496,-72.266,1289.869,414
431,1686274583.977,-28.809,379.883,120.605,-2.93,1289.873,414
432,1686274583.994,37.598,64.941,-14.16,41.504,1289.891,405
433,1686274583.998,29.785,-49.805,-19.043,-26.855,1289.895,405
434,1686274584.002,-44.434,65.43,44.922,-74.707,1289.899,400
435,1686274584.006,-32.715,322.266,129.395,-13.672,1289.903,400
436,1686274584.009,-5.859,-485.84,-215.332,51.27,1289.905,400
437,1686274584.01,37.109,-100.098,-27.344,58.594,1289.907,400
438,1686274584.013,29.785,-468.75,-144.043,17.578,1289.91,400
439,1686274584.013,51.758,-730.957,-205.078,78.125,1289.909,400
440,1686274584.017,-43.945,-192.871,-57.617,-66.406,1289.914,400
441,1686274584.017,14.648,222.656,171.875,-23.926,1289.913,400
442,1686274584.021,-63.477,-158.691,-25.391,-47.852,1289.918,395
443,1686274584.021,-44.434,173.34,12.207,-39.551,1289.917,395
444,1686274584.025,-16.113,-133.789,-55.664,25.391,1289.921,395
445,1686274584.025,14.16,-183.105,-37.109,32.227,1289.922,395
446,1686274584.028,52.246,-79.102,7.812,44.434,1289.925,395
447,1686274584.029,51.758,86.426,63.965,27.832,1289.926,395
448,1686274584.032,40.039,162.109,93.75,-24.414,1289.928,390
449,1686274584.033,-24.902,264.648,104.004,-54.199,1289.93,390
450,1686274584.036,-41.992,3.906,-52.246,-63.477,1289.932,390
451,1686274584.037,-68.848,272.461,82.031,-61.523,1289.934,390
452,1686274584.04,-59.57,-406.25,-192.383,-7.812,1289.936,390
453,1686274584.044,21.973,159.18,141.602,40.039,1289.94,390
454,1686274584.048,46.875,480.957,151.367,8.789,1289.944,386
455,1686274584.052,-33.691,-67.871,-73.242,-58.105,1289.948,386
456,1686274584.054,-60.547,-197.754,-54.688,-41.504,1289.964,386
457,1686274584.058,11.23,281.25,123.535,32.715,1289.968,386
458,1686274584.062,48.34,451.66,155.273,21.973,1289.972,381
459,1686274584.066,-10.254,-265.137,-153.32,-45.41,1289.976,381
460,1686274584.07,-65.43,-759.766,-290.039,-53.711,1289.98,381
461,1686274584.073,-23.926,-242.188,-40.527,0.0,1289.984,375
462,1686274584.077,37.598,-53.223,20.996,28.32,1289.987,375
463,1686274584.081,2.93,-442.383,-205.566,-24.414,1289.991,375
464,1686274584.085,-76.172,-1000.0,-432.617,-53.223,1289.995,375
465,1686274584.089,-42.969,-217.773,13.672,-10.742,1289.999,370
466,1686274584.093,46.875,422.363,136.719,25.391,1290.003,370
467,1686274584.097,34.18,150.879,13.672,-29.785,1290.007,370
468,1686274584.113,-49.805,304.199,112.793,-90.332,1290.01,360
469,1686274584.117,-63.477,521.484,191.895,-39.062,1290.014,360
470,1686274584.121,14.648,342.285,76.66,38.086,1290.018,360
471,1686274584.125,34.18,74.219,-37.598,6.836,1290.022,360
472,1686274584.129,-24.902,208.496,41.504,-66.895,1290.025,355
473,1686274584.132,-49.316,118.652,34.18,-50.781,1290.029,355
474,1686274584.136,3.418,-175.781,-83.496,34.668,1290.033,355
475,1686274584.14,34.668,-557.129,-204.102,39.062,1290.037,355
476,1686274584.144,-9.277,-139.16,30.273,-61.523,1290.041,350
477,1686274584.144,5.371,-5.859,62.012,-41.016,1290.04,350
478,1686274584.148,-52.734,208.984,105.469,-88.867,1290.045,350
479,1686274584.148,-58.594,369.141,111.816,-92.285,1290.044,350
480,1686274584.152,-14.648,-224.609,-140.625,1.953,1290.049,350
481,1686274584.152,-39.551,39.551,-17.578,-22.949,1290.047,350
482,1686274584.156,46.387,-611.816,-255.371,46.875,1290.053,346
483,1686274584.156,31.738,175.781,67.383,35.645,1290.051,346
484,1686274584.16,36.133,371.094,107.422,-10.254,1290.055,346
485,1686274584.163,-36.133,15.137,-49.805,-73.242,1290.059,346
486,1686274584.167,-51.27,-231.445,-109.375,-37.109,1290.063,346
487,1686274584.171,23.438,-148.926,-5.859,39.062,1290.067,342
488,1686274584.175,49.805,104.492,88.867,17.09,1290.071,342
489,1686274584.179,-18.555,376.953,103.516,-74.219,1290.075,342
490,1686274584.183,-63.965,-390.625,-229.492,-58.105,1290.079,338
491,1686274584.187,-15.625,-871.582,-312.988,28.809,1290.083,338
492,1686274584.189,39.062,18.066,89.355,15.137,1290.098,338
493,1686274584.193,0.977,263.672,46.387,-64.453,1290.102,338
494,1686274584.197,-61.035,-164.062,-61.523,-84.473,1290.106,338
495,1686274584.201,-25.391,133.301,106.445,-22.949,1290.11,334
496,1686274584.205,41.016,513.672,157.715,15.137,1290.114,334
497,1686274584.208,15.137,34.18,-80.566,-28.809,1290.118,334
498,1686274584.212,-54.688,-623.535,-260.742,-69.824,1290.122,331
499,1686274584.216,-45.41,-27.344,82.52,-29.297,1290.126,331
500,1686274584.22,30.273,558.105,182.617,29.785,1290.13,331
501,1686274584.224,41.504,194.336,11.719,-4.883,1290.134,328
502,1686274584.228,-27.344,92.773,32.227,-76.66,1290.137,328
503,1686274584.232,-59.082,384.277,140.625,-54.199,1290.141,328
504,1686274584.249,2.93,491.211,146.973,30.762,1290.148,325
505,1686274584.253,47.852,222.656,43.945,23.438,1290.152,323
506,1686274584.257,-12.695,-113.77,-53.223,-56.641,1290.156,323
507,1686274584.261,-63.965,85.938,64.453,-58.105,1290.16,323
508,1686274584.265,-2.93,429.688,162.598,18.066,1290.164,321
509,1686274584.268,44.434,-289.062,-141.113,56.641,1290.168,321
510,1686274584.272,-11.719,-854.004,-328.125,-6.836,1290.172,321
511,1686274584.276,-67.383,-244.141,-58.594,-69.336,1290.176,321
512,1686274584.28,-29.297,281.25,99.121,-11.23,1290.179,321
513,1686274584.284,26.367,-303.711,-147.461,47.852,1290.183,320
514,1686274584.288,4.883,-459.473,-112.793,-12.207,1290.187,320
515,1686274584.292,-44.922,351.074,158.203,-79.59,1290.191,320
516,1686274584.294,-47.852,271.973,66.406,-34.668,1290.19,318
517,1686274584.298,15.137,153.809,71.777,28.809,1290.194,318
518,1686274584.302,27.344,345.215,134.766,-1.953,1290.197,318
519,1686274584.306,-37.109,403.809,114.258,-69.336,1290.201,317
520,1686274584.31,-60.547,120.117,7.812,-42.969,1290.205,317
521,1686274584.313,-0.488,-160.645,-72.754,42.969,1290.209,317
522,1686274584.317,33.691,-138.184,-23.438,27.344,1290.213,317
523,1686274584.321,-20.02,109.375,100.098,-65.43,1290.217,317
524,1686274584.325,-68.359,-3.906,-59.082,-71.289,1290.221,315
525,1686274584.329,-32.227,-786.621,-335.449,23.926,1290.225,315
526,1686274584.333,34.668,-212.891,44.434,39.062,1290.229,315
527,1686274584.337,9.766,467.285,178.711,-41.992,1290.233,315
528,1686274584.338,-63.477,64.941,2.441,-74.707,1290.235,315
529,1686274584.342,-43.457,57.617,32.227,-12.695,1290.239,315
530,1686274584.346,43.457,414.551,147.461,47.852,1290.243,315
531,1686274584.35,29.785,432.129,126.953,-7.324,1290.246,315
532,1686274584.354,-62.988,109.863,1.953,-81.055,1290.25,315
533,1686274584.357,-74.707,-75.684,2.441,-37.598,1290.254,315
534,1686274584.361,11.23,-82.52,28.809,39.062,1290.258,315
535,1686274584.365,43.457,-20.996,41.016,21.973,1290.262,314
536,1686274584.369,-29.785,-453.613,-190.918,-49.316,1290.266,314
537,1686274584.373,-82.52,-1000.0,-378.418,-36.621,1290.27,314
538,1686274584.377,-21.973,-143.066,63.965,19.043,1290.274,314
539,1686274584.381,34.668,377.441,93.75,15.625,1290.278,314
540,1686274584.384,-15.137,32.227,-39.551,-47.852,1290.28,314
541,1686274584.388,-69.336,257.324,124.512,-60.547,1290.284,314
542,1686274584.392,-26.855,498.047,168.457,13.672,1290.288,314
543,1686274584.396,46.387,353.027,64.453,41.992,1290.292,314
544,1686274584.4,9.277,59.082,-52.734,-23.926,1290.296,314
545,1686274584.403,-63.965,-105.469,-63.965,-68.848,1290.3,314
546,1686274584.407,-35.156,66.406,77.637,-15.137,1290.304,314
547,1686274584.411,47.363,47.852,-17.578,37.598,1290.308,314
548,1686274584.415,35.156,-496.582,-227.051,-5.371,1290.311,314
549,1686274584.419,-44.434,-142.09,3.418,-77.637,1290.315,314
550,1686274584.423,-60.059,132.324,54.688,-52.246,1290.319,314
551,1686274584.427,12.207,-243.652,-109.863,31.738,1290.323,314
552,1686274584.429,37.109,-191.406,-91.309,19.043,1290.325,314
553,1686274584.433,-22.461,351.074,142.09,-71.777,1290.329,316
554,1686274584.437,-60.547,325.195,97.656,-82.031,1290.333,316
555,1686274584.441,-17.578,84.473,12.695,1.953,1290.337,316
556,1686274584.445,32.227,178.223,65.918,27.832,1290.341,320
557,1686274584.448,-14.16,44.922,23.438,-47.363,1290.345,320
558,1686274584.452,-69.824,-112.793,-57.617,-73.73,1290.348,320
559,1686274584.456,-40.039,-536.621,-270.02,11.719,1290.352,320
560,1686274584.46,19.043,-948.73,-304.199,40.527,1290.356,322
561,1686274584.464,18.066,-62.012,88.867,-41.016,1290.36,322
562,1686274584.468,-48.34,314.453,69.336,-89.355,1290.364,322
563,1686274584.472,-52.734,89.355,13.672,-44.434,1290.368,322
564,1686274584.474,28.809,181.641,62.012,15.625,1290.374,329
565,1686274584.478,32.227,248.047,72.266,-23.926,1290.378,329
566,1686274584.482,-45.898,143.066,15.137,-83.496,1290.382,329
567,1686274584.486,-76.66,-143.066,-54.688,-57.617,1290.386,333
568,1686274584.49,-16.113,91.797,58.105,-0.488,1290.39,333
569,1686274584.493,15.625,163.574,41.504,-6.348,1290.394,333
570,1686274584.497,-38.574,-170.41,-108.398,-81.055,1290.398,333
571,1686274584.501,-88.379,-584.473,-242.188,-87.891,1290.402,334
572,1686274584.505,-30.273,-45.41,67.383,-14.16,1290.406,334
573,1686274584.509,43.457,470.215,155.273,7.324,1290.41,334
574,1686274584.513,1.465,67.871,-16.113,-57.129,1290.413,334
575,1686274584.517,-69.336,8.789,7.812,-93.262,1290.417,338
576,1686274584.519,-41.992,356.934,146.973,-31.738,1290.444,338
577,1686274584.523,34.668,435.059,150.879,22.949,1290.448,338
578,1686274584.527,14.16,115.723,2.441,-31.738,1290.452,342
579,1686274584.531,-65.43,-169.922,-50.293,-88.867,1290.456,342
580,1686274584.535,-67.383,62.5,47.852,-46.875,1290.46,342
581,1686274584.538,2.93,160.156,104.492,12.695,1290.463,342
582,1686274584.542,12.207,-429.688,-191.895,-6.348,1290.467,342
583,1686274584.546,-66.895,-1000.0,-501.465,-64.941,1290.471,345
584,1686274584.55,-92.773,-363.281,-77.637,-74.219,1290.475,345
585,1686274584.554,-15.625,339.844,135.254,-7.324,1290.479,345
586,1686274584.558,27.344,51.27,-36.133,-3.418,1290.483,349
587,1686274584.562,-23.926,167.969,51.758,-79.59,1290.487,349
588,1686274584.563,-67.383,398.926,135.742,-85.938,1290.474,349
589,1686274584.567,-24.902,231.934,64.453,-8.301,1290.478,351
590,1686274584.571,27.832,117.188,27.344,22.949,1290.482,351
591,1686274584.575,-1.465,321.289,111.328,-45.898,1290.486,351
592,1686274584.579,-61.035,351.074,95.703,-83.008,1290.49,351
593,1686274584.582,-52.246,-58.594,-50.293,-21.973,1290.494,351
594,1686274584.586,16.602,-495.605,-164.551,34.668,1290.498,354
595,1686274584.59,23.438,-212.402,0.488,-20.508,1290.502,354
596,1686274584.594,-45.41,335.449,168.945,-96.191,1290.505,354
597,1686274584.598,-58.105,8.301,-70.312,-51.758,1290.509,352
598,1686274584.602,8.789,-162.598,-97.656,22.461,1290.513,352
599,1686274584.606,37.598,365.234,158.691,-0.488,1290.517,352
600,1686274584.624,-24.902,501.465,164.551,-71.289,1290.52,354
601,1686274584.628,-70.312,-171.387,-117.676,-58.594,1290.523,353
602,1686274584.632,-11.23,-492.188,-190.918,20.02,1290.527,353
603,1686274584.636,42.969,288.086,149.414,12.207,1290.531,353
604,1686274584.64,-5.859,421.875,128.418,-62.5,1290.535,355
605,1686274584.643,-73.73,-64.453,-57.129,-71.777,1290.539,355
606,1686274584.647,-38.086,-264.16,-83.496,1.953,1290.543,355
607,1686274584.651,32.715,-47.852,35.645,34.668,1290.547,354
608,1686274584.655,17.578,114.746,70.801,-33.203,1290.551,354
609,1686274584.659,-48.34,-468.75,-212.891,-66.406,1290.555,354
610,1686274584.663,-46.387,-952.637,-306.152,-2.441,1290.559,354
611,1686274584.667,51.27,37.109,122.559,47.363,1290.562,354
612,1686274584.669,49.805,416.504,122.07,-1.465,1290.579,354
613,1686274584.673,-61.035,131.348,64.453,-89.355,1290.583,354
614,1686274584.677,-74.707,315.918,157.227,-67.383,1290.587,354
615,1686274584.681,6.836,514.648,188.965,5.859,1290.591,353
616,1686274584.685,28.32,335.938,62.988,-7.812,1290.595,353
617,1686274584.688,-36.133,-150.391,-100.586,-69.336,1290.599,353
618,1686274584.692,-88.867,-78.613,29.297,-87.402,1290.603,353
619,1686274584.696,-41.016,424.316,222.656,-28.32,1290.606,351
620,1686274584.7,18.066,160.156,3.418,7.324,1290.61,351
621,1686274584.704,-20.508,-497.07,-214.355,-48.34,1290.614,351
622,1686274584.708,-72.754,-46.875,51.758,-90.332,1290.618,351
623,1686274584.712,-44.434,216.309,127.441,-19.531,1290.622,351
624,1686274584.713,27.832,-238.77,-77.148,41.016,1290.625,351
625,1686274584.717,10.254,-218.262,-98.145,-14.648,1290.628,351
626,1686274584.721,-60.059,302.734,147.949,-68.359,1290.632,349
627,1686274584.725,-47.363,319.336,127.441,-15.625,1290.636,349
628,1686274584.729,23.926,141.113,97.656,45.41,1290.64,349
629,1686274584.732,23.926,-33.691,41.992,8.789,1290.644,349
630,1686274584.736,-42.48,-74.707,2.441,-57.129,1290.648,347
631,1686274584.74,-56.641,-54.688,18.066,-32.227,1290.652,347
632,1686274584.744,10.742,-330.078,-47.852,48.34,1290.656,347
633,1686274584.748,47.363,-104.492,57.129,36.133,1290.66,344
634,1686274584.752,-6.348,378.418,166.016,-46.875,1290.664,344
635,1686274584.756,-57.129,328.613,91.797,-52.734,1290.668,344
636,1686274584.759,-22.949,-394.531,-175.781,35.156,1290.658,344
637,1686274584.763,29.297,-582.52,-166.016,53.711,1290.662,340
638,1686274584.767,0.488,139.648,106.445,-23.438,1290.666,340
639,1686274584.771,-57.129,208.496,31.738,-56.152,1290.67,340
640,1686274584.775,-45.898,-467.285,-179.199,11.23,1290.674,340
641,1686274584.778,33.691,-515.137,-91.309,55.664,1290.678,335
642,1686274584.782,38.574,147.461,129.395,-9.277,1290.682,335
643,1686274584.786,-41.016,63.477,-27.832,-75.684,1290.686,335
644,1686274584.79,-45.898,-266.113,-143.555,-32.227,1290.69,330
645,1686274584.794,26.855,251.953,143.555,40.039,1290.694,330
646,1686274584.798,43.945,539.062,185.059,19.043,1290.697,330
647,1686274584.802,-21.973,-96.191,-118.652,-41.504,1290.701,323
648,1686274584.804,-57.129,-513.672,-201.172,-25.391,1290.7,323
649,1686274584.808,-6.836,236.816,178.223,26.855,1290.704,323
650,1686274584.812,34.668,481.445,170.41,30.273,1290.708,323
651,1686274584.816,-12.207,99.609,9.766,-40.527,1290.712,323
652,1686274584.82,-71.777,-125.0,-48.828,-57.617,1290.716,316
653,1686274584.823,-33.203,-65.43,-5.371,22.461,1290.719,316
654,1686274584.827,26.855,45.41,59.57,44.434,1290.723,316
655,1686274584.831,-6.348,-418.945,-187.012,-19.043,1290.727,308
656,1686274584.835,-77.637,-1000.0,-458.496,-46.875,1290.731,308
657,1686274584.839,-61.523,-260.742,2.93,-14.16,1290.735,308
658,1686274584.843,24.414,407.227,144.531,29.785,1290.739,300
659,1686274584.847,24.414,154.297,0.488,-10.254,1290.743,300
660,1686274584.848,-45.41,254.883,85.449,-81.543,1290.745,300
661,1686274584.852,-51.758,417.969,128.906,-46.875,1290.749,300
662,1686274584.856,23.438,255.859,66.406,35.156,1290.753,300
663,1686274584.86,41.016,103.027,-5.859,19.043,1290.757,292
664,1686274584.864,-29.297,274.414,80.078,-62.5,1290.761,292
665,1686274584.867,-65.918,117.676,43.457,-40.527,1290.765,292
666,1686274584.871,-10.254,-171.875,-76.66,51.758,1290.769,284
667,1686274584.875,38.086,-752.441,-307.617,64.453,1290.772,284
668,1686274584.879,-7.324,-375.977,-77.148,-29.297,1290.776,284
669,1686274584.883,-62.5,466.309,165.527,-62.012,1290.78,284
670,1686274584.887,-24.414,202.637,13.672,16.113,1290.784,276
671,1686274584.891,43.457,144.531,51.758,54.199,1290.788,276
672,1686274584.894,20.996,456.543,143.066,-5.859,1290.794,276
673,1686274584.898,-44.434,424.805,102.051,-56.641,1290.798,276
674,1686274584.902,-43.945,159.668,42.969,-0.977,1290.802,269
675,1686274584.906,21.484,198.242,75.195,52.734,1290.806,269
676,1686274584.91,32.715,328.125,85.938,-0.488,1290.81,269
677,1686274584.913,-42.969,89.844,4.395,-74.219,1290.814,262
678,1686274584.917,-74.219,-582.031,-245.605,-32.227,1290.818,262
679,1686274584.921,-20.508,-709.961,-197.754,38.574,1290.822,262
680,1686274584.925,18.555,183.594,159.668,6.836,1290.826,262
681,1686274584.929,-28.32,232.91,37.598,-57.617,1290.829,257
682,1686274584.933,-86.914,-418.945,-135.254,-56.641,1290.833,257
683,1686274584.937,-22.461,-154.785,48.828,10.254,1290.837,257
684,1686274584.939,52.246,510.254,180.664,19.531,1290.848,257
685,1686274584.943,8.301,262.207,26.855,-53.711,1290.852,253
686,1686274584.947,-56.152,1.953,5.371,-71.289,1290.856,253
687,1686274584.951,-28.32,288.086,135.742,8.789,1290.86,253
688,1686274584.955,34.18,501.953,189.453,43.457,1290.864,251
689,1686274584.958,11.719,89.844,-27.832,-5.859,1290.868,251
690,1686274584.962,-61.523,-644.531,-280.762,-45.898,1290.872,251
691,1686274584.966,-55.664,-214.355,15.625,-12.207,1290.876,251
692,1686274584.97,17.09,462.891,186.523,42.969,1290.879,250
693,1686274584.974,22.461,125.0,-15.137,6.836,1290.883,250
694,1686274584.978,-37.598,-29.297,-45.898,-61.035,1290.887,250
695,1686274584.982,-65.43,213.379,58.105,-40.527,1290.891,249
696,1686274584.985,-7.812,87.402,15.625,38.574,1290.909,249
697,1686274584.989,32.715,-229.98,-78.613,42.969,1290.913,249
698,1686274584.993,-20.02,-167.48,-30.273,-41.992,1290.917,249
699,1686274584.997,-68.848,196.289,65.43,-58.594,1290.921,249
700,1686274585.001,-15.625,273.438,46.875,15.625,1290.925,249
701,1686274585.004,41.992,-398.926,-220.215,51.27,1290.929,249
702,1686274585.008,-5.371,-813.965,-338.867,-7.324,1290.932,249
703,1686274585.012,-64.453,-242.676,-115.234,-64.453,1290.936,249
704,1686274585.016,-45.898,-5.859,-72.266,-16.602,1290.94,249
705,1686274585.02,19.531,-513.672,-196.777,50.293,1290.944,249
706,1686274585.024,23.438,-450.195,-112.305,3.906,1290.948,250
707,1686274585.028,-40.527,363.281,163.574,-83.496,1290.952,250
708,1686274585.044,-43.457,267.09,34.668,-38.086,1290.94,252
709,1686274585.048,38.574,130.859,-7.812,40.039,1290.944,252
710,1686274585.052,64.941,84.473,9.277,17.09,1290.948,253
711,1686274585.056,-5.859,119.141,49.316,-57.617,1290.952,253
712,1686274585.06,-42.48,145.996,4.395,-52.734,1290.956,253
713,1686274585.063,12.207,-474.609,-216.797,46.387,1290.96,254
714,1686274585.067,50.781,-275.391,-32.715,55.664,1290.964,254
715,1686274585.071,6.836,369.141,146.484,-38.086,1290.968,254
716,1686274585.075,-47.363,54.688,-52.734,-52.734,1290.972,254
717,1686274585.079,-14.16,-115.234,-93.75,19.043,1290.975,256
718,1686274585.083,57.129,345.215,146.973,39.551,1290.979,256
719,1686274585.087,23.926,461.426,133.789,-28.32,1290.983,256
720,1686274585.089,-61.035,-175.293,-166.016,-65.918,1290.985,256
721,1686274585.093,-44.922,-519.531,-216.309,-0.977,1290.989,257
722,1686274585.097,50.293,248.535,159.18,53.223,1290.993,257
723,1686274585.101,43.945,411.133,100.098,-1.465,1290.997,257
724,1686274585.105,-55.664,-8.789,-63.965,-83.496,1291.001,259
725,1686274585.108,-70.312,-216.797,-127.93,-44.922,1291.005,259
726,1686274585.112,17.09,-150.391,-91.797,45.898,1291.009,259
727,1686274585.116,54.688,-47.363,-10.742,24.414,1291.012,259
728,1686274585.12,-13.672,-491.211,-289.062,-43.457,1291.016,261
729,1686274585.124,-66.895,-1000.0,-442.383,-22.461,1291.02,261
730,1686274585.128,-1.465,-223.633,30.273,33.691,1291.024,261
731,1686274585.132,67.383,384.277,112.305,32.227,1291.028,261
732,1686274585.134,15.625,132.812,-6.348,-47.363,1291.03,263
733,1686274585.138,-49.316,244.629,83.496,-74.219,1291.034,263
734,1686274585.142,-13.184,418.945,135.742,0.488,1291.038,263
735,1686274585.146,48.828,256.836,50.293,37.598,1291.042,265
736,1686274585.15,18.066,43.457,-59.57,-15.137,1291.046,265
737,1686274585.153,-47.852,-69.336,-74.707,-60.059,1291.05,265
738,1686274585.157,-34.18,-25.391,-10.742,-16.602,1291.054,265
739,1686274585.161,38.574,62.012,0.977,48.34,1291.057,268
740,1686274585.165,36.621,-770.508,-369.141,37.109,1291.061,268
741,1686274585.169,-31.738,-543.945,-162.598,-41.016,1291.065,268
742,1686274585.173,-39.551,376.465,173.828,-37.598,1291.069,268
743,1686274585.177,24.902,142.578,31.738,51.758,1291.073,270
744,1686274585.179,55.664,71.777,16.602,45.41,1291.075,270
745,1686274585.183,5.371,375.488,121.094,-36.133,1291.079,270
746,1686274585.187,-35.645,365.234,122.559,-34.18,1291.083,273
747,1686274585.191,16.602,185.059,66.406,48.828,1291.087,273
748,1686274585.195,75.684,184.57,59.57,75.195,1291.09,273
749,1686274585.198,34.668,56.152,-4.883,7.812,1291.094,273
750,1686274585.202,-26.855,-62.988,-64.941,-29.297,1291.098,276
751,1686274585.206,-3.906,-527.344,-265.625,54.688,1291.102,276
752,1686274585.21,64.941,-862.305,-319.824,100.098,1291.106,276
753,1686274585.214,59.082,-29.785,53.711,15.625,1291.11,276
754,1686274585.218,-6.836,142.09,0.0,-42.969,1291.114,279
755,1686274585.222,-13.184,-279.785,-159.18,5.859,1291.118,279
756,1686274585.224,63.965,-5.859,18.555,74.219,1291.12,279
757,1686274585.228,78.125,458.008,145.996,31.738,1291.124,279
758,1686274585.232,-3.418,165.527,-21.484,-33.203,1291.128,282
759,1686274585.236,-32.227,-1.465,-47.363,-15.625,1291.131,282
760,1686274585.24,38.574,312.988,102.539,62.5,1291.135,282
761,1686274585.243,75.195,236.328,99.121,66.895,1291.139,285
762,1686274585.247,23.926,-137.695,-104.492,-11.719,1291.143,285
763,1686274585.251,-32.715,-584.473,-260.254,-19.043,1291.147,285
764,1686274585.255,8.301,-43.945,51.27,48.34,1291.151,287
765,1686274585.259,76.66,558.594,179.199,71.777,1291.155,287
766,1686274585.263,38.086,177.246,11.23,4.883,1291.159,287
767,1686274585.267,-26.855,47.852,-11.719,-32.715,1291.163,287
768,1686274585.27,-10.742,181.152,74.707,25.879,1291.169,287
769,1686274585.274,55.664,100.098,49.316,64.941,1291.173,289
770,1686274585.278,51.758,-277.344,-131.836,24.902,1291.177,289
771,1686274585.282,-20.508,-264.648,-72.754,-38.574,1291.181,289
772,1686274585.286,-28.32,233.398,100.098,-15.625,1291.185,291
773,1686274585.289,44.922,211.914,70.801,65.43,1291.189,291
774,1686274585.293,65.918,-438.965,-175.293,62.5,1291.193,291
775,1686274585.297,-2.93,-792.969,-302.246,-8.301,1291.197,292
776,1686274585.301,-38.086,71.289,95.703,-30.273,1291.201,292
777,1686274585.305,16.113,358.887,120.605,38.086,1291.204,292
778,1686274585.309,56.152,-83.984,-71.777,53.223,1291.208,292
779,1686274585.313,18.066,40.527,41.504,-16.113,1291.212,293
780,1686274585.313,-20.996,422.852,140.625,-44.434,1291.239,293
781,1686274585.317,12.207,256.348,46.387,25.879,1291.243,293
782,1686274585.321,73.73,78.125,25.391,66.895,1291.247,293
783,1686274585.325,44.434,47.363,32.227,-7.812,1291.251,295
784,1686274585.329,-22.949,36.133,13.672,-53.711,1291.254,295
785,1686274585.332,-5.859,-19.531,-11.719,11.719,1291.258,295
786,1686274585.336,60.547,-769.043,-327.148,83.008,1291.262,295
787,1686274585.34,46.875,-634.766,-211.426,19.531,1291.266,296
788,1686274585.344,-21.484,284.668,128.418,-70.801,1291.27,296
789,1686274585.348,-35.645,116.211,-20.02,-30.273,1291.274,296
790,1686274585.352,31.738,61.035,10.742,52.734,1291.278,296
791,1686274585.356,61.523,431.641,155.762,32.227,1291.282,298
792,1686274585.358,-1.465,362.305,94.238,-50.781,1291.284,298
793,1686274585.362,-46.387,8.789,-7.812,-43.457,1291.288,298
794,1686274585.366,8.789,56.641,27.344,41.992,1291.292,300
795,1686274585.37,71.289,356.445,135.742,62.988,1291.296,300
796,1686274585.374,34.18,282.715,57.129,-12.695,1291.3,300
797,1686274585.377,-29.785,-194.336,-116.699,-41.992,1291.304,300
798,1686274585.381,0.977,-356.445,-85.449,26.367,1291.308,300
799,1686274585.385,69.824,-150.879,-12.207,62.5,1291.312,301
800,1686274585.389,49.316,-123.535,-91.797,0.977,1291.316,301
801,1686274585.393,-23.926,-434.57,-183.594,-52.246,1291.32,301
802,1686274585.397,-11.23,-255.859,2.441,0.977,1291.323,301
803,1686274585.401,64.453,311.035,154.297,63.477,1291.327,301
804,1686274585.418,62.5,335.938,99.121,21.973,1291.315,301
805,1686274585.422,-5.371,-521.484,-276.855,-27.344,1291.319,301
806,1686274585.426,-27.344,-785.156,-280.273,-8.789,1291.323,302
807,1686274585.43,37.598,202.148,154.785,43.457,1291.327,302
808,1686274585.434,74.219,260.742,41.016,46.387,1291.331,302
809,1686274585.437,16.113,-290.039,-201.66,-21.484,1291.334,302
810,1686274585.441,-39.551,-191.406,-56.641,-37.598,1291.338,302
811,1686274585.445,0.977,338.379,153.809,23.438,1291.342,302
812,1686274585.449,48.828,42.969,-82.52,52.734,1291.346,302
813,1686274585.453,0.488,-402.344,-194.336,-15.137,1291.35,302
814,1686274585.457,-62.5,114.746,86.426,-70.312,1291.354,302
815,1686274585.461,-36.621,491.699,188.477,-1.465,1291.358,302
816,1686274585.463,35.645,-65.43,-66.406,58.594,1291.36,302
817,1686274585.467,18.555,-729.492,-301.758,9.766,1291.364,301
818,1686274585.471,-53.223,-38.086,49.805,-65.918,1291.368,301
819,1686274585.475,-49.805,364.746,127.93,-41.504,1291.371,301
820,1686274585.479,15.625,103.516,-13.672,32.227,1291.375,303
821,1686274585.482,30.762,-117.188,-94.727,20.996,1291.379,303
822,1686274585.486,-31.25,-204.59,-126.465,-47.363,1291.383,303
823,1686274585.49,-59.57,-40.527,-18.066,-48.828,1291.387,307
824,1686274585.494,-6.348,-468.262,-179.199,31.25,1291.391,307
825,1686274585.498,24.902,-825.195,-287.109,34.668,1291.395,307
826,1686274585.502,-16.113,-18.555,45.41,-55.176,1291.399,307
827,1686274585.506,-60.547,97.168,20.508,-74.219,1291.403,310
828,1686274585.509,-36.133,-166.992,-46.387,-5.859,1291.407,310
829,1686274585.513,35.645,159.18,86.914,25.391,1291.41,310
830,1686274585.517,25.391,477.539,164.062,-45.41,1291.414,310
831,1686274585.521,-48.34,204.59,-1.465,-90.332,1291.418,313
832,1686274585.525,-38.086,-11.719,-69.336,-33.203,1291.422,313
833,1686274585.528,33.691,-3.906,11.719,15.137,1291.426,313
834,1686274585.532,29.297,161.621,99.121,-27.832,1291.43,313
835,1686274585.536,-44.434,85.938,-22.949,-84.961,1291.434,319
836,1686274585.54,-76.172,-527.344,-232.91,-48.34,1291.438,319
837,1686274585.544,-10.742,18.555,115.234,10.254,1291.442,319
838,1686274585.548,25.391,516.602,168.945,-3.418,1291.446,324
839,1686274585.552,-38.086,83.984,-12.207,-62.988,1291.449,324
840,1686274585.555,-73.242,47.852,34.18,-68.848,1291.457,324
841,1686274585.559,-6.836,225.586,87.402,7.324,1291.461,330
842,1686274585.563,34.668,90.82,28.809,20.996,1291.465,330
843,1686274585.567,-19.531,-288.086,-120.605,-54.199,1291.468,330
844,1686274585.571,-67.871,-268.555,-50.781,-71.289,1291.472,330
845,1686274585.574,-27.344,1.465,42.969,20.02,1291.476,330
846,1686274585.578,44.922,1.465,41.992,67.871,1291.48,334
847,1686274585.582,25.879,-425.781,-202.148,9.766,1291.484,334
848,1686274585.586,-48.828,-977.539,-370.117,-39.551,1291.488,334
849,1686274585.59,-28.32,-70.801,110.84,-19.043,1291.492,338
850,1686274585.594,52.246,435.059,137.695,41.504,1291.496,338
851,1686274585.598,41.504,118.652,11.23,2.441,1291.5,338
852,1686274585.599,-38.086,258.789,109.863,-78.613,1291.495,338
853,1686274585.603,-52.734,443.359,145.996,-50.293,1291.499,341
854,1686274585.607,15.137,291.992,70.312,30.762,1291.503,341
855,1686274585.611,40.039,138.672,35.645,20.02,1291.507,341
856,1686274585.615,-28.32,77.148,20.996,-58.594,1291.51,341
857,1686274585.618,-73.73,-68.848,-10.254,-61.523,1291.514,343
858,1686274585.622,-13.672,-113.77,-42.969,14.16,1291.518,343
859,1686274585.626,30.762,-722.168,-289.062,41.016,1291.522,343
860,1686274585.63,-23.438,-438.965,-72.754,-42.969,1291.526,345
861,1686274585.634,-74.707,389.16,172.363,-95.215,1291.53,345
862,1686274585.638,-42.48,198.242,56.641,-24.902,1291.534,345
863,1686274585.642,24.902,121.094,26.367,18.066,1291.538,346
864,1686274585.644,17.09,296.387,90.82,-41.992,1291.554,346
865,1686274585.648,-44.922,326.66,118.164,-80.078,1291.558,346
866,1686274585.652,-51.758,100.586,23.438,-27.344,1291.562,346
867,1686274585.656,21.484,166.504,82.52,32.715,1291.566,346
868,1686274585.66,40.039,340.82,115.234,5.859,1291.57,347
869,1686274585.663,-25.879,118.652,25.391,-64.453,1291.574,347
870,1686274585.667,-60.547,-523.926,-229.98,-32.227,1291.577,347
871,1686274585.671,-4.395,-867.188,-329.59,45.898,1291.581,348
872,1686274585.675,36.621,-104.492,37.598,7.324,1291.585,348
873,1686274585.679,-21.973,413.086,126.465,-87.402,1291.589,348
874,1686274585.683,-80.078,-362.305,-194.824,-86.426,1291.593,349
875,1686274585.687,-32.715,-474.121,-115.234,-5.859,1291.597,349
876,1686274585.689,37.109,454.59,197.266,-0.488,1291.599,349
877,1686274585.693,-7.812,325.684,34.18,-69.824,1291.603,349
878,1686274585.697,-83.496,-32.227,-15.625,-102.539,1291.607,349
879,1686274585.701,-64.941,166.016,96.68,-43.945,1291.611,350
880,1686274585.705,5.371,389.648,128.418,-6.348,1291.615,350
881,1686274585.708,-9.277,5.859,-45.41,-55.664,1291.619,350
882,1686274585.712,-82.031,-558.105,-216.309,-102.539,1291.623,350
883,1686274585.716,-81.543,-84.473,29.297,-64.453,1291.627,350
884,1686274585.72,-2.93,438.965,165.527,0.488,1291.631,350
885,1686274585.724,12.207,-17.09,-99.121,-16.602,1291.635,350
886,1686274585.728,-70.801,-592.773,-273.438,-78.125,1291.638,351
887,1686274585.732,-92.773,-24.902,50.293,-86.914,1291.642,351
888,1686274585.748,-17.578,470.703,165.039,-15.137,1291.645,351
889,1686274585.752,28.32,122.07,50.781,-3.418,1291.649,351
890,1686274585.756,-33.203,28.32,16.113,-79.102,1291.653,351
891,1686274585.76,-98.145,314.941,102.539,-102.051,1291.657,351
892,1686274585.764,-46.875,321.777,112.305,-26.367,1291.661,351
893,1686274585.767,28.809,-78.613,-34.18,12.695,1291.664,351
894,1686274585.771,-1.953,-346.68,-101.562,-60.059,1291.668,350
895,1686274585.775,-69.824,-212.891,-37.109,-104.98,1291.672,350
896,1686274585.779,-50.293,151.367,73.242,-46.875,1291.676,350
897,1686274585.783,22.461,-392.09,-186.523,25.879,1291.68,350
898,1686274585.787,14.16,-740.723,-210.938,-11.23,1291.684,350
899,1686274585.791,-54.688,81.055,111.328,-97.168,1291.688,350
900,1686274585.794,-72.266,30.273,-13.672,-63.965,1291.69,350
901,1686274585.798,-0.977,-213.867,-43.457,12.695,1291.694,350
902,1686274585.802,26.367,126.953,83.984,-11.23,1291.698,350
903,1686274585.806,-36.621,377.93,122.559,-90.332,1291.702,350
904,1686274585.81,-75.684,118.164,6.836,-92.285,1291.706,350
905,1686274585.813,-41.992,-184.082,-69.824,-20.508,1291.71,350
906,1686274585.817,-1.953,-55.176,49.805,-14.16,1291.714,350
907,1686274585.821,-43.945,317.383,181.641,-99.121,1291.717,350
908,1686274585.825,-101.562,29.785,-48.34,-108.398,1291.721,350
909,1686274585.829,-69.336,-570.312,-241.699,-21.973,1291.725,350
910,1686274585.833,7.324,9.766,92.773,4.883,1291.729,350
911,1686274585.837,-12.695,461.426,171.387,-55.664,1291.733,350
912,1686274585.839,-89.844,58.594,-13.184,-97.168,1291.735,350
913,1686274585.843,-86.426,55.664,29.297,-48.828,1291.739,350
914,1686274585.847,-12.207,163.574,62.5,6.836,1291.743,350
915,1686274585.851,0.0,109.863,47.852,-25.391,1291.747,349
916,1686274585.855,-69.824,-220.703,-67.383,-79.102,1291.751,349
917,1686274585.858,-103.516,-487.793,-129.883,-64.941,1291.754,349
918,1686274585.862,-36.621,-171.875,4.883,-1.465,1291.758,348
919,1686274585.866,1.953,3.418,49.805,-7.324,1291.762,348
920,1686274585.87,-59.082,-459.473,-203.125,-80.566,1291.766,348
921,1686274585.874,-104.004,-855.469,-316.406,-86.426,1291.77,348
922,1686274585.878,-45.41,89.844,142.09,-34.668,1291.774,348
923,1686274585.882,4.883,361.816,119.629,-10.254,1291.778,348
924,1686274585.884,-38.086,41.504,3.418,-70.312,1291.78,348
925,1686274585.888,-88.867,202.637,109.375,-100.586,1291.784,348
926,1686274585.892,-59.57,400.879,154.297,-34.18,1291.788,346
927,1686274585.896,18.555,249.512,44.922,2.93,1291.792,346
928,1686274585.9,7.812,21.484,-34.668,-51.758,1291.796,346
929,1686274585.903,-75.195,-36.133,2.441,-104.004,1291.8,344
930,1686274585.907,-72.266,-70.801,19.043,-53.223,1291.804,344
931,1686274585.911,3.418,-82.031,-34.18,15.625,1291.808,344
932,1686274585.915,6.348,-711.426,-304.199,-1.465,1291.811,344
933,1686274585.919,-61.035,-411.133,-68.848,-82.031,1291.815,341
934,1686274585.923,-76.66,409.18,187.012,-85.938,1291.819,341
935,1686274585.927,-6.348,197.754,45.41,-5.371,1291.823,341
936,1686274585.929,38.086,173.828,48.828,-2.441,1291.825,341
937,1686274585.933,-17.578,391.113,102.051,-80.078,1291.829,338
938,1686274585.937,-73.242,285.156,73.73,-99.121,1291.833,338
939,1686274585.941,-29.297,92.285,28.32,-19.531,1291.836,338
940,1686274585.945,31.25,124.023,22.949,5.371,1291.84,334
941,1686274585.948,-5.859,7.324,-18.555,-71.289,1291.844,334
942,1686274585.952,-69.336,-181.641,-75.684,-102.051,1291.848,334
943,1686274585.956,-59.57,-553.711,-286.133,-31.25,1291.852,334
944,1686274585.96,-5.371,-1000.0,-445.801,26.855,1291.856,330
945,1686274585.964,-7.812,-354.004,-24.902,-42.48,1291.86,330
946,1686274585.968,-65.918,261.23,86.914,-113.281,1291.864,330
947,1686274585.972,-76.172,56.152,-21.484,-64.453,1291.868,327
948,1686274585.974,0.0,249.023,98.633,5.371,1291.87,327
949,1686274585.978,31.738,466.797,129.395,-16.113,1291.874,327
950,1686274585.982,-33.691,195.801,-2.93,-77.637,1291.878,327
951,1686274585.986,-74.707,11.23,-11.23,-53.223,1291.882,325
952,1686274585.99,-18.555,215.82,86.914,12.207,1291.885,325
953,1686274585.993,29.785,100.586,14.648,6.836,1291.889,325
954,1686274585.997,-20.996,-228.027,-199.707,-53.223,1291.893,325
955,1686274586.001,-82.52,-636.23,-306.152,-64.453,1291.897,323
956,1686274586.005,-37.109,-164.551,37.598,-2.441,1291.901,323
957,1686274586.009,37.598,377.441,144.531,22.461,1291.905,323
958,1686274586.013,14.16,-107.91,-126.953,-29.785,1291.909,323
959,1686274586.017,-52.246,-236.328,-131.836,-67.871,1291.913,322
960,1686274586.018,-48.34,249.023,119.141,-19.531,1291.915,322
961,1686274586.022,27.344,350.098,95.215,39.551,1291.919,322
962,1686274586.026,26.367,-87.402,-46.875,-4.883,1291.923,322
963,1686274586.03,-50.293,-161.133,5.859,-74.219,1291.927,322
964,1686274586.034,-57.129,153.809,45.41,-43.945,1291.93,322
965,1686274586.037,17.09,22.949,-51.27,25.391,1291.934,322
966,1686274586.041,33.203,-548.34,-286.133,18.066,1291.938,322
967,1686274586.045,-48.34,-840.332,-366.211,-61.035,1291.942,322
968,1686274586.049,-72.754,-55.176,40.527,-81.055,1291.946,322
969,1686274586.053,-2.441,247.07,76.172,-2.93,1291.95,322
970,1686274586.057,32.227,6.836,-48.828,0.0,1291.954,323
971,1686274586.061,-18.066,55.176,-38.574,-76.66,1291.958,323
972,1686274586.064,-69.336,57.129,-29.785,-92.285,1291.974,323
973,1686274586.068,-43.457,-109.863,-47.363,-25.879,1291.978,323
974,1686274586.072,9.277,-260.254,-113.281,11.719,1291.982,324
975,1686274586.076,-13.184,15.625,33.203,-57.617,1291.986,324
976,1686274586.08,-76.172,230.957,65.918,-113.77,1291.989,324
977,1686274586.083,-69.824,-205.566,-210.938,-62.012,1291.993,326
978,1686274586.087,2.93,-717.773,-301.27,8.789,1291.997,326
979,1686274586.091,15.137,-241.211,7.324,-30.273,1292.001,326
980,1686274586.095,-57.617,326.172,143.066,-108.887,1292.005,327
981,1686274586.099,-75.684,-6.348,-32.227,-82.031,1292.009,327
982,1686274586.103,-4.395,-90.332,-65.918,-0.488,1292.013,327
983,1686274586.107,33.203,278.809,110.352,-22.461,1292.017,327
984,1686274586.124,-21.973,278.32,65.43,-104.004,1292.02,331
985,1686274586.128,-69.824,-55.176,-40.039,-96.68,1292.024,331
986,1686274586.132,-21.484,-7.812,38.574,-21.973,1292.028,331
987,1686274586.136,37.109,67.383,-2.93,-1.953,1292.032,333
988,1686274586.14,-16.602,38.574,-18.555,-78.613,1292.035,333
989,1686274586.143,-93.75,-413.086,-216.797,-102.051,1292.039,333
990,1686274586.147,-60.547,-825.684,-332.52,-22.949,1292.043,333
991,1686274586.151,12.207,-260.742,-51.27,1.953,1292.047,333
992,1686274586.155,6.348,101.562,6.348,-60.059,1292.051,336
993,1686274586.159,-68.359,-478.516,-229.98,-97.168,1292.055,336
994,1686274586.163,-81.543,-566.895,-181.641,-62.988,1292.059,336
995,1686274586.167,-1.953,319.824,173.828,-15.625,1292.063,337
996,1686274586.168,15.137,225.586,22.461,-37.109,1292.065,337
997,1686274586.172,-57.617,-79.102,-74.219,-115.723,1292.069,337
998,1686274586.176,-87.402,97.656,57.129,-104.004,1292.073,337
999,1686274586.18,-26.367,325.684,125.0,-20.996,1292.077,338
1000,1686274586.184,11.719,120.117,-29.785,-20.996,1292.081,338
1001,1686274586.187,-45.41,-371.094,-210.938,-89.844,1292.085,338
1002,1686274586.191,-105.469,-382.324,-152.832,-101.074,1292.089,338
1003,1686274586.195,-51.27,11.719,17.578,-32.227,1292.093,339
1004,1686274586.199,34.18,33.203,-43.457,8.789,1292.097,339
1005,1686274586.203,-4.883,-786.133,-411.621,-41.016,1292.1,339
1006,1686274586.207,-78.613,-470.703,-133.301,-101.562,1292.104,340
1007,1686274586.211,-53.223,305.176,116.699,-61.523,1292.108,340
1008,1686274586.213,20.996,84.961,1.465,0.488,1292.11,340
1009,1686274586.217,10.254,-17.09,-4.395,-42.48,1292.114,340
1010,1686274586.221,-64.453,172.363,62.988,-109.863,1292.117,342
1011,1686274586.225,-73.242,161.133,49.805,-72.266,1292.121,342
1012,1686274586.229,-6.836,5.859,-10.254,8.301,1292.125,342
1013,1686274586.232,5.859,-174.316,-126.953,-18.555,1292.129,342
1014,1686274586.236,-65.918,-265.625,-195.801,-85.938,1292.133,343
1015,1686274586.24,-93.75,-189.941,-110.84,-73.73,1292.137,343
1016,1686274586.244,-31.25,-517.09,-279.785,9.277,1292.141,343
1017,1686274586.248,13.672,-1000.0,-479.004,39.551,1292.145,344
1018,1686274586.252,-28.809,-341.309,-121.582,-55.176,1292.149,344
1019,1686274586.256,-79.102,214.355,42.48,-101.074,1292.153,344
1020,1686274586.274,-47.363,20.508,-23.438,-28.32,1292.17,346
1021,1686274586.278,23.438,230.957,90.82,7.324,1292.174,348
1022,1686274586.282,11.23,427.734,131.348,-57.617,1292.178,348
1023,1686274586.286,-61.523,183.105,13.184,-100.098,1292.182,348
1024,1686274586.29,-47.363,-38.086,-59.082,-42.969,1292.186,350
1025,1686274586.293,22.949,-80.566,-8.301,15.625,1292.189,350
1026,1686274586.297,12.207,-94.727,7.324,-29.785,1292.193,350
1027,1686274586.301,-58.105,-235.352,-206.543,-97.168,1292.197,350
1028,1686274586.303,-89.844,-153.32,-43.945,-72.266,1292.199,350
1029,1686274586.305,-75.684,-646.973,-312.012,-58.105,1292.201,352
1030,1686274586.307,-36.621,354.98,153.32,-7.324,1292.203,352
1031,1686274586.309,-3.418,-95.703,67.383,18.555,1292.205,352
1032,1686274586.311,25.879,431.152,126.465,3.906,1292.207,352
1033,1686274586.313,34.668,458.984,160.156,4.395,1292.209,352
1034,1686274586.315,-13.672,-1.465,-2.93,-62.5,1292.211,352
1035,1686274586.317,-35.645,-58.594,-63.477,-69.824,1292.213,354
1036,1686274586.319,-86.426,-85.938,9.766,-91.309,1292.215,354
1037,1686274586.322,-60.547,74.219,70.312,-24.414,1292.219,354
1038,1686274586.326,9.277,-64.941,16.113,21.484,1292.223,354
1039,1686274586.33,-11.23,-238.77,-65.43,-39.551,1292.227,355
1040,1686274586.334,-87.402,-113.77,10.742,-97.168,1292.231,355
1041,1686274586.338,-79.102,247.559,125.488,-46.875,1292.235,355
1042,1686274586.342,13.672,395.02,127.93,11.719,1292.238,355
1043,1686274586.346,15.625,-391.113,-202.148,-27.344,1292.242,357
1044,1686274586.349,-64.453,-812.012,-297.852,-90.332,1292.248,357
1045,1686274586.353,-77.637,-13.672,42.48,-70.312,1292.252,357
1046,1686274586.357,-8.301,38.574,7.812,8.789,1292.256,357
1047,1686274586.361,22.461,-175.293,1.953,-1.465,1292.26,358
1048,1686274586.365,-37.109,47.852,55.664,-90.332,1292.264,358
1049,1686274586.368,-83.008,22.949,-18.555,-94.727,1292.268,358
1050,1686274586.372,-34.18,-221.68,-71.777,1.953,1292.272,358
1051,1686274586.376,25.391,-479.004,-153.32,39.062,1292.276,360
1052,1686274586.38,-3.418,-71.777,55.664,-44.922,1292.28,360
1053,1686274586.384,-59.082,424.316,178.711,-94.727,1292.284,360
1054,1686274586.388,-42.48,79.59,-0.488,-23.438,1292.287,362
1055,1686274586.392,21.973,25.391,-1.953,26.367,1292.291,362
1056,1686274586.469,5.859,384.277,165.039,-32.227,1292.366,370
1057,1686274586.472,45.898,549.316,194.336,25.391,1292.375,370
1058,1686274586.473,-62.988,363.77,128.418,-90.332,1292.37,370
1059,1686274586.476,8.789,276.855,59.082,-52.246,1292.379,370
1060,1686274586.477,-65.43,62.988,23.438,-45.41,1292.373,370
1061,1686274586.48,-66.895,-46.875,-15.137,-104.98,1292.383,370
1062,1686274586.481,-1.465,85.449,65.43,19.531,1292.377,371
1063,1686274586.484,-44.922,219.727,125.488,-44.922,1292.387,371
1064,1686274586.485,17.578,74.219,20.996,-7.324,1292.381,371
1065,1686274586.488,27.344,376.953,114.746,15.625,1292.39,371
1066,1686274586.488,-55.176,-114.746,-23.438,-76.172,1292.385,371
1067,1686274586.491,16.113,-2.93,-20.508,-33.203,1292.394,371
1068,1686274586.492,-92.773,-469.727,-178.223,-54.199,1292.389,371
1069,1686274586.495,-53.711,-244.141,-64.453,-102.051,1292.398,371
1070,1686274586.496,-32.715,-1000.0,-433.105,38.086,1292.393,371
1071,1686274586.499,-66.406,-36.133,72.754,-67.383,1292.402,373
1072,1686274586.499,-12.695,237.305,105.957,5.859,1292.408,373
1073,1686274586.5,13.184,-425.293,-84.473,14.16,1292.397,373
1074,1686274586.503,9.277,318.359,188.965,7.324,1292.406,373
1075,1686274586.503,38.574,-52.246,-5.371,27.344,1292.412,373
1076,1686274586.504,-24.902,293.457,114.746,-85.449,1292.401,373
1077,1686274586.507,-19.043,-191.406,-23.926,-56.152,1292.416,373
1078,1686274586.507,39.062,50.781,-30.762,-5.859,1292.41,373
1079,1686274586.508,-71.777,119.141,47.363,-100.586,1292.405,373
1080,1686274586.511,-77.148,202.637,112.305,-89.355,1292.42,375
1081,1686274586.511,-22.949,-223.145,-109.863,-76.172,1292.414,375
1082,1686274586.512,-28.809,285.156,146.973,-12.695,1292.409,375
1083,1686274586.515,-40.039,211.914,47.363,-15.137,1292.424,375
1084,1686274586.515,-62.012,128.418,105.957,-79.102,1292.418,375
1085,1686274586.518,19.043,-225.586,-63.477,26.367,1292.428,375
1086,1686274586.522,-2.441,-430.176,-75.684,-41.504,1292.432,378
1087,1686274586.526,-67.383,-175.781,-37.109,-87.402,1292.436,378
1088,1686274586.53,-67.871,74.707,28.32,-28.32,1292.44,378
1089,1686274586.534,11.719,-184.57,-53.711,34.668,1292.443,378
1090,1686274586.538,31.738,-171.875,-15.137,-14.648,1292.447,380
1091,1686274586.542,-36.133,255.859,97.656,-87.891,1292.451,380
1092,1686274586.544,-56.152,230.469,69.824,-55.664,1292.44,380
1093,1686274586.548,2.441,-437.012,-151.367,31.738,1292.444,380
1094,1686274586.552,24.414,-1000.0,-488.281,32.715,1292.448,383
1095,1686274586.556,-41.504,-887.695,-333.496,-59.57,1292.452,383
1096,1686274586.56,-95.215,-258.789,-5.371,-92.285,1292.455,383
1097,1686274586.563,-56.152,-54.688,-0.488,-28.809,1292.459,383
1098,1686274586.567,9.277,12.695,51.758,-16.113,1292.463,386
1099,1686274586.571,-7.812,435.547,186.035,-101.562,1292.467,386
1100,1686274586.575,-84.961,169.922,-5.859,-121.094,1292.471,386
1101,1686274586.579,-68.359,-397.949,-120.117,-24.902,1292.475,389
1102,1686274586.583,24.902,154.785,158.691,11.719,1292.479,389
1103,1686274586.587,19.531,539.551,193.848,-56.641,1292.483,389
1104,1686274586.589,-70.801,-168.945,-112.793,-93.75,1292.488,389
1105,1686274586.593,-80.078,-596.68,-200.684,-33.203,1292.492,392
1106,1686274586.597,11.719,166.016,166.016,15.625,1292.496,392
1107,1686274586.601,16.602,467.285,174.805,-34.668,1292.5,392
1108,1686274586.605,-63.965,54.688,7.812,-98.145,1292.504,392
1109,1686274586.608,-94.238,-210.938,-126.465,-56.152,1292.508,396
1110,1686274586.612,-21.973,-160.645,-75.684,23.438,1292.512,396
1111,1686274586.616,42.969,14.16,70.312,12.207,1292.516,396
1112,1686274586.62,-16.113,-446.777,-217.285,-44.434,1292.519,400
1113,1686274586.624,-76.172,-885.254,-377.93,-42.48,1292.523,400
1114,1686274586.628,-23.926,47.363,117.676,6.836,1292.527,400
1115,1686274586.632,38.086,421.875,113.77,21.484,1292.531,403
1116,1686274586.634,3.906,100.586,-6.348,-58.594,1292.53,403
1117,1686274586.638,-87.891,219.727,105.469,-93.262,1292.534,403
1118,1686274586.642,-67.383,212.891,42.48,-14.648,1292.537,403
1119,1686274586.646,29.785,-46.387,-41.016,28.32,1292.541,403
1120,1686274586.65,13.672,-33.691,-33.691,-34.668,1292.545,407
1121,1686274586.653,-65.918,-77.148,-49.805,-86.914,1292.549,407
1122,1686274586.657,-66.406,-73.73,-47.852,-52.734,1292.553,407
1123,1686274586.661,7.324,-11.23,-67.383,11.23,1292.557,411
1124,1686274586.665,14.648,-727.051,-356.445,8.301,1292.561,411
1125,1686274586.669,-45.41,-492.676,-156.25,-75.195,1292.565,411
1126,1686274586.673,-70.312,284.668,117.676,-86.914,1292.569,415
1127,1686274586.677,-10.254,42.48,-20.996,0.488,1292.573,415
1128,1686274586.679,46.875,13.184,7.324,12.207,1292.589,415
1129,1686274586.683,-0.977,302.246,102.539,-63.965,1292.593,415
1130,1686274586.687,-62.988,250.977,44.922,-82.52,1292.597,415
1131,1686274586.691,-20.02,27.344,-10.742,-6.348,1292.601,419
1132,1686274586.695,47.363,-29.297,-12.695,20.996,1292.605,419
1133,1686274586.698,17.09,-104.004,-74.219,-51.27,1292.609,419
1134,1686274586.702,-52.734,-229.98,-143.555,-89.355,1292.613,423
1135,1686274586.706,-47.363,-572.754,-290.527,-17.09,1292.617,423
1136,1686274586.71,6.836,-1000.0,-483.398,50.293,1292.621,423
1137,1686274586.714,-2.93,-460.449,-145.508,-26.367,1292.625,423
1138,1686274586.718,-57.617,137.695,18.555,-110.84,1292.628,427
1139,1686274586.722,-61.523,-12.695,-39.551,-64.941,1292.632,427
1140,1686274586.724,13.672,206.543,116.211,9.766,1292.62,427
1141,1686274586.728,49.805,435.547,143.555,-2.441,1292.624,427
1142,1686274586.732,-13.672,151.367,5.859,-70.801,1292.628,430
1143,1686274586.736,-73.242,-59.082,-36.133,-70.801,1292.631,430
1144,1686274586.74,-27.832,209.961,94.727,-5.859,1292.635,430
1145,1686274586.743,27.344,132.812,55.176,9.277,1292.639,434
1146,1686274586.747,-10.742,-190.918,-88.867,-65.918,1292.643,434
1147,1686274586.751,-69.824,-602.051,-269.043,-96.191,1292.647,434
1148,1686274586.755,-45.41,-326.66,-63.477,-38.574,1292.651,434
1149,1686274586.759,19.531,404.297,226.074,-4.883,1292.655,436
1150,1686274586.763,3.418,62.5,-53.223,-55.664,1292.659,436
1151,1686274586.767,-69.824,-591.797,-287.109,-96.68,1292.663,436
1152,1686274586.769,-57.617,-14.648,68.359,-62.012,1292.665,436
1153,1686274586.773,21.973,473.633,187.988,-4.395,1292.669,439
1154,1686274586.777,20.02,161.133,47.363,-27.344,1292.672,439
1155,1686274586.781,-60.059,89.844,45.898,-92.285,1292.676,439
1156,1686274586.785,-73.242,240.723,72.754,-76.66,1292.68,441
1157,1686274586.788,-2.441,133.789,80.566,-1.953,1292.684,441
1158,1686274586.792,27.832,-450.684,-150.879,0.488,1292.688,441
1159,1686274586.796,-38.574,-854.004,-303.711,-73.242,1292.692,441
1160,1686274586.8,-76.66,16.113,94.727,-111.328,1292.696,443
1161,1686274586.804,-17.09,409.18,149.902,-29.785,1292.7,443
1162,1686274586.808,34.668,15.137,-5.371,26.367,1292.704,443
1163,1686274586.812,0.488,91.797,55.176,-38.574,1292.708,444
1164,1686274586.813,-50.781,413.086,170.898,-95.703,1292.724,444
1165,1686274586.817,-25.879,318.359,107.422,-26.855,1292.728,444
1166,1686274586.821,36.621,-113.281,-26.855,35.156,1292.732,444
1167,1686274586.825,22.461,48.34,83.984,-39.062,1292.736,445
1168,1686274586.829,-39.551,388.184,148.438,-101.074,1292.739,445
1169,1686274586.832,-46.875,22.949,-5.371,-38.574,1292.743,445
1170,1686274586.836,2.93,-540.039,-115.723,27.832,1292.747,445
1171,1686274586.84,24.414,-151.855,73.73,-25.879,1292.751,445
1172,1686274586.844,-32.227,394.043,176.758,-92.285,1292.755,446
1173,1686274586.848,-61.035,101.562,27.832,-72.266,1292.759,446
1174,1686274586.852,6.836,39.551,34.668,-0.488,1292.763,446
1175,1686274586.856,45.898,344.727,156.738,-9.277,1292.767,447
1176,1686274586.859,-12.695,356.934,162.109,-87.402,1292.769,447
1177,1686274586.863,-67.383,-267.09,-76.66,-66.895,1292.772,447
1178,1686274586.867,-12.207,-387.695,-88.867,31.738,1292.776,447
1179,1686274586.871,29.297,334.473,198.242,12.695,1292.78,447
1180,1686274586.875,-34.18,281.738,83.008,-96.191,1292.784,447
1181,1686274586.878,-85.938,-463.867,-163.086,-104.004,1292.788,447
1182,1686274586.882,-61.035,-582.52,-104.98,-55.176,1292.792,447
1183,1686274586.886,-16.602,-120.605,48.828,-31.738,1292.796,447
1184,1686274586.89,-34.668,212.891,131.348,-86.914,1292.8,447
1185,1686274586.894,-111.816,-405.762,-188.477,-128.906,1292.804,447
1186,1686274586.898,-137.207,-691.895,-219.238,-100.586,1292.808,447
1187,1686274586.902,-73.242,209.473,166.992,-65.918,1292.812,447
1188,1686274586.919,-62.988,101.074,46.387,-92.773,1292.815,446
1189,1686274586.923,-122.07,-90.82,33.203,-184.57,1292.819,445
1190,1686274586.927,-157.227,166.992,108.887,-184.082,1292.823,445
1191,1686274586.931,-115.234,174.316,90.332,-94.727,1292.826,445
1192,1686274586.935,-62.988,-22.949,15.137,-76.66,1292.83,444
1193,1686274586.938,-125.0,-589.355,-179.199,-145.02,1292.834,444
1194,1686274586.942,-180.664,-414.551,-14.16,-185.059,1292.838,444
1195,1686274586.946,-123.047,387.695,216.309,-141.602,1292.842,444
1196,1686274586.95,-77.637,99.609,-13.184,-100.098,1292.846,444
1197,1686274586.954,-101.562,-266.602,-100.586,-153.809,1292.85,442
1198,1686274586.958,-165.039,196.777,150.879,-212.891,1292.854,442
1199,1686274586.962,-160.645,428.223,172.363,-157.227,1292.858,442
1200,1686274586.964,-72.266,149.414,66.895,-77.637,1292.859,441
1201,1686274586.968,-75.684,61.035,56.152,-120.117,1292.863,441
1202,1686274586.972,-136.23,300.781,139.16,-190.43,1292.867,441
1203,1686274586.976,-125.977,353.516,156.25,-144.531,1292.871,439
1204,1686274586.98,-69.336,177.734,129.395,-54.199,1292.875,439
1205,1686274586.983,-36.621,-91.309,57.617,-63.477,1292.879,439
1206,1686274586.987,-75.195,-148.926,28.32,-142.09,1292.883,439
1207,1686274586.991,-123.535,-42.48,67.383,-138.184,1292.887,439
1208,1686274586.995,-64.453,-433.105,-122.559,-40.039,1292.891,437
1209,1686274586.999,-3.418,-1000.0,-346.191,-3.906,1292.895,437
1210,1686274587.003,-43.945,-338.379,21.484,-96.68,1292.898,437
1211,1686274587.007,-90.82,334.961,151.367,-139.648,1292.902,436
1212,1686274587.008,-45.898,190.918,74.707,-59.57,1292.905,436
1213,1686274587.012,33.691,418.945,179.199,-5.859,1292.909,436
1214,1686274587.016,24.902,562.012,180.176,-47.852,1292.913,436
1215,1686274587.02,-28.32,260.742,83.496,-83.984,1292.917,434
1216,1686274587.024,-20.508,68.848,37.109,-39.551,1292.921,434
1217,1686274587.027,48.34,34.18,58.105,20.508,1292.925,434
1218,1686274587.031,51.27,166.016,137.695,-22.461,1292.929,434
1219,1686274587.035,-14.16,168.457,58.105,-72.266,1292.933,433
1220,1686274587.039,-39.062,-572.266,-183.105,-14.648,1292.937,433
1221,1686274587.043,24.414,-238.77,61.035,58.105,1292.941,433
1222,1686274587.047,66.895,526.367,250.488,29.785,1292.944,431
1223,1686274587.051,-2.93,109.863,8.789,-51.27,1292.948,431
1224,1686274587.054,-59.082,-125.0,-36.133,-57.129,1292.95,431
1225,1686274587.058,7.324,367.676,185.547,17.578,1292.953,431
1226,1686274587.062,78.613,564.453,225.098,35.645,1292.957,429
1227,1686274587.066,35.645,-24.414,21.484,-28.809,1292.961,429
1228,1686274587.07,-36.621,-197.266,-6.836,-54.199,1292.965,429
1229,1686274587.073,-24.414,119.629,133.301,4.395,1292.969,429
1230,1686274587.077,44.434,125.0,131.836,65.918,1292.973,427
1231,1686274587.081,35.645,-345.703,-107.422,20.508,1292.977,427
1232,1686274587.085,-38.574,-907.715,-264.648,-61.523,1292.981,427
1233,1686274587.089,-35.645,17.578,163.574,-47.852,1292.985,425
1234,1686274587.093,42.48,516.113,208.984,34.668,1292.989,425
1235,1686274587.097,41.992,128.418,66.406,5.859,1292.993,425
1236,1686274587.098,-36.621,187.988,132.324,-78.125,1292.995,425
1237,1686274587.102,-53.711,523.438,222.168,-53.223,1292.998,425
1238,1686274587.106,14.16,440.43,159.18,44.922,1293.002,423
1239,1686274587.11,74.707,23.438,91.797,60.059,1293.006,423
1240,1686274587.114,38.086,121.094,134.277,-22.949,1293.01,423
1241,1686274587.117,-41.992,191.406,116.699,-39.062,1293.014,421
1242,1686274587.121,-13.184,-48.828,36.621,44.922,1293.018,421
1243,1686274587.125,56.152,-381.836,-89.355,72.266,1293.022,421
1244,1686274587.129,32.227,-9.766,94.238,-7.324,1293.026,418
1245,1686274587.133,-28.32,506.348,202.637,-51.758,1293.03,418
1246,1686274587.137,-8.301,244.141,85.449,23.926,1293.034,418
1247,1686274587.141,50.781,225.586,126.953,74.219,1293.038,418
1248,1686274587.144,33.691,504.883,217.285,-2.93,1293.043,416
1249,1686274587.148,-39.062,457.52,173.34,-76.66,1293.047,416
1250,1686274587.152,-56.152,-154.785,-17.578,-22.949,1293.051,416
1251,1686274587.156,20.508,-159.18,23.926,59.082,1293.055,414
1252,1686274587.16,38.574,399.902,180.176,20.02,1293.059,414
1253,1686274587.163,-33.691,187.012,96.191,-62.5,1293.063,414
1254,1686274587.167,-75.684,-518.555,-162.598,-42.48,1293.067,414
1255,1686274587.171,-25.879,-800.781,-230.469,49.316,1293.071,411
1256,1686274587.175,33.203,166.992,159.18,41.992,1293.075,411
1257,1686274587.179,-7.812,494.141,167.969,-37.598,1293.078,411
1258,1686274587.183,-73.242,89.844,59.57,-49.805,1293.082,411
1259,1686274587.187,-40.039,207.52,166.016,17.09,1293.086,409
1260,1686274587.189,41.504,556.152,235.352,40.527,1293.099,409
1261,1686274587.193,22.461,392.578,108.887,-25.391,1293.103,409
1262,1686274587.197,-54.688,36.621,82.031,-70.801,1293.107,406
1263,1686274587.201,-47.363,233.398,177.246,-27.344,1293.111,406
1264,1686274587.205,31.25,331.543,134.766,29.785,1293.115,406
1265,1686274587.208,33.691,48.828,55.176,-4.883,1293.119,406
1266,1686274587.212,-51.758,-722.168,-250.0,-52.734,1293.123,406
1267,1686274587.216,-73.242,-520.996,-116.211,-31.738,1293.127,404
1268,1686274587.22,7.324,422.852,228.516,26.855,1293.13,404
1269,1686274587.224,39.551,192.383,42.48,16.602,1293.134,404
1270,1686274587.228,-25.391,62.988,31.25,-64.941,1293.138,401
1271,1686274587.232,-80.566,366.699,184.082,-73.242,1293.142,401
1272,1686274587.233,-31.738,459.473,174.805,10.742,1293.144,401
1273,1686274587.237,36.621,156.738,72.266,40.039,1293.148,401
1274,1686274587.241,-7.812,44.434,59.082,-39.062,1293.152,399
1275,1686274587.245,-72.754,324.219,147.461,-76.172,1293.156,399
1276,1686274587.249,-35.156,317.871,125.488,-6.348,1293.159,399
1277,1686274587.252,33.203,-116.211,-37.598,40.039,1293.163,399
1278,1686274587.256,0.0,-332.031,-54.688,-25.391,1293.167,396
1279,1686274587.26,-81.055,-220.703,-16.602,-83.984,1293.171,396
1280,1686274587.264,-70.801,-83.008,32.227,-35.156,1293.175,396
1281,1686274587.268,0.488,-460.938,-154.785,35.645,1293.179,394
1282,1686274587.272,-1.953,-964.355,-317.871,14.16,1293.183,394
1283,1686274587.276,-64.453,-198.242,57.617,-80.078,1293.187,394
1284,1686274587.294,-87.402,202.148,70.312,-76.66,1293.219,391
1285,1686274587.298,-14.16,39.551,29.297,19.043,1293.223,388
1286,1686274587.302,29.785,265.625,140.625,22.949,1293.227,388
1287,1686274587.306,-39.062,417.48,143.555,-79.59,1293.231,388
1288,1686274587.31,-87.891,175.781,29.297,-88.867,1293.235,385
1289,1686274587.313,-40.039,-248.047,-90.332,1.465,1293.239,385
1290,1686274587.317,31.738,-77.637,52.246,22.461,1293.242,385
1291,1686274587.321,-3.418,349.609,184.57,-68.359,1293.246,383
1292,1686274587.325,-78.125,62.012,-19.043,-99.121,1293.25,383
1293,1686274587.329,-55.664,-605.957,-251.465,-5.371,1293.254,383
1294,1686274587.333,16.113,-157.715,35.156,32.715,1293.258,383
1295,1686274587.337,14.648,382.812,160.645,-29.785,1293.262,380
