,timestamps,TP9,AF7,AF8,TP10,Secondary Timestamp,emg_signal
0,1686361616.16,-136.719,0.488,32.227,-183.594,693.057,351.40618487088125
1,1686361616.16,-134.277,258.789,40.527,-130.371,693.061,339.249135442506
2,1686361616.17,-88.867,59.082,11.23,-59.082,693.065,364.24469261128735
3,1686361616.17,-68.359,-122.559,67.383,-95.215,693.069,360.43182125686957
4,1686361616.18,-82.52,272.949,63.965,-163.086,693.072,346.7256418666776
5,1686361616.18,-71.777,67.383,19.043,-115.723,693.076,333.34430484347945
6,1686361616.18,-13.672,-208.984,9.277,-44.434,693.08,340.89197758466815
7,1686361616.19,14.648,24.902,25.391,-54.199,693.084,357.0803115983616
8,1686361616.19,-11.719,380.859,48.828,-120.605,693.088,338.7051296566303
9,1686361616.2,-21.484,275.879,12.207,-176.758,693.092,362.13219441858496
10,1686361616.2,30.273,-307.129,-19.531,-148.926,693.096,366.86702083970897
11,1686361616.2,70.312,-87.891,55.664,-105.469,693.1,361.8012465001167
12,1686361616.21,16.113,475.586,63.477,-125.488,693.116,366.9701701132231
13,1686361616.21,-35.645,217.773,2.93,-116.699,693.12,360.4702459787103
14,1686361616.21,-3.418,-518.555,0.488,7.812,693.124,359.0612868196115
15,1686361616.22,47.852,-129.883,95.703,59.082,693.128,345.1511568789305
16,1686361616.22,38.574,581.543,84.961,-42.969,693.132,333.2348369221411
17,1686361616.23,-15.625,21.973,2.441,-130.859,693.135,346.8289984463485
18,1686361616.23,-18.555,-561.523,11.719,-105.469,693.139,342.93678119345697
19,1686361616.23,20.02,247.559,102.051,-17.09,693.143,349.3311774556378
20,1686361616.24,1.465,706.543,67.383,-4.883,693.147,350.53802500083884
21,1686361616.24,-58.594,99.121,11.23,-87.891,693.151,354.77924627381543
22,1686361616.24,-60.547,-26.855,60.059,-89.844,693.155,343.3603499244277
23,1686361616.25,-11.719,193.848,53.223,-18.066,693.159,356.0877147554957
24,1686361616.27,-11.23,171.387,25.879,-9.766,693.162,352.6140996513725
25,1686361616.27,-71.777,-134.277,8.789,-95.215,693.166,355.7499510866095
26,1686361616.27,-129.883,-452.637,53.711,-135.254,693.17,346.5038409962748
27,1686361616.28,-97.656,354.98,95.215,-36.621,693.174,344.64673422327746
28,1686361616.28,-41.504,637.695,46.875,34.18,693.178,358.73754433530013
29,1686361616.29,-56.152,-71.289,-8.789,-80.078,693.182,334.5777013555577
30,1686361616.29,-93.262,-185.059,31.25,-194.824,693.186,350.6528935830916
31,1686361616.29,-59.082,381.348,84.961,-153.809,693.19,356.0592398471482
32,1686361616.3,-10.742,424.316,35.156,-96.191,693.194,353.906727164782
33,1686361616.3,-54.688,-149.414,-28.32,-92.285,693.197,344.64425704807155
34,1686361616.3,-114.746,-51.27,19.043,-100.586,693.201,333.5024652748601
35,1686361616.31,-83.496,300.781,46.875,-18.555,693.205,353.07786132933313
36,1686361616.31,-12.207,35.156,12.695,119.141,693.207,357.7489072419478
37,1686361616.32,-31.25,-275.391,4.883,113.77,693.211,366.0878460659491
38,1686361616.32,-105.957,98.633,32.227,-20.02,693.215,356.8700079830335
39,1686361616.32,-94.238,387.695,41.016,-36.621,693.219,341.59291975735727
40,1686361616.33,-19.043,157.715,28.32,83.496,693.223,359.60645552092757
41,1686361616.33,16.602,-167.969,24.414,160.156,693.227,344.16069284870264
42,1686361616.34,-18.066,-4.883,30.273,88.867,693.231,352.9772994706963
43,1686361616.34,-52.246,336.914,36.621,50.293,693.235,349.5920346750267
44,1686361616.34,-2.441,48.828,1.465,139.648,693.238,350.24247302793543
45,1686361616.35,37.598,-518.555,8.789,145.508,693.242,358.3038158996491
46,1686361616.35,-7.812,171.875,64.453,26.855,693.246,353.5799295184117
47,1686361616.35,-69.824,411.621,3.906,-52.246,693.25,351.67411145745797
48,1686361616.36,-41.504,-170.41,-15.137,9.766,693.252,355.77503055393174
49,1686361616.36,37.598,-79.59,59.57,60.059,693.256,350.0804856032955
50,1686361616.36,47.852,372.07,48.828,-21.973,693.26,341.8792295329151
51,1686361616.37,-28.32,155.762,-8.301,-96.191,693.264,359.2855935641256
52,1686361616.37,-50.781,-90.332,0.0,-87.402,693.268,353.69268066595737
53,1686361616.38,14.16,-22.949,33.203,-4.395,693.272,341.3914572179659
54,1686361616.38,36.133,307.129,45.898,-7.324,693.276,353.45766970198923
55,1686361616.38,-20.02,396.484,9.277,-139.648,693.28,354.3240339807469
56,1686361616.39,-67.871,-257.324,-39.062,-156.25,693.284,350.614688681908
57,1686361616.39,-37.109,-177.734,52.246,-32.715,693.287,346.97832168541714
58,1686361616.4,10.254,541.504,54.199,30.762,693.291,338.8405858484999
59,1686361616.4,-14.16,124.512,-18.066,-22.461,693.295,355.75922134331233
60,1686361616.4,-46.387,-148.438,17.578,-38.574,693.297,345.41232391819
61,1686361616.4,1.953,243.652,43.457,53.223,693.3,347.57019386515753
62,1686361616.41,58.594,387.695,30.273,126.953,693.304,347.3368442313168
63,1686361616.41,33.203,128.906,10.742,61.523,693.308,360.8390519662474
64,1686361616.42,-22.949,-186.523,12.695,-46.387,693.312,347.1281137553783
65,1686361616.42,-20.508,-193.848,11.23,-23.926,693.316,339.4841672582779
66,1686361616.42,10.254,-10.254,20.02,36.621,693.32,354.5522919116464
67,1686361616.43,-5.371,-13.672,-3.418,-36.621,693.324,362.4561905601454
68,1686361616.43,-68.848,-675.293,-24.414,-117.676,693.328,349.9693935894093
69,1686361616.44,-70.312,-174.805,65.918,-86.914,693.332,341.8786195699509
70,1686361616.44,19.043,644.531,61.523,36.133,693.336,357.32869900541215
71,1686361616.44,79.102,234.863,-4.395,117.188,693.34,367.8013699699044
72,1686361616.45,27.344,-104.98,9.277,67.871,693.342,369.8899915564233
73,1686361616.45,-14.648,175.293,22.949,5.371,693.346,350.0489663197124
74,1686361616.45,32.227,243.164,6.348,34.18,693.35,345.5487230617598
75,1686361616.46,85.449,-54.688,2.93,85.938,693.354,346.1154741312768
76,1686361616.46,74.219,-135.254,39.551,19.043,693.358,356.4737540007678
77,1686361616.47,44.922,-147.949,11.23,-41.504,693.361,345.13421923510253
78,1686361616.47,84.473,-46.387,12.207,25.391,693.365,349.942913985099
79,1686361616.47,137.695,-251.953,-6.348,99.609,693.369,347.7876186246745
80,1686361616.48,111.816,-466.309,37.109,74.707,693.373,367.5416657526727
81,1686361616.48,51.758,306.641,73.242,9.277,693.377,349.04394241161714
82,1686361616.48,54.199,334.961,19.043,65.43,693.381,351.3962982492
83,1686361616.49,118.164,-111.328,6.348,163.574,693.385,348.6492724717338
84,1686361616.49,118.652,91.309,34.18,143.066,693.387,349.2752034106311
85,1686361616.5,39.062,226.562,17.09,80.566,693.391,339.0852673275286
86,1686361616.5,-12.207,-70.312,-3.906,89.355,693.395,353.33453066651754
87,1686361616.5,17.09,-169.434,40.039,135.742,693.399,348.2577647266732
88,1686361616.51,34.18,81.055,32.715,154.297,693.403,364.9106879290321
89,1686361616.51,-21.484,-97.168,0.488,108.398,693.407,346.43113007530076
90,1686361616.52,-59.57,-396.484,-9.766,72.266,693.41,368.308764668467
91,1686361616.52,-17.09,-698.242,-2.441,103.516,693.414,362.5448704658144
92,1686361616.52,45.41,64.941,57.617,113.281,693.418,351.91010607441865
93,1686361616.53,24.414,441.895,8.789,17.09,693.422,361.08497487962364
94,1686361616.53,-34.18,-90.332,-18.066,-45.41,693.426,354.8854116550163
95,1686361616.53,-17.578,-235.84,27.344,29.785,693.43,352.5647435383654
96,1686361616.54,20.996,-66.406,36.133,139.648,693.432,353.6498925221051
97,1686361616.54,-6.348,262.207,17.09,88.867,693.436,370.64676244080425
98,1686361616.54,-62.012,-220.215,-36.133,-32.227,693.44,370.93734228882784
99,1686361616.55,-67.871,-581.055,28.32,-20.996,693.444,376.7592394483204
100,1686361616.55,1.465,258.789,60.547,36.621,693.448,350.67302485346926
101,1686361616.56,42.969,239.746,-23.438,-14.648,693.452,359.94285628950115
102,1686361616.56,-10.254,-418.945,-43.945,-166.504,693.456,354.8047648206902
103,1686361616.56,-53.711,-415.039,34.18,-227.539,693.46,356.3218166775882
104,1686361616.57,-1.953,353.516,59.082,-150.879,693.464,344.4102741910127
105,1686361616.57,38.086,383.789,-1.465,-101.074,693.467,359.18943540445315
106,1686361616.58,-13.184,-126.953,-24.414,-162.598,693.471,353.6455427487479
107,1686361616.58,-67.383,-90.332,-14.16,-199.219,693.475,362.9882263612972
108,1686361616.58,-39.062,60.059,-14.16,-125.488,693.48,363.884705891566
109,1686361616.59,9.766,-187.5,-26.855,-58.594,693.484,353.4796975013772
110,1686361616.59,-15.137,-531.25,-24.902,-82.52,693.488,336.73197765663366
111,1686361616.59,-55.176,-111.816,4.883,-120.117,693.492,351.83014793368505
112,1686361616.6,-38.574,189.453,0.488,-14.16,693.496,352.51933847044114
113,1686361616.6,12.207,-238.281,-32.715,129.883,693.5,340.08372905073946
114,1686361616.61,-10.742,-732.91,-44.434,148.926,693.504,351.542320234391
115,1686361616.61,-67.871,-114.746,9.766,57.129,693.508,353.2267954256441
116,1686361616.61,-59.57,325.684,-2.93,41.016,693.512,351.4335400016392
117,1686361616.62,-2.93,10.254,-29.785,174.805,693.515,345.30971337752345
118,1686361616.62,16.602,12.207,-10.742,196.777,693.519,342.9862184408764
119,1686361616.62,-18.555,-8.301,-29.785,54.199,693.523,352.41616828494773
120,1686361616.63,-28.809,-221.191,-24.414,-6.348,693.536,324.7283856802613
121,1686361616.63,23.926,-319.336,-18.555,83.496,693.54,352.76563519210174
122,1686361616.63,69.336,-245.605,13.672,160.645,693.544,359.37722609738904
123,1686361616.64,51.27,43.945,4.395,108.398,693.548,343.4782833212201
124,1686361616.64,24.902,45.41,-7.812,86.914,693.552,360.3568322509935
125,1686361616.65,58.105,-352.539,-32.715,198.242,693.556,361.7427733103664
126,1686361616.65,110.84,-747.07,-13.672,267.09,693.56,372.49894135747695
127,1686361616.65,90.332,191.895,34.18,162.109,693.563,355.8902051816558
128,1686361616.66,4.883,350.098,-33.691,45.41,693.567,347.1739769222485
129,1686361616.66,3.418,-156.25,-38.574,84.961,693.571,357.283325552903
130,1686361616.66,60.547,109.863,8.789,160.645,693.575,353.3744218887851
131,1686361616.67,61.523,249.023,-19.531,120.605,693.579,365.9379105335751
132,1686361616.68,35.645,-104.98,-50.781,53.711,693.582,356.61169922976524
133,1686361616.69,39.062,-381.348,5.371,70.801,693.586,359.5858112486723
134,1686361616.69,87.891,-50.781,14.16,118.164,693.59,355.73003242671444
135,1686361616.7,106.445,166.992,-26.367,60.059,693.594,354.2251171597751
136,1686361616.7,53.223,-152.832,-43.457,-24.902,693.598,354.99561262470496
137,1686361616.7,13.672,-617.676,-18.555,-4.883,693.601,360.86633365414286
138,1686361616.71,54.199,-412.598,11.719,51.758,693.605,344.5253729488611
139,1686361616.71,101.562,89.844,16.602,106.934,693.609,369.7167261422278
140,1686361616.72,52.734,-0.977,-41.504,56.641,693.613,350.39650702231216
141,1686361616.72,-25.391,-773.438,-58.594,-52.246,693.617,355.70389416803016
142,1686361616.72,-19.043,-148.926,24.414,-47.363,693.621,355.0773188076203
143,1686361616.73,8.789,419.922,-6.348,-16.602,693.625,362.6830709371832
144,1686361616.73,-20.996,-160.156,-41.504,-74.219,693.642,342.8158691054532
145,1686361616.74,-69.824,-309.082,3.418,-147.461,693.646,361.65215217036814
146,1686361616.74,-48.828,159.668,7.324,-77.148,693.649,350.87702432526896
147,1686361616.74,12.207,247.559,-27.832,69.824,693.653,352.56866519574714
148,1686361616.75,43.457,-127.441,-39.551,102.539,693.657,361.87959702844876
149,1686361616.75,7.812,-409.18,-18.066,12.207,693.661,362.3801776841419
150,1686361616.76,-30.273,-51.27,6.348,-56.641,693.665,350.4237080090918
151,1686361616.76,12.695,333.984,-12.695,2.93,693.669,350.00876273480696
152,1686361616.76,48.828,-299.805,-74.219,49.316,693.673,369.0089434812998
153,1686361616.77,18.555,-577.148,10.742,-19.043,693.677,361.85115274807794
154,1686361616.77,15.137,301.27,37.109,-71.777,693.681,363.55409801870024
155,1686361616.77,43.945,338.379,-34.18,-6.836,693.685,357.36487325770685
156,1686361616.78,60.547,-122.07,-23.926,66.895,693.672,361.96781802463283
157,1686361616.78,24.902,59.57,-4.395,33.203,693.676,356.33819819438895
158,1686361616.78,-24.902,165.527,-17.578,-39.062,693.68,369.8237877481268
159,1686361616.79,-4.395,-0.488,-13.184,13.184,693.684,355.79630609798977
160,1686361616.79,50.781,-32.227,15.625,96.68,693.687,379.5771933486474
161,1686361616.8,65.918,-128.906,-13.672,46.387,693.691,336.75565590243144
162,1686361616.8,48.34,-45.898,-11.719,-37.598,693.695,352.94703422150315
163,1686361616.8,61.523,-22.949,-18.555,-2.93,693.699,355.70208073737933
164,1686361616.81,97.656,-329.102,29.297,87.402,693.703,354.60159961535544
165,1686361616.81,107.91,233.887,48.828,42.969,693.707,368.99245989727723
166,1686361616.82,55.176,378.906,-26.367,-66.895,693.711,362.4287081437579
167,1686361616.82,20.02,-174.805,-41.016,-43.945,693.715,353.2320965871615
168,1686361616.82,62.988,-768.555,-27.832,85.938,693.717,370.5650935585831
169,1686361616.82,109.375,26.367,42.48,128.418,693.721,387.4581930051063
170,1686361616.83,75.195,721.68,5.859,26.367,693.725,371.3012410003601
171,1686361616.83,10.254,127.93,-34.668,-39.062,693.729,347.5166706856881
172,1686361616.84,34.18,70.801,28.809,41.992,693.733,368.8813244194439
173,1686361616.84,79.59,281.738,-7.324,139.648,693.737,373.13427395641827
174,1686361616.84,36.133,252.441,-37.109,100.586,693.74,366.5954238498264
175,1686361616.85,-32.227,-141.113,-56.152,0.488,693.744,368.65706513312267
176,1686361616.85,-10.742,-249.512,-3.418,43.457,693.748,383.20182859848285
177,1686361616.86,58.105,612.793,22.949,122.07,693.752,362.6831121600687
178,1686361616.86,60.059,604.98,-42.48,92.285,693.756,360.0295182772272
179,1686361616.86,-4.395,55.664,-56.641,50.781,693.76,385.74237562607556
180,1686361616.88,-22.461,184.082,-39.551,86.914,693.781,370.3427964199688
181,1686361616.89,20.508,372.07,-41.016,99.121,693.785,375.1545217283351
182,1686361616.89,21.973,26.855,-64.941,17.09,693.789,361.9710427412905
183,1686361616.89,-19.043,-361.328,-39.062,-122.559,693.793,389.78138164811975
184,1686361616.9,-45.898,102.051,-23.926,-163.574,693.796,384.6537205458917
185,1686361616.9,-13.184,252.93,-50.781,-58.105,693.8,399.91450986019686
186,1686361616.91,21.973,-15.625,-60.059,4.395,693.804,397.75344846674545
187,1686361616.91,-25.879,-363.281,-69.336,-47.852,693.808,403.53756861069974
188,1686361616.91,-4.395,-24.414,-53.711,-122.07,693.807,378.5799903663989
189,1686361616.91,-56.641,168.457,-34.18,-115.723,693.812,398.7867525607893
190,1686361616.92,15.625,276.855,-45.41,-54.688,693.811,382.8602808155426
191,1686361616.92,-6.348,581.543,-45.898,-72.754,693.816,391.9233545082762
192,1686361616.92,62.988,96.191,-62.988,73.73,693.815,404.9414514518379
193,1686361616.92,49.316,310.547,-63.965,35.156,693.82,399.9050525818308
194,1686361616.92,50.293,-145.02,-37.109,32.715,693.819,418.103437803714
195,1686361616.92,38.086,116.211,-59.082,-8.789,693.824,394.81149447038484
196,1686361616.93,-15.137,205.078,-52.246,-113.77,693.823,410.8617363986717
197,1686361616.93,-36.133,42.969,-62.012,-112.793,693.827,407.06210956296854
198,1686361616.94,20.508,-107.91,-51.758,13.184,693.83,404.5314625316163
199,1686361616.94,68.848,236.328,-31.738,56.152,693.834,410.531293790867
200,1686361616.94,29.785,357.91,-53.223,-23.438,693.838,400.4012413597792
201,1686361616.95,5.371,207.52,-66.406,-78.613,693.842,410.47633443494357
202,1686361616.95,80.566,-436.035,-102.539,-15.137,693.846,417.1531689440486
203,1686361616.95,107.91,-624.023,-39.551,10.254,693.85,423.90366461445245
204,1686361616.96,47.852,369.629,-16.113,-101.562,693.866,430.5429623224134
205,1686361616.96,-4.395,245.117,-83.008,-177.246,693.87,446.55903478877326
206,1686361616.96,12.695,-221.191,-32.715,-85.938,693.873,443.69039447894033
207,1686361616.97,67.871,191.406,-25.391,19.043,693.877,438.94607909462695
208,1686361616.97,60.547,291.016,-62.988,9.277,693.881,468.9784583427164
209,1686361616.98,-16.602,-243.164,-81.055,-37.109,693.885,500.2623475903723
210,1686361616.98,-48.828,-821.289,-73.73,-22.949,693.889,475.0205620695743
211,1686361616.98,3.418,-227.051,-28.809,38.086,693.893,463.2512966975865
212,1686361616.99,25.879,500.977,-43.945,22.949,693.897,502.99419732049023
213,1686361616.99,-34.18,55.176,-76.66,-71.777,693.901,496.24894638369204
214,1686361617.0,-69.336,-333.984,-29.297,-81.055,693.905,496.99497454039897
215,1686361617.0,-15.625,-27.344,-38.086,-1.953,693.909,493.42127464582944
216,1686361617.0,30.762,1.953,-58.105,27.344,693.911,501.2815191532683
217,1686361617.0,-2.441,-285.156,-50.293,-33.691,693.915,518.3152153886468
218,1686361617.01,-45.898,-425.293,-23.926,-57.129,693.919,531.5980228274485
219,1686361617.01,-5.371,141.602,-28.809,-16.602,693.923,538.8721671829916
220,1686361617.02,51.27,267.09,-60.547,-9.766,693.927,543.0751410106992
221,1686361617.02,34.18,-323.242,-83.984,-99.121,693.931,548.5382554573317
222,1686361617.02,-35.156,-509.277,-56.152,-199.219,693.935,552.7782805965965
223,1686361617.03,-41.016,43.945,-37.109,-191.895,693.939,565.1234710235598
224,1686361617.03,2.441,184.57,-67.871,-80.078,693.943,566.6431595955952
225,1686361617.04,-27.344,-447.266,-106.934,-37.598,693.947,568.1698325990358
226,1686361617.04,-96.191,-450.684,-52.246,-85.938,693.95,565.6109575799386
227,1686361617.04,-98.633,69.824,-29.297,-42.48,693.954,591.6342823515577
228,1686361617.06,-41.016,-22.949,-63.965,82.031,693.957,587.5574915526055
229,1686361617.06,-16.113,-561.035,-84.473,114.746,693.961,590.6336921676127
230,1686361617.07,-50.293,-343.75,-53.711,-3.906,693.965,605.0944514365921
231,1686361617.07,-55.664,0.977,-41.992,-81.055,693.969,598.3827630171589
232,1686361617.08,-5.371,-245.605,-61.035,-18.066,693.973,605.3720243614259
233,1686361617.08,18.066,-553.711,-41.504,39.062,693.977,587.6149808839377
234,1686361617.08,-22.461,-360.352,-37.598,-22.461,693.981,587.5587242979952
235,1686361617.09,-56.152,-45.898,-53.711,-79.102,693.985,610.9646633960708
236,1686361617.09,-6.348,-280.762,-70.312,-0.488,693.988,592.045244331376
237,1686361617.1,67.871,-672.363,-29.297,118.164,693.992,579.3039762655671
238,1686361617.1,70.801,-132.812,-20.508,116.211,693.996,602.3977217099208
239,1686361617.1,14.648,-59.082,-77.637,49.316,694.0,584.1971441237099
240,1686361617.11,-3.906,-621.582,-70.312,74.707,694.002,613.1579052831611
241,1686361617.11,44.922,-701.172,-13.672,128.906,694.006,600.9518683038499
242,1686361617.11,48.34,45.898,-14.648,38.086,694.01,594.3994586370553
243,1686361617.12,-7.324,123.047,-74.219,-86.426,694.014,594.2673629227751
244,1686361617.12,-19.043,-447.266,-64.453,-93.75,694.018,609.8748338589786
245,1686361617.13,36.133,-510.742,-37.598,5.371,694.022,594.6561887493283
246,1686361617.13,58.105,-192.383,-29.297,81.055,694.026,588.6741576080027
247,1686361617.13,14.16,0.0,-43.945,10.254,694.03,584.3535573250921
248,1686361617.14,-10.254,-573.242,-79.59,-34.668,694.033,581.9121927407117
249,1686361617.14,29.785,-594.238,-8.301,45.41,694.037,592.5280156538222
250,1686361617.14,63.477,203.125,-14.16,72.754,694.041,603.1701597093042
251,1686361617.15,9.766,50.781,-66.406,-6.836,694.045,604.3333412252773
252,1686361617.15,-47.852,-441.895,-52.734,-42.48,694.05,580.736930283251
253,1686361617.16,-18.555,-210.449,-34.18,47.852,694.054,584.9741519491911
254,1686361617.16,25.879,-44.922,-42.48,167.969,694.058,593.479384506224
255,1686361617.16,16.113,-441.406,-68.359,145.996,694.062,563.5108192841548
256,1686361617.17,-35.645,-771.484,-45.898,61.523,694.066,571.3821874845764
257,1686361617.17,-48.828,-537.598,-41.992,76.172,694.07,579.8324159119195
258,1686361617.18,8.789,-72.266,-28.32,124.023,694.073,560.0494637787335
259,1686361617.18,42.969,-69.336,-57.129,84.473,694.077,578.4296781850364
260,1686361617.18,3.418,-760.254,-67.871,-25.879,694.081,576.5684616801649
261,1686361617.19,-14.16,-270.02,-14.16,-62.988,694.085,567.1847891871377
262,1686361617.19,30.273,254.395,-39.551,4.883,694.089,564.9226000066889
263,1686361617.19,38.574,-197.266,-76.66,23.926,694.093,558.1989136162906
264,1686361617.2,-31.25,-510.254,-61.523,-44.434,694.092,562.0472353403102
265,1686361617.2,-87.402,-174.805,-28.32,-62.5,694.096,558.1987318900636
266,1686361617.2,-49.805,-16.113,-47.852,16.113,694.1,552.9270841635572
267,1686361617.21,2.441,-313.477,-44.922,74.219,694.104,544.0857765952155
268,1686361617.21,-21.973,-427.734,-27.832,11.23,694.108,565.7735243652505
269,1686361617.22,-53.223,-366.699,-50.293,-9.277,694.112,536.5470283032257
270,1686361617.22,-18.066,-249.512,-47.852,108.398,694.115,520.7605859204192
271,1686361617.22,37.598,-466.309,-66.895,230.469,694.119,527.3206226212784
272,1686361617.23,20.508,-792.969,-40.527,210.449,694.123,524.3469912364769
273,1686361617.23,-45.41,43.457,-16.113,65.43,694.127,533.9471566227486
274,1686361617.24,-60.547,214.355,-55.664,0.977,694.131,501.87228262810424
275,1686361617.24,-6.348,-301.758,-64.453,72.754,694.135,523.1460570129337
276,1686361617.26,21.484,-34.668,-39.062,106.445,694.16,492.14458694100534
277,1686361617.26,-26.367,74.219,-48.828,38.086,694.164,495.6537811943739
278,1686361617.26,-65.43,-300.293,-54.688,15.625,694.168,475.93589563104257
279,1686361617.27,-27.832,-390.625,0.488,88.867,694.172,467.1155651805517
280,1686361617.27,0.977,-121.094,-13.184,124.512,694.176,476.636876330987
281,1686361617.28,-28.809,-272.949,-50.781,64.453,694.179,439.38683092529874
282,1686361617.28,-44.922,-527.832,-46.875,-1.465,694.183,442.95962322125223
283,1686361617.28,-14.16,-824.707,-40.527,34.668,694.187,433.58262589684375
284,1686361617.29,106.934,-237.793,-24.414,136.23,694.182,440.54633001702626
285,1686361617.29,46.387,-301.27,4.395,88.867,694.191,436.7760917854162
286,1686361617.29,88.867,184.082,-31.25,65.918,694.186,445.5952141113455
287,1686361617.29,37.598,309.57,-25.391,48.34,694.195,418.0896734236357
288,1686361617.29,20.996,-211.426,-55.664,-74.707,694.19,426.1266112908061
289,1686361617.3,-14.16,-97.656,-64.941,-9.766,694.199,415.3109127704881
290,1686361617.3,0.0,-502.93,-9.277,-58.105,694.194,415.58454847750403
291,1686361617.3,28.32,-507.812,-38.086,44.922,694.203,407.7606243253926
292,1686361617.3,38.574,79.59,-6.836,55.664,694.198,414.684198652669
293,1686361617.31,56.152,-62.012,-56.152,82.52,694.202,391.2615504214051
294,1686361617.31,6.836,-406.25,-50.781,-25.391,694.206,393.12512940085713
295,1686361617.31,-30.273,-163.086,-26.855,-62.988,694.209,387.1211070985778
296,1686361617.32,10.254,139.16,-22.949,17.09,694.213,391.01924943542974
297,1686361617.32,63.477,150.391,-53.711,17.09,694.217,340.4445194279162
298,1686361617.32,38.086,-569.336,-105.957,-88.867,694.221,368.77940666532146
299,1686361617.33,-8.301,-782.227,-6.836,-165.527,694.225,350.6570504625156
300,1686361617.33,16.113,203.125,26.367,-130.859,694.241,359.98671540523003
301,1686361617.33,73.73,301.27,-40.039,-41.504,694.245,313.87199740250264
302,1686361617.34,62.988,-128.418,-16.113,-41.992,694.248,319.6837857743917
303,1686361617.34,11.719,-40.039,-18.066,-63.477,694.252,306.2969850779825
304,1686361617.35,10.742,78.613,-36.133,38.086,694.256,282.4024030980862
305,1686361617.35,62.988,-253.418,-62.012,184.082,694.26,280.0732200200494
306,1686361617.35,63.477,-770.02,-57.617,181.152,694.264,279.8658080437033
307,1686361617.36,-8.301,-211.426,-22.949,13.672,694.268,295.6398462400379
308,1686361617.36,-42.48,242.188,-43.457,-78.613,694.272,263.37161836396695
309,1686361617.36,4.883,-7.324,-50.293,-36.133,694.276,266.7416695245202
310,1686361617.37,53.711,24.414,-21.484,-2.441,694.28,269.3831064278329
311,1686361617.37,18.066,-38.086,-57.129,-52.246,694.284,217.90623621536875
312,1686361617.38,-20.996,-307.617,-55.664,-91.309,694.286,217.26531736592915
313,1686361617.38,17.578,-407.715,-42.48,-27.832,694.29,213.98483146750283
314,1686361617.38,68.848,-664.062,-34.18,15.625,694.294,203.8539425516974
315,1686361617.39,64.941,64.453,-6.836,-95.215,694.297,201.0325433196012
316,1686361617.39,38.574,403.809,-46.387,-165.039,694.301,190.69891964634562
317,1686361617.4,52.246,-336.426,-58.105,-50.293,694.305,189.62875656018818
318,1686361617.4,96.68,-323.73,14.648,32.715,694.309,191.5952283959418
319,1686361617.4,87.402,370.605,-2.441,-29.297,694.313,166.94710906789945
320,1686361617.41,10.254,180.664,-65.43,-110.352,694.317,187.4582574631287
321,1686361617.41,-9.277,-325.684,-70.801,-61.523,694.321,177.74663727833808
322,1686361617.42,48.34,-72.266,-29.785,65.918,694.325,152.3202310177069
323,1686361617.42,73.73,240.723,-26.855,83.496,694.329,166.51622815597742
324,1686361617.44,38.086,-51.27,-61.035,4.395,694.332,166.21190978894913
325,1686361617.44,10.254,-390.137,-27.832,-41.016,694.336,163.35674384403248
326,1686361617.44,42.969,-81.543,-8.789,11.719,694.34,133.69992362682711
327,1686361617.45,74.707,79.102,-33.203,28.809,694.344,144.35269309925096
328,1686361617.45,36.133,-345.703,-45.898,-54.199,694.348,143.0899257292403
329,1686361617.46,3.418,-839.844,-57.617,-36.133,694.352,175.57968183092547
330,1686361617.46,53.711,-322.754,14.648,62.5,694.356,182.95786757373799
331,1686361617.46,122.07,436.523,8.789,104.004,694.359,180.17387137116566
332,1686361617.47,107.91,73.242,-61.523,67.871,694.363,214.38847044323535
333,1686361617.47,44.922,-398.438,12.207,42.969,694.367,211.6928005679231
334,1686361617.48,45.898,50.781,22.461,120.117,694.371,229.61185683711017
335,1686361617.48,105.469,200.684,-45.898,227.539,694.375,220.51073765036702
336,1686361617.48,75.684,-312.5,-58.594,223.633,694.377,195.28526737929278
337,1686361617.48,-20.508,-479.004,14.16,137.207,694.381,239.47923947228736
338,1686361617.49,-35.645,103.027,9.277,155.273,694.385,244.7370145842066
339,1686361617.49,23.926,272.461,-33.203,265.137,694.389,230.75251449438426
340,1686361617.5,37.109,-84.961,-43.945,238.77,694.393,272.43899719685294
341,1686361617.5,-22.461,-367.188,-36.621,87.402,694.397,264.2684296821393
342,1686361617.5,-51.27,-292.48,-19.531,26.855,694.4,274.46035551504264
343,1686361617.51,0.977,-26.367,-33.203,74.707,694.404,264.1488384651766
344,1686361617.51,58.594,-319.336,-74.707,107.422,694.408,298.9858196787977
345,1686361617.52,18.555,-735.352,-30.273,67.871,694.412,304.0756236676838
346,1686361617.52,-39.551,95.703,4.883,-1.953,694.416,297.16794859625236
347,1686361617.52,-3.906,325.195,-33.691,55.176,694.42,349.61320289627633
348,1686361617.53,35.645,-57.129,-29.297,151.367,694.422,340.1688326856369
349,1686361617.53,-2.93,71.289,-17.578,74.219,694.426,361.912895505903
350,1686361617.53,-75.195,61.523,-38.086,-40.039,694.43,345.588916329854
351,1686361617.54,-79.102,-191.895,-39.062,-62.988,694.434,382.68958263994756
352,1686361617.54,0.0,-270.02,3.906,-39.062,694.438,403.57507476375525
353,1686361617.55,25.879,-285.156,-28.809,-83.496,694.442,402.0788147768285
354,1686361617.55,-27.344,-207.031,-15.625,-202.637,694.446,401.8043013871139
355,1686361617.55,-49.805,-140.137,-26.855,-197.754,694.45,426.66553974922175
356,1686361617.56,-3.418,-768.066,-45.898,-120.605,694.454,402.7132518237379
357,1686361617.56,56.641,-312.988,26.855,-147.461,694.457,421.07799505877506
358,1686361617.56,41.016,367.188,-8.301,-259.766,694.461,449.0392527229856
359,1686361617.57,-5.859,-170.41,-66.895,-275.391,694.465,442.0487917031731
360,1686361617.57,27.832,-514.16,-5.859,-156.738,694.467,449.96602480606344
361,1686361617.58,97.656,114.746,12.207,-67.871,694.471,443.6986159247017
362,1686361617.58,70.801,281.738,-47.363,-119.629,694.475,452.63284523574436
363,1686361617.58,-3.418,-301.758,-66.895,-155.762,694.479,451.2638094387116
364,1686361617.59,3.418,-549.805,10.254,-36.621,694.482,449.6822621457472
365,1686361617.59,40.527,-96.191,20.02,80.078,694.486,466.1800476437471
366,1686361617.6,-6.348,46.387,-25.879,29.297,694.49,464.92672285286284
367,1686361617.6,-86.426,-356.934,-53.223,-80.078,694.494,476.5126723529172
368,1686361617.6,-73.73,-436.523,11.719,-112.793,694.498,481.1540697166212
369,1686361617.61,10.742,312.988,20.02,-84.473,694.502,478.0602383767512
370,1686361617.61,49.805,298.828,-45.41,-67.871,694.506,491.5175289099868
371,1686361617.61,21.484,-315.918,-53.223,-84.961,694.51,489.8938961095026
372,1686361617.62,-27.832,-243.164,-29.785,-68.848,694.512,477.51349921819053
373,1686361617.62,-16.602,187.988,-10.254,42.969,694.516,477.9379374126639
374,1686361617.62,4.395,86.426,-42.969,84.473,694.52,494.53338400631185
375,1686361617.63,-48.34,-536.133,-48.828,-2.441,694.523,485.6190575543893
376,1686361617.63,-102.539,-301.758,-19.043,-68.848,694.527,477.129588980621
377,1686361617.64,-74.219,-47.852,-25.879,-34.18,694.531,496.4013603309413
378,1686361617.64,-7.812,-262.207,-39.551,31.25,694.535,471.1812690816044
379,1686361617.64,-25.879,-699.707,-50.781,-65.918,694.539,507.5414289994163
380,1686361617.65,-71.289,-228.516,-12.207,-210.938,694.543,489.5310800717716
381,1686361617.65,-49.316,296.387,-26.367,-175.293,694.547,495.02031085664197
382,1686361617.65,2.441,66.406,-45.41,-50.293,694.551,492.25943297780526
383,1686361617.66,-11.23,-175.293,-24.414,-43.945,694.555,484.45170587519385
384,1686361617.68,-78.125,-283.691,-32.715,-123.535,694.576,446.6834539314398
385,1686361617.68,-75.684,0.977,-23.926,-107.91,694.579,468.1743183739546
386,1686361617.68,-2.93,-218.75,-41.992,1.953,694.583,459.2205883912952
387,1686361617.69,15.137,-746.094,-25.879,36.133,694.587,442.74178650148536
388,1686361617.69,-22.949,-45.898,10.742,-14.648,694.591,453.62876798717
389,1686361617.7,-41.504,115.234,-41.992,11.719,694.595,424.8874544761918
390,1686361617.7,12.207,-412.109,-45.898,136.719,694.599,443.96630601978455
391,1686361617.7,64.941,-282.227,25.879,176.27,694.603,449.15043526545804
392,1686361617.71,-2.441,193.848,-12.695,10.742,694.617,421.1882846368262
393,1686361617.71,11.719,364.258,13.184,86.426,694.607,415.62278579902056
394,1686361617.71,-46.387,-100.586,-43.457,-96.68,694.621,419.69486913775773
395,1686361617.71,-49.316,230.957,-47.852,42.48,694.611,404.05944934442033
396,1686361617.71,-28.809,-340.332,-7.812,-62.012,694.624,440.03106000243025
397,1686361617.72,-24.414,-192.383,-37.109,96.68,694.615,417.19130913767316
398,1686361617.72,25.391,9.277,11.23,-16.602,694.628,380.0496054560751
399,1686361617.72,18.066,15.625,0.0,125.0,694.619,386.1032866916922
400,1686361617.72,33.203,52.734,-30.762,-75.195,694.632,368.4545568572105
401,1686361617.73,-21.484,-387.207,-35.645,-152.832,694.636,383.8551435436937
402,1686361617.73,-35.156,-544.434,14.16,-77.637,694.64,360.50545954631735
403,1686361617.73,18.066,7.812,22.949,52.734,694.644,354.37002008193167
404,1686361617.74,28.809,309.082,-22.949,40.039,694.648,340.31063536062436
405,1686361617.74,-40.039,-129.883,-68.359,-60.547,694.652,338.21913801307187
406,1686361617.74,-73.242,-811.523,-46.387,-65.43,694.656,348.73174793487004
407,1686361617.75,-1.953,-299.805,34.668,38.086,694.66,299.7079964065727
408,1686361617.75,50.781,264.16,0.977,83.008,694.661,286.7409005219605
409,1686361617.75,3.906,-107.422,-44.922,4.395,694.665,291.79681710072
410,1686361617.76,-51.758,-364.258,29.785,-31.738,694.669,238.2931613776097
411,1686361617.76,-7.324,238.281,38.086,53.223,694.673,240.5586460908558
412,1686361617.77,67.871,369.141,-26.367,141.113,694.677,248.87809311295157
413,1686361617.77,47.852,-216.797,-46.387,83.984,694.681,191.99366725125918
414,1686361617.77,0.0,-365.723,-20.996,-16.602,694.685,200.44955912893803
415,1686361617.78,21.973,-119.629,-5.371,8.789,694.689,209.1471664095726
416,1686361617.78,70.312,159.18,-13.184,128.906,694.692,201.5363504763452
417,1686361617.78,61.035,-320.312,-63.477,129.883,694.696,202.71761628650358
418,1686361617.79,10.254,-588.867,12.695,5.859,694.7,173.16663803019188
419,1686361617.79,-3.906,162.109,14.16,1.465,694.704,165.40734416902853
420,1686361617.81,37.598,65.43,-46.387,121.582,694.707,116.86994506009474
421,1686361617.82,60.059,-225.586,-22.949,135.254,694.711,110.1092029064083
422,1686361617.82,18.555,23.926,-19.531,51.758,694.715,113.99653655100933
423,1686361617.82,-10.742,144.043,-28.809,51.758,694.719,124.49318200901062
424,1686361617.83,11.719,-93.262,-41.992,179.199,694.723,107.29259215359954
425,1686361617.83,42.969,-432.617,-3.418,262.207,694.727,97.42383779210705
426,1686361617.84,12.695,-218.262,14.16,109.375,694.731,96.91787399418239
427,1686361617.84,-38.574,139.16,-19.043,-46.875,694.735,94.25786583476568
428,1686361617.84,-14.16,-103.516,-47.852,-16.602,694.739,80.38743666043004
429,1686361617.85,32.227,-703.613,-7.324,26.367,694.743,92.46527572415029
430,1686361617.85,30.762,-229.492,30.762,-74.707,694.747,90.8030581397082
431,1686361617.85,-26.855,183.105,-23.438,-205.566,694.75,79.23908784910402
432,1686361617.87,-57.617,-318.848,-54.199,-199.219,694.768,83.46515221620915
433,1686361617.88,-1.953,-781.25,-16.602,-86.426,694.772,87.83592684563682
434,1686361617.88,39.551,31.738,40.039,-50.781,694.776,75.27579533058504
435,1686361617.88,6.836,433.105,-5.859,-139.648,694.78,89.24940855512831
436,1686361617.89,-7.324,-150.391,-42.48,-138.672,694.784,98.21232926497909
437,1686361617.89,44.434,-267.578,-11.23,14.648,694.788,80.2949973562825
438,1686361617.9,86.426,-48.828,-5.859,77.637,694.792,91.62924903041957
439,1686361617.9,56.641,170.898,-16.113,-27.344,694.796,74.29386376484409
440,1686361617.9,20.02,-355.957,-53.711,42.48,694.797,71.49873228636504
441,1686361617.9,2.93,-367.676,-59.082,-86.426,694.799,77.50986828274536
442,1686361617.9,45.41,-115.723,2.93,106.934,694.801,70.15940916171311
443,1686361617.91,37.109,-456.055,24.414,1.953,694.803,73.68632320219926
444,1686361617.91,116.211,264.16,0.488,160.156,694.805,88.69323314277297
445,1686361617.91,103.516,376.465,33.691,75.684,694.807,93.78609473476432
446,1686361617.91,104.004,22.949,-40.527,98.633,694.809,90.2828800416135
447,1686361617.91,82.031,215.82,-58.105,57.617,694.811,90.46310870730912
448,1686361617.92,17.09,-618.164,-6.348,-20.02,694.813,84.61720073604282
449,1686361617.92,-8.301,-420.898,23.438,-37.109,694.817,97.11118510437653
450,1686361617.92,64.453,41.504,-9.277,63.965,694.821,101.93073024560007
451,1686361617.93,90.82,46.387,-30.273,69.336,694.825,96.79281991438937
452,1686361617.93,21.973,-205.566,-20.996,-29.785,694.829,102.66621421402839
453,1686361617.94,-12.695,-21.973,-22.949,-74.707,694.832,88.07909770324089
454,1686361617.94,46.875,229.492,-24.902,-18.066,694.836,98.95458875679753
455,1686361617.94,104.004,-7.812,-49.805,57.617,694.84,109.29336109205074
456,1686361617.95,82.52,-835.449,-42.969,8.301,694.842,104.48955703026702
457,1686361617.95,43.945,-311.035,32.227,-81.055,694.846,90.36057459566489
458,1686361617.95,54.199,439.941,-25.391,-34.18,694.85,119.53217689506039
459,1686361617.96,73.242,45.41,-41.504,-10.742,694.854,104.91925697376509
460,1686361617.96,34.668,-14.16,2.93,-79.102,694.858,90.38462315277506
461,1686361617.97,-27.832,11.23,-24.414,-95.703,694.862,113.62970269411159
462,1686361617.97,-24.414,32.715,-20.508,-32.227,694.866,125.88431450093721
463,1686361617.97,40.039,-126.953,-39.551,49.805,694.87,145.31123996373933
464,1686361617.98,56.152,-163.574,18.555,19.531,694.873,126.67395701925369
465,1686361617.98,-9.277,422.852,15.625,-112.305,694.877,145.8904759168885
466,1686361617.98,-46.387,318.359,-41.992,-132.324,694.881,137.3713203048898
467,1686361617.99,14.648,-43.457,-23.926,15.137,694.885,137.57164315330252
468,1686361617.99,64.453,154.297,-7.324,91.309,694.889,140.71743827705302
469,1686361618.0,17.578,280.273,-27.832,-39.062,694.893,151.28677991685646
470,1686361618.0,-46.387,-0.488,-29.785,-114.746,694.897,139.50928242569975
471,1686361618.0,-14.648,-147.461,17.578,-60.547,694.901,186.39646817430045
472,1686361618.01,43.457,93.262,1.953,-52.246,694.905,182.96737284190013
473,1686361618.01,15.137,-0.488,-31.25,-142.578,694.909,172.10290947426992
474,1686361618.02,-34.668,-231.445,-60.059,-238.77,694.913,169.33790929592843
475,1686361618.02,-1.953,-700.684,-56.152,-141.602,694.917,169.4572468228376
476,1686361618.02,67.383,-87.891,55.176,-4.395,694.921,187.73280708196882
477,1686361618.03,76.172,643.066,4.883,-42.48,694.925,163.01818324232804
478,1686361618.03,39.551,263.184,-49.316,-111.816,694.929,175.71630174823324
479,1686361618.04,44.922,31.738,-17.578,-69.336,694.932,198.30938544538915
480,1686361618.04,102.539,115.234,-9.277,34.18,694.932,193.67644925702388
481,1686361618.04,108.887,378.906,-12.695,17.09,694.936,172.49732268742986
482,1686361618.04,46.387,75.195,-39.062,-128.418,694.94,195.93371026563202
483,1686361618.05,35.645,-8.789,14.648,-123.047,694.944,208.71519220859702
484,1686361618.05,86.426,340.82,11.23,57.617,694.948,193.78656975854275
485,1686361618.06,99.609,211.426,-23.926,155.762,694.951,205.57160306642035
486,1686361618.06,44.922,-189.453,-50.293,93.262,694.955,196.0587627663439
487,1686361618.06,12.695,-802.246,-45.41,30.762,694.959,221.80072248633496
488,1686361618.07,73.242,41.016,27.344,102.051,694.963,198.85183096710372
489,1686361618.07,128.418,845.215,-7.324,153.809,694.967,235.7883282555458
490,1686361618.08,86.426,170.898,-72.266,60.547,694.971,241.06739183467266
491,1686361618.08,36.133,125.977,-10.254,-24.902,694.975,238.55774919966115
492,1686361618.08,42.48,566.895,3.418,28.809,695.006,246.6593122093411
493,1686361618.08,76.66,445.801,-28.809,121.094,695.01,225.2273675521057
494,1686361618.09,81.055,143.066,-2.93,91.309,695.014,246.15303114428758
495,1686361618.09,34.668,232.91,-8.301,-2.441,695.017,243.8432122040463
496,1686361618.1,27.344,333.496,-39.551,37.109,695.021,241.79131096598238
497,1686361618.1,71.289,-2.441,-61.035,144.043,695.025,262.6656161279007
498,1686361618.1,82.52,-480.469,-53.223,141.113,695.029,252.3794233435443
499,1686361618.11,53.711,125.977,4.395,52.246,695.033,260.47095250570237
500,1686361618.11,35.156,585.938,-34.668,21.484,695.037,247.67250997775474
501,1686361618.12,68.359,270.02,-47.852,92.773,695.041,280.827576228908
502,1686361618.12,123.047,145.02,-9.277,133.301,695.045,280.54098744629755
503,1686361618.12,116.211,109.375,-26.367,43.945,695.049,281.1957148856232
504,1686361618.13,72.266,113.77,-35.156,-60.547,695.036,299.98314330543644
505,1686361618.13,91.797,55.664,-42.48,4.883,695.04,286.0521849485934
506,1686361618.14,144.043,-333.984,-28.809,133.301,695.044,300.2946089327881
507,1686361618.14,153.809,373.535,23.438,90.332,695.048,298.8574299232861
508,1686361618.14,127.441,736.816,-22.461,-8.789,695.052,306.8356421008328
509,1686361618.15,132.812,19.043,-39.551,21.484,695.056,305.83064367267417
510,1686361618.15,183.105,53.711,38.574,109.375,695.06,294.64443133181464
511,1686361618.15,160.156,652.832,9.766,47.363,695.063,300.4273620971761
512,1686361618.16,47.852,472.168,-50.781,-106.445,695.067,302.26001606646315
513,1686361618.16,2.441,12.207,-57.129,-85.449,695.071,331.30821177281433
514,1686361618.17,65.918,257.812,-3.906,41.504,695.075,325.4944609105457
515,1686361618.17,96.191,572.754,-2.93,63.965,695.079,306.8171183994756
516,1686361618.19,35.645,265.625,-55.664,2.441,695.082,333.5132917456022
517,1686361618.19,-13.184,-239.258,-54.199,2.441,695.086,327.874585183549
518,1686361618.19,49.805,122.559,1.953,103.027,695.09,329.77498213137704
519,1686361618.2,100.586,552.246,-4.395,126.953,695.094,329.6868223717645
520,1686361618.2,40.039,236.328,-57.129,20.02,695.098,332.13574547682396
521,1686361618.21,-21.973,-628.906,-54.688,-22.461,695.102,338.26625090060605
522,1686361618.21,-4.395,-167.48,30.273,59.57,695.105,323.3529645397379
523,1686361618.21,51.758,738.281,21.973,129.395,695.109,309.43210789561044
524,1686361618.22,56.641,332.52,-41.504,99.121,695.113,329.25911817877864
525,1686361618.22,11.23,-173.828,9.766,10.742,695.117,333.7758816705328
526,1686361618.22,23.438,228.516,6.836,17.09,695.121,342.82364779279885
527,1686361618.23,96.191,421.875,-35.645,117.676,695.125,327.22529226004366
528,1686361618.23,113.77,-39.551,-36.621,101.562,695.127,348.79118251156603
529,1686361618.24,77.637,-244.141,20.02,1.953,695.131,335.52676346771784
530,1686361618.24,88.867,350.586,21.484,32.715,695.135,334.7286519706268
531,1686361618.24,147.461,480.469,-34.18,153.32,695.139,341.87343389711356
532,1686361618.25,166.504,52.246,-31.25,141.602,695.143,347.571450709138
533,1686361618.25,105.469,-148.438,-17.09,26.855,695.147,346.0484290820736
534,1686361618.26,41.992,187.5,-7.812,36.621,695.151,360.83474231501566
535,1686361618.26,93.75,528.32,-18.555,173.828,695.155,351.720260312077
536,1686361618.26,181.641,30.273,-52.734,241.699,695.159,347.0499483019822
537,1686361618.27,163.086,-125.977,6.348,171.875,695.162,357.66862053468503
538,1686361618.27,96.68,479.004,5.859,93.75,695.166,358.2858654764404
539,1686361618.27,92.773,389.16,-39.062,123.047,695.17,372.98793712811954
540,1686361618.28,147.949,85.938,-47.363,192.871,695.172,361.53719166751506
541,1686361618.28,144.531,254.883,-33.203,145.996,695.176,354.0634770985852
542,1686361618.28,82.52,316.895,-45.41,52.246,695.18,387.7601315688664
543,1686361618.29,90.82,101.562,-49.316,26.855,695.184,367.60857054104673
544,1686361618.29,153.809,-33.691,-9.766,60.547,695.188,389.059093098123
545,1686361618.3,148.438,-63.477,-54.199,35.645,695.192,418.19921221759387
546,1686361618.3,52.734,-52.246,-47.852,-83.984,695.196,416.14314615195946
547,1686361618.3,6.348,-95.215,-42.48,-122.07,695.199,386.0382105301996
548,1686361618.31,76.66,-583.496,-57.617,-1.465,695.203,423.88327587282686
549,1686361618.31,119.141,13.672,21.484,55.664,695.207,399.6972189656118
550,1686361618.32,55.664,695.801,-19.043,-69.824,695.211,403.3536865309966
551,1686361618.32,-24.902,177.734,-70.801,-140.625,695.215,405.14575189190487
552,1686361618.32,-5.859,-42.969,-20.02,-20.996,695.217,415.84220747322803
553,1686361618.32,63.477,400.879,-0.977,72.266,695.221,417.0563814758034
554,1686361618.33,52.734,416.016,-50.781,35.156,695.225,417.7245388283672
555,1686361618.33,3.906,-113.281,-63.477,-17.09,695.229,424.53138836006724
556,1686361618.34,27.832,-152.832,7.324,59.57,695.233,413.48164853815825
557,1686361618.34,75.195,89.355,-20.02,154.785,695.237,439.2251977180354
558,1686361618.34,61.523,98.145,-51.27,75.195,695.241,443.51163734442997
559,1686361618.35,7.812,-184.082,-62.012,-61.523,695.245,422.7517205635105
560,1686361618.35,4.883,-253.418,-20.508,-52.734,695.248,426.3055312058245
561,1686361618.36,57.617,323.73,7.812,20.508,695.252,432.82301753076143
562,1686361618.36,76.172,494.141,-30.762,19.531,695.256,436.9568796472377
563,1686361618.36,27.344,-90.332,-67.383,-40.527,695.26,420.57640692067565
564,1686361618.36,-2.93,-35.156,-21.484,-35.156,695.262,429.9683099580233
565,1686361618.37,39.062,383.301,-12.695,39.062,695.266,426.50442624930037
566,1686361618.37,85.449,213.379,-33.691,47.852,695.27,426.85747662278015
567,1686361618.38,51.758,-64.453,-8.301,-44.434,695.274,420.2314922438261
568,1686361618.38,1.953,10.254,-25.879,-85.938,695.278,411.8125815577256
569,1686361618.38,15.137,-48.34,-47.852,-13.672,695.281,423.39331736529806
570,1686361618.39,51.758,-204.59,-48.34,38.086,695.285,429.68638017841766
571,1686361618.39,32.715,-566.406,-50.781,-13.184,695.289,432.4754671596183
572,1686361618.4,-15.137,-39.551,-3.906,-68.359,695.293,417.6780505897483
573,1686361618.4,1.953,458.008,-20.508,-32.227,695.297,422.9293318946945
574,1686361618.4,37.109,161.133,-34.18,40.039,695.301,409.20117545182046
575,1686361618.41,33.203,-19.531,-27.832,38.574,695.305,409.7055919217829
576,1686361618.41,-9.277,-182.617,-37.598,-51.758,695.308,400.32566061337906
577,1686361618.42,-32.715,-0.977,-19.531,-75.684,695.312,396.2006042284639
578,1686361618.42,15.625,-16.113,-43.457,17.578,695.316,412.7546053339208
579,1686361618.42,67.871,-571.289,-30.762,56.152,695.32,396.86699728287704
580,1686361618.43,42.969,41.992,6.836,-35.156,695.324,413.80201525348514
581,1686361618.43,-11.23,239.746,-41.992,-83.984,695.328,402.8507938583632
582,1686361618.44,-0.977,-255.371,-38.574,-41.992,695.332,410.60969509068485
583,1686361618.44,31.25,-176.758,24.902,4.883,695.336,398.87491711815363
584,1686361618.44,-0.488,410.645,5.859,-48.828,695.34,393.7109780618627
585,1686361618.45,-33.203,308.594,-40.527,-104.004,695.344,387.9647819886492
586,1686361618.45,10.254,-70.312,-19.043,-27.344,695.347,373.35053290982086
587,1686361618.45,74.707,133.789,6.348,24.414,695.351,395.5413345443563
588,1686361618.46,70.801,262.207,-23.926,-27.832,695.367,392.6009421185048
589,1686361618.46,20.02,-80.566,-59.57,-31.25,695.371,398.1366730387185
590,1686361618.46,14.16,-461.426,-21.973,54.199,695.375,396.86395846825644
591,1686361618.47,45.898,24.902,27.344,88.867,695.378,392.39016190494846
592,1686361618.47,22.949,333.984,-17.09,20.02,695.382,405.5285978220685
593,1686361618.48,-38.086,-220.703,-70.312,-70.312,695.386,395.61254297816924
594,1686361618.48,-37.598,-842.773,-51.758,-82.031,695.39,389.06011239045904
595,1686361618.48,39.062,-92.773,41.992,-11.719,695.394,399.0224296926118
596,1686361618.49,81.055,580.566,12.207,46.387,695.398,393.42484790680726
597,1686361618.49,25.879,164.062,-40.039,6.836,695.402,395.46987393957016
598,1686361618.5,-19.531,-48.828,-1.953,-40.527,695.406,389.7485767079904
599,1686361618.5,12.207,-92.285,3.418,8.301,695.41,379.71585274502957
600,1686361618.5,70.312,-1.465,-14.16,34.18,695.427,380.0299571832387
601,1686361618.5,62.5,-106.934,-27.344,-31.25,695.431,393.7613088959088
602,1686361618.51,21.484,-324.219,28.809,-64.941,695.435,385.15229410276874
603,1686361618.51,41.992,211.914,38.574,-5.859,695.439,397.86210346885093
604,1686361618.52,92.285,349.121,-12.207,51.27,695.443,382.06145657413987
605,1686361618.52,84.473,-200.684,-25.391,-9.766,695.447,377.79323512300704
606,1686361618.52,22.949,-403.32,22.461,-127.93,695.451,385.273041874737
607,1686361618.53,15.137,225.586,34.18,-160.645,695.455,369.8901832575274
608,1686361618.53,63.477,424.316,-5.371,-63.965,695.459,369.1663991215571
609,1686361618.54,80.566,-147.949,-39.551,-8.301,695.462,368.950832059646
610,1686361618.54,36.621,-137.695,17.578,-52.246,695.466,380.6538125852836
611,1686361618.54,2.441,320.312,28.32,-40.527,695.47,376.93367814537993
612,1686361618.56,42.969,222.656,-5.371,58.594,695.457,362.4749676817982
613,1686361618.56,63.477,-48.34,-1.953,104.492,695.461,377.88877341499034
614,1686361618.57,17.578,42.969,16.602,20.508,695.465,373.53338998696034
615,1686361618.57,-8.789,159.668,14.648,-7.324,695.469,370.589343808372
616,1686361618.58,27.832,-6.348,-8.301,69.336,695.473,376.52857393099777
617,1686361618.58,81.055,-352.539,41.016,81.543,695.477,371.551898922529
618,1686361618.58,62.988,-110.352,51.758,-30.273,695.481,370.14547607896384
619,1686361618.59,5.371,75.684,-11.23,-125.0,695.485,364.5620084717076
620,1686361618.59,8.301,-153.809,-1.953,-90.82,695.488,365.3184403907688
621,1686361618.6,61.523,-34.18,53.711,-40.527,695.492,372.27374666684966
622,1686361618.6,76.172,360.84,48.34,-95.215,695.496,356.4189340547766
623,1686361618.6,21.484,199.707,4.883,-189.453,695.5,361.4949130543737
624,1686361618.61,-11.719,-220.703,-6.836,-186.035,695.516,355.2588438551887
625,1686361618.61,-0.488,-798.34,-4.883,-74.707,695.52,355.1189508485717
626,1686361618.61,1.953,-184.57,85.938,-22.461,695.524,360.2371897077379
627,1686361618.62,-46.387,650.391,57.617,-93.75,695.528,362.54410272490026
628,1686361618.62,-108.398,188.477,-20.996,-146.484,695.532,351.5308249336338
629,1686361618.63,-94.238,-35.645,15.137,-98.633,695.536,391.5589942604572
630,1686361618.63,-51.27,217.285,51.27,-67.383,695.54,371.3469204269103
631,1686361618.63,-81.055,415.039,23.438,-132.324,695.543,384.1892967070879
632,1686361618.64,-125.488,-170.898,-24.902,-174.316,695.547,356.8396994970184
633,1686361618.64,-84.473,-380.859,53.711,-135.254,695.551,366.2123457739939
634,1686361618.64,1.953,304.199,91.797,-91.797,695.555,360.80257845044906
635,1686361618.65,11.719,433.105,37.598,-134.766,695.559,373.9662432538001
636,1686361618.65,-47.852,-174.316,-17.09,-182.129,695.547,364.0426955692247
637,1686361618.65,-50.781,-1.465,39.062,-157.715,695.551,361.6701540123228
638,1686361618.66,3.906,431.641,61.523,-120.605,695.555,366.44708833180766
639,1686361618.66,8.301,228.516,24.902,-119.629,695.559,367.3437918810924
640,1686361618.67,-55.176,-120.605,29.785,-181.641,695.563,352.06799945194484
641,1686361618.67,-80.078,-269.043,27.344,-189.453,695.567,358.2098653433471
642,1686361618.67,-19.043,59.082,57.617,-136.23,695.571,356.7487477893329
643,1686361618.68,2.93,142.578,33.691,-163.086,695.574,351.5090769913464
644,1686361618.68,-71.289,-530.273,-5.371,-265.137,695.578,346.1829480354295
645,1686361618.68,-150.879,-65.918,62.5,-276.367,695.582,331.92692878950635
646,1686361618.69,-139.648,504.395,57.129,-163.086,695.586,349.4627737304503
647,1686361618.69,-84.473,-103.516,-6.348,-97.168,695.59,329.9660488356123
648,1686361618.7,-84.961,-718.75,7.812,-118.164,695.593,328.6712615621128
649,1686361618.7,-93.262,-101.074,95.703,-150.391,695.597,328.8285270143236
650,1686361618.7,-46.875,479.004,93.75,-103.027,695.601,336.36715165140095
651,1686361618.71,24.414,100.098,44.434,-11.719,695.605,316.55605671213266
652,1686361618.71,34.668,-133.301,68.848,-33.691,695.609,320.33045383590587
653,1686361618.72,-8.301,76.66,86.914,-67.383,695.613,326.0126471180816
654,1686361618.72,-16.113,137.695,68.359,-12.207,695.617,315.2049454559215
655,1686361618.72,30.762,-71.777,46.387,66.895,695.62,310.27122604673224
656,1686361618.73,47.363,-139.16,94.727,30.762,695.624,323.5738152040101
657,1686361618.73,-1.953,405.273,100.098,-92.285,695.628,319.38486941548695
658,1686361618.74,-39.062,335.938,50.293,-63.477,695.632,311.30126899808664
659,1686361618.74,-2.441,12.207,49.805,114.746,695.636,299.37142726618526
660,1686361618.74,16.602,211.914,77.637,130.371,695.637,303.86621258539265
661,1686361618.74,-46.387,294.922,61.035,-5.371,695.641,309.34112615644204
662,1686361618.75,-102.051,-81.543,21.973,-49.805,695.645,287.9311489354107
663,1686361618.75,-78.125,-369.141,54.688,-20.02,695.649,299.17623965920274
664,1686361618.76,-17.09,73.242,86.426,-15.137,695.653,279.58542389775505
665,1686361618.76,-26.855,89.355,49.316,-81.543,695.657,282.5749681542642
666,1686361618.76,-74.707,-233.887,35.645,-156.25,695.661,295.1820541068036
667,1686361618.77,-73.73,-662.598,22.461,-122.559,695.665,292.0003954132577
668,1686361618.77,-27.832,-8.789,116.211,-65.43,695.669,306.6089075542288
669,1686361618.78,-35.156,636.23,107.422,-88.867,695.672,295.63573046495327
670,1686361618.78,-115.723,197.754,46.387,-150.879,695.676,297.08794485696984
671,1686361618.78,-138.184,-78.125,57.617,-151.367,695.68,291.2265849066331
672,1686361618.79,-78.125,-14.648,85.449,-51.27,695.682,304.9558467483845
673,1686361618.79,-62.012,369.141,94.727,2.93,695.686,293.09096711821064
674,1686361618.79,-115.723,11.23,28.809,-85.449,695.69,286.21376427545295
675,1686361618.8,-139.648,-337.891,93.262,-165.527,695.694,293.14972418898964
676,1686361618.8,-87.891,208.008,120.605,-116.211,695.698,297.07297586258863
677,1686361618.81,-41.992,228.027,77.148,-50.781,695.702,289.65320668986374
678,1686361618.81,-72.754,-242.188,49.805,-94.727,695.706,307.0207028378987
679,1686361618.81,-128.418,-721.68,61.035,-135.254,695.71,293.0180181388865
680,1686361618.82,-102.539,269.531,142.09,-53.711,695.714,303.9184087949203
681,1686361618.82,-46.875,666.992,105.469,42.969,695.718,304.1592345449562
682,1686361618.82,-54.199,62.988,69.824,-11.23,695.721,286.12591510176156
683,1686361618.83,-93.262,149.902,95.703,-127.441,695.725,295.33694269443896
684,1686361618.83,-86.426,297.852,101.074,-123.535,695.741,295.4217026395758
685,1686361618.84,-34.18,163.086,92.285,2.441,695.745,282.4987735582583
686,1686361618.84,-29.785,-87.402,81.055,40.039,695.748,298.912111381392
687,1686361618.84,-80.078,37.109,88.379,-57.617,695.752,293.4404049403126
688,1686361618.85,-91.797,185.059,93.75,-64.941,695.756,293.9800729738326
689,1686361618.85,-52.734,-123.047,59.57,68.848,695.76,301.5730712555419
690,1686361618.86,-61.523,-604.98,41.016,98.145,695.764,295.9038795593156
691,1686361618.86,-113.281,-82.52,120.117,-43.457,695.768,307.12140969346746
692,1686361618.86,-133.789,241.211,102.539,-128.906,695.772,310.725914544051
693,1686361618.87,-77.148,-65.918,83.008,-100.586,695.776,297.54465949423985
694,1686361618.87,-13.184,-9.766,136.719,-54.199,695.78,307.42503196897627
695,1686361618.87,-34.18,249.023,114.258,-125.977,695.784,309.7163561200189
696,1686361618.88,-91.797,81.055,82.031,-174.805,695.786,303.9759325643597
697,1686361618.88,-68.359,-60.547,103.516,-96.191,695.79,309.84181977226365
698,1686361618.88,-12.695,-70.801,131.836,-31.738,695.794,316.46697469667856
699,1686361618.89,-46.875,416.992,140.625,-119.141,695.798,311.04634207326967
700,1686361618.89,-109.863,456.055,101.074,-250.977,695.802,305.9891618084183
701,1686361618.9,-101.074,-213.867,75.684,-229.98,695.806,302.667082580988
702,1686361618.9,-66.895,-213.867,145.996,-138.672,695.81,303.31058921967633
703,1686361618.9,-66.895,494.629,155.762,-156.25,695.814,327.4166887145458
704,1686361618.91,-115.723,372.07,86.426,-194.336,695.818,304.50038053592374
705,1686361618.91,-131.348,-135.254,65.43,-172.852,695.822,320.5021944687635
706,1686361618.92,-48.828,-7.324,112.305,-98.145,695.825,314.0836390909832
707,1686361618.92,1.953,189.453,127.93,-60.547,695.829,321.0627869895926
708,1686361618.94,-49.805,175.781,105.469,-145.508,695.832,332.4251344115002
709,1686361618.94,-112.305,-253.418,70.312,-218.262,695.836,320.421282292031
710,1686361618.94,-78.613,-2.93,130.859,-153.809,695.84,302.7144106990876
711,1686361618.95,-12.207,477.051,150.391,-93.75,695.844,325.18660299856344
712,1686361618.95,-43.457,184.57,87.402,-149.902,695.848,312.0870734877167
713,1686361618.96,-107.422,-395.996,83.008,-226.562,695.852,317.072863662003
714,1686361618.96,-95.215,-142.09,140.137,-202.637,695.855,320.031953820404
715,1686361618.96,-60.547,451.172,164.551,-102.051,695.859,336.63309153726937
716,1686361618.97,-98.633,142.09,108.398,-84.961,695.863,314.1918886042389
717,1686361618.97,-163.086,-552.246,97.656,-189.453,695.867,331.4112289805057
718,1686361618.98,-161.133,24.902,167.48,-229.492,695.871,328.8493537969716
719,1686361618.98,-94.238,391.602,127.441,-155.762,695.875,318.97498456237525
720,1686361618.98,-75.195,-147.949,94.727,-121.582,695.878,338.7657117053194
721,1686361618.98,-138.184,-468.262,139.16,-201.66,695.882,321.0985568022284
722,1686361618.99,-163.086,193.848,171.875,-246.094,695.886,327.195551863702
723,1686361618.99,-102.539,521.973,135.254,-184.082,695.89,345.2201730114509
724,1686361619.0,-59.082,60.547,101.562,-147.461,695.894,335.6070247593447
725,1686361619.0,-92.773,-287.109,119.629,-212.402,695.898,341.28810485888926
726,1686361619.0,-145.508,1.953,161.133,-285.645,695.902,318.90270859923726
727,1686361619.01,-137.207,377.93,152.832,-232.422,695.906,325.74356905574274
728,1686361619.01,-93.75,-78.613,98.633,-137.207,695.91,339.95266619547004
729,1686361619.02,-112.305,-306.641,161.621,-148.438,695.914,324.0459144704776
730,1686361619.02,-159.18,272.949,171.875,-167.48,695.917,330.015975039851
731,1686361619.02,-128.418,256.348,131.836,-43.945,695.921,347.50665298540275
732,1686361619.03,-66.895,-53.711,128.906,68.848,695.922,328.5250590530417
733,1686361619.03,-82.031,117.676,135.742,-2.93,695.926,331.90132176605914
734,1686361619.03,-160.645,221.191,136.23,-157.715,695.93,331.9460390288466
735,1686361619.04,-194.336,-47.852,116.211,-193.848,695.934,327.3842544119285
736,1686361619.04,-148.438,-293.945,127.93,-115.234,695.938,335.98238261860143
737,1686361619.05,-93.75,-179.199,135.742,-95.215,695.942,333.5923739030896
738,1686361619.05,-100.586,89.355,141.602,-161.621,695.945,348.34474270131204
739,1686361619.05,-122.07,37.109,97.656,-183.105,695.949,353.0720457122269
740,1686361619.06,-71.777,-699.707,64.941,-104.98,695.953,328.86371207947565
741,1686361619.06,-16.113,-81.543,173.34,-66.406,695.957,337.2204451981775
742,1686361619.06,-45.898,584.961,150.879,-125.977,695.961,334.3891683403899
743,1686361619.07,-86.914,17.09,96.68,-166.504,695.965,336.1090566041113
744,1686361619.07,-64.453,-211.914,149.902,-96.191,695.967,343.012111181655
745,1686361619.08,-10.254,247.07,172.363,-22.461,695.971,337.11108058001827
746,1686361619.08,-19.043,350.586,125.0,-92.285,695.975,331.7879249611081
747,1686361619.08,-102.539,-119.141,86.914,-205.566,695.979,329.77452817775725
748,1686361619.09,-115.723,-214.844,132.324,-162.598,695.983,340.9769566423126
749,1686361619.09,-65.43,-2.441,130.371,-40.039,695.987,358.9839652309999
750,1686361619.1,-71.777,93.262,116.699,-49.316,695.991,340.70296172514645
751,1686361619.1,-130.371,-269.043,67.383,-140.137,695.995,346.8568518244637
752,1686361619.1,-144.531,-745.605,90.82,-121.094,695.998,341.11134281087425
753,1686361619.11,-67.383,307.129,180.664,-23.438,696.002,348.5204220879915
754,1686361619.11,-14.648,594.238,129.395,1.465,696.006,335.0570745016072
755,1686361619.11,-56.641,-56.152,90.82,-67.871,696.01,347.050326768746
756,1686361619.12,-100.586,47.363,108.398,-94.727,696.012,354.8035399339949
757,1686361619.12,-90.332,267.09,125.977,-13.672,696.016,334.1853470952447
758,1686361619.12,-83.008,139.16,112.305,68.848,696.02,344.0930700292476
759,1686361619.13,-125.488,-153.809,102.051,40.527,696.024,336.7316991639458
760,1686361619.13,-171.387,-40.527,117.188,-23.926,696.028,350.4678905419839
761,1686361619.14,-143.066,-28.809,107.91,36.621,696.031,346.5945192451607
762,1686361619.14,-78.125,-186.035,95.215,108.398,696.035,358.7683514730509
763,1686361619.14,-84.961,-532.715,74.219,60.059,696.039,344.21237889860083
764,1686361619.15,-133.789,-62.988,125.977,-6.836,696.043,364.1382347393328
765,1686361619.15,-127.93,275.879,122.07,7.812,696.047,331.89695582467095
766,1686361619.16,-69.336,62.012,100.586,74.707,696.051,342.32407923744677
767,1686361619.16,-68.848,-62.5,119.629,70.312,696.055,352.3669047825269
768,1686361619.18,-136.23,45.898,121.094,-12.207,696.072,339.0478900297539
769,1686361619.18,-159.668,350.098,116.211,-36.621,696.076,340.38760433129767
770,1686361619.18,-98.145,106.445,96.191,65.43,696.08,350.6108946045924
771,1686361619.19,-51.27,-109.863,152.344,104.492,696.084,354.4100255284711
772,1686361619.19,-93.75,338.867,153.809,-46.875,696.088,342.0964694577326
773,1686361619.2,-158.203,180.664,95.703,-151.855,696.092,349.4961470316358
774,1686361619.2,-145.996,-268.066,101.074,-83.496,696.095,340.3766740049392
775,1686361619.2,-99.121,-185.547,169.434,-15.625,696.099,356.04058416175377
776,1686361619.21,-107.91,492.188,176.758,-52.734,696.103,340.26921951810033
777,1686361619.21,-65.43,220.215,131.836,-66.895,696.106,349.8264339307298
778,1686361619.21,-151.367,413.086,119.629,-123.535,696.107,348.1455281036276
779,1686361619.21,-94.238,175.293,99.609,-171.875,696.11,355.6763822176023
780,1686361619.22,-141.113,-4.395,113.281,-76.66,696.111,353.0798734098551
781,1686361619.22,-97.656,-292.969,60.547,-120.605,696.114,346.2560050518415
782,1686361619.22,-81.543,107.91,127.93,3.418,696.115,359.08811865630327
783,1686361619.22,-42.48,77.148,130.859,0.488,696.118,343.04504838848794
784,1686361619.22,-10.254,487.305,131.836,-6.836,696.122,362.92192429824206
785,1686361619.23,-81.543,-50.781,71.289,-80.078,696.126,349.0889349108681
786,1686361619.23,-133.789,-282.227,101.074,-39.551,696.13,345.88332292077854
787,1686361619.23,-67.871,249.023,134.277,80.078,696.134,339.9478088627608
788,1686361619.24,-5.371,478.027,111.816,132.324,696.138,349.7190578228521
789,1686361619.24,-37.598,52.734,83.496,45.41,696.141,344.03017257437205
790,1686361619.25,-94.238,-586.426,71.777,-54.688,696.145,340.8300751510565
791,1686361619.25,-68.848,-42.969,116.211,-70.312,696.149,352.30919691254724
792,1686361619.3,-6.836,364.258,110.352,-55.176,696.194,359.7448222274172
793,1686361619.3,-28.32,17.09,86.914,-105.957,696.197,331.556891187392
794,1686361619.3,-112.305,223.145,102.539,-35.645,696.199,359.1465048779096
795,1686361619.3,-115.723,-264.16,108.887,-163.574,696.201,352.84386181120027
796,1686361619.3,-58.105,44.922,101.074,83.984,696.203,342.6524640998099
797,1686361619.31,-133.301,309.082,145.508,-130.859,696.205,351.7856109636447
798,1686361619.31,-94.727,163.086,114.746,-33.203,696.207,330.01791657249294
799,1686361619.31,-79.59,687.988,127.441,-69.336,696.209,346.78918970863816
800,1686361619.31,-155.762,269.531,105.957,-136.719,696.211,345.18205693761075
801,1686361619.32,-76.66,40.527,55.176,-109.375,696.213,365.92525265472375
802,1686361619.32,-131.348,52.734,88.867,-110.352,696.215,346.89767410214745
803,1686361619.32,-124.023,-738.281,65.43,-204.102,696.217,353.1571357539963
804,1686361619.32,-86.426,-231.445,87.402,-96.68,696.219,348.0444908438676
805,1686361619.32,-130.859,228.516,166.992,-246.094,696.221,350.4117789492265
806,1686361619.32,-94.238,-88.379,110.84,-161.133,696.223,349.890012273115
807,1686361619.33,-68.848,742.188,128.906,-191.406,696.225,353.81509977682487
808,1686361619.33,-122.559,231.445,113.77,-223.145,696.227,349.7491450149443
809,1686361619.33,-38.086,234.375,83.496,-142.09,696.229,353.29590349476064
810,1686361619.33,-101.074,133.301,79.59,-145.02,696.23,327.38220793875143
811,1686361619.34,-91.309,230.469,104.98,-194.824,696.233,358.30758192903176
812,1686361619.34,-38.574,-46.875,117.676,-24.414,696.234,352.1581916451223
813,1686361619.34,-142.578,272.461,109.375,-204.102,696.237,360.9034269447057
814,1686361619.34,-48.828,339.844,131.348,-34.18,696.238,343.4757826151761
815,1686361619.34,-132.812,171.387,64.941,-100.098,696.242,354.55003425097425
816,1686361619.36,-177.246,-212.891,65.918,-80.078,696.252,364.92468952145657
817,1686361619.36,-154.297,-104.004,131.836,3.418,696.256,363.4116019787701
818,1686361619.36,-120.605,413.574,125.488,42.969,696.26,355.5329959262469
819,1686361619.37,-138.184,467.285,83.984,-27.832,696.264,345.19891592871846
820,1686361619.37,-155.273,-8.789,44.434,-95.215,696.268,344.3912446822824
821,1686361619.38,-96.191,-837.402,33.691,8.789,696.272,355.3086058954747
822,1686361619.38,-39.551,-654.297,99.609,62.5,696.276,346.0807967842544
823,1686361619.38,-59.082,443.359,121.582,-62.012,696.279,341.4835447902764
824,1686361619.39,-96.68,406.25,68.848,-146.484,696.283,358.18856649611985
825,1686361619.39,-82.031,354.98,97.656,-87.891,696.287,361.3815164556015
826,1686361619.4,-33.203,745.605,119.629,28.809,696.291,347.6604376129876
827,1686361619.4,-44.922,467.285,52.734,-2.441,696.295,353.5593756906946
828,1686361619.4,-111.328,-27.832,39.062,-131.348,696.297,338.6203160106198
829,1686361619.4,-119.629,101.562,84.961,-116.211,696.301,349.2633226762147
830,1686361619.41,-50.293,367.188,93.262,-22.949,696.305,363.8528432787603
831,1686361619.41,-28.809,208.496,63.477,-54.688,696.309,347.77799934226044
832,1686361619.42,-92.285,-169.922,52.246,-175.293,696.313,350.11054445038866
833,1686361619.42,-130.859,-237.793,67.383,-158.203,696.317,355.8437076541933
834,1686361619.42,-77.637,83.984,103.027,-30.762,696.321,353.1007061869883
835,1686361619.43,-19.531,239.746,71.289,-2.441,696.325,356.12944194412376
836,1686361619.43,-46.875,-478.027,10.254,-88.867,696.328,337.2114165767463
837,1686361619.44,-89.844,-145.02,80.078,-140.625,696.332,357.65942103882105
838,1686361619.44,-68.359,336.914,90.82,-101.562,696.336,364.8749123503114
839,1686361619.44,-15.137,54.688,57.129,-32.715,696.34,355.3737046182526
840,1686361619.44,-29.297,-481.445,34.18,-76.172,696.342,337.10615288939283
841,1686361619.45,-90.332,137.207,95.703,-200.195,696.346,363.6196198841198
842,1686361619.45,-92.285,578.125,86.426,-172.363,696.35,349.90868601304464
843,1686361619.46,-36.621,220.703,49.805,-77.148,696.354,349.5708017326534
844,1686361619.46,-19.531,216.797,53.711,-136.719,696.358,340.06828986295096
845,1686361619.46,-65.918,13.184,34.18,-240.234,696.362,354.13064025262145
846,1686361619.47,-93.262,-45.898,53.223,-182.129,696.365,360.9371464051694
847,1686361619.47,-59.57,-155.762,61.523,-59.57,696.369,354.03865569838644
848,1686361619.48,-42.48,-171.387,111.328,-22.461,696.373,352.6000081733841
849,1686361619.48,-68.848,418.457,110.84,-62.5,696.377,352.61923100035216
850,1686361619.48,-93.75,325.684,59.57,-101.074,696.381,339.89628984890913
851,1686361619.49,-51.27,-28.32,55.664,-42.969,696.385,356.02557403987964
852,1686361619.49,-16.602,57.129,54.199,-14.16,696.388,325.20682629097837
853,1686361619.5,-72.266,236.816,69.824,-102.051,696.392,350.4834269725504
854,1686361619.5,-131.348,131.348,37.598,-145.996,696.396,351.6726438257034
855,1686361619.5,-110.84,-331.055,20.996,-42.969,696.4,347.9555100151528
856,1686361619.51,-60.547,47.852,76.66,38.086,696.403,346.19763077750673
857,1686361619.51,-78.125,200.684,58.105,-31.25,696.407,325.1853838022505
858,1686361619.52,-136.719,-173.34,20.02,-102.051,696.411,351.5597453599822
859,1686361619.52,-127.93,-563.477,12.695,-36.621,696.415,345.68143312847934
860,1686361619.52,-53.711,118.164,100.098,55.176,696.419,371.85238214107903
861,1686361619.53,-19.043,593.262,69.824,20.02,696.423,349.44001752364795
862,1686361619.53,-53.711,144.531,27.832,-76.172,696.427,347.28854331349464
863,1686361619.53,-76.66,-19.043,61.523,-80.566,696.431,350.93039952877797
864,1686361619.54,-47.852,-10.742,61.035,6.348,696.432,354.8712772750717
865,1686361619.54,-44.434,316.895,75.195,39.551,696.436,352.6413665417407
866,1686361619.54,-105.957,-31.738,4.395,-60.059,696.44,357.0085984644495
867,1686361619.55,-143.066,-640.137,17.578,-121.094,696.444,359.7080973810705
868,1686361619.55,-96.68,147.461,91.797,-59.57,696.448,347.8971397453909
869,1686361619.56,-46.387,366.211,41.992,19.531,696.452,347.4201148337749
870,1686361619.56,-90.82,-242.188,-3.906,9.277,696.456,349.95475877212834
871,1686361619.56,-156.25,-574.219,48.828,-23.926,696.46,350.48424832751937
872,1686361619.57,-130.371,339.355,109.375,11.719,696.464,344.3836148290147
873,1686361619.57,-70.801,605.957,35.645,103.516,696.467,333.02200513203945
874,1686361619.58,-59.082,67.871,7.812,127.441,696.471,366.5284868697989
875,1686361619.58,-114.746,77.637,52.246,43.945,696.475,340.53610050182283
876,1686361619.58,-140.625,168.945,62.988,57.617,696.506,347.8963698959453
877,1686361619.58,-99.609,123.047,59.57,155.762,696.51,366.76306858102896
878,1686361619.59,-82.52,-90.332,55.176,121.582,696.514,333.80238170715313
879,1686361619.59,-129.883,27.832,59.57,2.93,696.518,355.87004184523306
880,1686361619.6,-174.805,124.023,57.617,-11.23,696.522,361.0357061111021
881,1686361619.6,-155.762,-185.547,29.297,90.332,696.525,340.23540648688373
882,1686361619.6,-121.582,-665.527,8.301,123.535,696.529,344.18698516590183
883,1686361619.61,-120.605,-180.664,83.496,7.812,696.533,356.73910782572835
884,1686361619.61,-146.973,475.098,69.336,-83.984,696.537,363.2055881161731
885,1686361619.62,-136.23,164.551,27.344,-55.176,696.541,351.84044998960286
886,1686361619.62,-87.891,38.574,68.359,21.973,696.545,331.30652702734614
887,1686361619.62,-93.262,133.789,36.621,27.832,696.549,352.96941975979064
888,1686361619.62,-154.785,-82.52,5.859,-19.043,696.536,348.88995577474566
889,1686361619.63,-160.645,-203.613,41.504,8.789,696.54,343.96986580590044
890,1686361619.63,-82.031,-209.473,86.914,67.383,696.544,344.9922632943782
891,1686361619.64,-30.762,310.547,86.426,1.953,696.548,353.51711130893324
892,1686361619.64,-49.316,375.0,33.691,-110.352,696.552,346.62798205835634
893,1686361619.64,-46.387,-199.219,10.742,-103.027,696.556,355.3705461064067
894,1686361619.65,15.137,-174.316,76.66,15.625,696.56,356.7512376256473
895,1686361619.65,43.457,338.867,68.359,41.504,696.564,359.2863873486334
896,1686361619.66,-4.883,120.605,8.789,-62.012,696.568,362.4616823140765
897,1686361619.66,-30.273,-293.945,1.953,-116.211,696.572,365.04721853862435
898,1686361619.66,25.879,15.625,64.941,-51.27,696.576,331.4729660302445
899,1686361619.67,62.012,497.559,76.66,-0.488,696.579,346.786772847882
900,1686361619.69,14.16,277.832,0.977,-99.121,696.582,344.3725782718391
901,1686361619.69,-58.594,-460.449,-38.086,-158.691,696.586,337.7948191670165
902,1686361619.69,-51.27,-229.004,62.5,-67.383,696.59,347.02632782020214
903,1686361619.7,-0.977,541.504,78.125,8.301,696.594,352.47036811215946
904,1686361619.7,-38.086,274.414,23.438,-66.895,696.597,359.79942327383435
905,1686361619.71,-108.887,-379.883,39.062,-180.176,696.601,347.3951293563415
906,1686361619.71,-101.074,-158.691,63.965,-155.762,696.605,354.4031429461902
907,1686361619.71,-33.203,416.016,66.895,-77.637,696.609,345.6605506190279
908,1686361619.72,-29.785,155.762,12.695,-86.426,696.613,352.3547243070305
909,1686361619.72,-86.914,-532.715,8.789,-131.836,696.617,366.3535274172815
910,1686361619.72,-92.773,-92.285,64.941,-105.469,696.621,354.18394484335164
911,1686361619.73,-33.203,228.027,51.27,-8.301,696.625,367.6035143962659
912,1686361619.73,1.465,-81.055,6.836,20.508,696.627,346.71242727083694
913,1686361619.74,-38.574,-628.418,-11.719,-39.551,696.631,345.50220129261004
914,1686361619.74,-56.152,-20.996,60.059,-43.945,696.635,347.2911865284692
915,1686361619.74,16.113,458.008,45.41,71.289,696.639,355.05726682548254
916,1686361619.75,79.59,58.594,-10.254,183.594,696.643,351.4108924527398
917,1686361619.75,34.668,-197.754,-4.395,163.086,696.647,350.13710043300046
918,1686361619.76,-48.34,-126.953,31.738,80.078,696.651,350.0001634554826
919,1686361619.76,-57.617,230.957,49.316,111.816,696.655,356.2993187012153
920,1686361619.76,-13.672,-193.848,-3.418,192.871,696.658,353.7355352429642
921,1686361619.77,-16.602,-407.715,42.48,76.172,696.662,347.4885119460269
922,1686361619.77,-72.754,209.961,44.434,-136.719,696.666,341.78189214216764
923,1686361619.77,-73.73,-7.812,-20.02,-165.039,696.67,350.1202443638982
924,1686361619.78,-12.695,-143.555,4.883,-73.73,696.675,371.4939567588071
925,1686361619.78,-0.488,24.902,3.906,-57.617,696.679,343.3424463403945
926,1686361619.78,-51.758,76.66,17.578,-135.742,696.683,340.56327984384416
927,1686361619.79,-78.613,62.5,0.977,-144.531,696.687,361.82143201782463
928,1686361619.79,-44.922,-393.066,-18.555,-17.09,696.691,352.8846345215008
929,1686361619.8,-19.043,-272.461,15.137,53.223,696.695,365.64575114791677
930,1686361619.8,-69.336,135.742,25.391,-35.645,696.699,361.2542243354706
931,1686361619.8,-105.957,58.105,-13.184,-77.637,696.702,332.13370629623336
932,1686361619.81,-91.309,-578.125,-28.809,-10.742,696.706,347.02576186109934
933,1686361619.81,-68.848,-12.207,41.992,31.25,696.71,358.27363197395454
934,1686361619.82,-98.633,482.422,13.184,7.324,696.714,344.6626035163811
935,1686361619.82,-151.855,9.277,-20.02,-49.316,696.718,346.9885926617324
936,1686361619.82,-117.676,-232.422,9.766,19.043,696.718,363.85766923473574
937,1686361619.82,-33.203,177.734,32.715,105.957,696.721,368.4342449619343
938,1686361619.83,-31.738,355.469,4.883,47.852,696.725,357.00263715222803
939,1686361619.83,-85.938,-166.992,-27.832,-43.945,696.729,337.394888951076
940,1686361619.84,-78.613,-388.672,19.531,-47.852,696.733,356.2131646177836
941,1686361619.84,-5.859,-33.203,21.484,19.531,696.737,355.6666508667853
942,1686361619.84,32.227,177.246,-4.395,13.184,696.741,357.67985154676086
943,1686361619.85,-18.555,-168.945,-42.48,-90.82,696.745,352.7428984887209
944,1686361619.85,-67.383,-725.098,-16.602,-104.492,696.749,361.85129787277515
945,1686361619.86,-12.695,277.344,66.406,-35.645,696.753,363.5694644403036
946,1686361619.86,32.227,659.18,5.371,-29.785,696.757,355.3445435706089
947,1686361619.86,-19.531,41.992,-45.41,-62.988,696.76,368.56390027241
948,1686361619.87,-76.172,83.496,-7.812,-60.547,696.762,362.82525050044467
949,1686361619.87,-63.477,254.883,2.441,-4.395,696.766,353.73283618843016
950,1686361619.87,-26.367,160.645,-22.461,29.785,696.77,369.8666258838133
951,1686361619.88,-42.48,-96.68,-4.395,-37.109,696.774,348.44749206775055
952,1686361619.88,-75.195,-3.418,0.488,-61.523,696.778,349.6081447185459
953,1686361619.89,-52.734,-87.891,-5.859,34.668,696.782,363.19804374854874
954,1686361619.89,11.23,-187.988,11.719,82.031,696.786,348.51916536814025
955,1686361619.89,4.395,-587.402,-14.16,14.16,696.79,360.06396603545375
956,1686361619.9,-66.895,-216.797,59.57,-62.5,696.793,360.1554070807095
957,1686361619.9,-83.984,554.199,47.363,-60.547,696.797,366.4305875445644
958,1686361619.9,-20.996,335.938,-1.953,10.254,696.801,370.0776857268771
959,1686361619.91,10.254,133.301,14.16,20.996,696.805,356.2666070544634
960,1686361619.91,-49.805,14.16,4.395,-31.25,696.807,368.84619375912047
961,1686361619.92,-102.539,181.641,15.625,-69.824,696.811,376.08338388447777
962,1686361619.92,-73.242,21.484,-4.883,8.789,696.815,363.2699312323174
963,1686361619.92,-50.781,-242.676,49.805,139.16,696.819,361.3794662559514
964,1686361619.93,-86.914,241.211,56.152,119.141,696.823,353.89188600375905
965,1686361619.93,-117.188,159.18,-3.418,79.59,696.826,352.139983446787
966,1686361619.94,-88.867,-261.23,-6.836,171.387,696.83,360.94749873424223
967,1686361619.94,-28.32,-191.895,52.246,265.625,696.834,362.7452627023282
968,1686361619.94,-24.902,413.574,42.969,198.242,696.838,367.2839291065376
969,1686361619.95,-80.566,174.316,-28.809,39.551,696.842,359.6907302753182
970,1686361619.95,-65.918,-219.727,-25.879,23.438,696.846,364.6428834830807
971,1686361619.95,-2.93,187.012,34.668,93.262,696.85,359.7014712036588
972,1686361619.97,-6.836,524.902,27.344,67.383,696.867,366.45436279099255
973,1686361619.98,-69.824,160.645,-22.461,-49.316,696.871,363.51007972876346
974,1686361619.98,-95.215,-182.617,-7.324,-126.465,696.875,369.05139509644573
975,1686361619.98,-54.688,139.16,28.809,-58.594,696.879,352.0854485958594
976,1686361619.99,-29.785,345.215,18.066,40.527,696.883,380.3171935944081
977,1686361619.99,-62.5,-120.605,-38.574,-44.922,696.887,352.14124072101794
978,1686361620.0,-93.75,-735.84,-36.621,-126.953,696.891,373.4036250949885
979,1686361620.0,-49.805,-3.418,53.223,-62.988,696.895,354.16964933196067
980,1686361620.0,18.555,71.777,-1.465,203.125,696.91,371.4079035575032
981,1686361620.0,8.789,662.598,24.414,37.598,696.899,364.8015331196884
982,1686361620.01,16.602,-107.422,-28.809,147.949,696.914,361.5434799898889
983,1686361620.01,-14.16,224.121,-25.391,16.113,696.902,351.3699974301376
984,1686361620.01,-66.406,-2.441,7.812,-20.508,696.906,359.1391374927577
985,1686361620.01,-35.645,-603.516,-26.855,64.453,696.918,376.15781607199807
986,1686361620.01,-45.41,80.566,1.465,101.074,696.91,350.30004548712003
987,1686361620.01,-33.203,131.348,43.945,24.902,696.922,356.96891685872924
988,1686361620.02,21.973,638.184,20.02,20.996,696.926,371.4400426036126
989,1686361620.02,60.059,99.609,-17.09,34.18,696.93,368.21666589948774
990,1686361620.03,0.0,-22.949,3.906,-71.777,696.933,370.4484006321264
991,1686361620.03,-71.289,305.176,8.301,-132.812,696.937,348.38761879045995
992,1686361620.03,-49.316,382.324,-21.484,-58.105,696.941,378.61511959453287
993,1686361620.04,-19.043,-150.879,-60.059,-34.668,696.945,356.40532626272625
994,1686361620.04,-43.945,-251.465,9.277,-99.121,696.949,373.88193327861484
995,1686361620.04,-59.082,373.047,16.113,-166.016,696.953,360.5122833201049
996,1686361620.08,-17.09,335.449,-28.32,-116.211,696.98,368.32057211124766
997,1686361620.08,23.926,7.324,-37.598,-20.996,696.983,375.85335310243113
998,1686361620.09,-6.836,-27.344,-30.273,-47.363,696.987,363.405008096885
999,1686361620.09,-52.734,198.242,-3.418,-107.91,696.991,376.0194587066712
1000,1686361620.1,-23.926,236.328,-25.879,-10.254,696.995,368.8055759443386
1001,1686361620.1,39.551,-495.117,-41.992,104.004,696.999,371.73069333608123
1002,1686361620.1,56.152,-217.285,37.109,59.57,697.003,375.203773963827
1003,1686361620.11,-28.809,-293.945,-38.574,-66.406,697.032,348.69921537281465
1004,1686361620.11,1.953,566.406,0.0,-20.508,697.007,365.9463592898379
1005,1686361620.11,16.602,-358.887,16.113,63.965,697.036,352.62406634558226
1006,1686361620.11,-31.738,241.699,-63.477,-4.883,697.011,366.9127529404164
1007,1686361620.11,59.082,371.094,14.648,100.586,697.04,370.9684132426922
1008,1686361620.12,26.367,32.715,-3.418,80.078,697.015,381.72540084846617
1009,1686361620.12,23.926,440.43,-45.41,-4.395,697.044,385.2274619226517
1010,1686361620.12,71.777,336.426,-9.277,62.012,697.019,374.86761240163986
1011,1686361620.12,-5.371,-102.051,-46.387,-30.762,697.047,338.81894152865476
1012,1686361620.12,18.555,185.059,-54.199,-61.035,697.023,364.39935395616897
1013,1686361620.13,36.621,-207.031,-17.09,84.961,697.051,377.75611447432175
1014,1686361620.13,89.355,47.852,-6.836,183.105,697.055,374.5663126258548
1015,1686361620.13,44.434,222.656,-19.531,118.164,697.059,368.2366490077422
1016,1686361620.14,-38.574,-66.895,-57.617,8.789,697.063,368.06107414439197
1017,1686361620.14,-27.344,-39.551,-18.066,51.27,697.067,372.09759885343504
1018,1686361620.14,20.996,334.961,3.906,149.414,697.071,384.2497506084466
1019,1686361620.15,6.836,328.613,-38.574,90.332,697.075,387.84368425672983
1020,1686361620.15,-57.617,-451.172,-89.355,-36.621,697.092,363.532646342022
1021,1686361620.15,-81.055,-694.336,-3.906,-3.906,697.096,368.26984585552134
1022,1686361620.16,-12.207,396.484,30.273,152.832,697.099,374.01536692015543
1023,1686361620.16,32.715,520.996,-28.32,185.059,697.103,366.31824985616834
1024,1686361620.17,-5.371,-22.461,-11.23,59.57,697.107,373.1737887980428
1025,1686361620.17,-29.297,-161.621,-15.625,19.043,697.111,397.12504596672585
1026,1686361620.17,8.301,136.23,-3.418,104.492,697.115,363.91965154048216
1027,1686361620.18,41.992,151.855,-40.527,145.508,697.119,362.25217952536235
1028,1686361620.18,9.766,-512.695,-58.594,53.711,697.123,358.254230360706
1029,1686361620.18,-37.109,-6.348,-1.465,-53.711,697.127,377.01266729166053
1030,1686361620.19,-28.32,437.012,-22.949,-2.93,697.131,380.1096449458727
1031,1686361620.19,16.113,-18.555,-42.969,105.469,697.135,373.54744769306274
1032,1686361620.2,11.719,-181.152,-23.438,83.496,697.099,364.34768910761346
1033,1686361620.2,-40.527,138.184,-26.367,-42.969,697.103,380.32788691796264
1034,1686361620.21,-39.551,323.242,-33.691,-71.289,697.106,373.9627058124362
1035,1686361620.21,29.297,2.93,-62.012,14.648,697.11,380.1534031035508
1036,1686361620.22,72.754,-817.383,-66.406,36.621,697.114,378.931859505622
1037,1686361620.22,49.805,-391.602,6.348,-33.691,697.118,372.7666056943995
1038,1686361620.22,32.715,321.777,-26.855,-54.199,697.122,374.43972261745836
1039,1686361620.23,55.176,136.719,-43.457,-4.395,697.126,376.48061840684085
1040,1686361620.23,75.195,268.555,19.531,20.02,697.13,381.7991634346375
1041,1686361620.23,30.273,459.961,-12.695,-37.109,697.134,356.46325816932756
1042,1686361620.24,-19.043,37.109,-58.594,-108.887,697.138,387.21776040214587
1043,1686361620.24,57.617,177.246,-26.367,11.719,697.137,375.9604742768329
1044,1686361620.24,15.625,-223.145,-64.453,-80.566,697.142,369.9701858615982
1045,1686361620.24,27.344,400.391,-30.273,-14.16,697.141,371.5897853694305
1046,1686361620.25,-25.391,8.301,-70.801,-50.781,697.145,374.37490092033715
1047,1686361620.25,-18.555,-349.121,-42.48,23.926,697.149,377.54137130803235
1048,1686361620.26,29.785,80.566,-18.555,95.703,697.153,375.8231324196677
1049,1686361620.26,33.691,96.191,-50.781,81.543,697.157,352.9593362436724
1050,1686361620.26,-16.113,-170.898,-55.664,-7.812,697.16,387.5489459330916
1051,1686361620.27,-32.715,-710.938,-54.688,1.465,697.164,385.0859446432507
1052,1686361620.27,26.855,-687.988,-2.441,111.816,697.168,379.22703095390824
1053,1686361620.28,61.523,516.602,7.324,88.379,697.172,387.46301238693076
1054,1686361620.28,1.953,548.828,-53.711,-80.566,697.176,383.2047241397448
1055,1686361620.28,-52.734,65.918,-33.691,-138.672,697.18,381.50062702856656
1056,1686361620.29,-16.602,17.09,-12.695,-19.043,697.185,359.2801392933415
1057,1686361620.29,34.18,158.203,-26.855,38.574,697.189,363.13706218798154
1058,1686361620.3,19.531,-25.391,-59.082,-54.199,697.193,368.00040609322934
1059,1686361620.3,-35.645,-591.797,-22.461,-118.652,697.197,367.16571767441826
1060,1686361620.3,-16.602,124.023,10.742,-59.57,697.201,384.91792884816863
1061,1686361620.31,34.18,485.352,-38.086,41.504,697.205,366.93051729385763
1062,1686361620.31,9.277,-111.816,-59.57,27.344,697.209,389.97373786594244
1063,1686361620.31,-44.922,-303.223,4.395,-34.18,697.213,376.08396668503093
1064,1686361620.32,-21.973,395.02,-5.371,23.926,697.217,397.877828945226
1065,1686361620.32,38.574,491.211,-66.895,159.18,697.221,381.48428119695495
1066,1686361620.33,49.316,49.805,-66.895,161.133,697.225,392.2841445914387
1067,1686361620.33,17.09,99.121,-40.527,82.52,697.228,374.9375556073771
1068,1686361620.33,3.418,230.957,-39.062,122.07,697.241,363.3095503053719
1069,1686361620.34,36.621,154.785,-47.363,255.859,697.245,393.84700365294515
1070,1686361620.34,50.781,-138.184,-54.688,303.223,697.249,375.06670166905207
1071,1686361620.34,4.395,-170.41,-41.992,224.121,697.252,375.97945946683524
1072,1686361620.35,-23.926,85.449,-43.945,163.574,697.256,376.205243726462
1073,1686361620.35,20.996,-40.527,-75.195,221.68,697.26,382.8318997072875
1074,1686361620.36,57.617,-621.582,-65.918,239.746,697.264,376.67524461518155
1075,1686361620.36,2.93,-264.16,-0.977,118.164,697.268,372.29479460335136
1076,1686361620.36,-50.781,535.645,-26.367,23.926,697.272,380.7801672483485
1077,1686361620.37,-20.02,335.449,-68.359,67.383,697.276,386.49882407532897
1078,1686361620.37,26.367,204.59,-30.762,138.184,697.28,377.3736769366135
1079,1686361620.37,6.348,228.027,-62.012,49.316,697.284,398.4935747507492
1080,1686361620.38,-33.691,-41.504,-79.102,-39.551,697.287,395.8883312775059
1081,1686361620.39,-9.277,-187.988,-62.5,23.926,697.29,379.20987592118973
1082,1686361620.39,53.223,-190.918,-12.695,69.336,697.294,369.8238369000794
1083,1686361620.4,61.523,380.371,-15.137,34.668,697.298,384.7106624860567
1084,1686361620.4,-4.883,375.488,-60.059,-37.598,697.302,365.1830767814564
1085,1686361620.4,-40.527,-201.66,-59.082,-41.992,697.306,376.6581355248996
1086,1686361620.41,14.648,-208.008,-33.691,-21.973,697.31,385.59915570821926
1087,1686361620.41,61.523,185.547,-42.969,-56.641,697.314,361.2533642335214
1088,1686361620.42,12.207,375.0,-70.312,-135.742,697.318,375.15690618009234
1089,1686361620.42,-38.086,-146.973,-95.703,-188.477,697.322,386.56884262894755
1090,1686361620.42,-3.418,-281.738,-21.973,-117.676,697.326,365.85738938028226
1091,1686361620.43,30.762,531.738,-21.973,-58.105,697.33,383.05205608919056
1092,1686361620.44,5.859,418.457,-78.613,-112.793,697.332,378.09279293537884
1093,1686361620.44,-22.949,-82.031,-81.543,-116.699,697.336,365.8216649508621
1094,1686361620.44,3.418,81.543,-51.758,10.742,697.34,382.58330936163713
1095,1686361620.45,57.617,342.285,-38.086,88.379,697.344,374.5085929000262
1096,1686361620.45,58.594,166.016,-66.895,14.16,697.348,388.98792463752403
1097,1686361620.46,-24.414,-393.066,-44.434,-88.867,697.352,394.96061764307115
1098,1686361620.46,-42.969,-144.043,-16.602,-65.43,697.356,392.24333993963927
1099,1686361620.46,41.016,371.094,-41.016,37.598,697.359,373.97523041399523
1100,1686361620.47,65.43,82.52,-77.637,52.246,697.363,372.0341634264573
1101,1686361620.47,1.465,-657.715,-81.055,-34.18,697.367,377.79874903281615
1102,1686361620.48,-17.578,-69.336,-20.996,-40.039,697.371,384.9017672961528
1103,1686361620.48,44.922,601.074,-42.48,35.156,697.375,388.56741550902245
1104,1686361620.48,55.664,32.715,-74.219,30.273,697.391,383.03641805365015
1105,1686361620.48,4.883,-285.645,-24.902,-57.617,697.395,372.4544390849736
1106,1686361620.49,-38.574,301.758,-33.203,-76.172,697.399,371.4303685560959
1107,1686361620.49,-24.414,487.793,-60.547,52.734,697.403,364.2777278832894
1108,1686361620.5,47.852,146.484,-63.965,178.223,697.406,391.7305022931008
1109,1686361620.5,50.781,-160.645,-63.965,103.516,697.41,364.0090673660214
1110,1686361620.5,-12.695,-34.668,-45.41,-61.523,697.414,369.34795864394204
1111,1686361620.51,-17.09,339.355,-55.664,-65.918,697.418,362.2845272272711
1112,1686361620.51,41.016,-76.172,-80.078,79.102,697.422,389.5090664748078
1113,1686361620.52,30.762,-280.273,-30.762,114.746,697.426,386.1719509460004
1114,1686361620.52,-30.762,329.102,-36.621,83.008,697.43,399.7158579004738
1115,1686361620.52,-45.41,139.16,-77.637,125.0,697.434,384.025803916321
1116,1686361620.52,19.043,-189.453,-93.75,157.227,697.422,392.1708403086397
1117,1686361620.53,51.27,218.75,-49.316,93.262,697.426,396.31647840547936
1118,1686361620.53,6.836,434.57,-52.734,0.0,697.43,380.3193398134766
1119,1686361620.54,-10.254,103.027,-81.055,30.273,697.434,377.5841234409779
1120,1686361620.54,23.926,-60.059,-33.203,131.836,697.438,400.00667354024506
1121,1686361620.54,51.27,-26.855,-42.48,155.762,697.442,384.3849098659758
1122,1686361620.55,-2.441,185.547,-46.875,32.715,697.446,375.0879328276691
1123,1686361620.55,-65.43,125.977,-77.637,-65.918,697.45,401.4652029178768
1124,1686361620.56,-43.945,-513.672,-72.266,45.41,697.453,401.6293317904107
1125,1686361620.56,14.648,90.82,-18.066,123.535,697.457,391.06888440866277
1126,1686361620.56,20.996,620.605,-48.34,19.531,697.461,408.50710564823214
1127,1686361620.57,-26.367,5.859,-98.633,-97.656,697.465,399.8177662777312
1128,1686361620.57,-15.625,-602.051,-62.012,-73.242,697.47,380.44051091555303
1129,1686361620.58,52.734,73.242,-17.578,14.648,697.474,404.6092716619939
1130,1686361620.58,48.34,513.672,-47.852,45.898,697.478,392.51035280065014
1131,1686361620.58,-12.207,55.176,-76.66,24.902,697.482,385.81964873873585
1132,1686361620.59,-26.367,-210.449,-21.484,59.57,697.486,393.79758355538564
1133,1686361620.59,27.344,135.254,-21.973,129.395,697.49,404.1476304540183
1134,1686361620.6,46.875,323.73,-64.941,86.426,697.494,382.5143984864454
1135,1686361620.6,-11.719,-25.879,-83.496,-61.523,697.498,379.7358182874918
1136,1686361620.6,-74.219,-235.352,-11.23,-119.629,697.502,410.81641432943553
1137,1686361620.61,-34.668,497.07,-21.484,-26.855,697.506,374.3324840114292
1138,1686361620.61,34.18,507.324,-84.473,33.691,697.51,385.19490671636703
1139,1686361620.62,0.488,2.93,-81.543,-20.996,697.513,393.32815304382456
1140,1686361620.62,-57.129,110.84,-65.918,-111.816,697.512,392.9441302628095
1141,1686361620.62,-20.02,302.734,-54.688,-91.309,697.516,381.9705793192523
1142,1686361620.62,45.41,219.238,-65.43,-26.855,697.52,398.5234033740015
1143,1686361620.63,25.391,-77.637,-56.641,-85.938,697.524,382.41220647932744
1144,1686361620.63,-26.855,-170.898,-64.941,-155.273,697.528,395.0525205420782
1145,1686361620.64,-17.578,-77.148,-55.664,-109.863,697.532,380.80963337211165
1146,1686361620.64,42.48,57.129,-52.734,-9.766,697.536,401.4736614887909
1147,1686361620.64,72.754,-434.082,-49.316,38.574,697.54,404.5180401679669
1148,1686361620.65,37.109,-215.332,-0.977,-42.48,697.543,376.047340135031
1149,1686361620.65,27.832,586.426,-39.551,-71.777,697.547,368.198997595386
1150,1686361620.66,77.637,448.242,-68.848,49.316,697.551,388.79812478395553
1151,1686361620.66,93.75,231.445,-50.781,102.051,697.555,393.7203585709988
1152,1686361620.69,47.363,65.43,-57.129,39.062,697.587,381.94255945644267
1153,1686361620.7,8.301,219.727,-61.035,24.902,697.591,377.5383484747304
1154,1686361620.7,38.086,85.938,-77.637,122.07,697.595,379.1119021029518
1155,1686361620.7,83.496,-156.25,-11.719,193.848,697.599,392.56834119318654
1156,1686361620.7,45.41,210.449,-48.34,136.719,697.616,381.5774440206644
1157,1686361620.71,54.688,269.043,-42.48,135.254,697.602,389.5673057658671
1158,1686361620.71,-5.859,-54.199,-79.102,5.859,697.62,387.66652342234255
1159,1686361620.71,-4.883,158.691,-82.52,75.684,697.606,376.8480688250744
1160,1686361620.71,-55.176,-404.297,-80.078,-95.703,697.624,375.7778994440122
1161,1686361620.72,-19.531,-268.066,-72.754,115.234,697.61,386.3015651941955
1162,1686361620.72,-4.883,-104.004,-54.199,-54.688,697.627,377.6401252432423
1163,1686361620.72,-9.766,-630.371,-55.664,150.879,697.614,385.8985741214852
1164,1686361620.72,74.707,90.332,-60.547,-32.715,697.631,387.89263407194244
1165,1686361620.72,-5.371,219.727,-28.809,97.168,697.618,380.02013555175205
1166,1686361620.72,74.219,-330.078,-80.078,-83.008,697.635,390.99268781097277
1167,1686361620.73,-45.41,414.062,-72.266,30.762,697.622,394.10313944385246
1168,1686361620.73,46.875,-397.461,-30.273,-75.195,697.639,396.2157987160676
1169,1686361620.73,-60.059,-215.82,-81.055,46.387,697.626,378.49664913957145
1170,1686361620.73,73.242,41.504,-40.527,11.23,697.643,368.0906611285834
1171,1686361620.73,9.277,-27.832,-48.828,124.512,697.63,389.06188426792465
1172,1686361620.74,108.398,196.777,-82.52,97.656,697.647,397.7778902924586
1173,1686361620.74,66.895,-186.523,-81.055,43.945,697.651,399.8989759013358
1174,1686361620.74,-11.719,-411.133,-38.574,-52.246,697.655,378.18589433625596
1175,1686361620.75,-20.508,-40.039,-48.34,-27.832,697.659,385.779234067274
1176,1686361620.75,41.016,-30.273,-69.336,51.27,697.661,375.54268452486775
1177,1686361620.76,53.711,-127.441,-67.871,81.543,697.665,383.84899988662585
1178,1686361620.76,-0.488,-854.492,-78.125,67.871,697.669,373.284909612317
1179,1686361620.76,-7.324,-593.262,4.395,69.824,697.673,389.32032087204595
1180,1686361620.77,74.707,613.281,-18.555,120.117,697.677,372.81209923745615
1181,1686361620.77,97.168,187.988,-83.496,134.766,697.681,391.1285215449192
1182,1686361620.78,45.41,-269.531,-28.809,55.176,697.685,392.146361302916
1183,1686361620.78,23.438,332.52,-27.344,16.602,697.689,381.69676212117946
1184,1686361620.78,37.109,381.836,-60.547,87.891,697.693,394.9584160453844
1185,1686361620.79,49.316,-32.715,-72.754,149.902,697.696,404.5906412397165
1186,1686361620.79,-15.137,62.988,-55.664,104.492,697.7,382.11703356106364
1187,1686361620.79,-90.332,131.348,-47.363,19.043,697.704,383.2128160764849
1188,1686361620.81,-62.5,-136.23,-61.523,64.453,697.707,372.83356975810716
1189,1686361620.82,8.789,-312.5,-90.332,167.969,697.711,381.5260970163627
1190,1686361620.82,2.441,40.527,-55.664,124.512,697.715,366.01947501135623
1191,1686361620.82,-49.805,276.855,-52.246,41.992,697.719,391.70636822533356
1192,1686361620.83,-64.941,-38.574,-67.383,93.262,697.723,374.51234627457495
1193,1686361620.83,-29.297,-345.703,-36.133,174.316,697.727,384.79434353161326
1194,1686361620.84,-12.207,-130.371,-44.922,115.234,697.73,372.9314534729728
1195,1686361620.84,-36.133,289.551,-60.059,-28.809,697.734,376.6528903383357
1196,1686361620.84,-28.809,0.977,-77.637,-46.387,697.738,387.0566410503916
1197,1686361620.85,22.949,-594.238,-58.594,55.176,697.742,387.00536077929894
1198,1686361620.85,65.918,113.77,-31.738,87.402,697.746,389.37494047655747
1199,1686361620.85,41.504,387.207,-79.102,17.09,697.75,393.88192153455367
1200,1686361620.86,-3.906,-289.062,-66.406,-22.949,697.752,385.1300280720988
1201,1686361620.86,44.922,-450.195,-17.578,-0.488,697.756,385.3900290431288
1202,1686361620.86,104.004,122.559,-46.875,-3.418,697.76,383.9863936775388
1203,1686361620.87,47.852,345.215,-67.871,-31.25,697.764,388.0152608780493
1204,1686361620.87,-32.715,-55.176,-75.195,-34.18,697.767,384.81848674000446
1205,1686361620.88,-26.855,-327.148,-61.523,25.391,697.771,381.471304505978
1206,1686361620.88,30.273,80.566,-39.551,69.824,697.775,377.0031650236581
1207,1686361620.88,30.762,411.621,-67.383,-19.043,697.779,387.2352570172051
1208,1686361620.89,-21.973,-162.598,-107.422,-130.859,697.783,386.31743471153254
1209,1686361620.89,-19.043,-423.34,-30.762,-137.695,697.787,383.6909586607047
1210,1686361620.9,54.199,359.863,-21.484,-82.52,697.791,379.4142603745205
1211,1686361620.9,70.801,316.895,-79.102,-50.293,697.795,385.3483679192769
1212,1686361620.9,-6.348,-234.863,-88.379,-99.121,697.797,383.7145197322747
1213,1686361620.9,-61.035,-54.688,-65.918,-113.281,697.801,381.0798743651729
1214,1686361620.91,-20.02,234.375,-58.594,-15.625,697.805,384.8707489117522
1215,1686361620.91,33.691,104.004,-64.453,1.465,697.809,385.52722936826217
1216,1686361620.92,-8.789,-222.656,-40.527,-81.055,697.813,384.07954040957907
1217,1686361620.92,-43.945,-307.129,-59.082,-82.52,697.817,381.60668719092297
1218,1686361620.92,32.715,-164.551,-68.359,-27.344,697.821,389.8094842467908
1219,1686361620.93,108.887,-55.176,-75.684,7.812,697.825,382.27815671840693
1220,1686361620.93,84.961,-620.605,-85.938,-38.574,697.829,386.7069526906104
1221,1686361620.94,6.348,-324.219,-27.832,-131.836,697.833,377.0167006365939
1222,1686361620.94,-4.395,521.973,-47.852,-88.379,697.837,392.89445447817343
1223,1686361620.94,60.059,222.168,-84.473,53.711,697.84,392.3194674520588
1224,1686361620.95,70.312,-124.512,-70.312,64.941,697.842,393.24055437037714
1225,1686361620.95,0.977,98.145,-65.43,1.465,697.846,383.4599035616882
1226,1686361620.96,-30.273,206.055,-63.965,49.316,697.85,393.84035333129117
1227,1686361620.96,15.625,-102.051,-61.035,162.598,697.854,395.9682858281527
1228,1686361620.96,40.527,-306.152,-19.043,189.941,697.858,387.7850770255809
1229,1686361620.97,1.465,-106.445,-55.176,104.004,697.862,371.33027068448075
1230,1686361620.97,-41.504,53.711,-58.105,12.695,697.866,383.0128310620099
1231,1686361620.97,-16.113,-193.359,-84.961,37.598,697.87,377.14672999314536
1232,1686361620.98,24.902,-677.734,-78.613,75.195,697.874,381.6120963383725
1233,1686361620.98,-6.836,201.66,-38.574,3.418,697.878,389.75922628395523
1234,1686361620.99,-67.871,414.551,-77.148,-19.531,697.881,386.60714934268304
1235,1686361620.99,-57.129,-125.977,-73.242,106.934,697.885,367.3162521232243
1236,1686361621.01,-3.418,101.074,-53.711,176.758,697.902,375.8391910687988
1237,1686361621.01,-8.301,276.367,-66.406,69.824,697.906,387.29107164062987
1238,1686361621.01,-49.805,-12.695,-76.172,-7.812,697.91,388.90146324117666
1239,1686361621.02,-35.645,-252.93,-52.734,78.613,697.914,376.0481890890789
1240,1686361621.02,16.113,-25.391,-58.105,200.684,697.918,371.3844785331361
1241,1686361621.03,24.902,-17.09,-79.59,151.367,697.922,371.0588453764378
1242,1686361621.03,-33.691,-252.93,-88.379,-3.906,697.926,377.26451324425005
1243,1686361621.03,-48.828,-690.43,-83.008,-25.879,697.93,379.8180303858554
1244,1686361621.04,16.113,-67.871,-35.645,133.789,697.932,380.8001532337789
1245,1686361621.04,22.949,-120.117,-25.391,39.551,697.933,392.95939580302047
1246,1686361621.04,31.25,353.027,-75.684,137.695,697.936,388.2834827763306
1247,1686361621.04,58.594,496.582,-58.594,77.148,697.937,377.7083860036163
1248,1686361621.04,-23.926,-39.551,-92.285,29.785,697.94,385.55567610596574
1249,1686361621.04,30.273,-93.75,-82.52,75.684,697.941,388.887204554501
1250,1686361621.05,-87.402,-472.168,-30.762,-59.57,697.944,374.32066343730185
1251,1686361621.05,3.418,-440.43,-8.789,83.008,697.945,383.01277901654475
1252,1686361621.05,-43.457,104.004,-30.762,-24.414,697.948,381.55297642793096
1253,1686361621.06,35.156,87.402,-75.684,58.105,697.952,389.2099899475008
1254,1686361621.06,24.414,-194.336,-65.918,44.922,697.955,397.9148044706011
1255,1686361621.06,-34.668,-63.477,-54.199,-32.715,697.959,377.6339154959921
1256,1686361621.07,-40.039,162.109,-52.734,-18.066,697.963,381.41176727818913
1257,1686361621.07,3.906,218.75,-80.078,102.051,697.967,387.01687643596426
1258,1686361621.08,33.691,-322.266,-107.422,154.785,697.971,382.3539843904848
1259,1686361621.08,21.973,-448.73,-41.016,59.57,697.975,367.36577112474396
1260,1686361621.08,21.973,110.352,-43.457,20.508,697.981,378.1213888129687
1261,1686361621.09,76.66,-24.414,-81.543,128.906,697.985,387.58954727706083
1262,1686361621.09,109.375,-315.43,-95.215,200.684,697.989,377.7663021419873
1263,1686361621.09,62.5,25.879,-69.824,114.746,697.993,372.25957615687645
1264,1686361621.1,22.949,234.863,-64.941,41.992,697.996,380.7164107144097
1265,1686361621.1,67.871,-185.547,-80.566,119.629,698.0,396.92530155912925
1266,1686361621.11,116.699,-607.91,-70.801,202.637,698.004,392.8375049127739
1267,1686361621.11,70.801,-59.082,-44.434,124.023,698.008,386.1095314806924
1268,1686361621.11,-11.719,369.141,-70.801,33.203,698.012,391.2703372263561
1269,1686361621.12,-33.203,-20.996,-83.984,49.805,698.016,386.7265488598404
1270,1686361621.12,0.977,-59.57,-53.223,82.031,698.02,370.54814852337864
1271,1686361621.12,12.207,56.641,-71.289,-5.371,698.024,391.5664294143561
1272,1686361621.13,-17.578,-155.762,-78.125,-88.867,698.037,389.64684196501275
1273,1686361621.13,-17.09,-340.82,-80.566,-50.781,698.041,375.6130068994714
1274,1686361621.13,12.695,-544.434,-53.223,60.547,698.045,385.59987275261904
1275,1686361621.14,14.648,-35.645,-57.129,140.625,698.049,390.1385231894654
1276,1686361621.14,-27.344,286.133,-70.801,88.867,698.053,391.0875083772028
1277,1686361621.15,-47.852,-252.441,-83.496,109.863,698.056,383.48014007966725
1278,1686361621.15,13.184,-791.504,-67.383,216.797,698.06,376.69346353348715
1279,1686361621.15,90.82,148.438,-33.691,191.895,698.064,370.31998193237376
1280,1686361621.16,59.57,500.977,-66.895,71.289,698.068,386.51893792350893
1281,1686361621.16,-3.906,-83.984,-77.148,-22.949,698.072,393.43610871276604
1282,1686361621.16,10.254,47.363,-52.246,11.719,698.076,383.95219690809853
1283,1686361621.17,56.152,287.598,-56.152,95.215,698.08,378.6234901664716
1284,1686361621.19,33.203,12.695,-84.961,82.031,698.085,392.96936835677235
1285,1686361621.19,-18.066,-356.445,-83.984,1.465,698.089,380.61340586705995
1286,1686361621.2,10.254,-134.766,-55.664,-13.672,698.092,390.3576337056828
1287,1686361621.2,87.402,135.742,-52.734,48.828,698.096,372.8393759750268
1288,1686361621.2,107.91,-57.617,-80.078,46.387,698.1,375.592428547096
1289,1686361621.21,60.547,-555.664,-70.801,-13.672,698.104,363.4464890467958
1290,1686361621.21,42.48,-444.336,-42.969,-11.23,698.108,374.4001252801622
1291,1686361621.21,99.609,71.777,-25.879,81.543,698.112,380.34084793796785
1292,1686361621.22,129.883,110.84,-74.707,120.605,698.116,364.0622787271589
1293,1686361621.22,72.266,-741.211,-95.215,62.988,698.12,381.4132782510897
1294,1686361621.23,27.832,-322.266,-15.137,10.254,698.124,381.3431912270256
1295,1686361621.23,73.73,267.578,-52.734,28.32,698.128,372.32765668931404
