,timestamps,TP9,AF7,AF8,TP10,Secondary Timestamp,emg_signal
0,1686621337.61,-74.707,-219.238,65.43,-83.008,715.503,362.1321033389741
1,1686621337.61,7.324,303.711,58.105,-9.766,715.507,376.73214174875017
2,1686621337.62,-8.301,253.418,-7.324,-11.23,715.511,374.90638697362516
3,1686621337.62,-82.52,-255.371,-6.348,-71.777,715.515,360.379183028903
4,1686621337.62,-71.289,-521.484,36.621,-67.871,715.519,374.0568074858085
5,1686621337.63,-3.906,-210.449,58.594,-4.395,715.523,380.3077580861175
6,1686621337.63,-1.465,115.723,29.297,-0.488,715.526,366.9878497424413
7,1686621337.63,-65.918,-201.66,-54.199,-64.941,715.53,357.93793291656016
8,1686621337.64,-97.168,-852.539,11.23,-88.379,715.534,357.3364717589372
9,1686621337.64,-23.926,-189.941,157.715,-34.668,715.538,371.01582005429844
10,1686621337.65,20.996,585.938,18.066,-7.812,715.542,370.87854107705067
11,1686621337.65,-40.527,181.152,23.438,-50.781,715.546,362.5851444350168
12,1686621337.67,-86.914,-16.113,73.242,-91.309,715.563,366.5476075792896
13,1686621337.67,-30.762,328.125,53.711,-51.758,715.567,373.9879944152724
14,1686621337.67,30.273,489.258,16.602,5.859,715.571,367.54455621142966
15,1686621337.68,-5.371,199.707,7.812,-21.484,715.575,371.49090251419847
16,1686621337.68,-76.172,-0.488,11.23,-88.867,715.579,373.87315775439816
17,1686621337.69,-61.035,-111.816,12.207,-72.266,715.583,373.63759873278616
18,1686621337.69,11.719,51.758,38.086,-12.207,715.586,382.59700491646873
19,1686621337.69,-5.371,-325.195,14.648,-17.09,715.59,380.2691927220838
20,1686621337.7,-82.52,-761.23,53.223,-78.125,715.594,364.30603947752184
21,1686621337.7,-60.547,18.555,54.688,-58.594,715.607,370.3688898592415
22,1686621337.7,-85.449,-101.074,60.059,-93.262,715.598,374.818133720227
23,1686621337.7,-93.262,202.637,22.949,-92.285,715.611,352.33083102009726
24,1686621337.7,-5.371,291.016,38.574,-26.367,715.602,388.9398233670099
25,1686621337.7,-25.879,-9.277,-2.93,-37.109,715.615,376.0875914418468
26,1686621337.71,16.113,49.316,48.828,2.441,715.606,371.1132086271398
27,1686621337.71,20.02,-276.367,62.012,-4.883,715.619,379.41941223385015
28,1686621337.71,-33.203,16.113,45.898,-50.293,715.622,379.0918883875627
29,1686621337.72,-92.773,-56.641,-6.836,-93.262,715.626,378.9471129671938
30,1686621337.72,-63.477,-396.973,33.203,-54.199,715.63,363.22244074752433
31,1686621337.72,0.488,-120.605,20.996,4.883,715.634,381.3096096300636
32,1686621337.73,-17.09,324.707,27.832,-13.184,715.638,379.24007534035735
33,1686621337.73,-77.148,364.258,22.949,-72.754,715.642,367.564676834566
34,1686621337.74,-63.965,-210.449,-5.371,-72.266,715.646,363.2193845544323
35,1686621337.74,-0.488,-706.543,72.754,-8.301,715.65,371.85737782905187
36,1686621337.74,18.066,96.68,108.887,1.465,715.642,380.2748492293604
37,1686621337.75,-41.016,380.859,-18.066,-58.105,715.646,372.1121528128929
38,1686621337.75,-76.172,-169.922,26.855,-84.961,715.649,365.1596241625502
39,1686621337.76,-13.184,-24.902,91.797,-28.809,715.653,369.11937136378344
40,1686621337.76,25.879,469.238,34.18,0.977,715.657,343.4238064095341
41,1686621337.76,-41.504,109.375,-13.672,-55.664,715.661,374.41321708639043
42,1686621337.77,-79.102,-555.176,85.938,-95.215,715.665,366.1940964656776
43,1686621337.77,-25.879,-244.141,138.184,-47.852,715.669,368.79319054164927
44,1686621337.78,21.973,423.34,43.945,0.977,715.673,367.31518890295865
45,1686621337.78,-20.02,307.129,3.418,-36.621,715.677,364.47391796974733
46,1686621337.78,-94.238,-278.809,31.25,-92.773,715.681,368.23107068874606
47,1686621337.79,-61.035,-138.184,75.684,-65.43,715.685,371.68859241743354
48,1686621337.79,12.207,458.984,39.551,0.488,715.696,368.91285487533673
49,1686621337.79,-10.254,281.25,-11.719,-20.02,715.7,368.8370757542444
50,1686621337.8,-80.078,-374.023,-2.93,-86.914,715.704,368.4262522824358
51,1686621337.8,-73.242,-369.141,74.707,-78.613,715.708,375.2618034179341
52,1686621337.8,7.324,175.781,63.965,-11.23,715.712,377.2675362250338
53,1686621337.81,23.926,13.184,-38.086,-8.789,715.716,375.83093876600856
54,1686621337.81,-64.453,-903.32,-52.734,-77.148,715.72,373.117097418313
55,1686621337.82,-91.797,-713.379,108.398,-89.355,715.724,362.3158006742346
56,1686621337.82,-14.16,304.199,98.633,-21.973,715.728,368.3117866423886
57,1686621337.82,12.695,327.637,34.668,-1.465,715.732,364.4113619828037
58,1686621337.83,-51.27,100.586,50.781,-61.523,715.735,348.64952461338834
59,1686621337.83,-95.703,166.016,26.367,-98.145,715.739,362.3878410708404
60,1686621337.85,-41.504,258.301,36.621,-51.27,715.745,370.531240127628
61,1686621337.85,18.066,192.871,36.133,3.418,715.749,373.8561216649444
62,1686621337.86,-20.508,176.27,50.781,-25.879,715.753,372.87745614924154
63,1686621337.86,-78.613,137.207,12.695,-83.496,715.756,364.5336053525405
64,1686621337.86,-44.434,4.395,23.438,-57.617,715.76,364.1878009591289
65,1686621337.87,26.367,-534.18,16.113,14.648,715.764,367.8081310727345
66,1686621337.87,15.625,-655.273,69.824,7.324,715.768,383.1479649113669
67,1686621337.87,-56.152,144.043,68.359,-71.777,715.772,378.6753164786536
68,1686621337.88,-62.012,115.723,22.461,-86.914,715.776,363.8937778466778
69,1686621337.88,10.742,-12.207,74.707,-14.16,715.78,381.99458337948454
70,1686621337.89,27.344,283.691,58.594,9.766,715.784,373.87762980224437
71,1686621337.89,-34.668,354.004,10.742,-46.387,715.788,372.9475239126526
72,1686621337.89,-63.477,36.621,7.812,-67.871,715.788,371.9905485789725
73,1686621337.9,1.465,-46.387,46.875,-12.695,715.792,373.10504769058616
74,1686621337.9,35.645,24.414,52.246,17.578,715.796,357.19975412750506
75,1686621337.9,-22.949,46.387,26.855,-26.855,715.799,358.9031744762973
76,1686621337.91,-69.824,-129.883,-10.742,-71.777,715.803,371.39555166235647
77,1686621337.91,-32.715,-664.062,45.41,-35.645,715.807,370.21331511238077
78,1686621337.92,35.156,-350.098,83.008,17.578,715.811,371.19278601843655
79,1686621337.92,11.719,168.457,43.457,-6.836,715.815,361.8834508762482
80,1686621337.92,-62.988,-135.742,-20.02,-67.871,715.819,376.08420817870893
81,1686621337.93,-65.918,-987.305,8.301,-61.035,715.823,374.26047961158827
82,1686621337.93,4.395,-413.574,153.809,1.465,715.827,386.0741448649122
83,1686621337.94,5.859,453.613,29.297,-3.418,715.831,385.4818770732213
84,1686621337.94,-64.941,58.105,32.227,-62.012,715.833,371.085352221017
85,1686621337.94,-63.965,-51.27,106.934,-74.219,715.837,382.2610993619117
86,1686621337.94,17.578,408.691,47.363,-23.926,715.841,370.05073579860925
87,1686621337.95,41.016,497.559,19.043,-0.977,715.845,370.856120578135
88,1686621337.95,-38.086,53.223,-19.043,-54.199,715.848,369.20708608332933
89,1686621337.96,-75.684,-373.047,16.113,-85.449,715.852,369.6377347117197
90,1686621337.96,-5.371,-95.703,93.75,-31.25,715.856,376.7912493035919
91,1686621337.96,39.551,412.109,23.438,15.625,715.86,365.3473252342654
92,1686621337.97,-19.531,-300.781,-9.277,-22.461,715.864,356.0296671861097
93,1686621337.97,-85.449,-797.363,89.844,-78.125,715.868,362.0050773409048
94,1686621337.98,-40.527,28.809,85.938,-55.176,715.872,372.0994811495729
95,1686621337.98,26.855,345.215,14.16,-2.441,715.876,372.28296699735387
96,1686621337.98,-0.488,6.348,38.086,-20.02,715.878,372.9552822851721
97,1686621337.98,-76.172,-7.324,49.805,-83.984,715.882,372.87807332934665
98,1686621337.99,-73.73,-27.344,28.809,-73.242,715.886,373.6442494822811
99,1686621337.99,9.277,-130.371,16.602,4.395,715.89,374.9601458946948
100,1686621338.0,19.043,-457.52,17.09,7.324,715.894,365.21639611108253
101,1686621338.0,-53.223,-544.922,39.062,-64.941,715.898,359.5954338484238
102,1686621338.0,-73.73,-143.066,42.48,-86.914,715.901,378.1874485574381
103,1686621338.01,-4.395,-43.945,2.93,-18.555,715.905,366.87077678626304
104,1686621338.01,22.461,-384.766,17.09,10.742,715.909,371.6571290715526
105,1686621338.02,-42.969,33.691,79.59,-56.152,715.913,372.88170204974307
106,1686621338.02,-82.031,267.578,-31.738,-87.891,715.917,367.70812986528665
107,1686621338.02,-24.414,-128.418,29.297,-37.598,715.921,374.10952184270394
108,1686621338.03,30.273,-34.18,87.891,10.742,715.927,369.6253132220099
109,1686621338.03,-8.789,312.012,26.367,-24.414,715.93,376.2396563764955
110,1686621338.04,-75.195,293.945,-16.602,-83.984,715.934,377.9087149568489
111,1686621338.04,-58.105,-208.984,45.898,-61.523,715.938,366.93677574407303
112,1686621338.04,8.301,-154.297,95.215,9.277,715.942,372.7228703616802
113,1686621338.05,-4.883,86.426,-0.488,-6.348,715.946,369.5640550590143
114,1686621338.05,-72.266,-89.355,5.371,-76.172,715.95,374.3210853039786
115,1686621338.06,-62.5,-594.238,24.902,-63.477,715.954,369.74374359670026
116,1686621338.06,11.23,-467.773,85.449,-6.348,715.958,376.91940504218417
117,1686621338.06,26.367,460.938,28.32,6.348,715.962,367.4967285330725
118,1686621338.07,-43.945,291.504,-11.719,-51.27,715.966,359.744353986467
119,1686621338.07,-8.789,222.656,69.824,-31.25,715.968,375.0447728299703
120,1686621338.07,-70.801,-88.379,51.27,-87.402,715.969,363.81818293378984
121,1686621338.08,20.996,506.836,25.391,2.93,715.972,372.14103468724187
122,1686621338.08,-30.273,13.184,-31.738,-41.992,715.976,370.4998897323462
123,1686621338.08,-68.359,-680.176,31.25,-83.008,715.98,370.3437487347531
124,1686621338.09,-20.508,-251.953,81.055,-46.875,715.984,362.4485591432696
125,1686621338.09,27.344,204.102,16.602,6.348,715.987,375.34755630028747
126,1686621338.09,-22.949,-174.316,-55.664,-31.25,715.991,379.43826365488314
127,1686621338.1,-99.609,-848.145,-30.273,-93.262,715.995,365.602713883469
128,1686621338.1,-69.824,-436.523,132.324,-81.543,715.999,367.3096604249259
129,1686621338.11,15.625,459.473,36.621,-19.043,716.003,366.7592757841251
130,1686621338.11,-0.977,228.027,13.184,-15.625,716.007,364.1093390976388
131,1686621338.11,-79.59,-76.66,71.777,-87.891,716.011,363.76538727858207
132,1686621338.12,-85.449,136.23,42.48,-98.145,716.028,356.3801137770068
133,1686621338.12,-5.371,358.398,20.02,-22.949,716.032,368.41447569389175
134,1686621338.13,17.578,203.613,16.602,0.488,716.035,371.3400353278719
135,1686621338.13,-59.57,72.266,40.039,-63.477,716.039,364.99890339985467
136,1686621338.13,-92.773,22.461,13.184,-93.262,716.043,366.6251755994678
137,1686621338.14,-24.902,-30.273,14.16,-34.668,716.047,366.07286864430796
138,1686621338.14,14.648,-486.328,5.859,2.93,716.051,372.0176508388764
139,1686621338.14,-40.039,-782.227,44.434,-51.758,716.055,377.22749391225545
140,1686621338.15,-80.566,-46.875,70.801,-104.98,716.059,381.120954869531
141,1686621338.15,-36.621,130.371,28.32,-66.406,716.063,370.5442802704619
142,1686621338.16,20.996,157.715,47.852,-9.277,716.067,372.7320977380084
143,1686621338.16,-8.789,354.492,24.902,-34.18,716.071,359.4023987721114
144,1686621338.18,-81.055,266.113,3.906,-96.68,716.073,380.7723882732407
145,1686621338.18,-52.246,69.336,8.301,-71.289,716.077,376.6501078011764
146,1686621338.18,16.602,-169.434,2.93,-11.719,716.081,375.65373108245444
147,1686621338.19,0.0,52.246,18.066,-31.738,716.085,369.9460916569571
148,1686621338.19,-69.824,202.637,5.371,-94.727,716.089,360.6885398922109
149,1686621338.2,-83.496,-296.875,-47.852,-88.379,716.092,371.62740616267735
150,1686621338.2,-20.508,-792.48,25.391,-18.555,716.096,368.5664316663039
151,1686621338.2,-0.977,-403.809,104.98,-4.395,716.1,367.51161930944687
152,1686621338.21,-60.547,154.297,25.391,-64.941,716.104,359.15797989914523
153,1686621338.21,-34.18,403.809,-22.461,-40.527,716.117,365.10376721963155
154,1686621338.21,-97.168,-225.098,-27.344,-100.586,716.108,371.3392332651807
155,1686621338.21,-88.867,-20.996,38.086,-90.82,716.121,360.5641167485325
156,1686621338.22,-43.457,-736.328,65.43,-45.898,716.112,366.8495631140713
157,1686621338.22,-54.199,48.34,105.957,-61.523,716.125,358.78789709149004
158,1686621338.22,10.742,491.699,41.504,-5.859,716.128,363.252812624898
159,1686621338.22,6.348,-8.789,110.84,-0.488,716.116,366.2144711450813
160,1686621338.22,-4.883,419.434,-9.766,-15.625,716.132,380.92470247452945
161,1686621338.23,-77.148,-176.27,2.93,-79.102,716.136,368.7874904428493
162,1686621338.23,-75.684,-454.102,37.598,-81.055,716.14,367.9846669199951
163,1686621338.24,3.906,50.781,53.711,-12.695,716.144,367.14288240447485
164,1686621338.24,15.137,445.801,3.418,-3.418,716.148,362.3450535006961
165,1686621338.24,-63.477,-357.422,-12.207,-62.012,716.152,370.0506862489588
166,1686621338.25,-84.473,-763.672,86.914,-76.66,716.156,380.6022506599638
167,1686621338.25,-5.859,100.586,71.289,-16.113,716.16,374.00201813343705
168,1686621338.28,26.367,372.07,-4.883,13.184,716.178,363.00954426887046
169,1686621338.29,-45.41,-87.891,8.789,-47.852,716.182,373.5846243041283
170,1686621338.29,-84.473,-321.777,40.527,-87.891,716.186,364.83988463108403
171,1686621338.29,-10.254,-12.207,76.172,-31.25,716.19,363.31307034343126
172,1686621338.3,45.898,264.16,-11.23,23.438,716.193,355.06448601346136
173,1686621338.3,-15.137,-555.664,-9.277,-20.02,716.197,371.0148308140941
174,1686621338.3,-83.008,-517.09,108.398,-84.473,716.201,371.4723552908907
175,1686621338.31,-46.387,317.383,57.617,-59.57,716.205,372.89490421170615
176,1686621338.31,15.625,35.645,38.086,-10.254,716.208,366.4230524412093
177,1686621338.31,16.113,101.562,-9.766,12.695,716.209,368.4482284271115
178,1686621338.32,21.484,6.836,55.664,3.418,716.212,358.56948810158207
179,1686621338.32,-6.348,-153.32,-32.227,-2.93,716.213,366.3758051502097
180,1686621338.32,-47.363,240.234,27.832,-61.523,716.216,368.99127267999404
181,1686621338.32,-71.777,194.824,28.32,-83.008,716.217,362.385216433348
182,1686621338.32,-70.801,220.215,6.836,-92.773,716.219,366.2407714711746
183,1686621338.32,-60.547,270.996,18.066,-83.496,716.221,364.9679040210507
184,1686621338.33,-7.812,-210.449,35.645,-30.273,716.223,366.3428709594895
185,1686621338.33,33.691,-396.484,72.754,14.648,716.227,366.3949035512798
186,1686621338.33,-8.301,8.789,21.484,-16.602,716.231,370.48647843493404
187,1686621338.34,-44.922,88.379,0.488,-55.664,716.235,367.79585822754206
188,1686621338.34,-25.879,-84.473,45.898,-47.363,716.239,364.5046690684718
189,1686621338.35,10.742,127.93,54.688,-4.395,716.243,374.9440991806757
190,1686621338.35,-20.508,365.723,5.371,-24.902,716.247,351.53391952273216
191,1686621338.35,-86.914,165.039,-17.09,-83.496,716.251,358.48214761560695
192,1686621338.36,-75.195,-540.527,59.57,-64.453,716.253,366.8851331931278
193,1686621338.36,5.371,-227.051,131.348,10.742,716.257,364.38757189256717
194,1686621338.36,13.184,221.191,16.602,14.16,716.261,359.35878601999093
195,1686621338.37,-63.477,-281.738,-27.344,-42.969,716.265,357.5811648414593
196,1686621338.37,-75.195,-761.23,12.695,-37.598,716.268,375.0035138237286
197,1686621338.38,-1.953,-532.715,96.68,23.926,716.272,359.31552428918536
198,1686621338.38,25.879,308.594,57.617,38.086,716.276,365.2004473666289
199,1686621338.38,-37.598,39.062,-61.523,-13.672,716.28,372.5313179425301
200,1686621338.39,-71.289,-673.34,-1.465,-27.832,716.284,376.1092764620461
201,1686621338.39,-0.488,2.93,116.699,25.879,716.288,372.38934522118484
202,1686621338.4,49.805,614.746,5.371,64.453,716.292,363.7038060774276
203,1686621338.4,-9.277,194.824,27.344,20.02,716.296,351.5519536043036
204,1686621338.42,-58.594,-66.406,71.289,-36.621,716.313,371.3126059516714
205,1686621338.42,-3.418,275.879,42.969,0.977,716.317,378.4079447774649
206,1686621338.42,54.199,492.676,13.672,64.453,716.321,373.7671097621749
207,1686621338.43,21.484,234.375,-0.488,39.551,716.325,364.9249730594442
208,1686621338.43,-49.316,15.625,3.418,-24.414,716.329,362.8392562002669
209,1686621338.44,-40.039,-126.465,16.113,-10.254,716.332,364.759321073836
210,1686621338.44,40.527,28.32,71.777,57.129,716.336,361.74641664202716
211,1686621338.44,36.133,-408.203,0.488,61.035,716.34,343.8035501822949
212,1686621338.45,-16.602,260.254,29.785,-16.113,716.343,358.1039567637853
213,1686621338.45,-38.086,-784.18,37.109,-3.418,716.344,373.23158075612895
214,1686621338.45,-50.781,262.207,28.32,-59.57,716.347,379.1947789790252
215,1686621338.45,-41.016,62.012,69.336,-27.832,716.348,371.1693579413663
216,1686621338.45,9.766,30.762,1.465,-3.906,716.351,361.47931954998666
217,1686621338.46,26.855,270.508,16.602,25.391,716.352,377.64514089989063
218,1686621338.46,48.828,-307.617,55.176,45.41,716.355,361.65750881533944
219,1686621338.46,47.852,162.598,42.48,47.363,716.356,358.86002656363655
220,1686621338.46,7.324,25.879,56.641,-3.906,716.359,370.548252148896
221,1686621338.47,-49.316,46.875,-8.301,-55.664,716.363,366.1768164126455
222,1686621338.47,-17.09,-346.68,32.715,-13.184,716.367,360.8479617007758
223,1686621338.47,44.434,-117.676,14.16,43.457,716.371,356.255954178277
224,1686621338.48,20.508,140.625,15.625,13.672,716.374,368.3838071898303
225,1686621338.48,-45.41,91.309,41.016,-47.852,716.378,366.1881775436469
226,1686621338.48,-39.551,-197.266,-3.418,-36.621,716.382,364.4638043592076
227,1686621338.49,26.855,-778.809,65.918,32.227,716.386,361.3822979945899
228,1686621338.49,35.645,-93.75,134.766,40.527,716.39,363.9865230515389
229,1686621338.5,-29.785,388.184,8.789,-20.02,716.394,367.47368439041327
230,1686621338.5,-50.293,-5.859,38.574,-41.992,716.398,370.9883234738964
231,1686621338.5,15.137,200.195,97.168,8.301,716.402,365.52820898899495
232,1686621338.51,47.363,542.969,27.344,38.574,716.406,362.8086600759575
233,1686621338.51,-14.16,204.59,-13.672,-12.695,716.41,362.3776632731219
234,1686621338.52,-60.059,-634.277,15.625,-58.594,716.413,351.274108199427
235,1686621338.52,-11.23,-535.645,105.469,-21.484,716.417,356.26702372162674
236,1686621338.52,43.945,500.977,87.402,24.414,716.421,355.9129728200472
237,1686621338.53,9.277,461.914,12.207,-8.301,716.425,343.99121632581625
238,1686621338.53,-57.129,-9.766,31.738,-71.289,716.429,357.7753300903634
239,1686621338.54,-44.922,-94.238,78.125,-62.012,716.433,338.03784312545133
240,1686621338.55,22.949,296.387,86.426,6.836,716.452,370.71515929217844
241,1686621338.56,15.137,428.223,-6.836,0.0,716.456,352.69817612534297
242,1686621338.56,-54.199,-433.594,19.531,-61.523,716.459,353.470281387206
243,1686621338.56,-54.688,-372.07,116.699,-56.641,716.463,362.78274686507064
244,1686621338.57,17.09,419.922,76.66,8.789,716.467,362.2974472721181
245,1686621338.57,24.414,184.57,-38.086,24.414,716.471,368.410326941872
246,1686621338.58,-46.387,-755.859,-3.418,-29.297,716.475,377.6043077978675
247,1686621338.58,-63.477,-510.254,144.531,-56.152,716.479,372.00819820005427
248,1686621338.58,2.441,402.344,76.66,-4.883,716.483,378.17646999152413
249,1686621338.58,-22.949,334.961,43.457,-27.832,716.492,365.2250644603454
250,1686621338.59,41.504,291.992,57.617,34.668,716.487,376.33891454704644
251,1686621338.59,39.551,131.348,32.227,31.25,716.496,378.9781040756287
252,1686621338.59,-11.23,102.539,64.941,-21.973,716.491,389.9477647583032
253,1686621338.59,-2.441,-6.836,48.828,-2.93,716.5,368.78738272673496
254,1686621338.6,-69.824,230.957,42.48,-74.707,716.495,385.5455173611969
255,1686621338.6,-69.824,193.359,45.41,-71.289,716.503,382.8405052855136
256,1686621338.6,-35.156,249.023,20.02,-47.363,716.507,395.9411436242248
257,1686621338.6,39.062,-116.211,36.133,24.902,716.511,400.41894063846235
258,1686621338.61,18.066,-163.574,69.336,-0.488,716.515,406.0209230497814
259,1686621338.61,-59.082,156.738,26.855,-74.219,716.519,396.535855520664
260,1686621338.62,-74.219,221.191,37.598,-83.984,716.523,409.2817496341091
261,1686621338.62,-4.395,-435.547,20.996,-12.207,716.527,408.98126813446453
262,1686621338.62,16.113,-686.035,57.129,10.254,716.531,409.07469973572796
263,1686621338.63,-53.223,164.551,61.035,-69.824,716.535,420.40473115026276
264,1686621338.64,-88.867,110.84,2.441,-101.074,716.538,437.79616096238425
265,1686621338.65,-22.461,10.742,40.039,-44.434,716.542,448.17196558945216
266,1686621338.65,25.879,104.004,39.551,2.93,716.546,442.2590361272946
267,1686621338.65,-28.32,82.52,30.273,-34.18,716.55,449.01521521692115
268,1686621338.66,-86.914,-1.465,-9.277,-91.797,716.554,465.47256425548073
269,1686621338.66,-57.129,-800.781,-14.648,-53.711,716.558,454.17542757396217
270,1686621338.66,5.859,-779.297,100.098,-3.906,716.562,463.03501853235076
271,1686621338.67,-2.93,280.762,77.637,-34.18,716.566,479.6156583502626
272,1686621338.67,-71.777,-19.531,-44.922,-83.984,716.569,460.74406700462924
273,1686621338.68,-61.035,-417.969,2.93,-62.5,716.573,468.02740548626497
274,1686621338.68,16.602,390.137,91.309,-0.488,716.577,467.98830949994874
275,1686621338.68,11.23,621.582,9.277,-11.719,716.581,483.23650077159823
276,1686621338.69,-56.641,98.145,28.809,-78.613,716.583,482.8828841194054
277,1686621338.69,-72.266,-98.145,121.094,-85.449,716.587,480.83718463719055
278,1686621338.7,-4.883,347.656,92.773,-20.02,716.591,477.1861714724006
279,1686621338.7,28.32,521.484,21.484,12.207,716.595,489.6100127453173
280,1686621338.7,-35.156,110.352,-0.488,-44.922,716.599,479.8537248475328
281,1686621338.71,-76.172,-253.906,45.41,-77.637,716.603,483.2665315502378
282,1686621338.71,-16.602,-174.316,62.988,-23.926,716.606,496.7635592043547
283,1686621338.71,20.508,141.602,44.922,6.348,716.61,500.9423576564293
284,1686621338.72,-41.992,-392.09,-8.789,-40.039,716.614,493.2097818918513
285,1686621338.72,-97.656,-789.551,71.289,-93.262,716.618,485.5042705631912
286,1686621338.73,-50.293,100.586,106.934,-74.219,716.622,498.28428601584903
287,1686621338.73,12.207,366.699,30.762,-6.348,716.626,490.18484543802225
288,1686621338.73,-2.441,187.988,57.129,-15.625,716.628,488.8527135349917
289,1686621338.74,-71.289,233.398,51.758,-87.891,716.632,486.66139786514276
290,1686621338.74,-76.172,95.703,37.598,-83.008,716.636,494.195444409138
291,1686621338.74,4.883,-65.918,32.227,-7.324,716.64,488.08682701449317
292,1686621338.75,17.578,-292.48,41.016,-1.953,716.643,497.0234769718346
293,1686621338.75,-53.711,-378.418,63.477,-70.312,716.647,498.2364427736048
294,1686621338.76,-75.684,2.441,82.52,-89.844,716.651,472.91019309595805
295,1686621338.76,-10.742,43.945,17.578,-24.414,716.655,492.1391982233562
296,1686621338.76,13.672,-357.91,28.32,16.602,716.659,494.4005487035905
297,1686621338.77,-42.969,-166.016,85.938,-39.551,716.663,499.0192756839624
298,1686621338.77,-76.172,108.887,46.387,-85.449,716.667,488.882447765539
299,1686621338.78,-20.508,-115.234,63.965,-41.504,716.671,483.40697189556363
300,1686621338.79,36.133,-97.168,83.984,7.812,716.688,465.3128291149182
301,1686621338.8,-3.906,418.457,60.059,-23.926,716.692,480.76861670064187
302,1686621338.8,-72.754,260.742,11.719,-77.637,716.696,472.70039175884204
303,1686621338.8,-44.922,33.203,67.383,-62.012,716.7,476.95330736960744
304,1686621338.81,21.484,229.98,62.988,-8.301,716.704,475.0237272379403
305,1686621338.81,6.348,182.617,-8.789,-17.578,716.708,467.2931908253789
306,1686621338.81,-61.035,-102.051,23.438,-83.008,716.712,475.3384610404466
307,1686621338.82,-71.777,-635.742,30.273,-84.961,716.715,472.3649559539183
308,1686621338.82,-28.809,-22.461,62.5,-37.109,716.721,474.0560382352129
309,1686621338.82,-1.465,-478.027,96.68,-13.184,716.719,460.96560731066506
310,1686621338.83,19.043,474.121,75.195,-1.465,716.723,476.56543680548367
311,1686621338.83,22.949,405.273,71.289,14.16,716.725,472.5094458928445
312,1686621338.83,-53.223,344.727,9.766,-63.965,716.727,476.98842492001637
313,1686621338.83,-34.18,228.027,-13.184,-34.668,716.729,468.89608797525375
314,1686621338.83,-95.703,-89.844,24.902,-93.75,716.731,473.7124547981321
315,1686621338.83,-90.332,-688.965,26.367,-87.891,716.733,479.2348144382201
316,1686621338.84,-41.504,-441.406,128.906,-48.828,716.737,461.67606964753384
317,1686621338.84,21.973,225.098,49.805,4.395,716.741,463.765621832187
318,1686621338.84,-12.695,-99.121,-18.066,-21.973,716.745,469.3509331544146
319,1686621338.85,-74.219,-266.602,3.418,-84.473,716.749,464.6491415660679
320,1686621338.85,-53.711,116.699,51.758,-67.383,716.753,471.995461674462
321,1686621338.86,20.508,519.531,48.828,-3.418,716.756,460.8104417127762
322,1686621338.86,11.719,114.746,-11.719,-2.93,716.76,454.88199504156046
323,1686621338.86,-61.035,-587.402,25.391,-66.895,716.764,460.47433965117824
324,1686621338.87,-70.801,-5.859,113.77,-91.797,716.766,449.95893320358414
325,1686621338.87,0.488,467.773,33.691,-22.461,716.769,452.5657085739489
326,1686621338.88,21.973,133.301,11.23,5.859,716.773,455.6732653826729
327,1686621338.88,-50.293,-32.715,57.617,-63.477,716.777,461.50539029490744
328,1686621338.88,-86.914,110.352,24.414,-91.797,716.781,448.83376065884613
329,1686621338.89,-19.531,95.703,22.461,-18.555,716.785,452.36943310927563
330,1686621338.89,20.02,-428.711,13.184,26.855,716.789,442.65524174548744
331,1686621338.9,-41.992,-763.672,53.711,-24.414,716.793,452.24305855567525
332,1686621338.9,-84.473,28.809,93.262,-83.496,716.797,442.5912582244766
333,1686621338.9,-46.387,272.461,26.855,-39.062,716.801,440.6951342780865
334,1686621338.91,4.395,202.148,55.664,21.484,716.805,439.9561067289296
335,1686621338.91,-18.066,329.102,41.504,-16.602,716.808,441.42070844843386
336,1686621338.91,-83.496,302.734,24.902,-90.82,716.823,439.76524152372497
337,1686621338.92,-64.453,169.434,34.18,-79.59,716.826,436.84692708342124
338,1686621338.92,6.348,-49.316,24.902,-8.789,716.83,425.5264181349631
339,1686621338.92,13.184,127.93,43.457,-5.371,716.834,436.8083481873748
340,1686621338.93,-57.617,287.598,31.738,-67.383,716.838,425.14038377498963
341,1686621338.93,-86.426,-53.711,-6.348,-91.309,716.842,429.2589661145899
342,1686621338.94,-26.367,-852.051,0.977,-27.344,716.846,418.93823833137463
343,1686621338.94,1.465,-641.113,110.352,7.324,716.85,421.11977999540545
344,1686621338.94,-57.129,347.656,69.336,-58.105,716.854,426.13693107795166
345,1686621338.95,-102.051,-7.324,10.742,-100.586,716.858,417.323687306949
346,1686621338.95,-32.227,-73.73,73.73,-44.922,716.862,414.6587869567933
347,1686621338.96,25.391,572.754,73.242,8.789,716.866,437.9188198688833
348,1686621338.96,-24.902,545.41,12.695,-23.438,716.867,418.70499579669433
349,1686621338.96,-80.566,25.879,27.344,-69.336,716.871,417.7803748769448
350,1686621338.97,-42.969,3.906,101.562,-39.062,716.874,416.93085502452686
351,1686621338.97,25.391,479.492,78.613,17.09,716.878,427.77073336149
352,1686621338.97,6.836,490.723,3.906,-7.812,716.882,401.3592968479986
353,1686621338.98,-73.73,-181.152,13.672,-72.266,716.886,397.0240014441917
354,1686621338.98,-71.777,-280.273,82.031,-63.477,716.89,398.3016972904212
355,1686621338.98,7.812,181.641,47.852,1.465,716.894,405.7135278603099
356,1686621338.99,9.277,207.031,23.438,-3.418,716.898,391.58782774750296
357,1686621338.99,-63.477,-492.188,15.137,-59.57,716.902,407.9331948454499
358,1686621339.0,-78.125,-699.219,103.027,-75.684,716.906,395.8364873967243
359,1686621339.0,2.441,227.539,97.656,-15.625,716.91,401.39533211729105
360,1686621339.02,26.855,345.215,31.738,15.137,716.913,390.97762754629036
361,1686621339.02,-53.223,100.098,35.645,-52.246,716.917,392.01913227503485
362,1686621339.02,-106.934,-163.086,33.691,-92.285,716.921,379.7440304929889
363,1686621339.03,-41.504,-7.812,100.586,-39.551,716.925,387.2266780379876
364,1686621339.03,23.926,219.727,21.973,17.09,716.929,395.75044387828103
365,1686621339.04,-25.391,-616.211,-0.488,-15.625,716.932,392.0721829847461
366,1686621339.04,-78.125,-546.875,137.695,-82.031,716.936,382.98270396044563
367,1686621339.04,-38.574,311.523,89.844,-51.758,716.94,379.30914014178677
368,1686621339.05,32.227,153.809,-1.465,30.762,716.944,380.88936217255724
369,1686621339.05,23.926,-114.746,-11.23,22.949,716.948,387.11361585885226
370,1686621339.06,-43.945,15.137,49.805,-45.41,716.952,371.92356258951656
371,1686621339.06,-52.246,117.188,52.246,-54.688,716.956,383.30892637780164
372,1686621339.06,14.648,-55.176,45.41,10.254,716.958,380.9304623654274
373,1686621339.06,30.273,-98.633,76.66,22.461,716.962,373.4524339925164
374,1686621339.07,-40.039,291.504,51.758,-48.828,716.966,382.2419704761267
375,1686621339.07,-70.312,174.805,35.156,-78.613,716.97,383.3153772486136
376,1686621339.08,1.953,46.875,43.457,-8.301,716.973,374.65017423768103
377,1686621339.08,39.551,-41.992,48.34,30.762,716.977,373.0991011245542
378,1686621339.08,-22.461,-71.289,68.359,-24.414,716.981,378.2072299563439
379,1686621339.09,-72.266,30.762,53.711,-82.031,716.985,366.7403583483871
380,1686621339.09,-37.109,-494.629,41.016,-53.711,716.989,371.90129668740263
381,1686621339.1,20.996,-432.129,125.0,6.348,716.993,374.21577837065456
382,1686621339.1,-2.93,428.223,61.035,-28.809,716.997,354.0824732265278
383,1686621339.1,-77.148,196.289,7.812,-98.145,717.001,363.01405737104557
384,1686621339.11,-61.523,-97.168,69.336,-78.613,717.006,370.9661654979685
385,1686621339.11,21.484,59.57,73.242,-12.207,717.01,360.94756860862395
386,1686621339.12,15.137,58.105,33.203,-10.742,717.014,357.6990692212378
387,1686621339.12,-67.383,-181.641,16.113,-70.312,717.018,352.92374996283786
388,1686621339.12,-81.543,-734.863,48.828,-79.102,717.022,356.33692670829697
389,1686621339.13,3.906,-633.301,126.465,-14.16,717.026,357.70515796038967
390,1686621339.13,38.086,221.68,99.121,2.441,717.03,356.60321869479407
391,1686621339.13,-40.039,81.543,-38.086,-60.547,717.034,367.4006573273696
392,1686621339.14,-74.707,-616.211,36.133,-88.379,717.038,360.2944506794245
393,1686621339.14,-3.906,-23.438,151.367,-27.832,717.041,350.698414408212
394,1686621339.15,38.086,575.684,30.762,13.672,717.045,359.12520132479307
395,1686621339.15,-23.438,187.5,52.734,-39.062,717.049,354.2538662525516
396,1686621339.15,-76.66,-47.363,94.238,-102.051,717.048,345.9588580784903
397,1686621339.16,-35.156,256.348,64.941,-60.547,717.052,333.91502675332833
398,1686621339.16,25.879,448.242,41.992,10.254,717.056,351.8469628696885
399,1686621339.16,5.371,77.637,35.156,-13.672,717.06,344.357100902328
400,1686621339.17,-62.5,-96.191,45.898,-74.707,717.064,321.81933734418175
401,1686621339.17,-56.641,-80.078,36.133,-66.406,717.067,342.7739322460846
402,1686621339.17,11.719,35.645,64.453,-4.395,717.071,341.49308171031134
403,1686621339.18,13.184,-381.348,-0.488,6.836,717.075,342.1275033209022
404,1686621339.18,-61.035,-784.668,59.082,-53.711,717.079,348.8979209208171
405,1686621339.19,-70.801,52.246,111.816,-82.52,717.083,334.7811879993599
406,1686621339.19,2.93,334.473,32.227,-20.508,717.087,347.3149048257102
407,1686621339.19,33.691,218.75,33.691,10.742,717.091,337.22337863100023
408,1686621339.2,-29.785,257.812,34.668,-44.434,717.093,330.34344061150136
409,1686621339.2,-73.73,203.613,23.926,-79.102,717.097,342.86822843408964
410,1686621339.2,-22.461,-30.273,3.906,-21.973,717.101,328.9553212012724
411,1686621339.21,36.133,-294.434,72.754,23.926,717.105,344.43673152806565
412,1686621339.21,-4.395,-8.789,52.246,-34.18,717.109,330.2001257009652
413,1686621339.22,-79.102,-15.625,-6.348,-99.121,717.113,347.5844239066106
414,1686621339.22,-52.246,-281.738,0.0,-63.965,717.116,341.5063423646296
415,1686621339.22,17.578,-750.977,11.719,10.742,717.12,332.72126020405216
416,1686621339.23,0.977,-350.098,110.352,-1.465,717.124,351.34932018953447
417,1686621339.23,-73.73,361.328,14.16,-67.871,717.128,336.9425241456279
418,1686621339.24,-78.125,-23.926,56.152,-71.289,717.132,326.2665194523633
419,1686621339.24,1.465,58.105,101.074,-6.836,717.136,316.5647949430328
420,1686621339.24,21.484,448.242,39.551,4.883,717.14,338.1500583144937
421,1686621339.25,-52.734,311.523,17.578,-68.359,717.144,326.2450318211958
422,1686621339.25,-88.379,-113.281,23.438,-93.75,717.148,320.6804405829312
423,1686621339.26,-15.625,13.184,75.195,-22.949,717.152,326.6240141490562
424,1686621339.26,28.32,387.207,47.852,16.113,717.156,326.76563771493585
425,1686621339.26,-37.598,99.121,2.93,-41.992,717.16,318.08738015146747
426,1686621339.27,-90.82,-669.434,9.766,-90.332,717.164,326.91836300054086
427,1686621339.27,-45.41,-579.102,79.102,-50.781,717.168,324.6582068763912
428,1686621339.27,12.207,211.914,53.711,3.906,717.172,317.79062615127697
429,1686621339.28,-20.508,84.473,8.301,-17.09,717.175,315.84058135457553
430,1686621339.28,-81.543,-361.816,51.758,-75.684,717.179,319.8240486005848
431,1686621339.29,-51.758,-233.398,80.566,-62.988,717.183,335.90886147990085
432,1686621339.29,17.09,396.484,60.059,-7.812,717.197,322.18577861687527
433,1686621339.29,0.0,368.652,8.789,-12.207,717.201,335.346994970525
434,1686621339.3,-72.754,-212.891,-2.441,-67.871,717.205,310.3200011098795
435,1686621339.3,-76.66,-204.59,52.246,-77.148,717.209,330.10827048814167
436,1686621339.3,10.254,292.48,44.922,-0.977,717.212,330.65308017304136
437,1686621339.31,26.367,98.145,-31.738,28.32,717.216,322.6007676806943
438,1686621339.31,-59.082,-815.43,-20.996,-33.203,717.22,324.05159987047585
439,1686621339.31,-81.543,-712.402,97.168,-68.848,717.224,324.5831775074482
440,1686621339.32,-9.277,269.531,78.613,-15.137,717.228,325.61348686378705
441,1686621339.32,26.367,258.301,25.879,26.367,717.232,313.6727448081052
442,1686621339.33,-25.879,34.18,25.391,-29.297,717.236,320.6069158377027
443,1686621339.33,-82.031,-105.469,28.32,-80.078,717.24,319.197311128476
444,1686621339.33,-42.48,42.48,50.781,-43.457,717.235,324.2464076618465
445,1686621339.34,16.602,20.508,60.547,12.695,717.239,329.1973766746729
446,1686621339.34,-11.719,-76.66,81.055,-14.648,717.243,331.7184750504332
447,1686621339.35,-72.266,127.441,39.551,-81.055,717.247,334.3733809979001
448,1686621339.35,-56.152,194.336,26.855,-74.219,717.251,330.8399098590532
449,1686621339.35,11.23,-358.398,-6.348,-6.348,717.254,328.17688379291275
450,1686621339.36,12.207,-708.496,68.359,-5.859,717.258,333.1185514542571
451,1686621339.36,-55.176,50.293,62.988,-86.426,717.262,336.04477834495896
452,1686621339.36,-83.496,73.73,1.953,-98.633,717.266,326.13058588696094
453,1686621339.37,-16.113,-67.383,59.57,-28.809,717.27,338.38726680922525
454,1686621339.37,13.184,203.125,58.594,-0.977,717.274,326.47191656541725
455,1686621339.38,-59.082,298.828,23.438,-58.105,717.278,325.1836400507006
456,1686621339.39,-89.355,11.719,26.855,-91.797,717.296,344.87960324414684
457,1686621339.4,-20.02,-145.02,33.691,-27.344,717.3,336.01442745855434
458,1686621339.4,29.297,-41.992,30.273,25.391,717.304,340.8207506936757
459,1686621339.4,-22.461,-141.602,37.109,-28.32,717.308,349.4357149309683
460,1686621339.41,-90.82,-270.02,18.555,-102.539,717.312,340.8517055964431
461,1686621339.41,-53.711,-825.195,-28.32,-63.965,717.316,354.8579366334464
462,1686621339.42,17.578,-803.711,116.699,3.906,717.319,345.3904854209221
463,1686621339.42,-3.418,206.543,109.863,-23.926,717.323,362.28725153278026
464,1686621339.42,-77.637,95.215,-16.602,-80.078,717.327,355.4055474044577
465,1686621339.43,-69.824,-109.375,44.922,-65.43,717.331,371.0263272931866
466,1686621339.43,14.16,388.672,60.547,-0.977,717.335,373.16234232003256
467,1686621339.44,21.973,481.445,-3.906,0.0,717.339,366.6464515093063
468,1686621339.45,-51.27,40.039,32.227,-64.453,717.348,384.73479116294664
469,1686621339.46,-71.777,-122.559,89.844,-79.59,717.352,394.4660897178796
470,1686621339.46,1.465,292.48,53.711,-20.508,717.356,392.72258319624797
471,1686621339.46,33.691,394.531,9.277,15.625,717.36,394.43163436283834
472,1686621339.47,-33.691,-184.082,-10.742,-31.25,717.364,420.52095761854986
473,1686621339.47,-83.008,-547.363,52.734,-79.59,717.368,406.33878598522057
474,1686621339.48,-27.832,-234.863,102.051,-34.668,717.372,401.9051614611709
475,1686621339.48,34.18,288.574,61.035,14.16,717.376,413.3045206677941
476,1686621339.48,12.207,128.418,46.875,-9.766,717.378,419.6912146469081
477,1686621339.48,-14.16,-299.316,-41.504,-26.367,717.38,403.62610075854786
478,1686621339.49,-67.871,111.328,43.457,-87.891,717.382,415.7195247950151
479,1686621339.49,-78.125,-919.922,86.426,-88.867,717.383,415.6689574206109
480,1686621339.49,-70.801,-23.926,38.086,-83.008,717.386,431.90954767272405
481,1686621339.49,-45.41,-25.879,141.602,-77.148,717.387,422.51525595698405
482,1686621339.49,-0.488,-93.75,36.621,-11.719,717.39,429.8419546198162
483,1686621339.5,24.902,354.492,26.855,-2.93,717.391,427.970157089214
484,1686621339.5,12.207,-255.371,35.645,0.977,717.394,431.6026007652606
485,1686621339.5,-49.316,-301.758,51.27,-66.406,717.398,438.66214270611493
486,1686621339.5,-75.684,-218.75,43.457,-95.703,717.401,436.9731459219403
487,1686621339.51,-9.766,-323.73,25.879,-29.785,717.405,446.62517142408643
488,1686621339.51,34.668,-118.164,23.438,2.441,717.409,435.0216270219736
489,1686621339.52,-19.531,264.648,45.41,-50.293,717.413,427.08897286275413
490,1686621339.52,-80.078,290.039,34.18,-96.68,717.417,442.53967817128273
491,1686621339.52,-39.062,-165.527,-8.301,-52.734,717.421,436.21637615488464
492,1686621339.53,18.066,-792.48,53.223,11.23,717.423,440.3014232842701
493,1686621339.53,-12.207,-154.297,130.371,-16.602,717.427,451.4446155878876
494,1686621339.54,-71.777,252.93,13.672,-81.055,717.431,442.14588537836454
495,1686621339.54,-46.875,-72.266,43.945,-61.523,717.435,439.9089194354359
496,1686621339.54,18.066,87.891,53.711,2.93,717.439,454.38987821882336
497,1686621339.55,0.488,78.613,4.395,2.93,717.443,447.0863865258876
498,1686621339.55,-70.801,-111.328,19.043,-65.43,717.446,432.42782270441734
499,1686621339.55,-81.543,-619.629,23.926,-79.102,717.45,434.81155824029685
500,1686621339.56,-13.672,-512.207,103.027,-8.789,717.454,441.9477457293855
501,1686621339.56,8.789,224.609,68.848,2.441,717.458,437.5192657720647
502,1686621339.57,-47.852,-58.594,7.812,-54.688,717.462,447.41145551403184
503,1686621339.57,-72.754,-395.508,81.055,-77.148,717.466,450.521473447674
504,1686621339.57,-14.648,-13.184,109.863,-28.809,717.468,444.1798870609635
505,1686621339.58,21.484,445.312,26.367,8.301,717.472,442.04425389088556
506,1686621339.58,-38.086,37.109,-30.762,-41.504,717.476,452.0084221050123
507,1686621339.58,-100.098,-572.266,62.5,-84.961,717.48,452.8248706859895
508,1686621339.59,-47.852,-169.434,113.77,-50.781,717.484,426.4905253719638
509,1686621339.59,14.16,251.953,32.715,-5.859,717.488,434.4957841163918
510,1686621339.6,-23.438,-166.504,-32.715,-28.809,717.491,437.8351528912448
511,1686621339.6,-90.332,-677.246,20.508,-100.586,717.495,433.59078666326747
512,1686621339.6,-70.801,-193.848,128.418,-96.191,717.499,436.75364007498786
513,1686621339.61,15.137,454.102,31.25,-12.695,717.503,418.7133523780758
514,1686621339.61,16.113,216.309,40.039,-4.883,717.507,435.2187541028145
515,1686621339.62,-54.199,-52.734,63.477,-75.684,717.511,431.6096919045876
516,1686621339.63,-68.359,-106.445,66.895,-86.914,717.542,418.5094393111135
517,1686621339.64,0.488,204.59,65.918,-21.973,717.546,411.4315122742601
518,1686621339.64,24.902,-0.488,31.25,5.859,717.549,415.3078994879579
519,1686621339.64,-41.504,-277.832,71.289,-61.035,717.553,408.00395980338016
520,1686621339.65,-80.566,41.504,21.973,-107.91,717.557,410.61690411273526
521,1686621339.65,-19.043,18.555,34.668,-48.34,717.561,393.5793870972985
522,1686621339.66,21.484,-484.863,41.016,1.953,717.565,410.1105902338255
523,1686621339.66,-27.344,-615.234,34.668,-44.922,717.569,394.2187790882969
524,1686621339.66,-113.77,229.98,19.531,-125.488,717.573,405.3465991448387
525,1686621339.66,-74.219,68.359,39.062,-96.191,717.573,400.3867760214393
526,1686621339.67,-95.215,22.949,26.367,-104.492,717.576,396.323883055285
527,1686621339.67,-29.785,90.82,19.043,-49.316,717.577,392.48844749363184
528,1686621339.67,-30.273,-275.391,37.598,-41.992,717.58,393.24042131875376
529,1686621339.67,21.484,45.41,37.598,-0.977,717.581,400.06315455803184
530,1686621339.67,-28.32,-218.75,51.27,-35.645,717.584,398.4393636515021
531,1686621339.68,-40.527,193.848,32.715,-58.594,717.585,386.7586386991704
532,1686621339.68,-109.863,-2.93,34.668,-112.793,717.588,381.28195982453485
533,1686621339.68,-140.625,-311.035,-32.227,-145.02,717.592,387.9673040406282
534,1686621339.68,-63.965,-521.973,51.758,-72.266,717.596,385.3035328960671
535,1686621339.69,-8.789,102.539,92.285,-26.855,717.6,360.085362278813
536,1686621339.69,-55.664,392.09,21.973,-72.754,717.604,360.3244471421462
537,1686621339.7,-96.68,-127.93,-28.32,-106.445,717.608,378.43113371378683
538,1686621339.7,-41.992,-860.352,26.855,-45.41,717.612,348.9252898982661
539,1686621339.7,16.602,-265.137,126.465,5.859,717.616,355.8054726004498
540,1686621339.71,-21.484,434.082,10.742,-29.785,717.617,354.47959744354955
541,1686621339.71,-82.52,-89.844,48.34,-87.402,717.621,340.8039405091299
542,1686621339.72,-58.105,-181.152,143.555,-64.453,717.625,346.12499875195607
543,1686621339.72,0.0,408.203,69.336,-4.395,717.628,321.6935939189631
544,1686621339.72,-11.719,380.371,-3.906,-17.09,717.632,305.6541784081212
545,1686621339.73,-75.684,-238.77,20.996,-75.195,717.636,318.1544362521375
546,1686621339.73,-83.496,-511.23,64.453,-74.219,717.64,312.00770569089184
547,1686621339.74,-9.766,-84.961,70.801,-5.371,717.644,301.00811740907426
548,1686621339.74,11.23,350.586,21.973,1.953,717.648,308.4274865821613
549,1686621339.74,-62.012,-414.551,-28.809,-57.617,717.652,279.7133143363865
550,1686621339.75,-94.238,-754.395,85.449,-83.008,717.656,285.40782857461994
551,1686621339.75,-28.809,212.402,98.145,-31.738,717.66,282.2274654227296
552,1686621339.77,5.859,325.195,14.16,0.977,717.663,259.0088581429103
553,1686621339.77,-53.223,43.945,8.789,-50.781,717.667,250.52565090609363
554,1686621339.78,-104.004,-194.824,26.855,-87.402,717.671,235.21096739210893
555,1686621339.78,-39.551,-101.562,81.055,-41.992,717.675,246.07909253280303
556,1686621339.78,30.762,220.215,23.438,6.836,717.679,249.22953774814806
557,1686621339.79,-19.043,-646.484,-41.016,-20.02,717.683,233.2425363643868
558,1686621339.79,-84.961,-761.719,61.523,-88.379,717.687,221.75524720472993
559,1686621339.79,-46.387,135.254,51.27,-66.406,717.691,234.44971904617756
560,1686621339.8,26.367,-38.574,-29.785,17.578,717.694,239.93836037413968
561,1686621339.8,7.324,-347.168,11.23,3.418,717.698,198.68247265365184
562,1686621339.81,-66.895,86.914,74.219,-68.848,717.702,219.21753105395825
563,1686621339.81,-78.125,259.277,9.277,-72.754,717.706,225.89588480611368
564,1686621339.81,-12.207,55.176,64.453,-17.578,717.708,211.53784557094315
565,1686621339.82,17.578,163.086,102.051,-5.371,717.712,215.5760949364033
566,1686621339.82,-45.898,327.637,8.301,-56.641,717.715,205.50089085402578
567,1686621339.82,-90.332,210.938,10.742,-93.262,717.719,209.87039308022545
568,1686621339.83,-24.902,10.742,22.461,-45.41,717.723,214.35695799317477
569,1686621339.83,15.625,-151.855,10.742,1.465,717.727,218.0319935937552
570,1686621339.83,-33.203,-100.098,39.062,-36.133,717.731,201.26106619935956
571,1686621339.84,-78.613,91.309,17.09,-85.449,717.735,200.56140600471477
572,1686621339.84,-50.293,-494.141,4.883,-52.246,717.739,191.5923429620141
573,1686621339.85,12.207,-534.18,84.961,4.395,717.743,200.51776956586568
574,1686621339.85,-4.883,163.086,50.781,-29.785,717.747,205.14516267035276
575,1686621339.85,-74.219,-132.324,4.883,-89.844,717.751,211.77628015139368
576,1686621339.86,-55.664,-315.918,77.637,-71.289,717.753,214.7371539129036
577,1686621339.86,24.902,177.734,98.633,-0.977,717.757,195.18437175549326
578,1686621339.86,17.09,219.238,16.113,-5.859,717.761,201.09266686772634
579,1686621339.87,-58.105,-200.684,1.953,-73.242,717.764,196.71895260914744
580,1686621339.87,-77.637,-702.148,24.902,-81.055,717.768,206.22870771536986
581,1686621339.88,-11.719,-642.578,109.375,-10.742,717.772,211.3433138745433
582,1686621339.88,32.715,200.195,89.355,20.996,717.776,205.77131681624752
583,1686621339.88,-33.691,68.359,-24.902,-38.574,717.78,215.89880661306424
584,1686621339.89,-93.262,-652.832,30.273,-83.496,717.784,198.42794735964628
585,1686621339.89,-26.855,-86.426,144.043,-37.109,717.788,217.51243825938292
586,1686621339.9,36.621,580.078,37.598,13.672,717.792,218.13979769503308
587,1686621339.9,-11.23,56.152,17.578,-28.809,717.796,210.2859558960143
588,1686621339.9,-64.453,-337.402,47.363,-81.543,717.813,220.09908566272657
589,1686621339.91,-35.645,-36.621,74.707,-49.805,717.817,220.23687461930405
590,1686621339.91,17.09,351.074,54.688,-0.488,717.821,241.70191187077958
591,1686621339.91,0.488,-14.16,31.738,-19.531,717.824,226.03665227360145
592,1686621339.92,-59.082,-362.793,80.566,-69.336,717.828,228.86376420974486
593,1686621339.92,-60.059,-147.461,26.855,-62.012,717.832,226.02118153356068
594,1686621339.92,-4.883,31.738,40.527,-11.719,717.836,238.63139064210992
595,1686621339.93,5.371,-362.793,26.855,-2.93,717.84,232.46559715678788
596,1686621339.93,-64.453,-577.637,46.875,-66.895,717.844,224.08931116369934
597,1686621339.94,-82.031,179.688,53.711,-87.891,717.848,226.75492894838766
598,1686621339.94,-24.414,287.109,21.973,-23.438,717.852,236.9922995270263
599,1686621339.94,3.418,200.195,32.715,2.93,717.856,235.74972269359577
600,1686621339.95,-50.293,234.863,35.156,-52.734,717.843,240.3759591959763
601,1686621339.95,-91.797,219.238,24.414,-100.586,717.847,233.4446194023937
602,1686621339.95,-40.039,7.324,6.348,-45.898,717.851,240.87061480150638
603,1686621339.96,10.254,-500.977,41.016,21.484,717.855,233.7208415937934
604,1686621339.96,-27.344,-294.434,39.062,-20.996,717.859,232.61734254726275
605,1686621339.97,-87.891,-34.18,11.719,-91.309,717.863,257.5780915052379
606,1686621339.97,-62.012,-313.477,2.93,-65.918,717.867,243.58383056911956
607,1686621339.97,10.742,-450.684,20.508,-0.977,717.871,235.371070587517
608,1686621339.98,-8.789,-21.973,56.152,-23.926,717.874,253.09276786947592
609,1686621339.98,-82.031,306.641,17.09,-85.449,717.878,246.5414622120096
610,1686621339.98,-84.961,-219.727,-16.113,-75.195,717.882,250.38971924386777
611,1686621339.99,-10.742,-443.359,34.18,-15.137,717.886,260.9778912906259
612,1686621339.99,11.719,252.441,77.148,-7.812,717.89,256.31253007600844
613,1686621340.0,-58.594,301.758,-17.09,-72.754,717.894,273.4697036513004
614,1686621340.0,-80.078,-134.766,47.852,-90.82,717.898,271.79488477945335
615,1686621340.0,-8.789,31.738,118.164,-22.949,717.902,266.3693979263121
616,1686621340.01,31.738,381.348,2.441,11.719,717.906,269.7880159269842
617,1686621340.01,-26.855,66.895,-10.254,-49.316,717.91,270.94220759225186
618,1686621340.02,-97.656,-654.785,6.348,-103.027,717.914,269.314677802782
619,1686621340.02,-54.688,-771.484,98.633,-54.688,717.918,280.3432176170607
620,1686621340.02,9.277,182.617,120.605,-0.977,717.922,279.9608154769258
621,1686621340.03,-31.738,383.789,-15.625,-35.156,717.926,283.21349141941687
622,1686621340.03,-93.262,-75.684,7.324,-96.68,717.929,274.07038226775774
623,1686621340.04,-71.289,39.551,58.105,-83.008,717.933,287.17690406258833
624,1686621340.04,4.883,436.523,34.668,-14.648,717.947,271.94560075842594
625,1686621340.04,5.371,350.586,14.648,-11.719,717.951,284.87415126593606
626,1686621340.04,-69.336,-230.469,3.418,-84.473,717.955,288.68715548621134
627,1686621340.05,-80.566,-232.422,35.156,-87.891,717.959,293.03063700405727
628,1686621340.05,-13.184,271.973,37.598,-11.719,717.963,285.5096271312311
629,1686621340.06,14.648,124.023,-30.273,15.137,717.967,299.75937581259143
630,1686621340.06,-53.711,-790.039,-16.602,-41.992,717.971,304.9287337233556
631,1686621340.06,-85.449,-710.938,72.266,-73.73,717.975,294.86104930618353
632,1686621340.07,-13.672,156.738,72.266,-24.414,717.978,301.4047369350911
633,1686621340.07,30.762,-107.422,-16.113,17.578,717.982,294.6660786937504
634,1686621340.08,-15.625,-298.828,-30.273,-25.391,717.986,312.17442205024474
635,1686621340.08,-66.895,151.855,43.945,-81.055,717.99,305.5086116311878
636,1686621340.08,-29.785,291.504,20.508,-48.828,717.992,292.6136324161609
637,1686621340.09,32.715,131.836,44.434,4.883,717.996,314.7837773458171
638,1686621340.09,17.578,139.16,63.965,-20.996,718.0,311.4349924833791
639,1686621340.1,-49.316,211.914,19.043,-85.449,718.004,303.6220967588206
640,1686621340.1,-44.434,205.078,-7.812,-73.242,718.007,318.5295163881025
641,1686621340.1,22.949,-258.301,31.25,-7.812,718.011,303.62228437177885
642,1686621340.11,24.414,-337.402,87.402,1.953,718.015,313.1577565915811
643,1686621340.11,-40.039,177.246,19.043,-60.547,718.019,317.7852665015745
644,1686621340.11,-58.105,102.051,-11.23,-87.891,718.023,320.22607574805454
645,1686621340.12,-3.418,-172.363,34.18,-30.762,718.027,320.22126822470136
646,1686621340.12,19.043,-34.18,46.875,-4.395,718.031,323.0896479609881
647,1686621340.13,-38.574,-30.273,-35.156,-53.711,718.035,306.34723599119866
648,1686621340.14,-81.543,-305.176,-11.23,-92.285,718.038,330.150106315826
649,1686621340.15,-22.949,-329.102,62.012,-39.551,718.042,322.5840548786573
650,1686621340.15,25.879,-195.801,46.875,7.812,718.046,326.08782451395734
651,1686621340.15,-23.926,33.691,14.16,-40.527,718.05,339.22297863358966
652,1686621340.16,-80.078,-22.461,-22.949,-97.168,718.054,348.09931589960513
653,1686621340.16,-47.852,-823.242,-23.438,-58.105,718.058,335.20470520887415
654,1686621340.16,25.879,-541.016,98.145,7.812,718.062,346.29334255327717
655,1686621340.17,18.066,454.102,33.691,-10.254,718.065,349.19138616862426
656,1686621340.17,-58.105,-36.621,-38.574,-71.777,718.069,336.68464746821167
657,1686621340.18,-60.547,-321.777,12.207,-66.895,718.073,344.55666899546105
658,1686621340.18,17.09,305.664,48.34,-3.418,718.077,329.8248652549082
659,1686621340.18,15.625,497.559,-9.766,0.977,718.081,348.3843297429425
660,1686621340.19,-61.035,74.707,30.273,-63.965,718.086,348.82679408914794
661,1686621340.19,-79.102,-191.895,60.547,-85.449,718.09,351.5802632902161
662,1686621340.2,-3.906,-21.973,47.363,-22.949,718.094,333.5257686985314
663,1686621340.2,37.598,324.219,29.785,11.719,718.098,360.7472694672561
664,1686621340.2,-23.926,-130.859,-21.484,-26.855,718.102,340.1968637066582
665,1686621340.21,-89.844,-715.82,38.086,-86.426,718.106,339.4606728450365
666,1686621340.21,-54.688,-235.84,57.617,-65.918,718.11,339.8322110695412
667,1686621340.22,13.672,338.379,19.531,4.395,718.114,353.65695937818106
668,1686621340.22,-13.672,-312.012,-26.367,-1.465,718.117,361.95781792436486
669,1686621340.22,-76.66,-687.988,45.898,-61.523,718.121,368.7704419321497
670,1686621340.23,-38.086,146.973,48.828,-47.363,718.125,367.8482087371557
671,1686621340.23,42.969,268.066,6.836,26.855,718.129,371.77851646838326
672,1686621340.23,31.738,81.543,7.324,24.414,718.128,356.02558377402676
673,1686621340.24,-37.598,129.395,21.973,-40.039,718.132,376.7169701222534
674,1686621340.24,-45.41,-27.832,37.109,-53.711,718.136,372.66772323680163
675,1686621340.24,19.043,-185.547,19.531,8.789,718.14,385.6244285579308
676,1686621340.25,34.18,-412.109,4.883,27.344,718.144,353.824691948412
677,1686621340.25,-35.156,-451.66,39.062,-48.34,718.148,376.74689357384267
678,1686621340.26,-58.105,-236.816,52.246,-77.148,718.152,382.1002382728898
679,1686621340.26,3.906,-160.645,-18.555,-16.602,718.156,377.69371538939595
680,1686621340.26,34.668,-691.895,-2.93,20.02,718.159,371.11398329009154
681,1686621340.27,-22.461,-434.082,97.168,-29.785,718.163,377.79357007606205
682,1686621340.27,-78.125,258.789,28.809,-85.449,718.167,362.0255130496323
683,1686621340.28,-33.691,14.648,70.312,-40.039,718.171,375.80956430206874
684,1686621340.28,24.414,156.738,88.867,18.555,718.173,376.41174204352427
685,1686621340.28,-8.301,431.152,23.926,-17.578,718.177,370.48967575837463
686,1686621340.28,-68.848,260.742,3.418,-77.637,718.181,373.42024920047066
687,1686621340.29,-55.664,-33.203,53.711,-62.5,718.185,378.5053930809338
688,1686621340.29,8.301,104.492,59.57,1.465,718.189,366.3504945922022
689,1686621340.3,7.812,130.859,-17.578,-1.953,718.193,388.9961094541906
690,1686621340.3,-55.664,-119.629,12.695,-62.5,718.197,379.29850636773165
691,1686621340.3,-74.707,-635.254,9.277,-69.824,718.201,391.0324472788948
692,1686621340.31,-3.418,-715.82,79.59,-7.324,718.204,379.0102743052249
693,1686621340.31,35.156,285.645,91.309,13.672,718.208,376.8655562401361
694,1686621340.32,-31.738,355.957,-0.977,-46.875,718.212,381.0762399807929
695,1686621340.32,-67.383,-100.586,36.621,-83.008,718.216,390.54801379753354
696,1686621340.32,-9.277,142.578,62.5,-28.809,718.218,363.0348684233634
697,1686621340.33,32.715,515.625,28.809,11.719,718.222,383.7884326056243
698,1686621340.33,-22.461,172.363,-20.02,-30.762,718.226,370.29346783059293
699,1686621340.33,-84.473,-523.926,51.27,-80.566,718.23,383.4890785631008
700,1686621340.34,-39.062,-240.723,75.195,-43.457,718.234,387.5337846291204
701,1686621340.34,31.738,192.383,14.16,13.672,718.238,377.3993777711755
702,1686621340.34,5.371,-68.848,-30.273,-8.301,718.242,358.08604526888155
703,1686621340.35,-66.895,-615.234,23.926,-67.871,718.246,366.0241386577121
704,1686621340.35,-57.617,-214.844,112.793,-67.383,718.25,366.8659631938491
705,1686621340.36,21.484,372.07,33.203,-3.418,718.253,363.22714620740294
706,1686621340.36,24.414,-82.031,-15.137,9.277,718.257,373.956570094189
707,1686621340.36,-56.152,-345.215,-17.578,-55.664,718.261,380.10126441528297
708,1686621340.37,-84.473,112.793,43.457,-73.242,718.265,354.65580172849485
709,1686621340.37,-13.184,345.215,16.113,-7.812,718.269,365.910189303999
710,1686621340.38,17.578,150.879,19.043,17.578,718.273,370.5207543538228
711,1686621340.38,-43.457,80.566,54.688,-39.551,718.277,369.3375344870684
712,1686621340.38,-76.66,109.375,4.883,-75.195,718.281,355.1246692793452
713,1686621340.39,-19.043,46.387,7.812,-20.508,718.285,360.4198199253101
714,1686621340.39,25.879,-454.102,17.578,24.902,718.289,362.75310428335905
715,1686621340.39,-24.414,-593.262,27.832,-18.066,718.293,383.8953771582408
716,1686621340.4,-75.195,152.832,29.785,-70.312,718.297,359.09423578385974
717,1686621340.4,-36.133,217.285,15.625,-34.668,718.3,363.7843427540587
718,1686621340.41,32.227,161.133,21.484,30.762,718.304,381.4456355612816
719,1686621340.41,17.578,323.73,21.484,17.578,718.308,368.56034094751084
720,1686621340.41,-66.406,82.52,4.395,-66.406,718.322,376.5746165170752
721,1686621340.42,-70.312,-148.926,3.418,-76.66,718.325,372.73668354272513
722,1686621340.42,8.301,-410.156,62.012,3.418,718.329,380.1168532362283
723,1686621340.42,18.066,-205.566,73.242,17.09,718.333,379.2020134219473
724,1686621340.43,-56.152,275.391,19.531,-48.828,718.337,386.0942023438204
725,1686621340.43,-78.613,-52.246,-29.785,-74.219,718.341,381.3463826615611
726,1686621340.44,-10.254,-797.363,-3.906,-11.719,718.345,392.6528189773169
727,1686621340.44,32.227,-397.949,96.191,23.926,718.349,378.9255887737378
728,1686621340.44,-11.719,492.676,15.625,-34.668,718.353,383.1940132384409
729,1686621340.45,-59.082,70.801,-15.137,-78.125,718.357,397.7285613458498
730,1686621340.45,-14.16,7.812,31.738,-36.621,718.361,390.1332311644746
731,1686621340.46,41.992,527.832,32.715,20.02,718.365,387.3300534268129
732,1686621340.46,1.465,514.16,-9.277,-13.672,718.367,386.53809737308546
733,1686621340.46,-61.523,75.684,21.484,-71.289,718.371,407.11149157002745
734,1686621340.47,-43.945,-96.191,54.688,-44.434,718.375,393.57284654054143
735,1686621340.47,21.484,155.273,44.434,19.531,718.379,400.28110234253523
736,1686621340.47,13.184,456.055,12.695,13.184,718.383,391.559679679176
737,1686621340.48,-61.523,-326.66,-31.738,-51.27,718.387,413.83069885290365
738,1686621340.48,-63.965,-766.113,81.055,-54.688,718.391,417.8829181739325
739,1686621340.48,15.625,200.195,99.609,-2.93,718.395,407.4809044062635
740,1686621340.49,40.039,486.328,-4.395,4.395,718.398,411.56254221433824
741,1686621340.49,-30.273,72.266,0.488,-55.664,718.402,400.8646236308779
742,1686621340.5,-70.801,10.254,49.316,-90.332,718.406,408.8421737590511
743,1686621340.5,-9.277,350.098,37.598,-26.855,718.41,408.91815917480835
744,1686621340.52,25.879,351.562,16.113,6.836,718.413,419.7300781689489
745,1686621340.52,-25.879,91.309,-0.488,-47.363,718.417,414.4547664355845
746,1686621340.52,-78.125,-199.707,12.207,-91.797,718.421,426.8552060082257
747,1686621340.53,-38.086,-35.645,62.988,-59.57,718.425,426.0030454497711
748,1686621340.53,24.902,251.465,-4.883,1.465,718.429,421.9020679831008
749,1686621340.54,-13.184,-523.926,-22.461,-15.137,718.433,432.4376788089542
750,1686621340.54,-70.312,-716.797,65.918,-72.754,718.437,427.77404544993743
751,1686621340.54,-51.27,-8.789,63.477,-68.359,718.441,434.792704372775
752,1686621340.55,17.09,119.629,-17.578,-5.371,718.445,431.7668924423838
753,1686621340.55,21.973,-376.465,1.465,7.812,718.449,436.0764434356146
754,1686621340.56,-42.48,-96.68,66.895,-53.711,718.452,436.63887887958134
755,1686621340.56,-49.805,196.777,0.488,-63.477,718.456,439.82910727623255
756,1686621340.56,20.996,74.707,65.918,-2.441,718.458,428.0082395068026
757,1686621340.57,50.781,228.027,73.73,23.438,718.462,429.94829434071767
758,1686621340.57,-14.16,350.098,7.812,-31.25,718.466,423.9597878972908
759,1686621340.57,-62.012,203.613,13.184,-74.219,718.47,430.1568430682816
760,1686621340.58,-4.395,43.457,31.738,-22.461,718.474,426.89360541542135
761,1686621340.58,51.758,-58.105,35.156,31.738,718.477,434.903474699047
762,1686621340.58,9.766,67.383,31.25,-6.836,718.481,412.24801578511943
763,1686621340.59,-51.758,233.398,4.883,-77.637,718.485,418.9632244345606
764,1686621340.59,-21.484,-484.863,-25.391,-44.922,718.489,418.4879556885322
765,1686621340.6,46.387,-693.359,82.52,16.113,718.493,412.6389242479945
766,1686621340.6,25.879,292.48,82.52,-7.324,718.497,424.824498468611
767,1686621340.6,-44.434,215.332,-19.043,-66.895,718.501,420.0543256551803
768,1686621340.61,-30.273,-98.633,45.898,-54.199,718.503,436.11469772732823
769,1686621340.61,35.156,276.855,48.828,13.672,718.507,429.88339634141596
770,1686621340.61,36.621,253.906,-13.184,22.461,718.511,413.1982121484784
771,1686621340.62,-36.133,-109.375,-9.277,-38.086,718.515,409.37503933227435
772,1686621340.62,-56.641,-423.34,21.484,-50.293,718.519,416.1062972418619
773,1686621340.63,13.184,-317.383,47.363,13.672,718.523,413.60222071836506
774,1686621340.63,42.969,201.172,42.48,35.156,718.527,413.2127123730954
775,1686621340.63,-17.09,90.82,-42.48,-20.508,718.531,405.5928184718121
776,1686621340.64,-65.918,-601.562,5.859,-65.918,718.534,423.6895852948652
777,1686621340.64,-15.137,-75.684,107.91,-24.414,718.538,413.85313090581013
778,1686621340.64,32.715,495.117,15.137,20.508,718.542,415.5383595230519
779,1686621340.65,-7.812,-123.047,-7.812,-18.066,718.546,421.54836758082075
780,1686621340.65,-62.5,-360.352,23.438,-66.895,718.562,391.68155439700405
781,1686621340.66,-24.902,283.691,50.293,-41.016,718.566,402.42769330308096
782,1686621340.66,48.828,553.223,7.812,19.043,718.57,414.5147025145036
783,1686621340.66,26.367,249.512,24.414,10.254,718.574,421.84623813774095
784,1686621340.67,-50.781,111.328,31.738,-65.43,718.577,413.0595084333844
785,1686621340.67,-48.34,-15.625,0.977,-69.824,718.581,391.2500664447168
786,1686621340.67,19.043,89.355,27.832,-4.395,718.585,419.1486206848325
787,1686621340.68,23.438,-303.223,13.672,11.23,718.589,405.37266704208
788,1686621340.68,-48.34,-590.332,49.316,-50.781,718.593,396.75144797916306
789,1686621340.69,-67.871,218.75,39.551,-86.426,718.597,398.87643014938226
790,1686621340.69,0.0,348.145,15.137,-22.949,718.601,403.7499486672671
791,1686621340.69,41.504,259.277,21.973,30.762,718.605,404.8883704156147
792,1686621340.7,-11.719,322.754,27.832,-11.719,718.597,391.38671006753185
793,1686621340.7,-65.43,49.316,31.25,-71.289,718.6,405.738596457193
794,1686621340.7,-10.254,-95.703,8.789,-30.762,718.604,399.9674185786221
795,1686621340.71,55.176,-546.387,27.832,32.227,718.608,397.1379975117683
796,1686621340.71,8.301,-492.676,61.035,-17.578,718.612,393.32862452674306
797,1686621340.72,-60.059,-26.367,10.254,-85.449,718.616,382.26814409501407
798,1686621340.72,-41.992,-245.605,6.348,-57.129,718.62,398.54333066328945
799,1686621340.72,23.926,-163.574,35.645,5.859,718.624,416.38951306980545
800,1686621340.73,23.926,325.195,55.176,0.488,718.628,407.1086648969926
801,1686621340.73,-45.898,462.891,0.977,-56.152,718.632,398.09829007771043
802,1686621340.74,-58.594,-116.211,-34.18,-60.059,718.636,397.71762677549214
803,1686621340.74,20.02,-203.125,17.578,5.859,718.639,393.89732777923126
804,1686621340.74,40.527,525.879,48.828,22.949,718.64,384.7966787216537
805,1686621340.75,-34.668,531.738,-19.043,-35.156,718.644,394.07857412796045
806,1686621340.75,-72.266,65.918,23.926,-69.824,718.648,383.4926722483445
807,1686621340.76,-5.859,-17.09,80.078,-18.066,718.652,392.661097940183
808,1686621340.76,50.781,216.797,21.484,18.066,718.656,400.98768592668574
809,1686621340.76,0.488,179.688,-15.137,-22.949,718.66,393.4296546589782
810,1686621340.77,-65.918,-535.645,5.371,-62.012,718.664,383.1727373916657
811,1686621340.77,-27.832,-783.691,106.934,-34.668,718.668,387.89378527623006
812,1686621340.77,43.945,242.188,112.305,14.648,718.671,393.3458621583572
813,1686621340.78,19.531,533.203,-16.602,-8.301,718.675,399.1672829200503
814,1686621340.78,-47.852,85.938,-8.789,-70.312,718.679,373.6832777199998
815,1686621340.79,-35.645,146.973,45.898,-57.129,718.683,392.65341959561226
816,1686621340.79,34.668,474.121,28.809,6.836,718.703,380.9572884941051
817,1686621340.79,31.738,443.848,-8.301,7.324,718.707,388.74242901732407
818,1686621340.8,-50.293,-73.73,-6.836,-48.34,718.711,387.51906692670576
819,1686621340.8,-66.406,-101.562,44.922,-64.453,718.715,386.0785585742811
820,1686621340.8,0.977,373.535,31.738,-18.066,718.719,397.0771266864011
821,1686621340.81,23.438,209.961,-37.109,12.207,718.723,392.8192311177736
822,1686621340.81,-43.945,-716.797,-67.383,-32.227,718.727,384.0304075681306
823,1686621340.81,-90.82,-868.164,77.637,-76.172,718.731,396.27694070619725
824,1686621340.82,-24.414,181.641,121.582,-37.598,718.735,385.8640962596195
825,1686621340.82,31.738,393.555,-1.953,14.16,718.739,384.56133558210723
826,1686621340.83,-19.043,133.301,4.395,-24.902,718.742,377.1775351924215
827,1686621340.83,-81.543,273.926,33.203,-78.125,718.746,377.12608510900697
828,1686621340.83,-47.852,401.855,18.066,-55.664,718.742,382.90931359957415
829,1686621340.84,21.973,308.105,46.387,-3.906,718.746,371.2659354651785
830,1686621340.84,8.789,288.574,66.895,-20.996,718.75,368.44148720818856
831,1686621340.84,-60.547,336.426,31.738,-86.914,718.754,366.95572075291534
832,1686621340.85,-61.035,285.156,-2.93,-72.266,718.758,374.8780234328665
833,1686621340.85,7.812,-145.02,32.227,1.953,718.762,374.9269203873177
834,1686621340.86,15.137,-164.551,97.656,13.184,718.765,382.32933457191746
835,1686621340.86,-48.828,296.875,19.043,-49.316,718.769,386.7724874037264
836,1686621340.86,-68.848,289.551,-9.766,-76.172,718.773,373.371709892501
837,1686621340.87,-9.277,-385.742,15.137,-10.742,718.777,362.41598829203156
838,1686621340.87,25.391,-383.301,78.125,26.367,718.781,375.6589651519576
839,1686621340.88,-20.996,419.434,36.621,-32.715,718.785,355.81105018770387
840,1686621340.89,-67.383,147.949,0.488,-69.824,718.802,365.0649047660873
841,1686621340.9,-20.508,0.488,62.988,-19.043,718.806,363.03128748675414
842,1686621340.9,40.039,143.066,69.336,31.738,718.81,355.36104392267924
843,1686621340.9,1.465,169.434,45.898,-8.789,718.814,342.1414292018675
844,1686621340.91,-64.453,146.973,-6.836,-71.777,718.818,354.92299381073786
845,1686621340.91,-46.387,-636.23,21.484,-43.945,718.822,356.7380982176626
846,1686621340.92,20.508,-391.602,137.207,21.973,718.825,362.0271543188172
847,1686621340.92,4.883,566.895,48.34,1.953,718.829,345.41461473471816
848,1686621340.92,-77.637,95.703,-60.547,-63.965,718.833,359.59587181745917
849,1686621340.93,-75.684,-359.863,2.93,-62.988,718.837,352.01803729929946
850,1686621340.93,5.371,302.246,79.59,-4.395,718.841,343.36978587797904
851,1686621340.94,16.602,447.754,12.695,0.488,718.845,340.4489799586349
852,1686621340.94,-57.129,-297.363,-9.277,-60.547,718.833,330.4695209429365
853,1686621340.94,-83.496,-441.406,41.016,-77.637,718.837,340.9038046628956
854,1686621340.94,-13.672,329.59,63.965,-16.602,718.841,327.8717072313429
855,1686621340.95,22.949,564.453,23.926,12.695,718.845,331.8702291722695
856,1686621340.95,-40.039,118.652,-6.836,-41.504,718.848,334.9067338592673
857,1686621340.96,-97.656,-294.922,20.508,-83.984,718.852,321.80287873046933
858,1686621340.96,-48.828,-58.105,63.965,-51.27,718.856,331.75178026871333
859,1686621340.96,17.578,517.09,30.762,1.953,718.86,324.20052090568225
860,1686621340.97,-18.555,-224.609,-26.367,-20.996,718.864,330.87815189016806
861,1686621340.97,-88.867,-715.332,50.293,-78.125,718.868,319.4637423695416
862,1686621340.98,-62.988,167.48,36.133,-65.43,718.872,326.20139135272507
863,1686621340.98,13.672,247.559,0.0,5.371,718.876,314.91820565093457
864,1686621340.98,16.602,-33.203,45.41,1.465,718.882,312.9721271188581
865,1686621340.99,-47.852,-11.719,22.461,-74.219,718.886,320.50834604386284
866,1686621340.99,-63.965,-10.254,27.832,-77.148,718.889,313.3701909658844
867,1686621341.0,15.137,6.348,40.527,-4.395,718.893,311.1390031447908
868,1686621341.0,43.457,-459.473,27.832,24.902,718.897,310.4098603371558
869,1686621341.0,-39.551,-694.336,61.523,-40.039,718.901,320.3610105955927
870,1686621341.01,-78.125,-2.441,66.406,-86.426,718.905,319.353995508291
871,1686621341.01,-16.113,170.41,-13.184,-28.809,718.909,313.97673834853305
872,1686621341.01,19.531,-247.559,6.348,18.066,718.913,324.7934208389325
873,1686621341.02,-22.461,91.797,90.332,-35.156,718.917,325.6131475231283
874,1686621341.02,-79.102,426.758,-1.465,-87.402,718.921,317.79480221375655
875,1686621341.03,-43.945,79.59,33.691,-48.34,718.925,319.11884342258696
876,1686621341.03,23.926,204.102,93.75,5.859,718.923,332.4380636170276
877,1686621341.03,-8.789,516.113,33.691,-22.461,718.927,327.70713238621323
878,1686621341.04,-86.426,353.516,-0.488,-85.449,718.931,323.30916895046465
879,1686621341.04,-80.078,56.641,23.438,-76.66,718.935,315.4998641832761
880,1686621341.04,-4.395,56.152,63.477,-13.184,718.939,320.95798007766
881,1686621341.05,5.859,89.844,13.184,-5.371,718.943,327.0347970541498
882,1686621341.05,-62.988,-19.531,8.301,-66.406,718.947,325.25699191944693
883,1686621341.05,-90.82,-562.5,7.812,-75.195,718.951,311.5086128887204
884,1686621341.06,-21.973,-728.027,78.125,-6.348,718.955,326.1283461402028
885,1686621341.06,21.484,285.645,88.867,10.254,718.959,311.6858958520285
886,1686621341.07,-36.133,416.016,-11.719,-47.852,718.963,321.6848157994777
887,1686621341.07,-76.172,6.836,28.32,-85.938,718.966,315.60847850702595
888,1686621341.07,-23.926,275.879,69.824,-31.738,718.968,312.1302750014468
889,1686621341.08,25.879,569.824,27.832,23.926,718.972,314.29979292281416
890,1686621341.08,-16.602,198.73,-28.32,-14.648,718.976,318.7526195349912
891,1686621341.08,-84.961,-443.359,46.387,-76.66,718.98,324.1130170713079
892,1686621341.09,-48.34,-170.41,75.684,-51.758,718.984,327.2114459765883
893,1686621341.09,21.973,225.098,32.227,11.23,718.988,317.0296364052018
894,1686621341.09,-0.488,7.324,-5.371,-7.324,718.992,330.6391464735943
895,1686621341.1,-75.195,-738.77,-0.488,-69.336,718.995,332.9072479665213
896,1686621341.1,-69.336,-472.168,136.719,-65.918,718.999,336.8107757686242
897,1686621341.11,16.113,565.918,69.824,4.395,719.003,349.80600235161023
898,1686621341.11,22.461,395.508,1.465,14.16,719.007,332.7892701125151
899,1686621341.11,-59.082,90.332,30.762,-58.105,719.011,342.1099181835568
900,1686621341.12,-85.938,256.348,57.617,-81.055,719.016,330.6566710574094
901,1686621341.12,-8.301,444.336,35.645,-20.996,719.02,346.24657371987365
902,1686621341.13,31.738,289.551,52.734,2.441,719.024,322.3386537677784
903,1686621341.13,-33.203,201.172,67.871,-53.711,719.028,327.12111987708784
904,1686621341.13,-83.008,180.664,-4.883,-89.355,719.031,341.84826077313085
905,1686621341.14,-36.133,65.918,8.301,-35.645,719.035,340.287768589138
906,1686621341.14,14.648,-408.203,33.691,25.879,719.039,339.04947384911026
907,1686621341.14,-24.902,-525.391,62.988,-11.719,719.043,338.9521666468251
908,1686621341.15,-78.125,210.449,44.922,-74.219,719.047,337.0937548396674
909,1686621341.15,-55.176,198.73,12.207,-49.805,719.051,328.812245769743
910,1686621341.16,11.719,70.312,54.688,15.625,719.055,337.88884565097
911,1686621341.16,6.348,285.156,51.27,8.789,719.059,339.54254298606605
912,1686621341.16,-62.012,332.52,14.648,-50.293,719.072,337.656568809625
913,1686621341.17,-59.57,86.914,22.949,-45.41,719.076,337.6804403489714
914,1686621341.17,8.301,-211.426,63.965,18.555,719.08,352.0435563551165
915,1686621341.17,29.297,-26.367,76.66,31.25,719.084,344.7122060089353
916,1686621341.18,-35.156,180.664,14.16,-39.551,719.088,361.6443303302438
917,1686621341.18,-72.754,-133.789,-24.902,-72.266,719.091,345.77844758250836
918,1686621341.18,-12.207,-853.027,-1.465,-8.789,719.095,350.7896265801708
919,1686621341.19,31.738,-610.352,82.031,16.602,719.099,346.81819409362123
920,1686621341.19,-19.531,354.004,52.734,-38.086,719.103,352.7389913615643
921,1686621341.2,-77.148,52.734,0.488,-85.938,719.107,348.850833424918
922,1686621341.2,-24.414,-52.246,43.457,-39.062,719.111,354.4543503379638
923,1686621341.2,41.992,441.406,37.109,14.16,719.115,363.34454705205053
924,1686621341.21,-10.254,287.598,-22.949,-26.367,719.109,346.137268443695
925,1686621341.21,-84.473,-367.676,9.766,-80.078,719.113,352.7781497019851
926,1686621341.22,-61.035,-315.918,93.262,-67.383,719.117,354.07582003007144
927,1686621341.22,19.043,340.82,53.711,-4.395,719.121,359.8393958245138
928,1686621341.22,17.578,475.098,-3.418,-4.883,719.125,356.4482102461301
929,1686621341.23,-66.406,-392.578,-41.016,-66.895,719.129,357.7071669111285
930,1686621341.23,-82.031,-763.184,48.828,-75.195,719.133,345.07514270858206
931,1686621341.24,-1.465,192.871,83.496,-11.23,719.137,360.48933853151107
932,1686621341.24,23.926,476.562,-21.973,7.812,719.141,367.48142748141515
933,1686621341.24,-49.805,-180.664,-0.977,-60.059,719.145,357.2918976343917
934,1686621341.25,-88.379,-263.184,75.684,-88.867,719.149,367.2972770618954
935,1686621341.25,-24.902,297.852,32.715,-18.066,719.152,356.36344602028026
936,1686621341.27,22.949,290.527,3.418,26.367,719.163,377.69269582186286
937,1686621341.27,-27.832,17.09,-0.488,-23.438,719.167,367.6158913732228
938,1686621341.28,-82.031,-208.008,11.23,-74.219,719.171,372.46328720200455
939,1686621341.28,-42.48,-255.371,50.293,-42.48,719.175,363.31856861376986
940,1686621341.28,20.02,-59.57,19.531,14.648,719.179,363.1834225423802
941,1686621341.29,-11.23,-622.07,-48.34,-19.531,719.183,365.06319790269447
942,1686621341.29,-75.684,-967.285,56.152,-81.055,719.187,360.08572198373355
943,1686621341.29,-53.223,-105.469,100.586,-70.312,719.191,352.42490836671374
944,1686621341.3,13.672,204.59,12.695,-15.137,719.194,359.6383910851285
945,1686621341.3,16.113,145.02,4.395,2.93,719.198,363.6168379253719
946,1686621341.31,-47.363,305.176,9.277,-57.129,719.202,370.8889749057439
947,1686621341.31,-69.336,248.535,-2.93,-77.637,719.206,376.6978222239263
948,1686621341.31,4.395,39.551,36.621,-1.465,719.208,367.3533807594566
949,1686621341.32,39.062,121.582,61.035,33.691,719.212,369.7483453836924
950,1686621341.32,-28.809,312.988,5.859,-33.691,719.216,359.20235308636813
951,1686621341.32,-70.312,163.574,0.0,-69.824,719.22,365.1191498986944
952,1686621341.33,-19.531,-94.727,28.809,-16.602,719.224,354.354010903576
953,1686621341.33,33.203,-158.691,30.762,24.902,719.228,376.7961987042676
954,1686621341.34,-6.348,-170.898,0.0,-15.137,719.232,375.98681038051444
955,1686621341.34,-76.172,-209.961,17.578,-78.125,719.236,369.2260451318325
956,1686621341.34,-51.27,-605.469,17.578,-34.18,719.24,363.6013514178966
957,1686621341.35,10.742,-758.789,81.055,34.18,719.244,370.030269564677
958,1686621341.35,-3.418,113.281,73.73,4.883,719.248,377.58873630866077
959,1686621341.36,-72.266,150.391,-10.742,-57.617,719.251,364.4551242364928
960,1686621341.36,-80.566,-162.109,51.27,-64.453,719.253,366.76012016828423
961,1686621341.36,-11.719,213.867,54.199,-10.254,719.257,381.6200273391314
962,1686621341.36,4.395,174.316,3.906,5.371,719.261,367.4657729013029
963,1686621341.37,-64.453,-235.84,-0.488,-55.664,719.265,360.5028528330702
964,1686621341.37,-87.891,-553.223,44.434,-78.613,719.269,360.00329287554933
965,1686621341.38,-12.207,-399.414,72.266,-17.09,719.273,377.0868346681926
966,1686621341.38,31.25,128.418,37.109,17.578,719.277,375.57534360857056
967,1686621341.38,-29.297,28.32,-35.645,-40.039,719.281,373.6562294805229
968,1686621341.39,-80.078,-839.355,-33.203,-74.219,719.284,365.2091125029986
969,1686621341.39,-21.484,-434.082,122.559,-22.461,719.288,368.24751473895907
970,1686621341.4,41.016,452.148,18.555,25.879,719.292,380.6883666078635
971,1686621341.4,-7.812,73.242,-15.625,-13.672,719.296,387.18249377013257
972,1686621341.4,-77.637,-108.887,64.453,-79.102,719.298,372.27319875159066
973,1686621341.4,-60.547,208.496,46.387,-59.57,719.302,383.6914624349937
974,1686621341.41,7.812,399.902,10.254,10.254,719.306,371.56268196408496
975,1686621341.41,0.488,208.008,30.762,3.418,719.31,382.2451081536335
976,1686621341.42,-69.824,-48.34,22.461,-59.57,719.314,379.1535302103811
977,1686621341.42,-76.66,-256.836,-6.348,-75.684,719.318,364.7044899158509
978,1686621341.42,-7.324,-63.477,27.832,-26.855,719.322,379.2709435383075
979,1686621341.43,10.742,-412.598,-15.137,-4.883,719.325,371.8637681439675
980,1686621341.43,-64.453,-678.711,9.766,-66.406,719.329,363.41701147402995
981,1686621341.44,-86.426,24.902,28.809,-98.633,719.333,374.59727478542374
982,1686621341.44,-17.578,80.078,9.277,-28.809,719.337,381.7562797065236
983,1686621341.44,13.184,-218.75,32.227,1.465,719.341,385.5698407846674
984,1686621341.45,-38.574,-69.824,28.809,-55.176,719.343,371.12971039714034
985,1686621341.45,-89.355,198.73,2.441,-99.609,719.347,360.7794933803028
986,1686621341.46,-49.805,-87.891,-19.043,-59.082,719.351,373.66429262647875
987,1686621341.46,18.066,-446.289,50.293,-2.441,719.355,364.3947470322276
988,1686621341.46,-10.742,-120.605,48.34,-40.527,719.359,377.8411286531788
989,1686621341.47,-80.078,-40.039,-18.066,-99.609,719.363,369.0022811463595
990,1686621341.47,-71.289,-334.961,-24.414,-84.473,719.367,377.4164932288296
991,1686621341.47,-7.812,-583.984,27.832,-20.02,719.37,363.35138140359123
992,1686621341.48,0.488,-124.512,82.52,-13.672,719.374,383.541485143145
993,1686621341.48,-60.547,351.074,-4.883,-72.266,719.378,387.3499933584003
994,1686621341.49,-83.984,-49.316,-10.742,-90.82,719.382,378.60678100076683
995,1686621341.49,-8.301,-19.531,27.832,-23.926,719.386,383.52416031871473
996,1686621341.49,28.809,372.07,13.672,12.207,719.394,367.63036913301954
997,1686621341.5,-36.133,121.094,-17.578,-52.246,719.398,368.4332014213525
998,1686621341.5,-81.543,-563.965,11.719,-94.727,719.402,376.8170127897723
999,1686621341.51,-22.949,-380.859,104.492,-39.551,719.406,371.8022572340136
1000,1686621341.51,30.273,333.984,31.25,1.465,719.41,380.6973230981553
1001,1686621341.51,-22.949,76.172,-30.762,-39.062,719.414,375.8866073901733
1002,1686621341.52,-80.566,-680.176,16.113,-82.031,719.418,366.5937294935026
1003,1686621341.52,-36.133,-646.484,81.543,-49.805,719.421,375.2791330132185
1004,1686621341.52,44.922,335.449,71.289,21.484,719.425,375.0671770552122
1005,1686621341.53,17.578,404.785,-21.484,14.16,719.429,385.9713769828251
1006,1686621341.53,-61.035,-88.379,-12.207,-63.477,719.433,379.28593752769086
1007,1686621341.54,-57.129,-33.691,27.832,-70.312,719.437,389.2892143037635
1008,1686621341.55,11.719,381.836,39.551,-1.465,719.448,372.4006899400506
1009,1686621341.56,15.137,355.469,4.395,10.254,719.452,382.71685511148206
1010,1686621341.56,-72.266,-259.277,5.859,-59.082,719.456,373.90102052203935
1011,1686621341.56,-99.121,-285.645,36.133,-88.867,719.46,395.76388472031766
1012,1686621341.57,-23.926,34.18,16.113,-31.25,719.464,385.15492813475
1013,1686621341.57,8.301,-37.598,-1.953,-9.277,719.468,387.7741547455933
1014,1686621341.58,-53.223,-742.188,-35.645,-68.359,719.472,386.21387955183343
1015,1686621341.58,-95.703,-817.871,49.316,-111.816,719.475,388.7019548233347
1016,1686621341.58,-41.992,115.234,78.125,-60.059,719.479,386.0542518190669
1017,1686621341.58,-45.41,240.234,28.32,-43.945,719.491,379.13693370794994
1018,1686621341.59,28.32,96.68,58.105,10.742,719.495,386.8330656408754
1019,1686621341.59,15.625,208.984,4.395,-0.977,719.483,391.83641114018667
1020,1686621341.59,13.672,96.191,81.055,-11.23,719.499,384.59144818073855
1021,1686621341.59,-20.02,20.02,-2.93,-33.203,719.487,375.8626390827495
1022,1686621341.6,-79.102,187.012,43.457,-72.266,719.491,388.37303324098076
1023,1686621341.6,-67.383,156.738,9.277,-90.332,719.503,366.7546123395435
1024,1686621341.6,-71.777,66.406,9.766,-88.379,719.507,392.55632399450604
1025,1686621341.6,0.0,-135.254,32.227,-17.578,719.511,380.79887433691107
1026,1686621341.61,12.695,-226.562,36.133,-4.883,719.515,372.90297895219584
1027,1686621341.61,-48.828,-270.02,27.344,-62.988,719.519,385.90655694453017
1028,1686621341.61,-74.707,-71.777,31.25,-89.844,719.522,387.77161692376427
1029,1686621341.62,-23.926,-455.078,-0.977,-35.645,719.526,374.97594096077967
1030,1686621341.62,20.02,-700.195,69.336,14.648,719.53,376.1806562582466
1031,1686621341.63,-18.555,162.598,56.641,-28.809,719.534,375.6254049655479
1032,1686621341.64,-73.242,107.422,3.418,-73.73,719.552,371.13903038682764
1033,1686621341.64,-28.32,-142.09,46.387,-31.738,719.556,371.89611566381
1034,1686621341.65,35.156,-31.25,33.203,17.578,719.56,375.9752952307487
1035,1686621341.65,8.789,58.594,19.531,-9.766,719.564,365.9687200645306
1036,1686621341.66,-61.523,44.434,-15.625,-72.266,719.567,381.2506421589986
1037,1686621341.66,-54.688,-750.488,-15.137,-46.875,719.571,388.3581100454818
1038,1686621341.66,24.414,-623.535,98.145,17.09,719.575,368.3995812444595
1039,1686621341.67,23.438,389.16,52.246,-2.441,719.579,385.7235504850271
1040,1686621341.67,-53.223,-40.527,-43.945,-60.059,719.583,385.7083801806771
1041,1686621341.68,-63.477,-514.648,15.137,-55.664,719.587,368.3889623893393
1042,1686621341.68,19.531,99.609,79.59,4.395,719.591,378.01334791814753
1043,1686621341.68,42.969,567.871,23.438,13.184,719.595,387.1513092608902
1044,1686621341.69,-29.297,-71.289,-18.555,-39.062,719.583,376.8341321183528
1045,1686621341.69,-64.941,-526.855,19.531,-61.523,719.587,378.38473129876365
1046,1686621341.69,-5.859,186.523,68.848,-15.625,719.591,371.58700299815325
1047,1686621341.7,38.086,458.984,20.508,29.297,719.595,390.65017086036016
1048,1686621341.7,-17.09,83.984,-10.254,-16.113,719.599,370.1882453955261
1049,1686621341.71,-72.754,-391.602,7.812,-74.219,719.602,375.4603179650708
1050,1686621341.71,-36.133,-262.695,44.434,-40.039,719.606,373.4857023977023
1051,1686621341.71,34.668,331.055,21.484,14.16,719.61,375.6477765721507
1052,1686621341.72,13.672,-251.465,-13.184,-2.441,719.614,384.98296216654524
1053,1686621341.72,-66.406,-632.324,62.5,-66.895,719.618,382.85732580506084
1054,1686621341.72,-60.059,64.941,46.387,-61.523,719.622,378.359289357928
1055,1686621341.73,16.113,217.285,2.441,6.836,719.626,380.37095334088013
1056,1686621341.73,20.02,-439.453,32.715,20.508,719.628,374.9129774767875
1057,1686621341.74,-58.105,-513.672,76.172,-42.969,719.632,375.96425933414065
1058,1686621341.74,-74.707,-83.496,2.441,-68.359,719.636,382.5280280640267
1059,1686621341.74,4.395,-178.223,20.508,8.301,719.64,361.07447064371536
1060,1686621341.75,16.602,-364.746,42.48,19.531,719.644,375.7160454285197
1061,1686621341.75,-60.059,-496.582,15.625,-57.129,719.648,389.3761447898134
1062,1686621341.76,-92.773,-116.699,45.41,-93.75,719.651,378.13587501529844
1063,1686621341.76,-39.551,20.508,-9.277,-45.898,719.655,374.9052525920262
1064,1686621341.76,5.859,-468.75,0.977,11.23,719.659,385.34706527707056
1065,1686621341.77,-37.598,-127.441,65.918,-34.668,719.663,384.662159466987
1066,1686621341.77,-94.238,295.898,-8.301,-94.238,719.667,388.785363610655
1067,1686621341.78,-49.316,-20.508,36.621,-64.941,719.671,378.8935141833542
1068,1686621341.78,20.02,85.938,68.848,-1.465,719.679,379.5609362923523
1069,1686621341.78,0.488,381.836,14.16,-16.113,719.683,377.3098929522569
1070,1686621341.79,-64.453,37.598,-12.207,-72.266,719.687,371.857536940879
1071,1686621341.79,-62.988,-477.051,39.551,-67.383,719.691,384.4383820810669
1072,1686621341.8,4.395,-260.742,80.078,-3.906,719.695,377.12434746585865
1073,1686621341.8,10.254,78.613,1.953,8.789,719.699,384.63899355323747
1074,1686621341.8,-53.711,-83.984,0.977,-64.941,719.703,385.80013011962643
1075,1686621341.81,-72.754,-620.117,19.531,-84.473,719.707,379.31392293393185
1076,1686621341.81,-2.441,-604.004,83.008,-20.996,719.711,372.2300118312116
1077,1686621341.81,39.062,342.773,75.684,3.418,719.715,371.8217534308837
1078,1686621341.82,-19.531,277.344,-14.648,-41.992,719.719,376.0361866945768
1079,1686621341.82,-66.895,-196.289,15.137,-82.52,719.722,382.9971569215467
1080,1686621341.82,-15.137,7.324,71.289,-30.762,719.718,380.6389568799503
1081,1686621341.83,38.086,424.316,38.574,10.742,719.722,369.1886400330657
1082,1686621341.83,-5.859,104.004,-6.836,-28.32,719.726,375.7423960141285
1083,1686621341.83,-66.895,-300.293,27.832,-71.777,719.73,382.77446744037536
1084,1686621341.84,-39.551,-70.312,46.875,-55.176,719.734,382.983672139487
1085,1686621341.84,21.973,13.672,32.227,3.906,719.738,379.74724590301497
1086,1686621341.84,8.789,-148.438,-16.602,-8.789,719.741,377.2125012465102
1087,1686621341.85,-62.5,-804.688,-52.734,-74.219,719.745,384.1383475565614
1088,1686621341.85,-67.383,-881.348,108.887,-72.266,719.749,363.1845102953348
1089,1686621341.86,13.184,96.191,126.465,-11.719,719.753,371.4262463586008
1090,1686621341.86,31.25,229.98,8.301,1.465,719.757,364.53211242248915
1091,1686621341.86,-32.715,-66.895,14.16,-42.969,719.761,369.68181994104623
1092,1686621341.87,-59.57,144.531,36.621,-68.359,719.765,388.1817336889741
1093,1686621341.87,3.418,302.246,31.738,-16.113,719.769,380.37457724772025
1094,1686621341.88,32.227,132.324,50.293,20.02,719.773,390.1280191176202
1095,1686621341.88,-32.715,85.938,66.406,-34.18,719.777,386.6793701727336
1096,1686621341.88,-78.125,123.535,1.953,-81.543,719.781,380.7814048329802
1097,1686621341.89,-34.668,-37.109,16.602,-37.598,719.785,369.7653841053137
1098,1686621341.89,25.879,-520.996,24.902,17.09,719.789,382.9214513392606
1099,1686621341.9,-7.324,-805.176,47.852,-17.09,719.793,375.2593402856151
1100,1686621341.9,-65.43,-138.672,72.754,-84.473,719.797,369.721298940715
1101,1686621341.9,-49.316,172.363,-2.441,-69.824,719.8,373.2521023996813
1102,1686621341.91,13.672,-114.746,25.879,-5.371,719.804,373.6233465568234
1103,1686621341.91,24.414,-52.246,62.012,-10.742,719.808,366.53995918347556
1104,1686621341.91,-44.434,216.309,23.438,-78.125,719.822,378.7361760333369
1105,1686621341.92,-59.57,102.051,29.785,-85.449,719.826,375.4159517782204
1106,1686621341.92,12.207,-158.691,44.434,-3.906,719.83,370.3931589586285
1107,1686621341.92,36.133,12.695,48.828,25.391,719.834,369.5679293699788
1108,1686621341.93,-30.762,174.805,18.066,-45.898,719.838,367.742273908145
1109,1686621341.93,-68.848,-168.945,-17.578,-83.008,719.842,370.9122251260409
1110,1686621341.93,-5.859,-847.656,-15.625,-16.602,719.846,376.966797008729
1111,1686621341.94,32.715,-677.734,60.059,26.367,719.849,365.4932382549255
1112,1686621341.94,-19.531,197.754,42.969,-27.832,719.853,363.74378237690047
1113,1686621341.95,-69.336,-132.812,-19.043,-70.312,719.857,374.0226928064893
1114,1686621341.95,-29.785,-360.352,17.578,-32.715,719.861,372.8546795264782
1115,1686621341.95,33.691,196.289,83.008,20.02,719.865,378.32244327305693
1116,1686621341.96,8.301,438.477,40.039,0.977,719.867,378.7163660754073
1117,1686621341.96,-64.453,-264.16,-10.742,-58.105,719.871,365.6829173069623
1118,1686621341.97,-61.035,-578.613,58.594,-49.805,719.875,369.58381509199864
1119,1686621341.97,20.508,230.469,72.266,14.16,719.879,383.8667166924224
1120,1686621341.97,22.949,409.668,-17.578,15.625,719.883,375.1160250001893
1121,1686621341.98,-59.57,-392.578,16.602,-56.641,719.886,369.6857835103679
1122,1686621341.98,-70.801,-618.164,119.629,-72.754,719.89,376.2753810583665
1123,1686621341.98,4.395,152.344,64.941,-7.324,719.894,371.78353090017913
1124,1686621341.99,41.992,371.582,-13.672,23.926,719.898,378.4544493080653
1125,1686621341.99,-18.555,-263.672,-4.395,-36.621,719.902,374.74546786953925
1126,1686621342.0,-72.266,-373.047,83.008,-74.219,719.906,376.8702242447795
1127,1686621342.0,-22.461,160.156,36.621,-13.672,719.91,380.3598489364138
1128,1686621342.02,32.227,132.812,11.719,37.598,719.914,379.7061522987003
1129,1686621342.02,-13.184,-305.664,21.973,-6.836,719.918,375.8376123411836
1130,1686621342.02,-68.359,-550.293,25.391,-62.012,719.922,382.60974666456497
1131,1686621342.03,-27.344,-194.824,67.871,-32.227,719.925,376.0538117829724
1132,1686621342.03,47.363,84.961,10.254,27.344,719.929,383.94399448967846
1133,1686621342.04,15.137,-626.953,-25.879,16.113,719.933,373.02966389131296
1134,1686621342.04,-59.082,-797.363,79.59,-48.34,719.937,377.1448477331851
1135,1686621342.04,-55.176,-44.434,73.73,-46.387,719.941,371.8641899427293
1136,1686621342.05,9.277,37.598,-13.672,19.043,719.945,377.8383198325594
1137,1686621342.05,22.461,-288.086,-24.902,20.996,719.949,380.8141485175136
1138,1686621342.06,-45.898,29.297,39.062,-45.898,719.953,381.4771299475961
1139,1686621342.06,-73.73,189.453,16.602,-70.312,719.957,380.4992793132313
1140,1686621342.06,-14.16,-17.578,57.617,-13.672,719.959,383.42991656030057
1141,1686621342.07,26.855,71.289,78.613,22.461,719.963,394.80927280976255
1142,1686621342.07,-22.461,181.641,-0.977,-32.227,719.967,375.0535446219287
1143,1686621342.07,-78.613,-165.039,-10.254,-84.473,719.97,383.7425394914142
1144,1686621342.08,-30.273,-551.758,43.945,-30.273,719.974,378.21945585925675
1145,1686621342.08,27.344,-558.594,78.125,26.855,719.978,359.020451227076
1146,1686621342.08,-14.16,-140.137,35.645,-10.742,719.982,374.53054071875306
1147,1686621342.09,-69.824,63.477,-11.719,-67.871,719.986,364.3973990671412
1148,1686621342.09,-38.086,-556.641,-1.465,-43.945,719.99,376.5295351712737
1149,1686621342.1,30.762,-563.477,74.219,17.578,719.994,384.2678832837583
1150,1686621342.1,20.996,334.473,49.316,-1.953,719.998,381.88966930166805
1151,1686621342.1,-61.035,115.234,-8.301,-72.754,720.002,363.9234968078907
1152,1686621342.11,-63.477,-245.117,45.898,-78.125,720.003,367.69406022689043
1153,1686621342.11,25.879,85.938,53.223,-12.695,720.007,372.5168165730733
1154,1686621342.12,46.875,85.449,-8.301,5.371,720.011,371.30001416509174
1155,1686621342.12,-34.668,-294.922,-6.348,-53.223,720.015,362.53057696875595
1156,1686621342.12,-62.5,-645.02,29.785,-67.871,720.019,369.6027787568324
1157,1686621342.13,10.254,-467.773,62.012,-9.766,720.023,383.10168512927686
1158,1686621342.13,39.062,-43.945,34.18,17.09,720.027,385.7000170792023
1159,1686621342.13,-15.137,-223.633,-46.387,-29.297,720.03,379.9779315247698
1160,1686621342.14,-72.754,-870.605,-14.16,-78.613,720.034,370.7353008239188
1161,1686621342.14,-32.227,-538.086,123.535,-44.434,720.038,390.30587272107806
1162,1686621342.15,44.434,352.051,48.828,7.812,720.042,366.0047120395611
1163,1686621342.15,18.066,146.973,3.906,-20.508,720.046,371.24498121288576
1164,1686621342.15,-71.777,-153.809,29.297,-92.773,720.062,375.84738322028977
1165,1686621342.16,-63.965,132.324,43.945,-83.496,720.066,389.04459579017646
1166,1686621342.16,10.254,312.988,12.207,-10.742,720.07,365.68464850112565
1167,1686621342.16,3.906,69.824,21.484,-10.254,720.073,372.1670437834921
1168,1686621342.17,-66.895,-94.727,27.344,-81.055,720.077,373.0135990276828
1169,1686621342.17,-68.359,-237.793,3.418,-85.449,720.081,374.6448535755531
1170,1686621342.18,9.766,-151.367,38.574,-9.277,720.085,389.7620224621106
1171,1686621342.18,24.414,-445.312,-1.953,2.441,720.089,367.6724165656762
1172,1686621342.18,-37.598,-865.234,45.898,-60.059,720.093,370.1097452213163
1173,1686621342.19,-71.289,-174.316,68.848,-91.797,720.097,381.25160999015833
1174,1686621342.19,-20.508,218.75,-0.977,-44.922,720.101,381.6341496217802
1175,1686621342.2,25.391,-101.562,9.766,0.488,720.105,371.39626255720157
1176,1686621342.2,-25.391,-131.348,43.945,-41.992,720.097,370.4171225988026
1177,1686621342.2,-74.707,131.348,26.855,-96.68,720.101,371.78172154397515
1178,1686621342.2,-29.297,-80.078,24.902,-49.316,720.105,368.00290968816495
1179,1686621342.21,45.41,-187.012,66.895,25.879,720.109,382.0346036305569
1180,1686621342.21,15.625,58.594,31.738,-3.906,720.112,377.0787713238282
1181,1686621342.22,-73.242,-220.703,-10.254,-85.938,720.116,370.07548362554394
1182,1686621342.22,-68.359,-376.953,-11.23,-77.148,720.12,376.04727363710003
1183,1686621342.22,0.977,-772.949,0.488,-1.953,720.124,364.8385181745539
1184,1686621342.23,2.441,-512.695,83.008,0.0,720.128,379.55822885752394
1185,1686621342.23,-69.336,259.766,13.672,-60.547,720.132,365.3329020082288
1186,1686621342.24,-68.359,-188.477,-28.32,-59.082,720.136,369.5258416415644
1187,1686621342.24,20.02,-363.281,37.598,17.09,720.14,368.5513049943956
1188,1686621342.24,23.926,221.191,49.316,13.672,720.14,367.46015441691185
1189,1686621342.25,-43.457,403.809,-8.789,-59.082,720.143,366.34408437594567
1190,1686621342.25,-77.148,-358.887,-4.883,-82.031,720.147,366.94899667919776
1191,1686621342.25,-25.391,-519.531,92.773,-43.945,720.151,371.9944602793488
1192,1686621342.26,18.555,253.418,38.574,-19.043,720.155,382.7850137689129
1193,1686621342.26,-35.156,67.871,-39.551,-76.66,720.159,377.83274192855885
1194,1686621342.26,-105.469,-677.734,-7.324,-130.371,720.163,361.79259297127027
1195,1686621342.27,-91.797,-694.336,50.781,-112.305,720.167,370.8899573828809
1196,1686621342.27,-29.785,175.293,60.547,-65.918,720.171,376.3698460706514
1197,1686621342.28,-37.598,291.016,-15.137,-72.754,720.175,370.7205633338277
1198,1686621342.28,-113.77,-87.891,-15.625,-153.32,720.179,386.23266709733156
1199,1686621342.28,-124.023,-37.109,42.48,-162.109,720.183,371.0281035469317
1200,1686621342.29,-46.387,275.879,43.457,-83.984,720.186,372.41926370229857
1201,1686621342.29,-62.5,184.57,-6.348,-81.543,720.19,373.3030118343418
1202,1686621342.3,-151.367,-569.336,-0.977,-146.484,720.194,369.8633193063971
1203,1686621342.3,-149.902,-581.543,65.43,-157.715,720.198,373.5222227745028
1204,1686621342.3,-81.055,103.027,32.227,-117.188,720.202,365.9887307198598
1205,1686621342.31,-53.711,0.977,-16.602,-80.078,720.205,362.93436905297915
1206,1686621342.31,-115.234,-780.762,-20.996,-120.117,720.209,362.6618924787892
1207,1686621342.31,-166.016,-704.102,57.129,-178.711,720.213,361.5346298337638
1208,1686621342.32,-98.633,140.625,51.758,-127.441,720.217,376.9181595549349
1209,1686621342.32,-36.621,141.113,-21.973,-68.359,720.221,366.59940395451525
1210,1686621342.33,-63.477,-77.637,-7.812,-99.609,720.225,370.38591615717036
1211,1686621342.33,-100.586,23.438,23.926,-141.602,720.229,374.3550063030538
1212,1686621342.33,-81.543,150.391,5.859,-127.93,720.242,374.21498079412464
1213,1686621342.34,-12.695,18.066,43.457,-60.547,720.246,378.0937333540092
1214,1686621342.34,-9.766,-14.16,54.199,-52.734,720.25,364.68365888846665
1215,1686621342.34,-82.52,-3.906,-15.625,-110.84,720.254,363.8670969529168
1216,1686621342.35,-92.285,-234.863,0.0,-111.328,720.258,367.5260109040381
1217,1686621342.35,-17.09,-642.09,-12.207,-36.621,720.262,388.649013671081
1218,1686621342.36,5.859,-841.797,46.875,-9.766,720.265,371.9795288722507
1219,1686621342.36,-46.387,-176.758,69.824,-70.801,720.269,379.2543366815838
1220,1686621342.36,-76.172,-7.324,-16.602,-94.238,720.273,380.91771226114525
1221,1686621342.37,-15.137,-100.586,21.973,-30.762,720.277,374.7355127015294
1222,1686621342.37,33.203,175.293,32.227,14.648,720.281,368.2581868194543
1223,1686621342.38,-19.531,285.156,-6.836,-32.715,720.285,363.6733183543203
1224,1686621342.39,-69.336,-59.082,-2.93,-74.707,720.288,374.8713855910289
1225,1686621342.4,-18.555,-246.094,36.133,-36.621,720.292,363.40922981359654
1226,1686621342.4,41.504,-137.695,41.992,22.461,720.296,364.81248458736616
1227,1686621342.4,20.508,-66.406,33.203,15.625,720.3,382.34822410528113
1228,1686621342.41,-48.828,-101.562,-18.066,-52.734,720.304,373.03442007772463
1229,1686621342.41,-40.527,-740.234,12.207,-38.574,720.308,371.70370362709616
1230,1686621342.42,42.969,-680.176,106.934,33.203,720.312,365.254787764579
1231,1686621342.42,37.598,26.855,56.152,7.324,720.316,373.987802628489
1232,1686621342.42,-40.039,-154.785,-43.945,-60.059,720.319,366.38482656417483
1233,1686621342.43,-51.758,-760.254,21.484,-53.223,720.323,364.56724922150676
1234,1686621342.43,27.344,-208.984,121.094,4.883,720.327,360.04250490507894
1235,1686621342.44,62.5,367.188,7.324,34.668,720.331,371.5082015321862
1236,1686621342.44,-5.371,-69.824,13.184,-23.438,720.333,370.4860768249902
1237,1686621342.44,-54.688,-285.645,63.965,-72.754,720.337,379.2761920405351
1238,1686621342.44,8.789,108.398,48.34,-21.973,720.341,365.63944639304685
1239,1686621342.45,60.059,265.137,24.902,42.48,720.345,365.19155790898327
1240,1686621342.45,-1.953,-133.789,-3.418,-0.977,720.349,360.1372599876807
1241,1686621342.46,-71.777,-568.848,25.391,-83.984,720.353,371.35904317223196
1242,1686621342.46,-35.645,-453.613,76.172,-49.316,720.357,362.590553141522
1243,1686621342.46,32.227,111.816,54.199,19.531,720.36,381.8124800611439
1244,1686621342.47,-0.488,-335.449,-31.738,-0.977,720.364,370.67855832885726
1245,1686621342.47,-77.148,-906.738,37.109,-80.566,720.368,360.39030319417026
1246,1686621342.48,-58.594,-175.781,85.449,-82.52,720.372,360.1420075732266
1247,1686621342.48,17.578,162.598,22.461,2.93,720.376,371.96781818015916
1248,1686621342.48,15.137,-188.965,27.832,5.859,720.378,355.0578227060394
1249,1686621342.49,-49.805,-264.648,41.016,-67.383,720.382,365.23394254360795
1250,1686621342.49,-63.965,-258.301,32.227,-75.195,720.386,364.21938941605146
1251,1686621342.49,0.977,-295.41,38.574,-14.648,720.39,361.67025164123066
1252,1686621342.5,33.203,-437.988,53.711,10.742,720.394,367.13842439199044
1253,1686621342.5,-30.273,-580.078,38.086,-52.734,720.397,376.2813812153947
1254,1686621342.5,-65.43,-310.547,37.109,-95.215,720.401,371.578145517745
1255,1686621342.51,-14.648,-148.926,24.414,-51.27,720.405,359.8964319978144
1256,1686621342.51,17.09,-540.527,37.109,-16.602,720.409,358.293441379379
1257,1686621342.52,-16.113,-216.309,92.773,-43.945,720.413,379.40725764453396
1258,1686621342.52,-91.309,180.664,12.207,-112.305,720.417,376.8176061089543
1259,1686621342.52,-83.496,-301.27,1.953,-93.262,720.421,365.70429077535726
1260,1686621342.53,-4.883,-278.32,44.922,-16.113,720.423,369.4260734854007
1261,1686621342.53,-24.414,228.516,42.969,-43.945,720.427,365.02442578559345
1262,1686621342.53,-93.262,124.023,-3.906,-119.141,720.431,368.5807090537071
1263,1686621342.54,-89.844,-314.941,76.172,-100.586,720.435,374.8624010530086
1264,1686621342.54,-24.902,-235.84,106.934,-36.133,720.439,361.6387838073903
1265,1686621342.55,0.0,-21.484,14.16,-18.066,720.443,364.3467633614819
1266,1686621342.55,-65.918,-155.762,15.625,-71.289,720.447,380.20667872925833
1267,1686621342.55,-104.004,-640.137,9.766,-97.168,720.451,370.4457497393505
1268,1686621342.56,-34.668,-679.199,98.145,-38.574,720.455,364.47471305492286
1269,1686621342.56,5.859,210.938,82.52,-9.766,720.459,363.0329639033283
1270,1686621342.56,-42.969,203.125,-3.906,-55.664,720.463,374.33921609142044
1271,1686621342.57,-87.891,-231.445,20.996,-94.727,720.466,364.7338050095238
1272,1686621342.57,-37.109,-22.949,73.73,-44.922,720.472,365.29968676378945
1273,1686621342.58,26.367,268.066,49.805,4.883,720.476,368.6213003027859
1274,1686621342.58,-19.043,-19.043,-12.695,-31.738,720.48,359.02221520430925
1275,1686621342.58,-89.844,-783.203,15.137,-89.355,720.484,372.97833517683335
1276,1686621342.59,-57.617,-744.629,102.539,-65.918,720.488,364.7494231162666
1277,1686621342.59,29.297,-75.684,75.684,-10.254,720.491,374.1442676095922
1278,1686621342.6,26.367,-184.57,-19.043,-13.672,720.495,373.64480468069644
1279,1686621342.6,-58.105,-692.871,23.926,-68.359,720.499,355.84377847272145
1280,1686621342.6,-72.266,-343.75,124.023,-83.008,720.503,364.7331466648667
1281,1686621342.61,1.465,348.633,60.547,-21.484,720.507,355.8786377591405
1282,1686621342.61,18.066,166.016,5.859,8.789,720.511,369.81257755845735
1283,1686621342.62,-48.34,-132.324,16.602,-46.875,720.515,357.1267932802134
1284,1686621342.62,-83.984,7.812,46.875,-82.031,720.515,365.55436040996403
1285,1686621342.62,-23.438,208.496,34.668,-26.855,720.519,368.8556770482449
1286,1686621342.62,20.996,99.121,72.754,14.648,720.523,364.72306180850103
1287,1686621342.63,-42.969,-23.926,89.844,-46.387,720.526,376.3339368716997
1288,1686621342.63,-93.75,-37.109,16.113,-95.703,720.53,367.7568972239285
1289,1686621342.64,-43.945,-132.812,33.203,-46.387,720.534,378.5334489583837
1290,1686621342.64,10.254,-545.41,26.855,11.23,720.538,363.83282739553687
1291,1686621342.64,-22.949,-847.656,83.008,-4.883,720.542,364.09859286267084
1292,1686621342.65,-83.496,-218.262,85.938,-72.754,720.546,380.9790346135636
1293,1686621342.65,-63.965,60.059,18.555,-70.801,720.55,383.86247896327274
1294,1686621342.66,6.836,-49.805,23.926,-5.371,720.554,373.01713740065867
1295,1686621342.66,-2.441,35.156,29.297,-16.113,720.558,366.35929166050187
