,timestamps,TP9,AF7,AF8,TP10,Secondary Timestamp,emg_signal
0,1686714829.0,-32.715,-557.617,-95.703,-81.543,908.898,385.46438229939605
1,1686714829.01,-61.523,-908.691,-268.555,-96.191,908.902,376.99912723699833
2,1686714829.01,-11.719,-304.688,128.906,12.207,908.905,374.6523922647895
3,1686714829.01,28.809,219.727,251.465,52.246,908.909,378.4548558300853
4,1686714829.02,-12.207,-229.492,-82.031,-38.086,908.913,374.3484814198526
5,1686714829.02,-60.547,-630.859,-122.07,-92.285,908.917,376.3830795101303
6,1686714829.03,-37.598,-367.676,90.332,-11.23,908.921,372.232242658884
7,1686714829.03,20.508,111.328,162.598,67.383,908.925,375.79060229304133
8,1686714829.03,6.348,-424.316,-150.391,-1.465,908.929,369.5660850371019
9,1686714829.04,-56.152,-765.625,-116.699,-116.211,908.933,369.01694551849414
10,1686714829.04,-43.945,-74.707,199.707,-71.777,908.937,384.3618823513233
11,1686714829.04,11.719,91.797,139.648,45.41,908.941,374.00545203406233
12,1686714829.05,8.789,-267.578,-54.199,16.113,908.944,380.8556178361424
13,1686714829.05,-44.922,-305.664,-32.227,-97.168,908.948,370.33092037154506
14,1686714829.06,-56.152,-234.375,44.922,-81.055,908.952,373.04747387291224
15,1686714829.06,4.395,-153.32,83.008,44.434,908.956,374.0317707539425
16,1686714829.06,24.414,-565.43,-134.277,47.363,908.96,368.29443792051876
17,1686714829.07,-29.785,-683.105,-120.117,-75.684,908.964,372.14645882219537
18,1686714829.07,-49.805,-400.391,62.5,-99.609,908.968,372.243626931797
19,1686714829.08,-0.977,-219.238,81.543,18.555,908.972,381.54951068241775
20,1686714829.08,27.832,-751.465,-173.34,71.777,908.976,372.6768803109074
21,1686714829.08,-8.789,-436.523,21.973,-32.227,908.98,368.8489211220129
22,1686714829.09,-56.152,-57.617,122.07,-103.027,908.983,369.93283091838293
23,1686714829.09,-34.668,-557.617,-47.363,-13.672,908.987,383.6514135506957
24,1686714829.09,16.113,-639.648,-3.906,77.148,908.987,371.837349012606
25,1686714829.1,4.883,-112.793,118.164,10.742,908.991,381.70408549822963
26,1686714829.1,-45.41,-15.625,58.594,-95.215,908.995,370.64477307872744
27,1686714829.1,-47.363,-274.902,17.09,-53.223,908.999,370.9302371225637
28,1686714829.11,12.207,-239.746,102.051,54.199,909.003,377.96669810124155
29,1686714829.11,20.996,-297.852,21.484,31.25,909.007,374.2967417621007
30,1686714829.12,-32.715,-455.078,-56.152,-77.637,909.011,373.76139173918654
31,1686714829.12,-55.176,-688.477,-176.27,-77.148,909.015,378.15700225405885
32,1686714829.12,-7.812,-918.457,-171.387,36.133,909.019,375.93651625297747
33,1686714829.13,30.273,-153.32,198.73,43.945,909.022,369.09185443888396
34,1686714829.13,-13.184,123.535,119.141,-66.406,909.026,379.5562564873837
35,1686714829.14,-62.012,-359.863,-71.289,-95.215,909.03,368.48663436610474
36,1686714829.14,-23.438,-118.164,92.773,10.254,909.033,373.27753644206814
37,1686714829.14,26.855,195.801,151.855,62.012,909.037,381.5428018471945
38,1686714829.14,-3.418,-65.43,9.766,-35.156,909.041,370.3755981072332
39,1686714829.15,-54.199,-411.621,-59.082,-108.398,909.044,364.45396678138286
40,1686714829.15,-40.527,-155.762,84.473,-36.133,909.048,375.5207714348748
41,1686714829.16,7.324,-126.953,58.594,49.805,909.052,369.33789977687513
42,1686714829.16,0.977,-491.699,-120.117,-2.93,909.056,365.1771694371113
43,1686714829.16,-57.617,-938.965,-373.047,-103.027,909.06,381.32896266247457
44,1686714829.17,-57.129,-623.535,-40.527,-68.848,909.064,378.19282057537333
45,1686714829.17,3.906,139.16,256.348,49.316,909.068,372.5388070508321
46,1686714829.18,9.766,-61.523,10.254,33.691,909.072,372.02431834550407
47,1686714829.18,-44.434,-574.707,-117.676,-83.984,909.076,363.6995814183205
48,1686714829.18,-60.059,-240.723,84.961,-95.215,909.077,376.0473523037126
49,1686714829.19,-5.371,138.672,162.598,24.414,909.081,373.01353226615254
50,1686714829.19,23.926,-170.41,-43.457,53.711,909.085,370.2344687368348
51,1686714829.19,-20.508,-485.352,-70.801,-58.594,909.089,379.2514413245112
52,1686714829.2,-58.105,-287.598,47.363,-100.098,909.093,372.8081472747979
53,1686714829.2,-17.09,-290.527,55.664,2.93,909.097,372.00012514677434
54,1686714829.21,33.203,-562.5,-75.684,78.125,909.101,382.8361295934298
55,1686714829.21,-1.953,-649.902,-40.039,-20.996,909.105,377.534113623308
56,1686714829.21,-63.477,-127.441,171.875,-124.023,909.109,376.85691947617363
57,1686714829.22,-50.293,-43.457,85.938,-51.27,909.113,386.7896548182721
58,1686714829.22,1.953,-544.434,-105.469,62.012,909.116,366.00661017873693
59,1686714829.22,-4.883,-361.328,51.27,8.789,909.12,369.1449823715241
60,1686714829.23,-60.059,50.781,151.367,-114.746,909.132,368.7688759859745
61,1686714829.24,-62.012,-112.793,42.48,-85.449,909.136,368.54270252813455
62,1686714829.24,-4.883,-335.938,9.766,39.062,909.14,372.5561779480197
63,1686714829.25,20.508,-65.918,77.637,31.25,909.144,368.30620613839153
64,1686714829.25,-27.344,9.766,51.758,-92.773,909.148,377.4411782765353
65,1686714829.25,-58.594,-485.352,-170.898,-97.168,909.152,377.04088281851176
66,1686714829.26,-18.555,-900.879,-298.828,28.809,909.155,373.83191939118024
67,1686714829.26,27.344,-337.891,73.73,63.965,909.159,362.5186358543336
68,1686714829.26,-10.254,54.199,166.992,-49.805,909.163,375.6470934594892
69,1686714829.27,-64.453,-198.242,-8.301,-109.375,909.167,377.1916590471369
70,1686714829.27,-32.227,-377.441,-28.32,-6.836,909.171,373.5927959691693
71,1686714829.28,24.414,-326.172,48.828,75.684,909.175,372.64835389437775
72,1686714829.29,5.859,-245.605,25.879,-9.766,909.183,372.30820301044093
73,1686714829.29,-44.922,-507.324,-72.754,-98.145,909.187,373.1420246094358
74,1686714829.3,-35.156,-470.703,13.184,-38.574,909.191,371.5053067920414
75,1686714829.3,25.879,37.598,145.508,72.754,909.195,379.8378330963339
76,1686714829.3,32.227,83.496,90.82,40.039,909.199,375.68996055012053
77,1686714829.31,-37.109,-489.746,-225.586,-77.637,909.203,373.86942996136804
78,1686714829.31,-50.293,-1000.0,-405.273,-53.711,909.207,376.29627824461863
79,1686714829.31,7.324,-593.75,54.199,52.246,909.21,377.9679157216738
80,1686714829.32,29.297,51.758,220.703,37.109,909.214,372.89565331160435
81,1686714829.32,-20.02,-354.98,-83.008,-75.684,909.218,376.7990934359518
82,1686714829.33,-56.152,-314.453,18.066,-93.75,909.222,378.92431141406865
83,1686714829.33,-13.184,142.578,183.594,19.531,909.226,372.62657428762213
84,1686714829.33,24.902,82.031,90.82,72.266,909.227,373.8608020187941
85,1686714829.34,-8.301,-329.59,-110.352,-27.344,909.231,365.56555286400175
86,1686714829.34,-56.152,-363.281,-70.312,-98.145,909.235,372.3875772469658
87,1686714829.34,-31.25,-265.625,44.922,-9.766,909.239,372.96079668846323
88,1686714829.35,30.762,-154.785,28.32,82.52,909.243,375.62851999759874
89,1686714829.35,7.812,-738.77,-276.367,18.555,909.247,371.5469168592614
90,1686714829.36,-60.059,-694.336,-91.797,-90.82,909.251,380.7969544888605
91,1686714829.36,-51.27,-41.504,172.852,-45.898,909.255,375.2074194310939
92,1686714829.36,7.812,-107.422,34.18,76.172,909.259,377.2985845771035
93,1686714829.37,9.766,-761.23,-251.465,39.551,909.263,368.3949320544392
94,1686714829.37,-44.434,-657.715,-59.57,-102.051,909.267,367.833845586815
95,1686714829.38,-62.5,-413.574,99.609,-105.469,909.27,366.99898672996363
96,1686714829.38,-12.207,-533.203,19.531,19.531,909.273,367.53268567332987
97,1686714829.38,10.254,-565.43,31.738,48.34,909.276,373.79030658772024
98,1686714829.38,-33.203,-170.898,134.766,-66.406,909.28,378.85469668214876
99,1686714829.39,-66.895,-9.277,108.398,-108.887,909.284,378.2104269350129
100,1686714829.39,-34.18,-293.457,7.812,1.953,909.288,372.4595567959539
101,1686714829.4,10.742,-442.871,33.691,63.965,909.292,374.01768825052505
102,1686714829.4,-20.508,-414.551,20.508,-36.621,909.296,379.3309900498296
103,1686714829.4,-71.289,-391.602,12.207,-118.652,909.3,380.91997324477063
104,1686714829.41,-40.527,-626.465,-95.703,-31.738,909.304,367.45257922079116
105,1686714829.41,3.418,-905.762,-148.438,63.477,909.308,369.12807178720465
106,1686714829.42,-15.137,-199.707,175.781,-5.859,909.312,378.0836764614079
107,1686714829.42,-64.453,47.852,114.258,-102.539,909.316,372.8229224892157
108,1686714829.42,-76.172,-346.68,-36.621,-79.59,909.317,379.8636411937844
109,1686714829.43,-14.16,-20.508,116.699,34.668,909.321,380.1421002678249
110,1686714829.43,11.23,218.75,128.418,27.832,909.325,365.75317988914605
111,1686714829.43,-46.875,-69.824,3.906,-99.609,909.329,378.3008643798061
112,1686714829.44,-77.148,-357.91,-31.738,-112.305,909.333,377.6863443014952
113,1686714829.44,-26.855,-401.367,16.602,0.0,909.337,371.76512610537924
114,1686714829.45,10.742,-180.176,87.402,33.203,909.341,377.0449743142147
115,1686714829.45,-30.273,-182.617,-53.223,-66.406,909.345,369.0197385685997
116,1686714829.45,-76.172,-898.438,-386.23,-100.098,909.349,376.5590727811927
117,1686714829.46,-30.762,-606.934,-47.852,-5.859,909.353,370.8191381735219
118,1686714829.46,28.809,20.508,205.078,46.387,909.356,383.29943938818894
119,1686714829.46,1.953,-376.953,-45.41,-26.367,909.36,375.4496184108229
120,1686714829.47,-59.57,-728.516,-99.121,-109.863,909.376,373.5419599006401
121,1686714829.47,-43.945,-162.109,190.918,-51.758,909.38,365.0538332135696
122,1686714829.48,14.648,233.887,180.176,52.734,909.384,365.8887740219512
123,1686714829.48,6.348,-77.637,-9.766,3.906,909.388,374.5802159081102
124,1686714829.48,-53.711,-269.043,-1.953,-110.84,909.391,364.721619043231
125,1686714829.49,-59.082,-375.977,-29.785,-81.543,909.395,374.94543587536475
126,1686714829.49,-5.859,-291.504,40.039,38.574,909.399,378.66951545308376
127,1686714829.49,14.648,-463.867,-95.703,41.504,909.403,363.1957605178617
128,1686714829.5,-40.039,-691.406,-101.074,-81.055,909.407,378.4168554795335
129,1686714829.5,-75.684,-127.93,164.551,-108.887,909.411,370.27152214472886
130,1686714829.51,-22.949,16.602,108.398,20.02,909.415,375.0776176061504
131,1686714829.51,29.297,-525.391,-134.766,72.754,909.419,372.19031360705026
132,1686714829.53,-5.859,-395.02,15.625,-43.945,909.422,367.71861258478407
133,1686714829.53,-56.152,28.32,151.367,-103.027,909.426,370.8568690950684
134,1686714829.54,-32.227,-93.75,41.016,0.977,909.43,378.53360513169645
135,1686714829.54,21.484,-270.996,44.434,81.055,909.434,379.02002155281895
136,1686714829.54,7.812,-147.461,30.273,3.418,909.438,375.9452570429115
137,1686714829.55,-45.898,-345.703,-108.887,-82.031,909.442,380.65994165362025
138,1686714829.55,-20.02,-562.012,-104.492,-10.254,909.446,369.79210142916605
139,1686714829.55,39.551,-812.012,-210.938,107.422,909.45,364.50513380072215
140,1686714829.56,38.086,-402.344,23.926,79.102,909.464,368.94178073048613
141,1686714829.56,30.762,-422.363,12.695,56.152,909.453,369.4947652400869
142,1686714829.56,-22.461,42.969,181.152,-61.523,909.457,374.60475886491787
143,1686714829.56,-5.859,-199.707,98.633,-42.969,909.468,372.5588607839673
144,1686714829.57,-27.344,-310.547,-36.621,-28.32,909.461,376.28562518070004
145,1686714829.57,-38.086,-575.195,-64.453,-62.988,909.472,374.45643613449
146,1686714829.57,18.066,-844.727,-283.203,87.402,909.465,359.77685511195597
147,1686714829.57,1.953,-450.195,47.363,53.711,909.476,371.39883936310997
148,1686714829.57,40.039,48.34,165.527,89.844,909.48,374.05809177394656
149,1686714829.58,8.301,-207.031,-66.895,-19.043,909.484,373.11870997762054
150,1686714829.58,-45.41,-684.082,-201.66,-88.867,909.488,367.0472616606282
151,1686714829.58,-32.227,-375.488,73.73,-13.672,909.492,370.1526292155376
152,1686714829.59,18.555,121.094,190.43,63.477,909.496,365.74082329621626
153,1686714829.59,1.953,99.121,69.336,-4.883,909.5,369.8925389035454
154,1686714829.6,-57.129,-636.719,-298.34,-96.68,909.503,371.499530938865
155,1686714829.6,-53.223,-691.895,-107.91,-41.992,909.507,377.58159818552525
156,1686714829.6,9.766,111.816,252.441,70.801,909.511,375.94260852061547
157,1686714829.61,19.043,104.492,67.871,31.738,909.515,374.7892007263218
158,1686714829.61,-38.086,-389.16,-80.078,-90.332,909.519,371.47738198291705
159,1686714829.61,-56.152,-284.668,16.113,-87.891,909.523,366.41394390855396
160,1686714829.62,-3.418,-187.5,82.52,27.344,909.526,369.7037663902268
161,1686714829.62,24.902,-365.723,-4.883,43.945,909.53,372.00479137518005
162,1686714829.63,-25.391,-878.418,-335.449,-63.477,909.534,379.497525182994
163,1686714829.63,-62.988,-752.93,-96.68,-99.609,909.538,364.068992375736
164,1686714829.63,-19.043,-24.414,243.164,3.906,909.542,372.86735090189666
165,1686714829.64,28.32,75.684,97.168,66.895,909.546,374.4691024111635
166,1686714829.64,1.465,-231.934,-13.672,-21.484,909.55,371.8563960849361
167,1686714829.64,-60.059,-443.848,-14.16,-104.98,909.554,379.9304236653468
168,1686714829.65,-50.293,-110.84,121.094,-31.25,909.556,385.7677737628383
169,1686714829.65,6.836,-145.02,15.625,66.406,909.56,382.6237364729239
170,1686714829.66,0.0,-598.633,-53.223,-1.465,909.564,380.94867528070307
171,1686714829.66,-47.852,-246.094,70.312,-112.305,909.568,376.2466763877936
172,1686714829.66,-51.758,23.438,83.496,-64.941,909.572,376.4028781579829
173,1686714829.67,1.465,-353.516,-12.695,61.523,909.576,373.39625535739447
174,1686714829.67,10.254,-631.836,-54.688,48.828,909.58,376.5138801008246
175,1686714829.67,-41.504,-455.566,10.254,-69.824,909.584,375.22968580647915
176,1686714829.68,-57.617,-99.609,105.469,-83.008,909.587,374.995304155243
177,1686714829.68,-14.648,-416.016,-83.984,37.109,909.591,381.4884571164577
178,1686714829.69,19.043,-694.336,-83.496,63.477,909.595,357.33966476453196
179,1686714829.69,-13.184,-131.348,135.254,-57.617,909.599,379.8470043462584
180,1686714829.71,-52.246,-111.816,43.945,-98.633,909.602,375.5177722557529
181,1686714829.71,-22.949,-364.258,-17.09,12.695,909.606,377.08119601370294
182,1686714829.72,20.508,-44.434,94.727,74.707,909.61,369.573332953006
183,1686714829.72,-9.766,114.258,68.848,-20.996,909.614,374.4751418922664
184,1686714829.72,-67.871,-209.473,-46.387,-111.328,909.618,381.0760261019678
185,1686714829.73,-54.688,-687.5,-103.027,-29.785,909.622,364.7135809466913
186,1686714829.73,7.324,-381.836,62.012,66.406,909.626,375.1810511336214
187,1686714829.73,14.648,125.0,171.387,6.348,909.63,383.2196970489332
188,1686714829.74,-44.434,-283.691,-124.512,-95.215,909.634,381.8118349034319
189,1686714829.74,-60.059,-877.441,-344.727,-68.848,909.638,387.575455261638
190,1686714829.75,3.418,-426.27,75.684,47.363,909.641,381.01380917863975
191,1686714829.75,21.973,-170.41,136.23,43.457,909.645,372.4725117353012
192,1686714829.75,-40.527,-520.508,-132.812,-78.125,909.647,381.298414191698
193,1686714829.76,-68.848,-674.316,-61.035,-93.75,909.651,376.524684009288
194,1686714829.76,-11.719,-90.82,210.938,20.02,909.655,369.2674829072202
195,1686714829.76,22.949,234.863,164.062,55.176,909.659,372.315418772336
196,1686714829.77,-24.902,-177.734,-82.52,-48.34,909.663,380.1940108925792
197,1686714829.77,-69.336,-595.703,-167.48,-106.934,909.667,378.32803164081116
198,1686714829.78,-33.203,-449.707,39.551,-8.789,909.671,377.02189009761406
199,1686714829.78,21.484,48.34,168.457,71.289,909.675,370.8715904937941
200,1686714829.78,-9.277,-402.344,-173.34,-9.766,909.678,367.6838912795388
201,1686714829.79,-71.289,-772.461,-145.508,-107.422,909.682,374.0149135376849
202,1686714829.79,-51.27,-138.672,190.43,-55.664,909.686,375.0614963830332
203,1686714829.8,7.324,-184.082,61.035,61.035,909.69,373.7096873508395
204,1686714829.8,-1.953,-686.523,-186.523,13.184,909.692,390.5336006067202
205,1686714829.8,-53.223,-442.383,-4.883,-114.746,909.696,388.4312117353206
206,1686714829.8,-51.27,14.16,166.016,-90.332,909.7,387.17912620492694
207,1686714829.81,3.418,-11.23,78.613,28.32,909.704,379.7163056611112
208,1686714829.81,20.508,-278.809,13.184,32.715,909.708,370.5419278664358
209,1686714829.82,-28.32,-528.809,-113.77,-54.199,909.712,382.0871981436184
210,1686714829.82,-60.059,-385.254,-19.043,-76.66,909.716,373.276573468002
211,1686714829.82,-17.09,-181.152,64.453,20.508,909.72,376.67106667829023
212,1686714829.83,19.531,-772.949,-255.859,80.078,909.724,380.34225159090846
213,1686714829.83,-11.719,-446.777,-1.953,-32.715,909.728,373.6340500743376
214,1686714829.84,-54.688,-66.895,132.812,-108.887,909.731,371.1471129292867
215,1686714829.84,-32.227,-485.352,-27.832,-12.207,909.735,378.11742884278726
216,1686714829.84,13.672,-381.348,48.828,72.754,909.74,366.82164659027586
217,1686714829.85,-2.93,-77.148,70.312,3.906,909.744,375.38587885806294
218,1686714829.85,-50.293,-299.316,-23.438,-84.961,909.748,368.7412262680185
219,1686714829.86,-48.34,-592.773,-103.516,-43.457,909.751,367.41516633405564
220,1686714829.86,8.301,-683.594,-60.547,60.547,909.755,371.98482541466694
221,1686714829.86,21.484,-458.496,57.617,27.832,909.759,361.5145072989916
222,1686714829.87,-26.855,-456.543,5.371,-86.426,909.763,363.87379797720433
223,1686714829.87,-41.504,-680.176,-85.938,-77.148,909.767,385.89123867669747
224,1686714829.87,-5.859,-611.328,24.414,30.273,909.771,378.8094960232688
225,1686714829.88,14.648,61.523,223.145,41.992,909.775,361.9826347685816
226,1686714829.88,-21.973,78.125,88.379,-73.73,909.779,373.44352834514063
227,1686714829.89,-57.129,-411.621,-132.324,-115.723,909.783,371.64197773862173
228,1686714829.89,-17.09,-156.25,44.922,-4.883,909.782,375.72228774123477
229,1686714829.89,36.133,211.914,170.898,63.477,909.786,374.19478192897657
230,1686714829.9,-0.977,18.555,2.93,-34.668,909.79,373.1224288604877
231,1686714829.9,-55.664,-341.309,-72.266,-115.234,909.794,379.5819848992966
232,1686714829.9,-32.715,-273.926,4.395,-34.18,909.798,369.4782194500908
233,1686714829.91,20.508,-239.258,28.32,62.012,909.802,380.2804205037178
234,1686714829.91,2.93,-409.18,-68.359,-0.977,909.806,375.5419314368496
235,1686714829.91,-63.965,-907.715,-382.324,-106.934,909.81,376.4776658120986
236,1686714829.92,-50.293,-682.617,-84.961,-65.918,909.814,377.4581260341484
237,1686714829.92,16.602,109.375,274.902,49.316,909.818,379.9622831736342
238,1686714829.93,11.719,-18.066,45.898,22.461,909.821,377.77558928640724
239,1686714829.93,-41.016,-551.758,-129.395,-103.027,909.825,381.3851212873586
240,1686714829.93,-58.105,-246.582,73.73,-112.793,909.828,371.68158416540297
241,1686714829.94,-8.301,159.18,159.18,11.719,909.831,371.76879344235016
242,1686714829.94,26.367,-122.07,-42.969,51.27,909.835,367.0253883150039
243,1686714829.94,-19.043,-428.223,-67.871,-62.012,909.839,386.768566184469
244,1686714829.95,-55.176,-227.539,41.504,-109.375,909.843,375.33724487211464
245,1686714829.95,-20.996,-255.371,50.781,3.418,909.847,393.3615176465847
246,1686714829.96,24.902,-548.34,-106.445,75.684,909.851,376.49064020843656
247,1686714829.96,-5.371,-816.406,-143.066,-17.578,909.855,377.4557979080105
248,1686714829.96,-62.988,-361.816,141.113,-116.699,909.859,383.1740222989652
249,1686714829.97,-43.457,32.715,159.668,-45.898,909.863,393.30324128511324
250,1686714829.97,17.578,-405.273,-77.637,66.406,909.867,384.74719904495316
251,1686714829.98,8.301,-444.824,1.953,1.465,909.871,392.6853233415833
252,1686714829.98,-46.875,-49.316,128.418,-118.652,909.886,392.41441997862563
253,1686714829.98,-50.781,-126.953,33.691,-78.125,909.89,378.2324498709338
254,1686714829.98,0.0,-313.965,-16.113,47.363,909.894,384.95029898254126
255,1686714829.99,20.996,-86.914,60.059,45.898,909.898,393.36445144490756
256,1686714829.99,-20.996,-81.543,-24.414,-65.918,909.901,387.3428441637655
257,1686714830.0,-52.246,-512.207,-209.961,-83.496,909.905,408.14305779855016
258,1686714830.0,-8.789,-887.695,-309.082,33.203,909.909,400.590454222917
259,1686714830.0,24.902,-373.047,30.273,59.082,909.913,390.48509870292355
260,1686714830.01,-12.207,27.344,149.902,-49.316,909.917,395.22035019657216
261,1686714830.01,-49.316,-344.727,-59.57,-91.309,909.921,406.11088607021526
262,1686714830.02,-23.926,-649.414,-48.34,3.906,909.925,403.7278626185509
263,1686714830.02,26.367,-441.895,67.871,76.66,909.929,402.7981790272625
264,1686714830.02,14.16,-34.668,116.699,-8.301,909.932,414.93784093918487
265,1686714830.03,-48.34,-305.664,-115.723,-104.98,909.936,428.0014186229098
266,1686714830.03,-54.688,-792.48,-186.035,-45.41,909.94,424.5649877606772
267,1686714830.03,1.465,-135.254,193.359,43.945,909.944,416.62878556090095
268,1686714830.04,2.93,218.75,185.547,1.953,909.948,431.1461921390365
269,1686714830.04,-58.105,-468.262,-166.016,-99.121,909.951,441.29467980647587
270,1686714830.05,-64.453,-715.332,-98.145,-78.125,909.955,432.3834371162505
271,1686714830.05,-6.836,-63.965,194.336,36.133,909.959,439.59691515266576
272,1686714830.05,8.301,141.602,122.07,41.504,909.963,438.3212673082353
273,1686714830.06,-48.828,-376.465,-136.719,-77.148,909.967,440.21501381502713
274,1686714830.06,-82.031,-370.605,-10.254,-115.723,909.971,442.59858469949575
275,1686714830.06,-30.273,93.262,200.195,2.441,909.975,449.4670558234354
276,1686714830.08,13.184,-68.359,-2.93,68.848,909.978,449.44937800727143
277,1686714830.09,-29.785,-720.215,-316.406,-36.621,909.982,451.2072238072993
278,1686714830.09,-69.824,-536.133,-62.5,-122.07,909.986,461.3976774451545
279,1686714830.09,-36.133,0.977,169.922,-41.992,909.99,458.18155388261584
280,1686714830.1,7.324,-55.176,48.828,44.434,909.994,461.25871264544486
281,1686714830.1,-11.719,-617.188,-134.766,-16.602,909.997,461.406479095373
282,1686714830.11,-61.035,-642.09,-83.984,-112.793,910.001,467.5209225920326
283,1686714830.11,-49.805,-68.359,155.762,-62.012,910.005,461.4039270393604
284,1686714830.11,0.0,-119.141,50.781,54.199,910.009,462.65153921513286
285,1686714830.12,-0.977,-721.68,-215.82,20.996,910.013,475.45781562435513
286,1686714830.12,-51.758,-582.52,-49.805,-94.238,910.017,459.33769783198846
287,1686714830.12,-65.918,-446.289,57.617,-84.961,910.021,461.1716060890465
288,1686714830.13,-13.672,-498.535,11.23,38.574,910.022,467.5667475182928
289,1686714830.13,15.137,-579.59,8.789,57.129,910.026,470.64981871001805
290,1686714830.14,-36.133,-289.062,83.496,-67.871,910.03,466.30408513688394
291,1686714830.14,-65.918,-315.918,16.602,-100.098,910.034,458.9491761116135
292,1686714830.14,-24.414,-503.906,2.441,18.066,910.038,465.96801272926103
293,1686714830.15,8.301,-631.836,-4.395,73.73,910.042,456.4212265961987
294,1686714830.15,-18.555,-405.762,76.66,-30.273,910.046,456.54383547161444
295,1686714830.15,-57.129,-85.449,103.516,-101.562,910.05,451.06897814334314
296,1686714830.16,-32.715,-498.047,-93.262,-8.301,910.054,458.63151652391883
297,1686714830.16,14.16,-634.277,-23.438,75.684,910.058,456.66908505894645
298,1686714830.17,3.906,21.973,178.223,0.977,910.061,458.50115819616394
299,1686714830.17,-42.48,-19.043,40.527,-101.562,910.065,454.59188374351663
300,1686714830.17,-49.805,-440.43,-75.195,-68.359,910.067,465.82827138081814
301,1686714830.18,-0.488,-152.832,83.496,53.711,910.071,456.3137461690038
302,1686714830.18,21.484,142.578,127.93,51.758,910.075,458.12492323147103
303,1686714830.18,-33.691,-120.117,-31.25,-79.102,910.079,460.2826400647637
304,1686714830.19,-65.918,-476.074,-58.105,-92.773,910.083,438.28879198400205
305,1686714830.19,-13.184,-405.762,52.734,26.855,910.087,446.9635063610853
306,1686714830.2,20.02,-345.703,42.48,57.129,910.091,440.76424239135804
307,1686714830.2,-25.391,-530.273,-95.215,-53.711,910.095,444.7762574570681
308,1686714830.2,-76.172,-938.477,-333.984,-106.934,910.099,444.4766787459473
309,1686714830.21,-39.551,-603.516,-6.836,-6.836,910.103,437.7144370344348
310,1686714830.21,21.973,-33.691,215.82,63.965,910.106,443.2588654163242
311,1686714830.22,-11.23,-432.129,-49.316,-27.344,910.11,442.13579038733707
312,1686714830.25,-67.871,-752.441,-101.562,-112.793,910.143,421.3267178479738
313,1686714830.25,-51.27,-202.637,159.18,-47.363,910.147,422.7204115045657
314,1686714830.26,5.859,152.832,175.293,58.594,910.15,420.5876675923987
315,1686714830.26,11.23,-191.406,-34.18,13.672,910.154,433.04047316411476
316,1686714830.26,-15.625,-362.793,-42.969,-42.48,910.171,426.1078178709442
317,1686714830.26,-48.828,-423.34,-39.062,-105.957,910.158,423.45771062088585
318,1686714830.27,-62.012,-6.348,137.207,-106.445,910.174,431.38206311720546
319,1686714830.27,-61.035,-433.105,7.324,-76.66,910.162,427.5675377002287
320,1686714830.27,-29.297,-32.227,65.918,-22.461,910.178,426.40588983423123
321,1686714830.27,-0.488,-320.801,64.941,52.246,910.166,413.38297921726496
322,1686714830.27,10.742,-522.461,-101.562,31.738,910.17,420.5457197094202
323,1686714830.27,21.973,-505.371,-177.246,53.711,910.182,416.81861067353225
324,1686714830.28,1.465,-320.801,-45.898,-20.996,910.186,426.02679763485304
325,1686714830.28,-60.547,-833.496,-134.277,-98.633,910.174,414.6586039216274
326,1686714830.28,-71.289,-227.051,170.898,-106.934,910.178,417.88233421172515
327,1686714830.28,-45.41,-311.523,-92.773,-100.098,910.19,410.8899743435642
328,1686714830.29,0.488,125.977,170.41,18.555,910.182,411.712246102187
329,1686714830.29,-37.598,-599.121,-135.742,-45.898,910.194,403.7670930790769
330,1686714830.29,9.277,-508.789,50.781,50.781,910.198,413.41975178020635
331,1686714830.29,29.785,-333.008,-94.238,66.406,910.186,408.10570690570285
332,1686714830.29,11.23,-95.703,114.258,13.184,910.202,409.85453803406216
333,1686714830.3,-46.387,42.969,75.684,-104.98,910.206,402.22423768263064
334,1686714830.3,-67.383,-304.199,-86.426,-84.961,910.21,402.93136516728015
335,1686714830.3,-19.531,-652.832,-90.332,32.715,910.214,406.0563592678349
336,1686714830.32,2.93,-425.293,56.641,34.668,910.218,404.504509683623
337,1686714830.33,-38.086,-68.848,115.723,-78.125,910.222,399.84178896493705
338,1686714830.33,-64.941,-318.848,-94.238,-92.773,910.226,386.5066834584889
339,1686714830.33,-29.785,-970.215,-337.891,32.715,910.23,387.1500576318076
340,1686714830.34,16.113,-726.562,-25.391,74.219,910.234,403.33320701707913
341,1686714830.34,-14.16,-291.504,144.043,-40.039,910.238,389.83617206399487
342,1686714830.35,-63.965,-644.531,-31.738,-102.539,910.242,393.4286510013431
343,1686714830.35,-26.367,-664.062,33.203,-7.324,910.245,382.9314467481927
344,1686714830.35,24.414,68.359,256.348,60.547,910.249,382.80579332506505
345,1686714830.35,3.906,164.062,165.527,47.852,910.251,386.7242990496592
346,1686714830.36,-1.953,194.336,138.672,-18.555,910.253,390.47693304942214
347,1686714830.36,8.789,-177.734,-72.754,28.809,910.254,386.21088484918613
348,1686714830.36,-62.012,-409.668,-130.859,-109.375,910.257,384.0431109127565
349,1686714830.36,-44.434,-736.328,-260.254,-85.449,910.258,390.12312678927566
350,1686714830.36,-57.129,-269.043,20.996,-68.848,910.261,382.0947126810383
351,1686714830.37,-55.664,-370.117,15.137,-83.984,910.262,385.0149209154671
352,1686714830.37,3.418,132.324,191.406,33.691,910.266,369.9680006393438
353,1686714830.37,25.879,-272.949,-56.152,52.734,910.27,368.0137731543836
354,1686714830.38,-24.414,-821.777,-294.922,-71.777,910.274,385.51427062633235
355,1686714830.38,-57.129,-395.996,1.465,-112.793,910.278,370.083313693269
356,1686714830.38,-14.16,117.676,211.914,7.812,910.282,376.79024033937543
357,1686714830.39,24.902,-46.875,30.762,66.895,910.286,379.50817911167695
358,1686714830.39,-23.926,-808.105,-356.934,-34.18,910.29,374.71768210392673
359,1686714830.4,-68.359,-787.109,-146.484,-115.723,910.293,361.96226812829246
360,1686714830.41,-26.855,-35.645,213.379,-41.992,910.308,365.33427221771404
361,1686714830.42,25.879,-87.402,51.27,59.082,910.312,359.2115278495272
362,1686714830.42,0.977,-412.109,0.488,1.953,910.316,361.4078685113963
363,1686714830.42,-58.594,-231.934,58.105,-111.328,910.319,358.3695662170503
364,1686714830.43,-56.152,-259.277,68.848,-74.219,910.323,360.81833806323647
365,1686714830.43,3.906,-498.047,-30.273,44.434,910.327,355.7027745162597
366,1686714830.44,5.371,-913.574,-244.629,29.785,910.331,354.5309665082026
367,1686714830.44,-49.316,-430.664,83.496,-96.68,910.335,359.73086378431077
368,1686714830.44,-62.988,-36.621,177.734,-104.004,910.339,354.02426985129654
369,1686714830.45,-10.254,-258.301,30.762,17.09,910.343,343.1511730806102
370,1686714830.45,19.043,-26.367,120.117,38.086,910.347,350.7788494775383
371,1686714830.46,-28.32,153.809,112.305,-67.383,910.351,356.11848369251015
372,1686714830.46,-68.848,-92.285,0.488,-112.305,910.353,356.36419333720215
373,1686714830.46,-35.156,-397.461,-96.191,-13.184,910.356,347.63031032728884
374,1686714830.46,21.973,-83.008,73.73,60.547,910.36,344.5797756283186
375,1686714830.47,-3.906,114.258,107.91,-34.668,910.364,339.65327693422546
376,1686714830.47,-63.477,-180.664,-47.852,-123.535,910.368,338.9958695674501
377,1686714830.48,-40.039,-550.293,-77.637,-46.387,910.372,345.1344199429567
378,1686714830.48,20.996,-500.488,26.367,61.523,910.376,338.05855137448884
379,1686714830.48,8.789,-220.703,84.961,9.766,910.38,340.74551394155907
380,1686714830.49,-54.199,-229.004,-15.137,-104.492,910.384,334.9087741258619
381,1686714830.49,-62.5,-837.402,-279.297,-68.359,910.388,319.17174458474216
382,1686714830.5,-4.395,-683.594,18.066,33.691,910.392,338.1276520585665
383,1686714830.5,16.602,-273.926,181.641,24.414,910.396,324.5222641294083
384,1686714830.5,-31.738,-495.117,-49.805,-74.219,910.398,338.3013588914976
385,1686714830.51,-57.617,-672.852,-20.508,-89.355,910.401,334.2963959904023
386,1686714830.51,0.0,-89.355,235.352,24.414,910.405,330.76289358114803
387,1686714830.51,32.227,189.941,168.457,57.129,910.409,339.49806889121885
388,1686714830.52,-18.066,-204.102,-57.617,-53.223,910.413,328.50706136499224
389,1686714830.52,-56.641,-579.102,-110.84,-100.586,910.417,336.2827938419998
390,1686714830.53,-24.414,-403.32,54.688,-6.348,910.421,335.66927821661056
391,1686714830.53,21.973,103.516,179.199,61.523,910.425,334.286696363323
392,1686714830.53,-6.348,-362.793,-133.301,-7.812,910.429,319.2867617289249
393,1686714830.54,-60.547,-867.676,-174.805,-97.656,910.433,329.99351462794897
394,1686714830.54,-42.48,-188.965,185.059,-52.246,910.437,324.1685365189682
395,1686714830.54,8.301,176.27,154.785,61.035,910.44,332.4248108806523
396,1686714830.55,0.488,-463.867,-178.711,22.949,910.442,316.3896484191073
397,1686714830.55,-49.805,-492.188,-64.453,-95.703,910.446,324.8254340459318
398,1686714830.56,-51.758,27.344,163.574,-75.195,910.45,331.68376517349657
399,1686714830.56,-2.93,55.176,97.656,46.875,910.454,326.7345219212764
400,1686714830.56,18.555,-202.637,-2.93,55.664,910.458,323.74092639576605
401,1686714830.57,-25.391,-533.691,-172.852,-58.105,910.462,309.21918449429444
402,1686714830.57,-57.129,-432.129,-14.16,-94.238,910.466,326.6938543995594
403,1686714830.57,-15.137,-154.297,106.934,18.066,910.47,321.803438210766
404,1686714830.58,10.254,-747.07,-254.883,75.684,910.474,322.23315366466875
405,1686714830.58,-29.785,-470.215,-7.812,-40.527,910.478,321.7512666379699
406,1686714830.59,-78.125,-69.336,162.598,-117.188,910.482,325.96964511559406
407,1686714830.59,-52.246,-520.996,-77.637,-12.695,910.485,318.96847430524656
408,1686714830.59,1.465,-836.426,-200.684,75.684,910.488,316.3994947861484
409,1686714830.6,-17.09,-267.09,79.102,-15.137,910.492,313.804289188756
410,1686714830.6,-59.57,33.691,115.723,-118.164,910.495,313.49507777039014
411,1686714830.6,-51.758,-300.293,-17.578,-61.035,910.499,320.1611094371775
412,1686714830.61,-2.441,-213.867,92.773,53.223,910.503,319.4679045025524
413,1686714830.61,4.883,-231.934,16.113,22.461,910.507,317.86458837918565
414,1686714830.62,-49.316,-435.547,-98.633,-96.68,910.511,328.45894292168487
415,1686714830.62,-72.266,-645.996,-184.57,-88.867,910.515,317.63425917180956
416,1686714830.62,-22.461,-637.695,-25.391,26.367,910.519,318.98438387007263
417,1686714830.63,11.23,16.602,221.191,39.062,910.523,326.50830844832757
418,1686714830.63,-24.414,35.156,79.102,-62.988,910.527,331.98082308998505
419,1686714830.64,-65.43,-454.102,-114.258,-98.633,910.531,319.01304028346397
420,1686714830.64,-29.297,-177.734,68.359,7.324,910.535,320.24058244931547
421,1686714830.64,14.648,165.039,166.016,67.871,910.539,332.6491199167815
422,1686714830.65,-18.555,-264.648,-136.23,-20.508,910.543,329.61561494649277
423,1686714830.65,-68.848,-803.711,-334.473,-104.98,910.547,323.96685954401
424,1686714830.65,-38.574,-393.555,18.555,-42.969,910.551,308.9363993740202
425,1686714830.66,11.719,-179.688,113.77,53.223,910.555,326.3000591656059
426,1686714830.66,-4.395,-523.438,-123.535,0.488,910.559,323.8599460416074
427,1686714830.66,-55.176,-865.234,-321.289,-93.75,910.563,328.78027527988803
428,1686714830.67,-64.941,-429.199,44.922,-70.801,910.567,323.83917273992483
429,1686714830.67,-14.648,186.523,243.164,40.039,910.57,329.6198963355257
430,1686714830.68,3.906,-84.473,-17.09,37.598,910.574,322.85583772391516
431,1686714830.68,-49.316,-655.273,-143.555,-80.078,910.578,326.28788888595227
432,1686714830.68,-67.383,-352.051,54.199,-82.031,910.578,326.714565252597
433,1686714830.69,-15.625,119.629,154.785,33.691,910.582,327.8328505447568
434,1686714830.69,3.906,-153.809,-26.855,50.781,910.585,326.17190926478406
435,1686714830.69,-38.574,-494.141,-62.5,-59.57,910.589,320.96970508088293
436,1686714830.7,-81.055,-294.434,22.949,-103.027,910.593,317.8611323715995
437,1686714830.7,-45.41,-298.34,48.828,0.0,910.597,319.00292556481975
438,1686714830.71,16.602,-559.082,-63.965,80.566,910.601,322.49157345472736
439,1686714830.71,-20.996,-928.223,-289.551,-22.461,910.605,319.6294808966099
440,1686714830.71,-81.055,-443.359,46.387,-131.348,910.609,338.65062081805905
441,1686714830.72,-49.805,-35.645,180.176,-60.059,910.613,333.76203151105346
442,1686714830.72,20.996,-226.074,36.621,56.152,910.617,337.3470219200264
443,1686714830.72,18.066,-106.445,77.148,4.395,910.621,329.16846044965956
444,1686714830.73,-39.551,11.719,68.359,-110.352,910.636,343.54099396781106
445,1686714830.73,-46.387,-158.203,17.578,-76.66,910.64,325.2484465334254
446,1686714830.74,0.0,-380.371,-52.734,32.227,910.644,329.8481356982845
447,1686714830.74,18.555,-123.535,53.711,26.855,910.648,331.0028767598217
448,1686714830.74,-26.855,-48.34,49.316,-80.078,910.652,328.45851839613823
449,1686714830.75,-49.805,-501.953,-178.223,-92.285,910.656,331.4947308312179
450,1686714830.75,0.488,-844.238,-281.738,25.879,910.66,337.4462275887688
451,1686714830.75,28.32,-594.238,-14.648,56.152,910.664,339.51163312970414
452,1686714830.76,-13.672,-178.711,141.602,-58.594,910.667,337.679456062059
453,1686714830.76,-56.152,-271.973,-17.578,-108.887,910.671,323.2748294959579
454,1686714830.77,-36.621,-658.691,-42.969,-15.137,910.675,332.1315978629269
455,1686714830.77,13.672,-511.23,60.059,54.199,910.679,344.509813018147
456,1686714830.77,3.418,-103.516,105.469,-28.809,910.682,337.857135759853
457,1686714830.78,-43.945,-314.453,-66.895,-115.234,910.686,328.42261889043294
458,1686714830.78,-33.691,-633.789,-53.223,-49.805,910.69,341.6784512846017
459,1686714830.78,19.531,-54.688,181.641,50.781,910.693,336.53795291864935
460,1686714830.79,12.207,122.07,88.379,9.277,910.697,332.9199532188935
461,1686714830.79,-47.852,-496.094,-177.734,-97.656,910.701,333.11352976720997
462,1686714830.8,-59.57,-720.215,-101.074,-79.102,910.705,340.19490875228894
463,1686714830.8,-4.395,-72.266,194.824,34.18,910.709,345.92496902436415
464,1686714830.8,21.973,132.324,107.91,36.621,910.713,340.8645269680552
465,1686714830.81,-29.297,-558.105,-239.746,-67.383,910.717,345.654071118948
466,1686714830.81,-62.5,-754.395,-155.762,-83.008,910.721,355.934297762102
467,1686714830.82,-18.066,-92.285,176.27,16.113,910.725,353.09227544985845
468,1686714830.83,24.414,54.199,97.168,60.059,910.727,359.5221809165002
469,1686714830.84,-11.719,-617.676,-266.602,-41.016,910.731,354.099771370378
470,1686714830.84,-61.523,-591.309,-90.332,-118.652,910.735,357.0205428364038
471,1686714830.84,-33.691,7.324,180.664,-29.785,910.739,357.6130420990995
472,1686714830.85,18.555,-2.93,58.594,67.871,910.743,344.7643335578524
473,1686714830.85,-2.93,-630.859,-159.18,-6.836,910.747,355.13294529712823
474,1686714830.86,-59.57,-800.781,-150.879,-115.234,910.751,374.5166047716319
475,1686714830.86,-54.199,-248.535,117.676,-69.336,910.755,358.6067779316236
476,1686714830.86,3.906,-128.906,72.266,47.363,910.759,358.59116308838975
477,1686714830.87,6.348,-715.82,-210.938,19.043,910.762,363.67970560204714
478,1686714830.87,-48.34,-550.781,-61.523,-97.168,910.766,372.1817247991366
479,1686714830.88,-65.43,-407.715,50.293,-81.543,910.77,371.38229097481627
480,1686714830.88,-13.672,-573.242,-7.324,45.41,910.773,377.85675332817647
481,1686714830.88,7.812,-856.445,-208.496,62.5,910.777,381.24308864226987
482,1686714830.88,-40.527,-464.355,21.973,-67.383,910.78,375.25348734015205
483,1686714830.89,-74.219,-59.57,159.18,-108.398,910.784,379.69742857349763
484,1686714830.89,-28.32,-301.27,33.203,10.254,910.788,385.7631522464668
485,1686714830.9,10.254,-505.371,19.043,60.547,910.792,384.3076192660982
486,1686714830.9,-26.367,-410.645,19.043,-42.48,910.796,382.0833433172704
487,1686714830.9,-70.312,-124.512,81.543,-119.141,910.8,394.4725250378665
488,1686714830.91,-52.734,-481.934,-99.609,-36.133,910.804,396.71876074918043
489,1686714830.91,-4.883,-685.059,-63.965,55.176,910.808,399.289687335665
490,1686714830.92,-7.812,-58.105,175.293,-21.973,910.812,401.67594018640233
491,1686714830.92,-66.406,-66.406,64.453,-130.371,910.816,399.7397444451452
492,1686714830.92,-67.871,-458.496,-62.988,-82.52,910.817,390.31898879653585
493,1686714830.93,-2.441,-125.488,78.613,35.156,910.821,396.40226566228927
494,1686714830.93,17.578,62.012,70.312,21.973,910.825,407.41669317482456
495,1686714830.93,-45.41,-452.637,-174.805,-99.609,910.829,398.23464171068065
496,1686714830.94,-76.66,-828.613,-279.785,-102.539,910.833,405.8437981471502
497,1686714830.94,-15.625,-568.848,-34.668,22.461,910.837,407.54587205205706
498,1686714830.95,12.207,-275.391,106.934,41.992,910.841,415.6895072390198
499,1686714830.95,-36.621,-343.75,-40.527,-59.082,910.845,404.88932372963427
500,1686714830.95,-74.707,-854.98,-302.734,-93.75,910.849,403.5954869085565
501,1686714830.96,-40.527,-384.766,67.871,6.348,910.853,413.93255076807117
502,1686714830.96,7.812,125.0,227.539,70.801,910.856,424.5667639087984
503,1686714830.96,-16.602,-439.941,-155.273,-28.809,910.86,407.4903220689037
504,1686714830.97,-72.266,-778.32,-206.055,-123.535,910.867,414.0486801435593
505,1686714830.97,-53.223,-225.098,139.648,-53.711,910.871,423.2726071013119
506,1686714830.98,10.742,132.812,154.785,53.223,910.875,429.6847350610655
507,1686714830.98,7.324,-163.086,-51.758,11.23,910.879,421.10644083316714
508,1686714830.98,-53.223,-380.859,-41.016,-100.098,910.883,425.957181320448
509,1686714830.99,-55.664,-504.395,-60.059,-72.754,910.887,435.61489116911383
510,1686714830.99,-0.977,-395.996,47.363,40.039,910.891,418.43655902666694
511,1686714830.99,8.301,-523.438,-84.473,30.762,910.895,423.00759331658463
512,1686714831.0,-41.992,-952.148,-339.844,-82.031,910.899,422.15583495349966
513,1686714831.0,-61.035,-398.438,76.66,-103.027,910.902,421.0053265778516
514,1686714831.01,-9.766,36.621,214.355,14.648,910.906,431.9928663240644
515,1686714831.01,18.555,-227.539,11.719,49.805,910.91,419.97235576965954
516,1686714831.01,-21.973,-162.109,75.684,-60.547,910.908,415.55378130188956
517,1686714831.02,-47.363,-28.32,89.355,-104.98,910.912,422.24695214823504
518,1686714831.02,-11.719,-119.141,34.668,-9.766,910.916,416.6468050658997
519,1686714831.02,12.695,-262.695,-1.953,41.504,910.919,428.14219081475846
520,1686714831.03,-26.367,-141.602,9.766,-54.688,910.923,431.8987441995284
521,1686714831.03,-68.848,-350.098,-131.348,-128.418,910.927,427.413775520605
522,1686714831.04,-54.199,-595.215,-158.203,-52.246,910.931,429.18583689917523
523,1686714831.04,-19.043,-830.566,-250.977,41.016,910.935,432.66344767887415
524,1686714831.04,-19.531,-686.035,-91.309,4.395,910.939,423.3830926459451
525,1686714831.05,-65.918,-178.223,156.738,-108.887,910.943,425.8190242674796
526,1686714831.05,-88.379,-233.887,26.855,-99.121,910.947,422.04117871644365
527,1686714831.06,-42.48,-836.426,-213.867,25.391,910.951,423.544353013163
528,1686714831.06,-12.207,-392.578,65.43,19.531,910.952,416.96004886932
529,1686714831.06,-58.105,98.633,143.555,-101.562,910.956,419.76645268054733
530,1686714831.06,-88.379,-271.484,-51.758,-113.77,910.96,427.23065353750997
531,1686714831.07,-38.086,-241.211,86.914,7.324,910.964,411.20506269736035
532,1686714831.07,0.977,69.336,136.719,40.039,910.968,420.44161429501685
533,1686714831.08,-36.133,-275.391,-114.258,-64.453,910.972,419.1741331639849
534,1686714831.08,-82.52,-726.562,-272.949,-119.629,910.976,424.63145163025325
535,1686714831.08,-59.082,-663.574,-50.293,-28.32,910.98,400.95050655986813
536,1686714831.09,-2.441,-12.695,211.426,53.711,910.984,409.64952384431433
537,1686714831.09,-11.719,103.027,96.68,-21.973,910.988,406.133326257803
538,1686714831.1,-64.941,-549.316,-211.914,-114.746,910.992,406.2796371483886
539,1686714831.1,-61.523,-614.746,-94.727,-58.105,910.995,402.4616524900545
540,1686714831.1,-1.953,34.18,190.918,49.316,911.011,406.81995964950397
541,1686714831.11,-2.93,76.66,51.27,12.207,911.015,398.8623718066404
542,1686714831.11,-60.059,-703.125,-319.336,-100.098,911.018,389.3522544719377
543,1686714831.11,-67.383,-570.801,-75.684,-86.426,911.022,381.83477495499466
544,1686714831.12,-15.137,40.527,198.73,38.086,911.026,393.0900923391517
545,1686714831.12,3.906,-262.207,-48.828,50.293,911.03,388.70151222031296
546,1686714831.13,-47.852,-854.004,-353.027,-66.895,911.034,380.6935428273912
547,1686714831.13,-72.754,-524.414,-29.785,-96.191,911.038,370.10934174857977
548,1686714831.13,-24.414,3.906,184.57,18.555,911.042,381.3645099740272
549,1686714831.14,17.578,-10.742,71.777,71.289,911.046,386.02162474005667
550,1686714831.14,-12.207,-390.137,-97.168,-21.484,911.05,367.65017370577743
551,1686714831.14,-56.641,-580.566,-167.969,-93.262,911.054,365.0703625297365
552,1686714831.15,-33.691,-134.277,125.977,-28.809,911.056,364.516374287199
553,1686714831.15,22.949,-161.133,42.48,71.289,911.06,361.968253708639
554,1686714831.16,5.371,-859.375,-323.242,11.23,911.064,354.008516258785
555,1686714831.16,-46.387,-493.164,0.488,-109.863,911.068,354.5339072280539
556,1686714831.16,-30.273,57.129,212.402,-60.547,911.071,347.1368503104813
557,1686714831.17,16.602,-360.352,-19.531,63.477,911.075,345.6288193972707
558,1686714831.17,15.137,-681.641,-40.527,47.363,911.079,340.78055065017776
559,1686714831.18,-32.715,-149.902,127.441,-78.125,911.083,345.05749128625973
560,1686714831.18,-44.434,16.602,93.262,-82.031,911.087,327.8397282916817
561,1686714831.18,0.488,-288.086,-47.363,43.457,911.091,330.0550305586697
562,1686714831.19,20.508,-195.312,8.789,64.941,911.095,330.67418470430977
563,1686714831.19,-22.461,36.133,98.633,-50.781,911.099,330.3779921234006
564,1686714831.21,-59.57,-114.746,-15.625,-95.703,911.103,301.3222308880261
565,1686714831.21,-28.809,-391.113,-150.879,9.277,911.107,305.1681299556069
566,1686714831.22,5.859,-92.285,40.039,69.824,911.11,302.5304490466979
567,1686714831.22,-22.949,18.555,39.062,-19.043,911.114,301.1731281853136
568,1686714831.22,-80.078,-450.684,-213.867,-95.703,911.118,295.9286672066894
569,1686714831.23,-62.5,-937.012,-354.98,-29.297,911.122,297.47418999656236
570,1686714831.23,3.906,-600.098,-27.344,64.941,911.126,306.2584989695988
571,1686714831.23,3.906,-0.977,174.316,3.906,911.13,296.5239838035843
572,1686714831.24,-56.152,-300.293,-61.523,-114.746,911.134,292.4339326595428
573,1686714831.24,-58.105,-510.742,-18.555,-81.543,911.138,297.8057055407367
574,1686714831.25,0.488,-190.918,108.398,44.922,911.142,305.6812777566376
575,1686714831.25,11.23,-277.344,20.508,41.992,911.146,296.6257835939869
576,1686714831.25,-42.48,-576.172,-158.203,-79.59,911.148,295.2951908762147
577,1686714831.26,-68.359,-718.75,-139.648,-91.797,911.152,305.61847192104005
578,1686714831.26,-9.277,-179.688,166.992,29.297,911.156,300.10345478793903
579,1686714831.26,37.109,136.23,155.273,64.453,911.159,299.0780603303201
580,1686714831.27,-13.184,-241.211,-90.332,-42.969,911.163,291.40751189313363
581,1686714831.27,-63.477,-653.809,-173.828,-94.238,911.167,296.701489926401
582,1686714831.28,-28.809,-560.059,-6.836,-3.906,911.171,290.3760428644704
583,1686714831.28,25.391,-317.383,103.027,64.453,911.175,301.4913038420974
584,1686714831.28,-1.953,-570.312,-135.254,-19.531,911.179,296.7912232213899
585,1686714831.29,-68.848,-953.125,-339.355,-104.004,911.183,293.068005325578
586,1686714831.29,-56.641,-318.848,99.609,-47.363,911.187,291.88123146416115
587,1686714831.3,2.441,97.656,207.52,39.551,911.191,296.177228602053
588,1686714831.3,6.836,-287.598,-45.898,-4.883,911.192,297.26340886969246
589,1686714831.3,-48.828,-249.512,31.738,-111.816,911.196,304.6039419779923
590,1686714831.3,-62.988,-24.414,111.328,-90.82,911.2,308.60703315401696
591,1686714831.31,-4.883,-66.895,64.453,25.391,911.204,296.6804483365996
592,1686714831.31,20.02,-307.617,-13.184,35.156,911.208,302.49003570335987
593,1686714831.32,-30.273,-543.945,-177.734,-66.406,911.212,299.1547800315676
594,1686714831.32,-65.43,-452.637,-43.945,-90.332,911.216,303.47143393578807
595,1686714831.32,-16.113,-196.777,97.168,22.949,911.22,293.5576478555849
596,1686714831.33,21.484,-769.531,-286.621,73.242,911.224,299.10483947744825
597,1686714831.33,-17.09,-734.375,-131.836,-36.133,911.228,303.1212544698434
598,1686714831.34,-54.199,-339.844,125.977,-109.375,911.231,302.9996015357422
599,1686714831.34,-35.645,-550.781,-2.441,-23.926,911.235,306.57025760729204
600,1686714831.34,11.23,-879.883,-184.57,73.242,911.237,303.84672317247947
601,1686714831.35,0.488,-389.16,62.5,-1.953,911.241,305.52849427113506
602,1686714831.35,-54.199,-1.953,142.578,-111.328,911.245,303.1042270442587
603,1686714831.35,-50.781,-210.449,16.113,-48.34,911.249,308.40185345177173
604,1686714831.36,4.395,-113.281,121.094,70.312,911.253,309.8692266481453
605,1686714831.36,19.043,-277.344,9.277,40.527,911.257,315.23663432488195
606,1686714831.37,-39.062,-504.883,-125.977,-86.914,911.261,316.10461176167365
607,1686714831.37,-62.988,-630.371,-172.363,-87.891,911.265,315.7300509823291
608,1686714831.37,-1.465,-619.141,-16.602,36.621,911.269,313.3899375785051
609,1686714831.38,22.461,27.344,223.633,42.48,911.273,304.80411770203784
610,1686714831.38,-33.203,62.988,75.195,-69.824,911.277,322.8550744435582
611,1686714831.38,-68.848,-548.828,-198.242,-93.75,911.28,320.12954228208713
612,1686714831.39,-23.438,-452.148,-22.949,7.812,911.283,324.04448860454545
613,1686714831.39,25.391,97.656,204.59,60.547,911.287,319.14716648036034
614,1686714831.4,-3.418,-17.578,19.043,-41.016,911.29,308.5888843338705
615,1686714831.4,-63.965,-727.051,-323.73,-121.094,911.294,312.45298802936566
616,1686714831.4,-40.527,-512.207,-45.41,-31.738,911.298,327.1662707283335
617,1686714831.41,31.738,-172.852,121.094,71.289,911.302,320.58889229186065
618,1686714831.41,13.184,-444.336,-61.035,4.883,911.306,314.46647027492446
619,1686714831.41,-63.477,-839.844,-301.758,-109.863,911.31,330.4698121746372
620,1686714831.42,-56.641,-486.328,-0.977,-69.336,911.314,326.9017677961164
621,1686714831.42,11.23,129.395,222.168,53.223,911.318,323.44627513577854
622,1686714831.43,16.113,-85.449,-20.508,39.062,911.322,323.8204132641544
623,1686714831.43,-46.387,-584.961,-142.09,-78.613,911.326,330.2713366551972
624,1686714831.43,-65.918,-279.785,57.129,-83.984,911.341,335.50938051083244
625,1686714831.44,-7.812,109.375,156.25,36.133,911.345,323.09850506330184
626,1686714831.44,16.602,-278.809,-92.773,61.035,911.349,337.64423468059704
627,1686714831.44,-34.18,-780.762,-270.508,-52.246,911.353,341.49332164077634
628,1686714831.45,-66.406,-337.402,36.133,-100.098,911.357,340.80853024885863
629,1686714831.45,-23.926,-169.922,109.863,8.301,911.36,335.60364022097497
630,1686714831.46,14.16,-540.039,-101.074,77.148,911.364,337.3754412064312
631,1686714831.46,-25.391,-667.969,-66.895,-21.973,911.368,345.4100261873761
632,1686714831.46,-74.707,-187.988,117.676,-113.281,911.372,336.1694317585504
633,1686714831.47,-50.781,30.762,119.629,-40.039,911.376,332.4662653266672
634,1686714831.47,4.883,-276.855,-6.836,60.547,911.38,331.9023193262931
635,1686714831.48,-5.859,-310.059,8.301,-6.348,911.384,345.3428187085998
636,1686714831.48,-56.152,-66.406,84.473,-119.141,911.389,340.06408678196607
637,1686714831.48,-53.223,-101.562,26.367,-75.684,911.393,334.4590988435
638,1686714831.48,-2.93,-331.055,-58.594,39.551,911.397,336.39563100753094
639,1686714831.49,10.742,-126.953,39.062,25.391,911.4,348.2909737002758
640,1686714831.49,-49.316,-59.57,20.996,-92.285,911.404,333.1147533922981
641,1686714831.5,-74.707,-476.074,-194.336,-98.145,911.408,346.56627653970435
642,1686714831.5,-29.785,-915.039,-329.59,30.273,911.412,346.5639244650155
643,1686714831.5,5.371,-539.062,13.184,59.082,911.416,344.0181869905541
644,1686714831.51,-24.902,-49.805,157.715,-56.641,911.42,347.4250256169765
645,1686714831.51,-70.801,-286.621,-36.133,-115.234,911.424,341.01104492869837
646,1686714831.52,-44.922,-589.355,-68.848,-18.066,911.428,345.59393536619365
647,1686714831.52,10.742,-386.719,60.059,57.617,911.432,344.10778083880405
648,1686714831.52,-0.977,9.766,116.211,-25.879,911.432,338.1626289231072
649,1686714831.53,-66.406,-292.969,-96.191,-120.605,911.436,351.1561807230991
650,1686714831.53,-74.219,-656.738,-107.422,-64.453,911.44,347.3225953820365
651,1686714831.53,-7.324,-71.777,173.828,52.734,911.444,345.728032338252
652,1686714831.54,7.324,144.043,123.535,17.578,911.447,342.69846707832073
653,1686714831.54,-49.805,-518.555,-212.891,-94.727,911.451,351.195145513139
654,1686714831.55,-65.918,-760.254,-151.367,-62.988,911.455,352.1735757621609
655,1686714831.55,-16.602,-306.152,140.137,62.5,911.459,342.4903766846126
656,1686714831.55,11.23,-98.145,132.324,53.711,911.463,352.4587399666291
657,1686714831.56,-35.156,-531.25,-178.223,-72.266,911.467,354.43132590741834
658,1686714831.56,-69.336,-742.188,-126.953,-103.027,911.471,350.81249787149136
659,1686714831.56,-20.508,-46.875,218.75,12.207,911.475,369.10346086433464
660,1686714831.58,27.344,115.234,121.094,70.801,911.478,354.71370256605627
661,1686714831.59,-13.672,-346.191,-112.793,-41.504,911.482,355.04264139301966
662,1686714831.59,-61.035,-289.551,-12.695,-113.77,911.485,360.56499414527786
663,1686714831.59,-22.949,48.34,141.113,-21.973,911.489,363.6892052642261
664,1686714831.6,18.066,-64.941,33.691,63.965,911.493,351.20456270277805
665,1686714831.6,-9.277,-645.996,-198.242,-5.859,911.497,343.27489166029943
666,1686714831.61,-58.594,-676.758,-160.156,-102.539,911.501,358.8362326684347
667,1686714831.61,-41.504,-133.789,83.008,-47.852,911.505,356.1066062788982
668,1686714831.61,10.742,-99.609,32.227,55.176,911.509,359.3676135389029
669,1686714831.62,-6.836,-758.301,-263.672,22.461,911.513,354.02959292325033
670,1686714831.62,-64.453,-766.602,-168.457,-92.285,911.517,358.3254074386715
671,1686714831.62,-72.754,-532.227,-34.668,-85.449,911.521,362.35066242595394
672,1686714831.63,-18.555,-514.648,-16.113,35.156,911.523,361.7421317209114
673,1686714831.63,3.418,-835.938,-225.098,54.199,911.526,365.56982379550425
674,1686714831.64,-43.945,-524.414,6.348,-78.125,911.53,375.415176845889
675,1686714831.64,-79.59,-72.266,170.898,-119.141,911.534,362.11149067147045
676,1686714831.64,-32.715,-225.098,24.414,6.836,911.538,365.45983474224585
677,1686714831.65,17.09,-451.172,18.066,76.66,911.542,352.763046179356
678,1686714831.65,-11.719,-403.809,40.039,-14.648,911.546,377.02873597444096
679,1686714831.65,-60.059,-123.047,86.426,-108.887,911.55,371.9982611174307
680,1686714831.66,-36.133,-437.988,-91.797,-25.879,911.554,369.39756673882533
681,1686714831.66,21.973,-634.766,-48.828,77.148,911.558,369.5592477998036
682,1686714831.67,10.742,-43.457,176.27,3.418,911.562,359.5139212123215
683,1686714831.67,-40.039,-28.809,52.734,-103.516,911.566,362.696711351604
684,1686714831.67,-40.527,-522.461,-134.766,-55.176,911.567,372.20034115782056
685,1686714831.68,10.742,-357.422,21.484,60.547,911.571,356.9515250407646
686,1686714831.68,12.207,93.262,138.184,22.461,911.575,369.7896482260505
687,1686714831.68,-43.945,-107.422,-47.363,-99.121,911.579,372.6979768999082
688,1686714831.69,-64.941,-803.711,-316.406,-84.473,911.583,368.8045598050101
689,1686714831.69,-19.531,-727.539,-76.172,28.809,911.587,373.3972516112619
690,1686714831.7,13.184,-311.035,97.168,51.27,911.591,368.33631221998587
691,1686714831.7,-22.461,-494.629,-69.336,-59.082,911.595,372.3904688923387
692,1686714831.7,-56.641,-889.16,-288.086,-103.516,911.598,372.9323708985103
693,1686714831.71,-26.367,-378.418,53.711,-1.953,911.602,377.74985303932374
694,1686714831.71,14.648,107.91,252.93,57.129,911.606,380.2926314382068
695,1686714831.72,-14.16,-424.316,-103.027,-28.32,911.61,370.8277944766011
696,1686714831.72,-62.012,-780.273,-199.707,-118.652,911.613,368.0306492753124
697,1686714831.72,-35.156,-214.355,127.93,-52.734,911.617,364.3489105301632
698,1686714831.72,20.996,146.484,162.598,48.828,911.621,378.0583364256419
699,1686714831.73,12.207,-314.941,-78.613,7.324,911.625,369.01829464004106
700,1686714831.73,-43.457,-627.93,-80.078,-95.703,911.629,366.89358096058606
701,1686714831.74,-53.711,-491.211,25.391,-71.289,911.632,364.9638070016286
702,1686714831.74,5.859,-321.289,82.52,37.598,911.636,369.58890298188845
703,1686714831.74,17.09,-477.539,-25.391,26.367,911.64,378.4485565116277
704,1686714831.75,-38.086,-700.684,-58.105,-92.773,911.644,371.93133761921575
705,1686714831.75,-54.688,-160.645,182.129,-107.91,911.648,360.97549650532187
706,1686714831.76,-9.766,103.516,168.945,16.113,911.652,373.5624176809694
707,1686714831.76,19.043,-201.66,-7.812,57.129,911.656,375.1664586380957
708,1686714831.76,-21.484,-236.816,-20.02,-61.523,911.658,366.3547932528428
709,1686714831.77,-60.059,-55.176,76.172,-115.234,911.662,372.6875452933545
710,1686714831.77,-32.227,-59.082,71.777,-8.789,911.665,364.1919442248872
711,1686714831.77,10.254,-210.449,-5.859,54.688,911.669,372.3068404965092
712,1686714831.78,-9.277,-152.344,17.578,-24.902,911.673,369.4791765342791
713,1686714831.78,-55.176,-411.133,-124.512,-103.516,911.677,367.11637384353224
714,1686714831.79,-32.227,-582.52,-119.141,-39.062,911.681,371.6642437882151
715,1686714831.79,11.719,-889.16,-237.793,63.477,911.685,376.6132202398807
716,1686714831.79,4.883,-728.027,-86.426,11.719,911.689,361.07823392627097
717,1686714831.8,-42.48,-78.125,171.875,-102.051,911.693,372.81481324428245
718,1686714831.8,-65.43,-245.605,21.484,-82.031,911.697,365.91166177729366
719,1686714831.8,-9.277,-529.297,-31.25,31.738,911.701,363.41869507474394
720,1686714831.81,20.996,-120.605,113.77,29.297,911.703,374.90882601714156
721,1686714831.81,-29.785,66.406,85.449,-79.102,911.706,364.2498380450491
722,1686714831.82,-53.711,-400.391,-127.441,-86.426,911.71,381.5089044390553
723,1686714831.82,-0.977,-539.062,-41.992,33.691,911.714,370.4006650750933
724,1686714831.82,28.32,-57.617,134.277,74.219,911.718,368.7775218062442
725,1686714831.83,-15.137,-287.109,-75.684,-37.598,911.722,372.49415112946406
726,1686714831.83,-56.641,-749.512,-221.191,-103.516,911.726,371.7861288071146
727,1686714831.83,-32.715,-689.453,-55.664,-9.277,911.73,373.18418298456777
728,1686714831.84,23.438,-239.258,154.297,73.242,911.734,375.6248333671412
729,1686714831.84,-2.441,-86.426,133.789,-16.602,911.738,373.6335470164397
730,1686714831.85,-61.523,-519.531,-118.164,-110.352,911.742,375.02267664651214
731,1686714831.85,-50.781,-457.031,4.883,-51.758,911.746,367.55948493071713
732,1686714831.85,5.859,95.703,198.73,46.875,911.761,376.63056190649803
733,1686714831.86,12.207,15.625,60.547,20.02,911.765,376.63880617674744
734,1686714831.86,-44.922,-449.707,-157.227,-86.914,911.769,371.0877851270937
735,1686714831.86,-62.988,-298.828,-12.207,-79.59,911.773,382.44644683578906
736,1686714831.87,-8.789,75.684,166.016,40.039,911.777,374.25428227212575
737,1686714831.87,16.113,-321.289,-111.816,48.34,911.781,374.9041567876953
738,1686714831.88,-32.227,-900.879,-382.812,-64.453,911.785,373.4293773750649
739,1686714831.88,-63.965,-533.691,-0.488,-102.051,911.789,367.2618817848452
740,1686714831.88,-21.484,45.898,210.449,0.977,911.793,380.04920745047696
741,1686714831.89,22.461,-54.688,27.344,65.43,911.797,377.76267869826074
742,1686714831.89,-12.695,-519.043,-107.91,-30.762,911.8,389.0748988348485
743,1686714831.9,-61.523,-644.531,-107.422,-100.586,911.804,391.3942661818106
744,1686714831.9,-37.109,-480.469,48.828,-20.508,911.806,390.8974395505392
745,1686714831.9,11.23,-435.059,29.297,61.523,911.81,390.3324364080524
746,1686714831.91,1.465,-851.562,-270.508,0.0,911.814,385.35732576627333
747,1686714831.91,-42.969,-531.25,4.395,-105.469,911.818,399.39704091698337
748,1686714831.91,-39.062,2.93,228.027,-67.383,911.822,394.0448722775435
749,1686714831.92,10.742,-395.02,-9.766,58.594,911.826,389.6849408791195
750,1686714831.92,16.113,-658.203,-24.902,53.223,911.83,378.78865075446885
751,1686714831.92,-24.414,-191.895,101.562,-61.035,911.834,389.59689536624666
752,1686714831.93,-44.434,-89.355,72.266,-73.73,911.837,393.5047465428331
753,1686714831.93,-2.441,-312.988,-10.742,36.621,911.841,393.6528430281004
754,1686714831.94,33.203,-143.066,47.852,60.059,911.845,388.1718608009033
755,1686714831.94,-16.113,35.156,90.82,-52.246,911.849,394.30058082561015
756,1686714831.97,-52.246,-155.273,-1.465,-94.238,911.87,393.0490083856841
757,1686714831.98,-10.254,-485.84,-156.25,18.555,911.874,386.7996648556333
758,1686714831.98,30.762,-258.789,20.02,82.52,911.878,395.539190363727
759,1686714831.98,-0.977,53.711,120.117,-12.207,911.882,401.68771748088767
760,1686714831.99,-53.711,-150.879,-21.484,-99.121,911.886,401.38990294443465
761,1686714831.99,-37.598,-811.035,-310.547,-19.531,911.89,409.96946598005377
762,1686714832.0,17.09,-660.645,-34.668,85.938,911.894,403.51910642021977
763,1686714832.0,9.277,-20.996,226.562,15.625,911.898,403.92085109000277
764,1686714832.0,-30.762,-538.086,-132.812,-81.543,911.898,403.37546733990996
765,1686714832.0,-48.828,-285.156,-42.969,-92.285,911.902,414.10045725917286
766,1686714832.01,-72.754,-711.426,-133.301,-101.562,911.902,406.1122105751013
767,1686714832.01,-53.711,-678.711,-113.77,-61.035,911.905,407.08587565036345
768,1686714832.01,-21.484,-158.691,152.832,13.184,911.906,403.16876780689404
769,1686714832.01,0.977,-309.57,88.867,48.828,911.909,402.96570235663825
770,1686714832.02,27.344,125.488,141.602,54.199,911.91,409.52436218411515
771,1686714832.02,19.531,-233.398,69.336,40.527,911.913,409.72932829769053
772,1686714832.02,-22.461,-421.387,-137.207,-62.012,911.914,406.776221687296
773,1686714832.02,-78.125,-874.023,-177.246,-119.141,911.917,408.18105374597246
774,1686714832.03,-41.992,-444.336,127.93,-11.719,911.921,408.4401431445753
775,1686714832.03,10.742,88.379,182.129,63.965,911.925,405.31569810150916
776,1686714832.03,-8.301,-356.934,-103.516,-31.738,911.929,398.99372317622283
777,1686714832.04,-55.664,-510.254,-50.781,-129.883,911.933,403.44155862327017
778,1686714832.04,-39.062,-58.105,136.23,-52.734,911.937,405.5818088467932
779,1686714832.05,10.254,120.605,154.785,49.316,911.941,393.94188708977856
780,1686714832.05,4.395,-527.832,-265.625,3.418,911.943,398.5644897841708
781,1686714832.05,-46.875,-930.664,-319.824,-103.516,911.947,403.0544136625956
782,1686714832.06,-52.734,-227.051,158.203,-87.402,911.951,407.69750629618795
783,1686714832.06,-4.395,1.953,120.117,31.738,911.955,398.18732426729366
784,1686714832.06,11.719,-293.945,-16.113,29.785,911.958,408.67955027228
785,1686714832.07,-30.762,-500.0,-108.887,-79.59,911.962,401.71288130721985
786,1686714832.07,-50.293,-564.941,-74.707,-90.82,911.966,403.33563126015235
787,1686714832.07,-11.23,-437.012,41.016,18.555,911.97,389.4404973547987
788,1686714832.08,16.113,-864.258,-268.555,66.895,911.974,399.0778536707243
789,1686714832.08,-22.461,-756.836,-109.375,-39.062,911.978,404.5491633088096
790,1686714832.09,-65.43,-227.539,174.805,-101.074,911.982,406.29009673957984
791,1686714832.09,-37.109,-487.305,6.348,-2.93,911.986,398.7535335359833
792,1686714832.09,5.859,-885.254,-220.215,76.66,911.988,404.76021902190837
793,1686714832.1,-3.906,-418.945,45.41,-4.883,911.992,399.3078186873996
794,1686714832.1,-42.969,-36.621,157.227,-102.051,911.996,398.85433745708434
795,1686714832.1,-44.922,-295.898,4.395,-47.852,912.0,396.7589278221864
796,1686714832.11,2.441,-219.238,98.633,54.688,912.004,387.8523607927829
797,1686714832.11,7.812,-264.648,28.809,30.273,912.007,401.057396916587
798,1686714832.12,-38.574,-462.402,-64.941,-87.891,912.011,390.70070330625754
799,1686714832.12,-54.199,-623.535,-135.742,-79.59,912.015,393.35231397829193
800,1686714832.12,-3.906,-662.598,-36.133,40.039,912.019,405.70640529538565
801,1686714832.13,28.32,-265.625,126.465,41.992,912.023,401.19612351607356
802,1686714832.13,-13.672,-102.051,76.66,-73.242,912.027,387.070208013062
803,1686714832.14,-53.223,-492.188,-100.586,-94.727,912.031,391.4435531160779
804,1686714832.14,-10.254,-310.059,58.105,20.996,912.032,401.1956044267154
805,1686714832.14,34.18,226.562,186.035,65.43,912.036,394.6048132275034
806,1686714832.14,-4.395,-0.977,14.648,-38.086,912.04,394.43366970940366
807,1686714832.15,-57.129,-411.133,-127.441,-107.91,912.044,390.9922507489375
808,1686714832.15,-25.391,-161.621,42.48,-22.461,912.048,395.8763057862878
809,1686714832.16,38.086,-106.934,87.891,78.613,912.052,390.1065261294537
810,1686714832.16,19.043,-502.441,-125.0,13.184,912.056,384.882809827198
811,1686714832.16,-46.875,-872.07,-355.957,-86.914,912.06,395.82649838243253
812,1686714832.17,-42.48,-422.852,41.504,-42.969,912.064,401.66738351507195
813,1686714832.17,15.625,210.449,263.672,59.082,912.067,385.06758200470813
814,1686714832.18,18.066,-3.418,-8.301,37.598,912.071,394.57228009534407
815,1686714832.18,-40.527,-647.949,-210.938,-76.66,912.075,393.6627661655118
816,1686714832.18,-60.547,-630.371,-109.375,-83.984,912.081,391.36231487936385
817,1686714832.19,-4.395,0.488,179.688,31.25,912.085,392.29757751562715
818,1686714832.19,24.902,-140.137,-27.344,54.199,912.089,393.8335108079405
819,1686714832.2,-27.344,-805.664,-288.086,-60.059,912.092,390.7373534379576
820,1686714832.2,-65.918,-430.664,25.879,-111.328,912.096,392.15330294884666
821,1686714832.2,-24.902,-187.012,124.023,-5.859,912.1,395.05301128512104
822,1686714832.21,19.043,-513.184,-28.32,65.918,912.104,383.28369074593024
823,1686714832.21,-14.16,-676.27,-41.992,-24.414,912.108,389.29906677645465
824,1686714832.21,-57.617,-210.449,132.324,-117.188,912.112,395.3536954952343
825,1686714832.22,-36.621,4.395,139.16,-46.387,912.116,394.78419591968554
826,1686714832.22,17.578,-200.195,36.133,62.5,912.12,390.38817149316776
827,1686714832.23,6.348,-134.277,67.383,8.789,912.124,383.5823187151768
828,1686714832.23,-55.664,-14.648,81.543,-102.051,912.137,389.5874242691142
829,1686714832.23,-55.664,-114.258,41.992,-71.777,912.141,390.1395585438498
830,1686714832.24,-5.859,-418.945,-66.406,40.039,912.145,383.602481581972
831,1686714832.24,4.883,-249.512,49.316,25.879,912.149,395.03826489742903
832,1686714832.24,-46.387,-49.805,61.035,-86.914,912.153,400.9319614553333
833,1686714832.25,-73.242,-437.988,-137.695,-96.68,912.157,391.331359918571
834,1686714832.25,-33.691,-938.477,-329.102,25.391,912.161,394.72362097616445
835,1686714832.26,0.488,-704.59,-83.008,59.57,912.165,396.6062212408414
836,1686714832.26,-21.484,-93.262,182.617,-52.246,912.169,388.3458099000613
837,1686714832.26,-63.477,-168.457,62.988,-103.027,912.173,382.4782779504924
838,1686714832.27,-33.691,-418.457,-10.742,-0.488,912.176,387.8375492685409
839,1686714832.27,21.484,-393.066,56.641,83.008,912.18,394.5832133121211
840,1686714832.27,3.906,-69.824,134.766,5.371,912.182,390.2698073763547
841,1686714832.28,-57.129,-291.504,-48.34,-84.961,912.186,396.5168460686555
842,1686714832.28,-56.641,-681.641,-89.844,-27.832,912.19,379.99974004454407
843,1686714832.28,0.977,-89.844,170.41,78.125,912.194,381.16743163795894
844,1686714832.29,4.395,134.766,125.977,27.344,912.198,387.70145297984527
845,1686714832.29,-52.246,-453.125,-148.438,-95.215,912.202,381.2195552772447
846,1686714832.3,-68.848,-839.844,-152.344,-78.125,912.206,375.103151062
847,1686714832.3,-14.16,-347.656,154.785,38.086,912.21,380.0267699294546
848,1686714832.3,14.16,100.098,181.641,36.621,912.214,375.2663475731959
849,1686714832.31,-41.504,-458.984,-159.18,-90.332,912.217,385.88936309559176
850,1686714832.31,-78.613,-695.801,-84.961,-119.629,912.221,371.26972011407474
851,1686714832.32,-34.668,-132.324,226.074,-3.906,912.225,379.312510887641
852,1686714832.33,6.836,61.523,108.887,46.875,912.228,372.53730872774435
853,1686714832.34,-22.949,-356.934,-148.926,-57.617,912.231,369.10845979633734
854,1686714832.34,-77.637,-388.184,-36.621,-125.0,912.235,371.9982456744845
855,1686714832.34,-54.199,-0.977,158.203,-35.156,912.239,362.9817405479266
856,1686714832.35,5.371,21.973,78.613,58.594,912.243,373.2096097012991
857,1686714832.35,-3.906,-630.859,-207.52,-2.441,912.247,362.1441664995431
858,1686714832.36,-62.012,-629.883,-116.699,-104.004,912.251,370.82277091210807
859,1686714832.36,-60.059,-227.051,110.352,-62.988,912.255,361.6540918758034
860,1686714832.36,-7.324,-388.184,16.602,51.27,912.259,361.02105262583996
861,1686714832.37,1.465,-802.246,-245.117,33.691,912.263,365.62861564973286
862,1686714832.37,-50.293,-764.16,-76.66,-85.449,912.267,365.20155057218597
863,1686714832.38,-65.918,-442.871,125.0,-88.379,912.27,363.1605678407722
864,1686714832.38,-14.16,-295.41,69.336,32.227,912.277,355.47180475483214
865,1686714832.38,11.23,-606.934,-42.969,45.41,912.281,369.1423647598265
866,1686714832.38,-37.598,-280.762,93.262,-81.543,912.285,369.26052402346573
867,1686714832.39,-62.5,12.695,115.723,-112.793,912.289,354.9604869092483
868,1686714832.39,-14.16,-228.027,21.973,8.301,912.293,351.0843599559692
869,1686714832.4,14.16,-406.738,49.316,60.547,912.296,364.7850514493038
870,1686714832.4,-24.414,-448.242,11.719,-37.598,912.3,360.71979867380145
871,1686714832.4,-63.965,-206.543,69.336,-108.887,912.304,360.5129541470489
872,1686714832.41,-41.992,-392.578,-37.109,-37.598,912.308,365.6152467853828
873,1686714832.41,5.371,-696.289,-74.707,52.734,912.312,363.81632115444955
874,1686714832.42,-9.277,-394.043,83.008,-15.625,912.316,372.37604963118594
875,1686714832.42,-59.57,-239.746,72.754,-125.977,912.32,364.7143769917962
876,1686714832.42,-51.27,-590.332,-113.77,-75.684,912.318,367.5205946421327
877,1686714832.43,9.766,-361.816,35.645,40.527,912.321,365.28318875705537
878,1686714832.43,14.648,69.336,158.203,10.742,912.325,365.3243165809812
879,1686714832.43,-43.945,-147.949,-1.953,-102.539,912.329,363.1335769036651
880,1686714832.44,-64.941,-469.238,-58.594,-91.309,912.333,360.6945845697602
881,1686714832.44,-19.531,-514.648,-7.324,29.785,912.337,369.63179730168446
882,1686714832.45,17.09,-284.668,79.59,56.641,912.341,362.3040273384975
883,1686714832.45,-22.949,-317.871,-45.898,-65.918,912.345,362.47879650935084
884,1686714832.45,-71.777,-868.164,-341.797,-110.84,912.349,360.9932289901261
885,1686714832.46,-34.18,-399.414,49.805,-6.836,912.353,361.78071919415464
886,1686714832.46,15.625,106.934,248.047,49.805,912.357,368.67981642889583
887,1686714832.46,-16.602,-395.508,-110.352,-38.086,912.36,373.8303042881594
888,1686714832.47,-72.754,-882.812,-270.996,-118.164,912.366,371.2935430659312
889,1686714832.47,-41.016,-554.688,32.227,-42.48,912.37,367.82414008173737
890,1686714832.48,20.508,64.453,201.172,66.895,912.374,366.5224251933976
891,1686714832.48,10.742,-141.113,-10.254,20.996,912.378,367.9679514296753
892,1686714832.48,-40.039,-581.543,-71.777,-87.891,912.382,368.8208188627781
893,1686714832.49,-42.48,-498.047,54.688,-54.688,912.386,368.5715682789716
894,1686714832.49,10.742,-288.574,111.328,62.5,912.39,365.6452507789722
895,1686714832.5,25.879,-437.988,-33.691,53.711,912.394,368.68489268465197
896,1686714832.5,-29.297,-702.148,-81.055,-62.012,912.397,373.50951445991643
897,1686714832.5,-56.641,-226.074,140.137,-79.59,912.401,363.0096966021266
898,1686714832.51,-3.906,73.73,178.711,39.551,912.405,373.36203790956205
899,1686714832.51,25.879,-207.52,-16.113,75.195,912.409,374.56923571359033
900,1686714832.51,-13.672,-206.543,0.488,-45.898,912.408,364.62931975601026
901,1686714832.52,-57.617,-20.02,99.121,-108.398,912.412,362.0553588797206
902,1686714832.52,-21.484,-116.211,23.926,2.441,912.416,368.78507630441504
903,1686714832.52,29.297,-432.617,-89.355,79.59,912.42,377.7750427494473
904,1686714832.53,0.977,-353.516,-18.066,-10.742,912.424,361.90367159155903
905,1686714832.53,-56.152,-430.664,-114.746,-92.285,912.428,366.341272714109
906,1686714832.54,-49.316,-585.449,-116.699,-35.156,912.432,364.9838602900989
907,1686714832.54,7.812,-878.906,-250.488,70.312,912.435,367.45886472933336
908,1686714832.54,5.859,-742.188,-94.238,22.949,912.439,363.0794155392874
909,1686714832.55,-51.27,-114.746,211.426,-105.957,912.443,362.8167463178161
910,1686714832.55,-63.477,-201.66,85.938,-76.66,912.447,379.4159724772422
911,1686714832.56,-4.883,-514.16,-17.578,51.27,912.451,362.8811638907163
912,1686714832.56,16.113,-222.656,92.285,41.992,912.453,370.19673567270667
913,1686714832.56,-37.598,28.809,114.258,-87.402,912.457,370.1407492448641
914,1686714832.56,-70.312,-320.312,-50.781,-103.516,912.461,375.17974274488546
915,1686714832.57,-24.414,-482.91,13.184,20.996,912.464,371.2572340509524
916,1686714832.57,19.043,-61.035,132.812,66.895,912.468,371.2694499531505
917,1686714832.58,-21.484,-304.199,-91.309,-39.062,912.472,369.71537913434724
918,1686714832.58,-67.383,-752.93,-244.141,-96.68,912.476,364.4438110084802
919,1686714832.58,-47.852,-941.406,-257.812,-1.953,912.48,369.64669527002826
920,1686714832.59,3.418,-246.582,126.465,62.5,912.484,374.5477649789244
921,1686714832.59,3.418,96.191,160.645,-5.859,912.488,378.107340096705
922,1686714832.6,-52.734,-437.5,-107.91,-97.168,912.492,374.91382854264396
923,1686714832.6,-51.27,-264.16,43.945,-62.5,912.496,370.5831591806829
924,1686714832.6,2.441,150.391,190.43,41.992,912.511,372.5658985106408
925,1686714832.61,3.906,44.922,58.105,11.719,912.515,369.73362044041403
926,1686714832.61,-41.504,-467.285,-201.172,-90.82,912.519,375.68490609199506
927,1686714832.61,-59.082,-362.305,-26.855,-90.82,912.523,374.5908926009477
928,1686714832.62,-9.277,23.926,168.457,17.578,912.527,371.0093747836098
929,1686714832.62,16.602,-298.34,-52.734,41.992,912.531,372.1915843480657
930,1686714832.63,-31.738,-876.465,-334.961,-62.5,912.535,373.54572247126447
931,1686714832.63,-63.477,-533.203,-16.113,-104.004,912.539,370.51215998093073
932,1686714832.63,-9.766,-133.301,170.41,14.648,912.543,373.00039268105365
933,1686714832.64,35.645,-333.496,6.836,78.125,912.546,379.3170251153984
934,1686714832.64,-12.207,-713.867,-90.82,-39.062,912.55,370.1510472307211
935,1686714832.64,-60.547,-704.102,-18.066,-111.328,912.554,372.3123922660679
936,1686714832.65,-29.297,-138.672,166.992,-19.043,912.557,374.19963841535355
937,1686714832.65,22.461,-136.23,68.359,71.777,912.561,375.2142474733344
938,1686714832.66,5.371,-639.648,-92.285,6.348,912.565,377.10020607400935
939,1686714832.66,-42.48,-307.617,59.082,-100.586,912.569,374.4059705666983
940,1686714832.66,-34.18,12.207,142.578,-49.805,912.572,376.01791398412024
941,1686714832.67,11.719,-416.992,-47.852,70.801,912.576,369.8928286937918
942,1686714832.67,10.742,-714.355,-96.191,39.551,912.58,377.55244406376016
943,1686714832.67,-35.156,-206.055,124.512,-75.195,912.584,380.04109396854255
944,1686714832.68,-51.27,-48.828,103.027,-68.848,912.588,377.16854733886606
945,1686714832.68,-3.906,-305.176,-29.297,45.41,912.592,377.35165389865426
946,1686714832.69,22.949,-271.973,20.996,56.641,912.596,372.9149371053379
947,1686714832.69,-18.066,-303.711,11.719,-63.965,912.6,372.34483116749493
948,1686714832.71,-56.641,-280.762,24.902,-100.586,912.602,371.18144254465017
949,1686714832.71,-28.809,-547.363,-104.98,10.254,912.606,368.29739411976686
950,1686714832.72,18.066,-381.348,32.715,66.406,912.61,379.64317101976513
951,1686714832.72,-6.836,5.371,126.465,-28.809,912.614,375.4787376614055
952,1686714832.72,-60.059,-208.496,-37.598,-109.863,912.618,369.961108873955
953,1686714832.73,-43.457,-678.223,-124.512,-38.086,912.622,376.25595058736326
954,1686714832.73,16.113,-422.363,44.434,56.641,912.626,379.2571458638742
955,1686714832.73,11.23,62.988,164.551,3.418,912.63,381.38706662296426
956,1686714832.74,-51.758,-279.785,-81.543,-99.609,912.634,375.8486417869176
957,1686714832.74,-60.547,-814.941,-314.453,-66.895,912.637,374.6613407240576
958,1686714832.75,5.859,-405.762,29.297,55.664,912.641,380.5312782777666
959,1686714832.75,31.738,-259.277,103.027,50.781,912.645,377.09170612561473
960,1686714832.75,-21.973,-575.684,-124.512,-70.312,912.649,376.0948950928309
961,1686714832.76,-51.27,-836.426,-169.922,-81.055,912.653,371.1391870859234
962,1686714832.76,-7.812,-415.527,131.348,23.926,912.657,364.26640430889086
963,1686714832.76,24.902,139.648,196.777,47.852,912.661,369.2546810052184
964,1686714832.77,-14.16,-246.094,-95.703,-55.176,912.665,376.6318967982337
965,1686714832.77,-59.57,-849.609,-165.039,-100.586,912.668,371.6130807570113
966,1686714832.78,-29.297,-483.887,109.863,-2.93,912.672,375.1947937837244
967,1686714832.78,17.578,132.324,195.312,60.059,912.676,374.9227861765309
968,1686714832.78,-7.812,-337.402,-117.188,-22.461,912.68,374.1482523835457
969,1686714832.79,-62.988,-739.258,-127.93,-107.91,912.684,373.71387463078275
970,1686714832.79,-39.062,-153.809,164.551,-49.805,912.688,362.19025896748724
971,1686714832.8,20.508,87.891,150.391,59.57,912.692,367.9164193738745
972,1686714832.8,7.812,-269.043,-64.453,13.672,912.693,378.8601246212714
973,1686714832.8,-47.363,-288.574,-12.695,-105.469,912.697,383.0904913363828
974,1686714832.81,-59.57,-50.293,109.863,-84.961,912.701,372.8296634651463
975,1686714832.81,-20.508,-58.105,57.129,32.227,912.705,372.74140284829275
976,1686714832.81,-1.953,-514.648,-146.484,41.504,912.709,365.5804230987185
977,1686714832.82,-46.387,-725.098,-228.027,-74.219,912.713,374.1264726174306
978,1686714832.82,-72.266,-434.57,-14.16,-106.934,912.717,368.8687704853583
979,1686714832.82,-18.066,-187.012,80.566,1.465,912.721,373.7424866207165
980,1686714832.83,20.508,-791.992,-267.09,49.805,912.724,361.9741967357253
981,1686714832.83,-22.949,-639.16,-40.527,-55.664,912.728,378.9258462741161
982,1686714832.84,-64.941,-177.246,142.09,-120.605,912.732,375.7230385293321
983,1686714832.84,-45.898,-560.547,-62.5,-21.973,912.736,374.2628618366483
984,1686714832.84,-6.836,-756.348,-70.801,63.477,912.738,387.65725473716276
985,1686714832.85,-18.066,-258.789,102.051,-24.414,912.742,372.50217600913044
986,1686714832.85,-69.336,-71.777,84.473,-124.023,912.745,376.2383918561289
987,1686714832.85,-52.246,-272.949,17.578,-57.617,912.749,372.8623641176333
988,1686714832.86,12.207,-188.477,109.863,52.246,912.753,380.1636939673385
989,1686714832.86,10.254,-285.645,18.066,9.277,912.757,366.32639962544835
990,1686714832.87,-45.898,-463.379,-28.809,-103.027,912.761,382.69874030954287
991,1686714832.87,-63.477,-604.004,-100.098,-86.426,912.765,374.72953124828683
992,1686714832.87,-27.344,-937.5,-265.625,39.062,912.769,375.18139235366186
993,1686714832.88,-4.883,-276.367,94.238,48.34,912.773,376.06385004674934
994,1686714832.88,-42.969,69.336,162.598,-76.172,912.777,367.79448859367017
995,1686714832.88,-76.172,-445.801,-103.516,-113.281,912.781,367.13807095966865
996,1686714832.89,-27.832,-167.969,68.359,0.488,912.783,375.6532426590925
997,1686714832.89,20.508,234.375,187.5,50.781,912.787,375.25872313728155
998,1686714832.9,-16.113,-35.645,19.531,-45.41,912.79,384.28935122808645
999,1686714832.9,-61.523,-490.234,-160.645,-103.027,912.794,381.04481975665476
1000,1686714832.9,-28.809,-269.531,17.09,-12.207,912.798,379.46797186107085
1001,1686714832.91,16.113,-167.48,59.57,81.055,912.802,374.35286996435633
1002,1686714832.91,-3.418,-496.582,-136.23,5.371,912.806,371.58020734585364
1003,1686714832.92,-52.246,-858.398,-332.52,-102.051,912.81,375.04281390811497
1004,1686714832.92,-44.922,-494.141,-23.438,-53.711,912.814,376.8472847291439
1005,1686714832.92,8.789,-130.371,113.281,45.898,912.818,366.71269263288156
1006,1686714832.93,17.09,-426.27,-76.66,17.578,912.822,378.21011631751475
1007,1686714832.93,-38.086,-693.359,-78.125,-89.844,912.826,373.6591642405288
1008,1686714832.93,-54.199,-267.578,102.539,-82.031,912.828,366.18962839992827
1009,1686714832.94,-1.465,145.508,173.34,38.574,912.832,373.7413081991171
1010,1686714832.94,20.996,-151.367,-12.207,63.477,912.835,370.4253141174807
1011,1686714832.94,-27.832,-766.602,-256.348,-43.945,912.839,371.20970012271016
1012,1686714832.95,-61.035,-432.617,4.395,-87.402,912.843,375.85950212758917
1013,1686714832.95,-19.531,-219.727,107.422,24.414,912.847,371.79257437440424
1014,1686714832.96,16.113,-581.055,-60.059,91.797,912.851,369.78536031923835
1015,1686714832.96,-14.648,-719.727,-78.125,-7.324,912.855,375.75249988517754
1016,1686714832.96,-59.57,-217.285,133.789,-96.68,912.859,375.1318439057068
1017,1686714832.97,-40.527,28.32,154.785,-20.02,912.863,379.039778417212
1018,1686714832.97,19.043,-148.926,20.02,82.031,912.867,371.7271479805636
1019,1686714832.98,6.836,-204.59,-9.766,18.066,912.871,369.90457245862626
1020,1686714832.98,-48.34,-345.703,-89.355,-83.496,912.879,375.9857753808194
1021,1686714832.98,-43.945,-260.254,-11.23,-39.062,912.882,381.07148374886043
1022,1686714832.99,12.695,-518.066,-126.953,81.055,912.886,368.5293851994435
1023,1686714832.99,23.926,-363.77,-4.883,53.711,912.89,383.34925280881856
1024,1686714833.0,-29.785,-52.246,88.867,-75.195,912.894,373.89481517880125
1025,1686714833.0,-57.129,-464.355,-142.09,-83.496,912.898,369.45399693334923
1026,1686714833.0,-13.184,-875.977,-249.512,34.18,912.902,376.23407067821597
1027,1686714833.01,16.602,-386.719,67.871,56.152,912.906,373.2413205675975
1028,1686714833.01,-22.461,33.203,153.32,-58.105,912.91,373.3599186107888
1029,1686714833.01,-62.012,-252.93,-25.879,-107.91,912.914,380.5033567401297
1030,1686714833.02,-31.738,-459.473,-30.762,-13.672,912.918,373.63637242431844
1031,1686714833.02,-8.789,-114.258,121.582,-12.207,912.932,367.7176545181153
1032,1686714833.02,16.113,-401.855,41.504,66.895,912.922,375.09955995936923
1033,1686714833.03,-62.012,-297.852,-45.898,-103.516,912.936,379.12892446871246
1034,1686714833.03,-47.363,-740.234,-95.703,-38.086,912.94,376.8978754589175
1035,1686714833.03,10.254,-293.457,137.695,64.453,912.944,372.35600792963123
1036,1686714833.04,10.254,83.008,134.277,23.438,912.948,382.4084839056547
1037,1686714833.04,-48.34,-417.969,-145.02,-78.613,912.952,375.5653814165787
1038,1686714833.05,-56.152,-1000.0,-393.066,-48.34,912.956,364.8146733363731
1039,1686714833.05,8.301,-510.742,54.688,57.617,912.96,373.1054152950727
1040,1686714833.05,22.949,120.117,242.676,40.039,912.964,371.46437364265034
1041,1686714833.06,-30.762,-252.441,-68.359,-77.148,912.967,375.2782520070963
1042,1686714833.06,-57.617,-270.508,31.25,-94.727,912.971,372.3019591485378
1043,1686714833.06,-13.184,94.238,183.105,18.066,912.975,390.32200528128806
1044,1686714833.08,22.949,116.211,108.887,58.105,912.978,369.28379195202325
1045,1686714833.09,-24.414,-306.152,-140.625,-50.293,912.982,372.66191390295626
1046,1686714833.09,-69.824,-318.359,-30.273,-108.887,912.986,388.8680940310143
1047,1686714833.1,-33.203,45.898,149.902,-12.207,912.989,380.54011702401294
1048,1686714833.1,20.508,-8.789,34.18,65.918,912.993,371.1690960755562
1049,1686714833.1,-4.395,-585.938,-212.891,-13.672,912.997,379.73345837806306
1050,1686714833.11,-51.27,-740.234,-229.004,-111.816,913.001,375.48900500033784
1051,1686714833.11,-33.691,-312.988,69.336,-44.922,913.005,375.516631462754
1052,1686714833.11,17.578,-125.0,81.543,75.684,913.009,371.41623258082797
1053,1686714833.12,8.301,-745.117,-328.125,41.016,913.013,375.0993523543956
1054,1686714833.12,-38.574,-777.832,-125.977,-79.59,913.017,380.1824470081315
1055,1686714833.13,-43.945,-400.391,135.254,-69.336,913.021,379.70624140448
1056,1686714833.13,1.953,-312.012,64.453,44.922,913.023,381.23486202834636
1057,1686714833.13,12.695,-645.02,-99.121,51.758,913.027,386.5895744636022
1058,1686714833.14,-37.598,-350.098,67.871,-75.684,913.03,375.3575415147253
1059,1686714833.14,-69.824,0.488,155.762,-104.98,913.034,374.72787855268723
1060,1686714833.14,-24.414,-191.406,25.879,22.461,913.038,376.47897118658733
1061,1686714833.15,20.02,-439.941,10.254,73.73,913.042,380.5007548457278
1062,1686714833.15,-17.09,-349.121,49.805,-40.039,913.046,369.2462685732765
1063,1686714833.16,-68.359,-211.426,65.43,-112.793,913.05,385.1530211550114
1064,1686714833.16,-40.039,-566.895,-101.562,-17.09,913.054,369.6308295244438
1065,1686714833.16,5.859,-916.016,-241.211,76.66,913.058,379.33378902487215
1066,1686714833.17,-13.184,-313.965,83.008,-8.789,913.062,379.30627194639965
1067,1686714833.17,-60.547,-154.785,100.586,-116.699,913.066,366.1214482159061
1068,1686714833.17,-56.152,-460.449,-19.531,-65.43,913.068,367.6937950994681
1069,1686714833.18,4.883,-93.75,128.418,53.711,913.072,371.6339466563881
1070,1686714833.18,12.695,164.062,127.441,27.832,913.076,384.4991302454439
1071,1686714833.18,-47.852,-101.562,-3.906,-93.262,913.079,365.8051145082645
1072,1686714833.19,-65.43,-497.07,-134.277,-85.938,913.083,376.6128794636496
1073,1686714833.19,-20.02,-487.793,-38.574,24.902,913.087,373.8533529404863
1074,1686714833.2,-0.977,-291.016,73.73,34.18,913.091,382.5144745998798
1075,1686714833.2,-41.992,-282.227,-10.742,-83.496,913.095,386.20326951008946
1076,1686714833.2,-69.336,-806.152,-313.965,-110.84,913.099,364.7708228604637
1077,1686714833.21,-25.391,-459.961,-23.438,3.418,913.103,372.1365252660342
1078,1686714833.21,20.02,-80.078,155.273,53.223,913.107,375.9676634729144
1079,1686714833.22,-18.066,-475.586,-55.176,-40.527,913.111,379.98416080409896
1080,1686714833.22,-73.242,-895.02,-280.273,-103.516,913.113,370.32090199065647
1081,1686714833.22,-46.387,-418.945,44.922,-32.227,913.117,372.87093118855597
1082,1686714833.22,16.602,107.422,207.52,62.988,913.121,385.7921164775169
1083,1686714833.23,4.883,-163.574,1.953,7.812,913.125,378.269538511357
1084,1686714833.23,-55.176,-366.211,17.578,-107.91,913.128,373.6377777621389
1085,1686714833.24,-54.199,-423.828,28.809,-73.73,913.132,382.4263518853055
1086,1686714833.24,-1.465,-230.957,111.328,47.852,913.136,385.7285915643561
1087,1686714833.24,8.301,-354.492,-38.574,39.062,913.14,370.26542674435376
1088,1686714833.25,-39.551,-711.426,-96.68,-78.613,913.144,376.1106660261855
1089,1686714833.25,-50.781,-156.25,168.457,-93.262,913.148,381.928303196307
1090,1686714833.26,-7.812,110.84,139.648,24.414,913.152,373.9080932093671
1091,1686714833.26,14.648,-169.434,-11.23,58.594,913.156,373.75297760324236
1092,1686714833.26,-21.973,-309.57,-79.102,-53.223,913.172,381.3951868964749
1093,1686714833.27,-60.059,-309.082,-39.551,-109.375,913.176,381.4112773798941
1094,1686714833.27,-23.926,-109.375,90.332,-11.719,913.18,366.2436749777046
1095,1686714833.28,17.578,-440.43,-134.277,65.918,913.184,372.88112844556235
1096,1686714833.28,-8.301,-405.273,-60.547,-23.926,913.187,378.1320234461505
1097,1686714833.28,-61.523,-374.023,-58.594,-116.211,913.191,373.68532144935045
1098,1686714833.29,-48.828,-559.082,-107.422,-52.246,913.195,373.0144510528373
1099,1686714833.29,6.836,-791.016,-151.367,60.059,913.199,375.9547499033565
1100,1686714833.3,6.836,-410.156,46.875,19.043,913.203,378.3790059414338
1101,1686714833.3,-41.992,20.996,158.203,-93.75,913.207,375.02063292657454
1102,1686714833.3,-51.27,-286.133,-11.719,-68.848,913.211,375.68422285440664
1103,1686714833.31,0.488,-511.23,-18.555,45.41,913.215,372.9976671436661
1104,1686714833.31,19.043,-101.562,112.793,27.832,913.203,365.44775558700405
1105,1686714833.31,-26.855,72.266,95.703,-100.098,913.207,379.5485275543811
1106,1686714833.32,-63.477,-347.656,-105.957,-117.676,913.21,374.4758245238541
1107,1686714833.32,-26.855,-643.066,-112.305,3.418,913.214,366.32987736039564
1108,1686714833.32,12.207,-227.539,108.398,42.48,913.218,373.5361462468545
1109,1686714833.33,-19.531,-274.414,-32.227,-59.082,913.222,373.07772998201733
1110,1686714833.33,-71.777,-740.723,-246.582,-106.445,913.226,366.2028166213298
1111,1686714833.33,-53.223,-949.219,-278.32,-10.254,913.23,374.7973956508148
1112,1686714833.34,2.441,-298.828,129.395,61.523,913.234,378.1529357039256
1113,1686714833.34,-6.836,145.508,190.918,-22.949,913.238,375.49621731280547
1114,1686714833.35,-61.523,-509.277,-156.25,-119.141,913.242,374.5284542032445
1115,1686714833.35,-56.641,-599.609,-30.762,-61.523,913.246,379.44430027726634
1116,1686714833.35,-2.441,35.645,193.848,46.875,913.261,376.3756775823269
1117,1686714833.36,5.371,44.922,62.988,18.555,913.265,378.85671376710206
1118,1686714833.36,-44.922,-450.684,-157.227,-91.797,913.269,380.332906735493
1119,1686714833.36,-65.918,-250.977,37.598,-83.984,913.273,376.82155289933115
1120,1686714833.37,-12.207,106.934,184.082,37.109,913.277,376.58050633190464
1121,1686714833.37,10.742,-281.25,-57.617,46.875,913.281,382.88638252227116
1122,1686714833.38,-41.504,-897.461,-397.949,-67.871,913.285,383.25202915692
1123,1686714833.38,-67.871,-770.996,-154.785,-104.492,913.289,367.2601649548584
1124,1686714833.38,-18.555,-35.156,219.727,-0.488,913.293,373.00333728438227
1125,1686714833.39,12.695,23.926,88.867,55.176,913.296,374.19753862807534
1126,1686714833.39,-25.879,-660.156,-189.453,-41.016,913.3,370.82074724626597
1127,1686714833.4,-62.012,-674.316,-107.91,-103.516,913.304,377.4195829289684
1128,1686714833.4,-38.574,-39.551,184.57,-29.297,913.307,383.9069583210994
1129,1686714833.4,9.277,-72.754,40.039,48.828,913.311,371.44077969710645
1130,1686714833.4,-9.277,-680.664,-136.23,-11.719,913.315,372.79865196109387
1131,1686714833.41,-54.688,-393.066,46.387,-103.516,913.319,370.49002560563946
1132,1686714833.41,-35.645,17.578,126.465,-40.039,913.323,376.5028500979282
1133,1686714833.42,0.977,-323.242,-14.648,70.312,913.327,368.06038032367854
1134,1686714833.42,-10.254,-593.75,-37.109,35.645,913.33,386.41571805845314
1135,1686714833.42,-59.57,-208.984,73.73,-80.078,913.334,379.06170146051824
1136,1686714833.43,-62.988,-142.578,57.617,-68.848,913.338,381.314027169101
1137,1686714833.43,-13.672,-527.344,-61.523,49.805,913.342,374.1108921220283
1138,1686714833.44,9.766,-626.953,-34.18,62.988,913.346,381.6555773917934
1139,1686714833.44,-28.809,-125.488,118.652,-56.641,913.35,379.6221399143344
1140,1686714833.46,-74.219,-78.125,56.152,-97.168,913.397,371.09054239171996
1141,1686714833.46,-40.527,-361.816,-26.855,10.742,913.401,363.9035463939318
1142,1686714833.46,16.602,-88.379,87.402,80.566,913.405,374.8976852105904
1143,1686714833.47,-15.137,84.473,109.863,-6.836,913.409,385.9232439707944
1144,1686714833.47,-67.383,-172.852,-29.297,-81.543,913.413,371.98147811061267
1145,1686714833.48,-42.969,-706.055,-193.848,6.348,913.417,372.04401377204584
1146,1686714833.48,10.742,-502.441,7.324,93.262,913.42,383.1990521807909
1147,1686714833.48,4.395,51.758,154.297,19.531,913.424,365.9236780389767
1148,1686714833.49,-57.129,-216.309,-36.621,-83.984,913.428,385.5418281407933
1149,1686714833.49,-75.684,-807.617,-276.367,-41.016,913.432,369.17181577666054
1150,1686714833.5,-16.113,-461.914,-25.391,70.801,913.436,390.6126671072592
1151,1686714833.5,-1.953,-284.18,80.078,44.434,913.44,374.9917423701961
1152,1686714833.5,-60.059,-667.48,-166.504,-80.078,913.404,373.56410127089873
1153,1686714833.51,-81.543,-918.945,-313.477,-82.52,913.408,371.40039490588913
1154,1686714833.51,-36.133,-355.469,110.352,27.832,913.412,377.5850574785339
1155,1686714833.52,1.953,94.727,213.867,51.758,913.416,374.8319379574129
1156,1686714833.52,-30.762,-265.625,-64.941,-56.152,913.42,371.2321505682398
1157,1686714833.52,-69.336,-656.25,-129.395,-98.633,913.424,373.9802819870392
1158,1686714833.53,-27.344,-426.27,53.711,13.184,913.428,368.8206308813189
1159,1686714833.53,29.785,100.586,182.617,92.285,913.431,374.40246575271505
1160,1686714833.54,4.395,-359.375,-108.887,8.301,913.435,370.2651046847481
1161,1686714833.54,-53.223,-735.352,-128.906,-81.543,913.439,375.3732246703611
1162,1686714833.54,-33.691,-102.051,197.754,-22.949,913.443,366.88376954448347
1163,1686714833.55,20.996,135.742,158.203,68.848,913.447,370.4538601998573
1164,1686714833.55,13.184,-368.164,-129.395,24.414,913.446,368.95318042869746
1165,1686714833.55,-43.945,-560.059,-88.379,-84.473,913.45,372.4601043491136
1166,1686714833.56,-45.41,-344.238,55.664,-62.5,913.454,369.44798745287
1167,1686714833.56,16.602,-76.172,103.516,59.082,913.458,382.92357163378557
1168,1686714833.56,35.156,-450.195,-144.531,60.547,913.462,379.7080885174974
1169,1686714833.57,-14.16,-763.184,-254.395,-54.688,913.466,371.0464571392111
1170,1686714833.57,-35.156,-479.492,-6.836,-72.754,913.47,377.84897674395233
1171,1686714833.58,14.648,-125.0,156.25,38.086,913.474,371.81369175070813
1172,1686714833.58,39.062,-781.25,-287.109,81.543,913.478,369.2521133547869
1173,1686714833.58,-7.324,-980.957,-292.48,-34.668,913.481,373.94893496142515
1174,1686714833.59,-40.527,-291.504,165.039,-106.445,913.485,376.23907984112896
1175,1686714833.59,-12.695,-435.547,63.965,0.977,913.489,388.5577492255281
1176,1686714833.59,32.715,-736.816,-74.707,89.844,913.488,366.08617188832125
1177,1686714833.6,14.16,-157.227,147.949,8.301,913.492,378.8184982197798
1178,1686714833.6,-34.668,89.355,135.742,-87.891,913.496,377.4497444622497
1179,1686714833.6,-22.461,-217.285,-0.977,-32.227,913.5,365.31269615963726
1180,1686714833.61,21.484,-349.609,35.156,76.172,913.504,381.7727409012285
1181,1686714833.61,16.602,-368.164,20.508,41.016,913.508,374.5115822480169
1182,1686714833.62,-36.133,-383.789,3.418,-75.195,913.511,379.8071816504031
1183,1686714833.62,-47.852,-530.762,-59.082,-64.941,913.515,375.35404917598305
1184,1686714833.62,5.859,-906.25,-225.098,57.617,913.519,375.45270295565814
1185,1686714833.63,35.645,-243.164,125.488,56.152,913.523,375.8724579934604
1186,1686714833.63,-12.695,139.648,178.711,-67.871,913.527,375.03612146341976
1187,1686714833.64,-45.898,-442.871,-122.07,-88.867,913.531,377.907752032414
1188,1686714833.64,-3.418,-238.281,73.242,16.602,913.533,378.5109318231867
1189,1686714833.64,39.551,186.035,182.617,71.777,913.537,387.15431129402725
1190,1686714833.64,1.953,-24.414,15.625,-19.531,913.541,368.56904853030056
1191,1686714833.65,-54.688,-427.734,-191.406,-98.633,913.545,377.87821803585
1192,1686714833.65,-19.531,-230.469,0.0,-18.555,913.549,368.9452166534987
1193,1686714833.66,37.598,-173.828,84.473,82.031,913.553,380.8593177397972
1194,1686714833.66,11.23,-484.863,-109.375,20.02,913.556,379.64338245492957
1195,1686714833.66,-60.547,-912.598,-371.094,-85.449,913.56,378.2273698633338
1196,1686714833.67,-62.012,-728.516,-89.844,-42.969,913.564,380.1671219740452
1197,1686714833.67,0.977,89.844,270.02,70.801,913.568,383.1544517158148
1198,1686714833.68,14.16,4.395,47.363,43.945,913.572,374.75456905464335
1199,1686714833.68,-32.715,-628.418,-125.0,-75.195,913.576,373.62426393416996
1200,1686714833.68,-55.664,-309.57,86.914,-75.195,913.578,380.95925286506906
1201,1686714833.69,-2.93,212.891,190.43,39.551,913.581,384.3506003774229
1202,1686714833.69,25.391,-60.547,2.93,62.012,913.585,377.51462267925695
1203,1686714833.69,-30.762,-540.039,-75.684,-51.27,913.589,369.61949246930885
1204,1686714833.7,-71.289,-334.473,43.945,-91.309,913.593,369.0322165039359
1205,1686714833.7,-27.832,-199.219,89.355,14.648,913.597,378.3036437087591
1206,1686714833.71,9.277,-446.289,-34.668,73.73,913.601,380.5993625894189
1207,1686714833.71,-25.391,-698.242,-109.863,-19.531,913.605,378.60411996352406
1208,1686714833.71,-68.359,-240.723,99.609,-113.281,913.609,381.48073208415553
1209,1686714833.72,-48.828,-86.426,92.773,-37.598,913.613,372.3203585770262
1210,1686714833.72,7.812,-435.547,-21.973,73.242,913.617,376.91615766264454
1211,1686714833.72,1.953,-353.027,50.293,6.836,913.621,369.70585857992387
1212,1686714833.73,-56.641,-32.227,104.004,-103.027,913.629,381.70014189585646
1213,1686714833.73,-50.781,-82.52,46.875,-52.246,913.633,379.30820877395826
1214,1686714833.74,6.836,-287.109,-5.371,67.871,913.637,376.9948860101478
1215,1686714833.74,15.625,-74.219,81.543,47.363,913.641,368.71003613076914
1216,1686714833.74,-29.297,-7.324,58.105,-66.895,913.645,373.6014724661833
1217,1686714833.75,-55.664,-455.566,-176.758,-82.52,913.649,380.22785967970293
1218,1686714833.75,-19.531,-875.0,-289.062,26.855,913.653,373.6568983025018
1219,1686714833.76,20.996,-437.988,17.09,52.246,913.657,378.53729811587203
1220,1686714833.76,-15.137,9.766,147.461,-59.082,913.661,372.16299766581614
1221,1686714833.76,-58.105,-173.34,22.461,-105.957,913.664,384.82454967157963
1222,1686714833.77,-23.926,-356.934,-15.137,0.977,913.668,378.98204754798223
1223,1686714833.77,18.066,-385.254,37.109,74.219,913.672,385.93637886376837
1224,1686714833.77,-13.184,-418.945,-30.273,-23.926,913.681,379.31175603042846
1225,1686714833.78,-62.988,-581.055,-161.621,-118.652,913.685,379.91073706881303
1226,1686714833.78,-44.434,-617.188,-16.602,-54.199,913.689,373.63233240479417
1227,1686714833.78,21.484,-32.715,189.453,60.059,913.693,378.9541555504853
1228,1686714833.79,12.207,125.0,119.629,12.695,913.697,384.70836451109193
1229,1686714833.79,-57.617,-446.289,-145.02,-97.656,913.701,382.71082188311146
1230,1686714833.8,-62.012,-1000.0,-381.348,-51.27,913.705,381.0964709779205
1231,1686714833.8,-0.488,-545.898,53.223,59.082,913.709,373.814039877601
1232,1686714833.8,8.789,81.543,233.887,46.875,913.713,377.72193343125764
1233,1686714833.81,-42.969,-295.898,-47.363,-70.801,913.717,371.1879625017065
1234,1686714833.81,-61.523,-312.5,40.527,-95.703,913.721,373.52377942125
1235,1686714833.82,-15.137,117.676,186.523,16.602,913.724,371.2499067941549
1236,1686714833.83,18.555,153.809,118.164,54.688,913.728,382.81030341669094
1237,1686714833.84,-13.672,-288.086,-136.23,-46.875,913.732,363.22431518817956
1238,1686714833.84,-58.105,-495.117,-128.906,-103.027,913.736,374.0289678725452
1239,1686714833.84,-40.039,-244.141,97.656,-13.184,913.74,373.4047697041606
1240,1686714833.85,13.672,13.672,113.77,70.801,913.744,373.4881209538724
1241,1686714833.85,-8.789,-705.566,-353.516,-6.836,913.748,377.6590475920053
1242,1686714833.86,-64.453,-873.535,-211.914,-114.746,913.751,381.20588811313195
1243,1686714833.86,-54.688,-94.727,224.121,-66.406,913.755,380.6171572807767
1244,1686714833.86,-13.672,-16.602,86.914,38.086,913.759,375.49455832602354
1245,1686714833.87,-20.508,-571.289,-130.859,2.93,913.763,374.15721174885965
1246,1686714833.87,-70.801,-424.805,-16.113,-116.211,913.767,366.90158094050906
1247,1686714833.88,-72.754,-396.973,-7.324,-98.633,913.771,379.3667181868716
1248,1686714833.88,-15.625,-523.926,-9.766,24.414,913.773,374.80484961189296
1249,1686714833.88,2.441,-587.402,-28.32,30.273,913.777,375.38126215618774
1250,1686714833.88,-43.945,-246.582,76.172,-87.402,913.781,385.70613998868873
1251,1686714833.89,-69.336,-20.508,101.562,-112.305,913.785,366.2418117422457
1252,1686714833.89,-26.367,-304.688,-33.691,3.906,913.789,371.5591230992668
1253,1686714833.9,5.371,-508.301,-56.152,48.828,913.793,374.4494913572525
1254,1686714833.9,-29.297,-525.391,-64.941,-48.828,913.797,370.56673294575427
1255,1686714833.9,-55.664,-470.703,-7.812,-107.91,913.8,381.8501129172722
1256,1686714833.91,-24.414,-553.223,-27.344,-25.879,913.804,372.30838381544913
1257,1686714833.91,1.465,-918.457,-242.676,50.781,913.808,376.1886859559967
1258,1686714833.92,-25.879,-288.574,97.656,-44.922,913.812,380.90972115770677
1259,1686714833.92,-62.5,28.809,160.645,-140.625,913.816,386.8766739256793
1260,1686714833.92,-61.523,-355.469,-28.32,-86.914,913.818,377.7514711931803
1261,1686714833.93,-23.926,-86.426,116.699,11.23,913.822,379.670047940766
1262,1686714833.93,-13.672,126.953,114.258,-26.855,913.825,372.2137559327297
1263,1686714833.93,-74.707,-107.91,-3.906,-153.809,913.829,376.81686515281433
1264,1686714833.94,-104.98,-422.852,-111.328,-145.02,913.833,385.0306773133955
1265,1686714833.94,-30.273,-425.293,-36.133,-25.879,913.837,374.8710975022388
1266,1686714833.95,1.953,-283.203,58.594,-12.207,913.841,378.5402416363377
1267,1686714833.95,-48.34,-260.742,-10.742,-123.535,913.845,378.6143156669948
1268,1686714833.95,-82.52,-889.648,-368.164,-137.695,913.849,376.31412140999623
1269,1686714833.96,-48.828,-699.219,-93.262,-30.273,913.853,375.13531567144844
1270,1686714833.96,0.977,13.672,238.77,19.531,913.857,367.89634113538733
1271,1686714833.96,-28.809,-400.879,-67.871,-68.848,913.861,368.4515096186395
1272,1686714833.97,-82.031,-827.148,-216.797,-144.043,913.863,381.7428910184699
1273,1686714833.97,-55.664,-221.68,121.582,-67.871,913.867,374.3851053618783
1274,1686714833.98,3.418,214.355,203.613,27.832,913.871,377.95609565231103
1275,1686714833.98,-8.789,-70.312,-23.926,-33.203,913.874,370.25579113736717
1276,1686714833.98,-64.453,-308.105,-66.895,-142.09,913.878,371.73604966023856
1277,1686714833.99,-59.57,-397.949,-33.203,-97.168,913.882,370.84171835605514
1278,1686714833.99,-7.324,-316.406,59.57,17.578,913.886,379.3393365574559
1279,1686714833.99,-1.465,-446.289,-68.848,-9.277,913.89,380.76712663112477
1280,1686714834.0,-57.129,-712.402,-106.934,-128.418,913.894,368.56494572545785
1281,1686714834.0,-72.754,-234.863,113.281,-126.953,913.898,378.4491219747145
1282,1686714834.01,-24.414,-96.68,69.824,-1.953,913.902,379.03746513690675
1283,1686714834.01,5.859,-483.887,-42.48,29.785,913.906,369.13641808113084
1284,1686714834.01,-37.598,-425.293,41.016,-87.891,913.908,366.16202289973535
1285,1686714834.02,-72.754,-81.543,125.0,-129.883,913.911,370.3690534068927
1286,1686714834.02,-32.227,-81.543,69.336,-20.508,913.915,381.1083806748781
1287,1686714834.02,11.23,-249.512,-3.418,44.922,913.919,374.2145139566621
1288,1686714834.03,-8.789,-136.719,34.18,-39.062,913.923,375.58840438583434
1289,1686714834.03,-55.176,-333.008,-102.051,-122.07,913.927,373.234310366562
1290,1686714834.04,-39.551,-557.617,-139.648,-46.875,913.931,373.9961487726549
1291,1686714834.04,5.859,-812.988,-203.125,66.895,913.935,376.45901587778127
1292,1686714834.04,9.277,-467.773,14.16,17.09,913.939,375.09502086750445
1293,1686714834.05,-28.809,67.383,179.688,-95.703,913.943,382.2366610420757
1294,1686714834.05,-46.875,-165.527,22.461,-70.312,913.947,372.59444382014055
1295,1686714834.06,3.418,-442.383,-25.879,48.828,913.95,367.5366108069558
