,timestamps,TP9,AF7,AF8,TP10,Secondary Timestamp,emg_signal
0,1686362507.242,-38.086,-674.805,-40.527,-44.922,1584.138,349
1,1686362507.246,-30.762,-205.078,8.301,-15.625,1584.142,349
2,1686362507.25,-0.488,4.883,-1.953,-10.742,1584.146,353
3,1686362507.254,-0.977,-478.516,-57.617,-39.551,1584.149,353
4,1686362507.258,-16.602,-859.375,-35.645,-50.293,1584.153,353
5,1686362507.262,-20.02,-574.219,13.672,-21.973,1584.157,352
6,1686362507.265,-12.207,-367.188,-13.184,-10.742,1584.161,352
7,1686362507.269,-19.043,-633.789,-60.547,-38.574,1584.165,352
8,1686362507.273,-41.992,-812.988,-25.391,-42.48,1584.169,348
9,1686362507.277,-58.105,-121.094,19.531,-19.531,1584.173,348
10,1686362507.281,-52.246,83.008,-40.527,12.695,1584.177,348
11,1686362507.285,-46.875,-160.645,-31.25,9.277,1584.181,348
12,1686362507.286,-60.059,-172.852,-17.09,-47.363,1584.183,348
13,1686362507.29,-62.988,-62.012,-35.645,-56.152,1584.187,346
14,1686362507.294,-47.852,-172.363,-51.27,-5.859,1584.191,346
15,1686362507.298,-21.484,-307.617,-17.09,25.879,1584.194,346
16,1686362507.302,-17.578,-178.223,-21.484,8.301,1584.198,349
17,1686362507.306,-36.621,-444.336,-55.176,-15.137,1584.202,349
18,1686362507.309,-30.762,-583.984,-46.387,-11.719,1584.206,349
19,1686362507.313,-10.742,-834.961,-75.195,6.836,1584.21,349
20,1686362507.317,-16.113,-789.062,-11.23,-11.719,1584.214,353
21,1686362507.321,-36.133,-23.926,12.207,-47.852,1584.218,353
22,1686362507.325,-36.621,-71.777,-55.176,-34.668,1584.222,353
23,1686362507.329,-26.855,-412.109,-54.199,-15.137,1584.226,353
24,1686362507.332,-29.785,-135.254,-18.555,-51.758,1584.228,354
25,1686362507.336,-41.992,239.258,-23.926,-93.75,1584.232,354
26,1686362507.34,-43.457,-228.516,-72.266,-57.129,1584.235,354
27,1686362507.344,-30.762,-598.145,-46.875,-1.953,1584.239,352
28,1686362507.348,-39.551,25.391,-14.648,-5.371,1584.243,352
29,1686362507.352,-60.547,59.57,-64.453,-43.945,1584.247,352
30,1686362507.355,-73.73,-611.816,-73.242,-50.293,1584.251,352
31,1686362507.359,-69.824,-636.719,-17.09,5.371,1584.255,347
32,1686362507.363,-51.27,182.617,7.812,18.555,1584.259,347
33,1686362507.367,-52.246,136.719,-61.523,-27.344,1584.263,347
34,1686362507.371,-70.801,-403.809,-22.461,-41.992,1584.267,347
35,1686362507.375,-68.848,-209.473,24.414,-23.438,1584.271,347
36,1686362507.376,-41.016,362.793,-29.297,-12.695,1584.286,347
37,1686362507.38,-37.109,250.0,-54.688,-40.527,1584.29,347
38,1686362507.384,-54.199,-20.996,-42.969,-50.293,1584.294,350
39,1686362507.388,-48.34,96.191,-35.156,-24.902,1584.298,350
40,1686362507.392,-26.855,293.457,-40.527,-15.137,1584.302,350
41,1686362507.396,-27.344,73.73,-84.961,-35.156,1584.306,350
42,1686362507.399,-43.945,-570.801,-37.598,-73.73,1584.31,350
43,1686362507.403,-41.992,-268.555,24.902,-79.59,1584.314,354
44,1686362507.407,-23.926,435.547,-35.645,-6.836,1584.318,354
45,1686362507.411,-25.879,239.258,-68.848,23.438,1584.321,354
46,1686362507.415,-41.992,17.09,-80.078,-35.156,1584.325,354
47,1686362507.419,-52.734,-30.273,-65.918,-33.203,1584.329,354
48,1686362507.423,-45.898,-70.801,-44.434,20.508,1584.331,354
49,1686362507.427,-32.715,-167.48,-94.727,36.133,1584.335,350
50,1686362507.431,-39.062,-591.797,-60.547,26.367,1584.339,350
51,1686362507.435,-56.152,-77.148,14.648,1.465,1584.343,350
52,1686362507.439,-56.641,505.371,-64.941,0.488,1584.347,350
53,1686362507.443,-50.293,-142.578,-88.379,26.367,1584.351,347
54,1686362507.446,-63.477,-365.234,-46.387,17.09,1584.355,347
55,1686362507.45,-77.637,416.992,-35.156,-18.066,1584.359,347
56,1686362507.454,-66.895,492.188,-71.777,-17.09,1584.362,347
57,1686362507.458,-43.945,135.742,-62.988,-2.93,1584.366,347
58,1686362507.462,-37.109,250.977,-32.715,-26.367,1584.37,347
59,1686362507.466,-49.805,480.469,-43.457,-59.57,1584.374,353
60,1686362507.483,-56.641,334.473,-64.453,-48.34,1584.38,356
61,1686362507.487,-40.039,105.957,-68.848,-27.344,1584.384,356
62,1686362507.491,-29.297,17.09,-41.504,-14.648,1584.388,356
63,1686362507.495,-39.062,223.633,-35.156,-18.555,1584.392,356
64,1686362507.499,-52.734,266.113,-77.637,-3.418,1584.396,356
65,1686362507.503,-48.34,-495.605,-55.664,33.203,1584.4,356
66,1686362507.506,-36.621,-397.949,-5.371,17.578,1584.403,356
67,1686362507.51,-39.062,448.242,-37.598,-21.484,1584.407,352
68,1686362507.514,-40.039,217.285,-82.031,-35.645,1584.411,352
69,1686362507.518,-35.156,-176.758,-51.758,-26.855,1584.415,352
70,1686362507.522,-26.367,199.707,-29.297,-29.785,1584.419,352
71,1686362507.526,-19.043,235.84,-61.523,-32.715,1584.423,350
72,1686362507.526,-21.973,-271.484,-94.238,-55.664,1584.422,350
73,1686362507.53,-27.344,-455.078,-68.848,-72.754,1584.426,350
74,1686362507.534,-13.672,78.613,3.418,-75.684,1584.43,350
75,1686362507.538,-5.371,436.035,-43.945,-116.211,1584.434,352
76,1686362507.542,-31.25,110.352,-49.805,-170.898,1584.437,352
77,1686362507.546,-52.734,-182.617,-29.297,-164.551,1584.441,352
78,1686362507.549,-50.293,-83.496,-38.574,-97.168,1584.445,352
79,1686362507.553,-36.621,302.246,-29.785,-52.246,1584.449,356
80,1686362507.557,-47.852,-111.816,-83.984,-55.176,1584.453,356
81,1686362507.561,-68.848,-798.34,-25.879,-46.387,1584.457,356
82,1686362507.565,-60.059,105.469,24.902,-33.691,1584.461,359
83,1686362507.569,-30.273,522.949,-52.734,-26.367,1584.465,359
84,1686362507.571,-21.484,239.746,-40.039,-33.691,1584.467,359
85,1686362507.575,-41.992,223.145,-27.344,-47.363,1584.471,359
86,1686362507.579,-54.688,317.871,-36.133,-46.387,1584.475,357
87,1686362507.583,-45.41,270.508,-36.621,-33.203,1584.479,357
88,1686362507.587,-38.574,64.941,-59.57,-56.641,1584.483,357
89,1686362507.591,-47.363,-140.625,-38.574,-102.539,1584.487,357
90,1686362507.594,-55.664,-75.195,13.672,-92.285,1584.491,355
91,1686362507.598,-44.434,138.184,-33.691,-41.016,1584.495,355
92,1686362507.602,-32.715,-617.676,-78.125,-22.461,1584.498,355
93,1686362507.606,-42.969,-578.125,-3.906,-68.359,1584.502,356
94,1686362507.61,-62.988,435.547,3.906,-100.098,1584.506,356
95,1686362507.614,-60.547,66.406,-70.312,-51.758,1584.51,356
96,1686362507.617,-43.945,-284.18,-47.363,-22.461,1584.513,360
97,1686362507.621,-33.203,286.133,-3.418,-45.41,1584.517,360
98,1686362507.625,-45.898,439.941,-45.41,-59.57,1584.521,360
99,1686362507.629,-61.035,21.973,-28.809,-42.48,1584.525,360
100,1686362507.633,-41.992,-54.688,-2.93,-14.648,1584.529,360
101,1686362507.637,-30.273,60.059,-39.062,-5.371,1584.532,366
102,1686362507.64,-45.898,-23.926,-47.363,-15.137,1584.536,366
103,1686362507.644,-42.48,-457.52,-62.5,-7.324,1584.54,366
104,1686362507.648,-23.438,-554.199,-19.531,14.16,1584.544,368
105,1686362507.652,-21.484,248.535,-2.93,10.742,1584.548,368
106,1686362507.656,-33.691,180.664,-66.406,5.371,1584.552,368
107,1686362507.66,-52.246,-261.719,-24.414,4.883,1584.556,366
108,1686362507.662,-39.062,-21.973,21.484,4.395,1584.558,366
109,1686362507.666,-19.531,479.004,-33.691,-5.859,1584.562,366
110,1686362507.67,-30.762,275.879,-64.453,-45.898,1584.566,366
111,1686362507.674,-56.641,9.766,-18.066,-64.941,1584.57,366
112,1686362507.678,-45.898,115.234,-19.531,-30.762,1584.574,364
113,1686362507.682,-29.297,20.508,-46.387,9.277,1584.578,364
114,1686362507.685,-41.504,-136.719,-47.852,-5.371,1584.582,364
115,1686362507.689,-54.688,-531.25,-8.301,-22.949,1584.586,365
116,1686362507.693,-48.34,-224.121,49.316,-15.625,1584.59,365
117,1686362507.697,-33.203,471.68,2.93,-0.488,1584.593,365
118,1686362507.701,-35.645,246.582,-48.34,-18.555,1584.597,365
119,1686362507.705,-56.152,-202.637,-51.27,-71.289,1584.601,368
120,1686362507.708,-67.383,-260.254,-20.02,-89.355,1584.605,368
121,1686362507.712,-50.293,115.723,3.906,-86.426,1584.609,368
122,1686362507.716,-35.156,33.203,-55.176,-98.633,1584.613,374
123,1686362507.72,-42.969,-644.043,-26.855,-129.883,1584.617,374
124,1686362507.724,-41.504,-201.172,37.109,-134.766,1584.621,374
125,1686362507.728,-37.109,231.445,-21.973,-71.289,1584.625,380
126,1686362507.731,-27.832,-322.266,-37.598,-26.367,1584.629,380
127,1686362507.735,-41.504,-481.934,0.488,-31.738,1584.633,380
128,1686362507.739,-71.289,179.688,33.691,-13.184,1584.637,380
129,1686362507.743,-55.176,300.293,-12.207,11.719,1584.64,380
130,1686362507.747,-22.949,152.832,-10.254,30.762,1584.644,380
131,1686362507.751,-14.648,246.582,8.301,26.367,1584.648,380
132,1686362507.751,-40.039,355.957,-9.277,-0.977,1584.661,380
133,1686362507.755,-46.387,236.816,-29.297,4.883,1584.665,380
134,1686362507.759,-20.02,-14.648,-19.531,0.488,1584.669,386
135,1686362507.763,-14.16,-45.898,13.672,-26.855,1584.673,386
136,1686362507.767,-35.645,96.68,-0.977,-71.777,1584.677,386
137,1686362507.771,-57.617,-14.16,-29.297,-102.051,1584.681,396
138,1686362507.774,-47.363,-714.844,-32.227,-67.383,1584.685,396
139,1686362507.778,-27.832,-624.023,28.32,-60.547,1584.689,396
140,1686362507.782,-33.691,385.254,37.109,-101.074,1584.693,396
141,1686362507.786,-41.992,227.539,-41.504,-89.844,1584.696,417
142,1686362507.79,-41.504,35.645,-20.02,-55.176,1584.7,417
143,1686362507.794,-29.785,101.074,6.836,-31.25,1584.704,417
144,1686362507.797,-34.668,129.395,17.09,-36.133,1584.707,441
145,1686362507.801,-52.734,-55.664,-38.574,-36.133,1584.711,441
146,1686362507.805,-60.547,-471.191,-26.367,5.859,1584.715,441
147,1686362507.809,-48.34,180.664,63.477,21.484,1584.719,441
148,1686362507.813,-37.598,422.363,-3.906,-13.672,1584.723,466
149,1686362507.817,-49.805,-352.051,-44.434,-51.758,1584.727,466
150,1686362507.82,-51.27,-565.43,17.578,-45.898,1584.73,466
151,1686362507.824,-27.832,46.875,41.016,-13.672,1584.734,466
152,1686362507.828,-23.926,513.672,4.883,-17.578,1584.738,487
153,1686362507.832,-36.621,-200.684,-47.852,-47.363,1584.742,487
154,1686362507.836,-31.738,-640.625,6.348,-34.668,1584.746,487
155,1686362507.84,-24.414,332.52,51.27,-5.859,1584.75,507
156,1686362507.857,-20.02,486.816,-12.695,-16.113,1584.753,525
157,1686362507.861,-31.738,174.805,-9.766,-62.988,1584.756,525
158,1686362507.865,-53.711,158.203,3.906,-77.637,1584.76,525
159,1686362507.869,-59.082,308.105,3.418,-52.734,1584.764,547
160,1686362507.873,-35.156,307.617,-16.113,-32.715,1584.768,547
161,1686362507.877,-15.625,-126.465,-28.32,-43.457,1584.772,547
162,1686362507.88,-35.156,-91.309,9.277,-49.805,1584.776,564
163,1686362507.884,-50.293,331.055,7.324,-15.137,1584.78,564
164,1686362507.888,-29.785,200.684,-41.016,27.344,1584.784,564
165,1686362507.892,-21.973,-564.453,-31.25,10.742,1584.788,564
166,1686362507.896,-40.039,-305.664,40.039,-41.016,1584.792,570
167,1686362507.9,-44.434,298.34,-8.301,-32.715,1584.796,570
168,1686362507.902,-38.574,-77.148,-62.012,3.418,1584.798,570
169,1686362507.906,-39.062,-171.875,-24.902,-7.812,1584.802,570
170,1686362507.91,-52.246,371.582,15.137,-40.527,1584.806,575
171,1686362507.914,-74.219,604.98,-23.926,-41.992,1584.81,575
172,1686362507.918,-78.613,275.879,-26.367,-21.484,1584.813,575
173,1686362507.922,-63.477,9.277,-5.371,8.301,1584.817,576
174,1686362507.925,-61.523,191.895,-8.301,-2.93,1584.821,576
175,1686362507.929,-55.176,519.043,-33.203,-22.461,1584.825,576
176,1686362507.933,-39.551,-89.355,-67.383,20.508,1584.829,576
177,1686362507.937,-42.48,-362.305,-21.484,44.434,1584.833,579
178,1686362507.941,-53.711,406.25,-5.859,-5.371,1584.837,579
179,1686362507.945,-77.637,305.176,-57.617,-54.688,1584.841,579
180,1686362507.962,-97.656,-45.898,-20.508,-32.227,1584.859,569
181,1686362507.966,-86.426,261.719,13.672,25.879,1584.862,569
182,1686362507.97,-75.684,598.633,-27.832,39.062,1584.866,569
183,1686362507.974,-78.613,385.742,-45.41,0.0,1584.87,569
184,1686362507.978,-71.777,251.953,-22.461,-17.578,1584.874,558
185,1686362507.982,-43.457,195.312,-9.277,13.672,1584.878,558
186,1686362507.985,-21.484,322.754,1.465,12.695,1584.882,558
187,1686362507.989,-29.297,414.062,-39.062,-26.855,1584.886,558
188,1686362507.993,-42.48,-246.582,-36.621,-25.879,1584.89,542
189,1686362507.993,-46.387,-142.09,-40.527,-55.664,1584.89,542
190,1686362507.997,-39.551,31.25,39.062,-15.137,1584.894,542
191,1686362507.997,-47.363,210.449,16.113,-34.18,1584.894,542
192,1686362508.001,-27.344,824.707,-14.16,-20.02,1584.898,542
193,1686362508.001,-38.086,598.633,-23.926,-30.273,1584.898,542
194,1686362508.005,-42.969,387.695,-40.527,-60.059,1584.902,528
195,1686362508.005,-27.344,350.586,-88.379,-38.574,1584.902,528
196,1686362508.009,-51.758,93.75,-39.062,-66.406,1584.906,528
197,1686362508.013,-57.129,288.086,-15.137,-37.598,1584.91,528
198,1686362508.016,-40.527,369.629,-28.809,-22.949,1584.914,528
199,1686362508.02,-23.926,253.906,-5.371,-47.852,1584.918,514
200,1686362508.024,-42.48,352.051,29.297,-70.801,1584.922,514
201,1686362508.028,-53.223,690.918,-14.648,-43.945,1584.926,514
202,1686362508.032,-30.762,782.715,-22.461,-12.207,1584.93,504
203,1686362508.036,-23.926,79.102,-46.387,-37.109,1584.933,504
204,1686362508.037,-40.039,-301.27,-7.324,-85.449,1584.933,504
205,1686362508.041,-43.945,625.0,21.973,-108.398,1584.937,504
206,1686362508.045,-35.645,737.305,-30.273,-78.125,1584.941,504
207,1686362508.049,-21.973,450.684,-22.949,-61.523,1584.945,489
208,1686362508.053,-19.043,368.164,-25.879,-79.59,1584.949,489
209,1686362508.057,-44.434,264.648,-30.762,-75.195,1584.953,489
210,1686362508.06,-47.363,425.293,-20.508,-43.945,1584.956,470
211,1686362508.064,-17.578,-138.184,-41.016,-18.555,1584.96,470
212,1686362508.068,-16.113,-157.715,15.137,-37.109,1584.964,470
213,1686362508.072,-40.527,863.77,18.066,-87.402,1584.968,451
214,1686362508.076,-54.688,718.262,-49.316,-81.055,1584.972,451
215,1686362508.08,-48.828,362.793,-51.27,-28.32,1584.976,451
216,1686362508.082,-41.016,541.016,-27.832,-26.367,1584.978,451
217,1686362508.086,-51.27,846.68,-22.461,-66.406,1584.982,451
218,1686362508.09,-53.223,402.344,-70.312,-77.148,1584.986,435
219,1686362508.094,-39.551,-1.465,-25.391,-32.715,1584.99,435
220,1686362508.098,-25.391,584.473,17.09,-12.207,1584.994,435
221,1686362508.102,-36.621,590.332,-41.504,-35.156,1584.998,420
222,1686362508.105,-58.105,-65.918,-59.082,-34.668,1585.001,420
223,1686362508.109,-61.523,-451.66,6.836,-17.09,1585.005,420
224,1686362508.113,-41.992,480.469,60.547,3.906,1585.009,401
225,1686362508.117,-36.621,-980.469,-31.738,-11.719,1585.013,401
226,1686362508.121,-60.547,606.445,-33.203,-59.57,1585.017,401
227,1686362508.125,-62.5,625.977,4.883,-34.18,1585.021,401
228,1686362508.126,-40.527,895.02,-6.836,12.207,1585.036,401
229,1686362508.13,-33.203,787.109,-35.156,-6.836,1585.04,380
230,1686362508.134,-60.547,491.699,-36.133,-64.941,1585.044,380
231,1686362508.138,-79.59,505.859,-11.23,-96.191,1585.047,380
232,1686362508.142,-61.035,636.23,-21.484,-79.102,1585.051,355
233,1686362508.146,-42.969,454.102,-62.012,-58.105,1585.055,355
234,1686362508.149,-41.504,-250.488,-15.625,-69.824,1585.059,355
235,1686362508.153,-67.383,11.719,53.711,-69.336,1585.063,334
236,1686362508.157,-77.637,691.406,2.441,-21.484,1585.067,334
237,1686362508.161,-44.434,378.906,-46.875,-3.906,1585.071,334
238,1686362508.165,-36.133,262.695,-25.391,-35.645,1585.075,334
239,1686362508.169,-50.781,374.023,-6.348,-47.852,1585.079,334
240,1686362508.173,-39.551,559.082,-0.488,-23.438,1585.081,319
241,1686362508.177,-23.926,490.234,-49.805,-17.09,1585.085,319
242,1686362508.181,-18.066,129.883,-56.641,-72.266,1585.089,319
243,1686362508.185,-18.555,595.215,16.602,-109.375,1585.093,310
244,1686362508.189,-20.02,856.445,-34.18,-67.871,1585.097,310
245,1686362508.193,-8.789,179.199,-59.082,-8.301,1585.101,310
246,1686362508.196,-9.766,-77.637,-4.395,15.137,1585.105,310
247,1686362508.2,-32.715,693.359,6.836,-14.16,1585.108,299
248,1686362508.204,-47.852,814.453,-43.457,-23.926,1585.112,299
249,1686362508.208,-37.598,428.711,-30.762,-3.906,1585.116,299
250,1686362508.212,-20.508,517.09,-11.23,6.836,1585.12,285
251,1686362508.216,-27.832,581.055,-30.762,2.93,1585.124,285
252,1686362508.232,-43.945,285.645,-41.992,-3.906,1585.142,272
253,1686362508.236,-41.016,33.203,-9.277,3.906,1585.146,272
254,1686362508.24,-29.297,300.781,23.926,-25.391,1585.15,262
255,1686362508.244,-30.273,763.672,-22.949,-68.848,1585.153,262
256,1686362508.248,-53.711,668.945,-49.316,-83.008,1585.157,262
257,1686362508.252,-54.688,-246.582,-53.711,-50.293,1585.161,258
258,1686362508.255,-19.043,-221.191,8.301,-11.719,1585.165,258
259,1686362508.259,-11.23,893.555,6.348,-31.738,1585.169,258
260,1686362508.263,-26.855,620.117,-61.523,-72.266,1585.173,258
261,1686362508.267,-30.273,267.578,-46.387,-52.734,1585.177,258
262,1686362508.271,-17.09,643.555,-6.348,0.977,1585.181,258
263,1686362508.275,-7.812,637.695,-25.391,2.93,1585.185,258
264,1686362508.278,-29.785,153.32,-82.031,-21.973,1585.175,258
265,1686362508.282,-45.898,-71.289,-56.641,-28.32,1585.179,260
266,1686362508.286,-27.832,274.414,10.254,1.465,1585.183,260
267,1686362508.29,-22.461,714.355,-17.578,16.602,1585.187,260
268,1686362508.294,-36.621,403.32,-55.664,-25.391,1585.191,262
269,1686362508.298,-51.27,-121.582,-37.598,-61.035,1585.195,262
270,1686362508.301,-41.992,293.457,-1.465,-41.504,1585.199,262
271,1686362508.305,-19.043,801.27,-22.461,-17.578,1585.203,265
272,1686362508.309,-15.625,203.613,-76.66,-37.109,1585.207,265
273,1686362508.313,-30.273,-183.594,-27.832,-76.66,1585.211,265
274,1686362508.317,-45.898,613.281,3.906,-86.426,1585.214,265
275,1686362508.321,-27.344,711.426,-59.57,-38.574,1585.218,272
276,1686362508.322,-27.832,202.637,-49.316,-38.086,1585.223,272
277,1686362508.326,-49.805,251.465,-2.441,-72.754,1585.227,272
278,1686362508.33,-52.734,656.738,-31.738,-62.012,1585.23,272
279,1686362508.334,-43.945,561.035,-56.641,-30.762,1585.234,280
280,1686362508.338,-33.691,291.016,-51.27,-49.316,1585.238,280
281,1686362508.342,-41.016,148.926,-48.828,-85.938,1585.242,280
282,1686362508.345,-47.363,87.402,-50.781,-84.961,1585.246,280
283,1686362508.349,-30.762,259.766,-42.969,-65.43,1585.25,280
284,1686362508.353,-13.184,-315.43,-68.359,-43.457,1585.254,282
285,1686362508.357,-20.02,-332.031,-30.762,-64.453,1585.258,282
286,1686362508.361,-40.039,735.352,-6.836,-96.191,1585.262,282
287,1686362508.365,-47.852,382.812,-77.148,-60.547,1585.266,285
288,1686362508.367,-40.039,53.223,-57.129,-28.32,1585.263,285
289,1686362508.371,-28.809,600.586,-22.949,-48.34,1585.267,285
290,1686362508.375,-30.273,516.113,-65.43,-71.777,1585.271,287
291,1686362508.379,-28.809,77.637,-43.457,-62.5,1585.274,287
292,1686362508.383,-24.414,247.07,-21.973,-25.391,1585.278,287
293,1686362508.387,-29.297,357.422,-58.594,-19.531,1585.282,287
294,1686362508.39,-32.715,218.75,-49.805,-60.059,1585.286,287
295,1686362508.394,-43.457,-172.852,-64.941,-97.656,1585.29,293
296,1686362508.398,-38.086,-581.055,-16.113,-104.492,1585.294,293
297,1686362508.402,-11.719,325.684,38.574,-103.516,1585.298,293
298,1686362508.406,-6.836,759.766,-43.945,-100.586,1585.302,309
299,1686362508.41,-23.438,313.965,-41.016,-103.027,1585.306,309
300,1686362508.411,-30.762,351.562,-1.465,-93.262,1585.308,309
301,1686362508.415,-15.137,636.23,-36.621,-58.594,1585.312,309
302,1686362508.419,-20.02,442.383,-75.684,-55.664,1585.316,327
303,1686362508.423,-40.527,171.387,-57.617,-75.195,1585.319,327
304,1686362508.427,-21.973,208.008,-58.105,-71.777,1585.323,327
305,1686362508.431,0.977,128.418,-68.359,-74.707,1585.327,327
306,1686362508.434,-1.953,92.773,-83.008,-92.285,1585.331,343
307,1686362508.438,-1.465,-385.254,-52.734,-65.918,1585.335,343
308,1686362508.442,5.859,-173.34,-12.207,-31.738,1585.339,343
309,1686362508.446,21.484,503.418,-61.523,-19.531,1585.343,351
310,1686362508.45,16.113,165.527,-99.609,-39.062,1585.347,351
311,1686362508.454,-5.859,-268.555,-79.59,-74.219,1585.351,351
312,1686362508.457,-9.277,23.438,-37.598,-67.383,1585.353,357
313,1686362508.461,4.883,555.664,-50.293,-22.461,1585.357,357
314,1686362508.465,12.207,137.207,-96.68,-21.973,1585.361,357
315,1686362508.469,-2.93,-326.66,-68.848,-67.383,1585.365,357
316,1686362508.473,-19.043,150.391,-37.109,-75.195,1585.369,357
317,1686362508.477,-26.367,201.66,-65.918,-37.109,1585.373,364
318,1686362508.48,-20.508,-295.898,-65.918,-4.883,1585.376,364
319,1686362508.484,-33.203,-463.867,-34.668,-19.531,1585.38,364
320,1686362508.488,-52.734,266.113,-19.043,-28.809,1585.384,375
321,1686362508.492,-41.992,443.848,-70.312,3.418,1585.388,375
322,1686362508.496,-12.695,152.344,-46.387,18.066,1585.392,375
323,1686362508.5,-2.93,241.699,-36.133,-2.441,1585.396,385
324,1686362508.505,-8.301,182.129,-54.199,-37.109,1585.403,385
325,1686362508.509,-2.441,-94.238,-52.734,-33.691,1585.407,385
326,1686362508.513,9.766,-224.609,-37.109,12.207,1585.411,385
327,1686362508.517,14.16,61.035,-17.578,-7.812,1585.415,388
328,1686362508.521,-16.602,297.363,-60.547,-70.312,1585.419,388
329,1686362508.525,-31.738,-61.035,-80.078,-49.805,1585.423,388
330,1686362508.528,-23.438,-591.797,-20.508,-11.719,1585.427,385
331,1686362508.532,-12.695,-246.582,26.855,-18.066,1585.431,385
332,1686362508.536,-7.324,435.547,-27.832,-46.875,1585.434,385
333,1686362508.54,-22.461,72.266,-63.477,-59.57,1585.438,385
334,1686362508.544,-20.508,-100.098,-51.27,-36.621,1585.442,379
335,1686362508.547,-7.324,78.613,-23.926,-95.703,1585.457,379
336,1686362508.548,-0.977,4.395,-32.715,-42.48,1585.446,379
337,1686362508.551,-18.555,-81.543,-57.617,-99.121,1585.461,379
338,1686362508.555,-13.672,-366.699,-61.035,-44.922,1585.465,379
339,1686362508.559,-0.488,-90.332,-11.23,-10.254,1585.469,382
340,1686362508.563,7.812,121.094,-20.02,-30.273,1585.473,382
341,1686362508.567,-7.812,-253.418,-57.617,-74.707,1585.477,382
342,1686362508.57,-21.484,-1000.0,-63.965,-67.871,1585.481,384
343,1686362508.574,-11.719,-550.293,13.672,-47.852,1585.485,384
344,1686362508.578,-1.953,304.199,8.789,-78.613,1585.489,384
345,1686362508.582,-17.578,125.977,-27.832,-134.277,1585.492,384
346,1686362508.586,-33.691,185.547,-2.93,-118.652,1585.496,384
347,1686362508.59,-26.855,403.809,-16.113,-52.246,1585.5,384
348,1686362508.607,-12.695,290.039,-37.109,-35.645,1585.503,380
349,1686362508.611,-19.531,-0.488,-21.484,-74.707,1585.507,369
350,1686362508.615,-46.387,17.09,1.465,-114.746,1585.511,369
351,1686362508.619,-40.527,192.383,-10.254,-72.754,1585.514,369
352,1686362508.623,-17.578,79.102,-20.508,-28.809,1585.518,369
353,1686362508.627,-16.113,-294.922,-19.043,-34.18,1585.522,359
354,1686362508.63,-15.625,-375.977,-12.695,-61.523,1585.526,359
355,1686362508.634,-18.066,-107.91,7.324,-64.941,1585.53,359
356,1686362508.638,-7.812,104.004,-23.926,-11.23,1585.534,350
357,1686362508.642,6.836,-571.289,-42.48,20.996,1585.538,350
358,1686362508.646,-6.836,-423.34,42.969,-9.277,1585.542,350
359,1686362508.65,-17.578,168.945,16.602,-24.902,1585.546,341
360,1686362508.652,1.953,-166.016,-48.34,-4.883,1585.548,341
361,1686362508.656,14.16,-289.062,-15.625,-25.391,1585.552,341
362,1686362508.66,12.695,184.57,28.32,-85.449,1585.556,341
363,1686362508.664,20.508,383.789,-19.043,-97.168,1585.56,341
364,1686362508.668,32.715,67.871,-20.508,-68.848,1585.564,329
365,1686362508.672,36.133,-179.688,-9.277,-58.105,1585.567,329
366,1686362508.675,42.48,53.223,1.953,-34.668,1585.571,329
367,1686362508.679,20.996,338.867,0.0,-29.785,1585.575,311
368,1686362508.683,-8.789,-311.523,-49.805,-22.461,1585.579,311
369,1686362508.687,-4.883,-791.016,16.602,-1.953,1585.583,311
370,1686362508.691,-14.648,137.695,64.941,-43.945,1585.587,311
371,1686362508.695,-30.762,445.801,-23.438,-70.312,1585.591,284
372,1686362508.697,-40.527,90.332,-1.953,-41.016,1585.593,284
373,1686362508.701,-38.086,216.309,30.273,18.066,1585.597,284
374,1686362508.705,-24.902,427.734,-7.324,57.129,1585.601,284
375,1686362508.709,-28.809,240.723,-25.879,34.668,1585.605,260
376,1686362508.713,-26.855,-49.316,-20.508,0.977,1585.609,260
377,1686362508.717,-4.883,-178.223,0.488,21.973,1585.613,260
378,1686362508.72,7.324,71.777,26.855,10.254,1585.616,238
379,1686362508.724,8.301,279.297,-27.344,-42.48,1585.62,238
380,1686362508.728,-5.859,-407.715,-28.809,-34.18,1585.624,238
381,1686362508.732,-8.301,-217.285,47.363,15.137,1585.628,238
382,1686362508.736,15.625,494.629,1.465,21.484,1585.632,219
383,1686362508.74,33.203,55.664,-76.66,-1.953,1585.636,219
384,1686362508.742,36.133,-570.312,-34.18,-9.766,1585.638,219
385,1686362508.746,34.18,8.301,60.547,1.953,1585.642,219
386,1686362508.75,47.363,645.02,0.488,28.32,1585.646,200
387,1686362508.754,51.27,208.008,-27.344,22.461,1585.65,200
388,1686362508.758,31.738,-7.812,-5.371,-7.324,1585.654,200
389,1686362508.762,26.367,36.133,-31.738,18.066,1585.657,179
390,1686362508.765,37.109,261.23,-6.348,57.129,1585.661,179
391,1686362508.769,40.527,-25.879,-44.922,48.34,1585.665,179
392,1686362508.773,24.414,-485.84,-17.09,23.926,1585.669,179
393,1686362508.777,20.02,318.359,38.086,22.461,1585.673,158
394,1686362508.781,41.504,507.812,-41.016,44.434,1585.677,158
395,1686362508.785,68.359,222.168,-39.062,39.551,1585.681,158
396,1686362508.788,71.777,269.043,-23.926,-4.395,1585.685,158
397,1686362508.792,47.852,196.289,-38.574,-46.875,1585.689,143
398,1686362508.796,45.41,-32.715,-43.457,-23.926,1585.693,143
399,1686362508.8,63.965,-111.816,-10.742,34.18,1585.697,143
400,1686362508.804,68.848,98.633,-16.602,21.973,1585.7,133
401,1686362508.808,64.941,88.379,-42.48,-19.531,1585.704,133
402,1686362508.811,65.43,10.742,-43.945,-10.742,1585.708,133
403,1686362508.815,82.52,-294.434,-18.555,14.648,1585.712,133
404,1686362508.819,74.707,-83.008,34.18,-1.465,1585.716,129
405,1686362508.823,50.293,567.871,-22.461,-35.645,1585.72,129
406,1686362508.827,47.363,260.254,-58.594,-1.465,1585.724,129
407,1686362508.831,49.805,-74.219,-52.734,51.758,1585.728,126
408,1686362508.861,56.641,162.598,-35.645,59.082,1585.758,121
409,1686362508.865,52.734,503.418,-36.621,52.734,1585.761,121
410,1686362508.869,32.227,58.105,-84.961,43.457,1585.765,121
411,1686362508.873,55.664,-446.289,-63.477,64.941,1585.769,126
412,1686362508.876,47.852,475.098,-53.711,59.082,1585.786,126
413,1686362508.877,93.75,-38.574,-16.113,72.266,1585.773,126
414,1686362508.88,65.43,340.332,-66.895,25.879,1585.789,126
415,1686362508.881,49.316,172.852,-50.293,7.812,1585.777,126
416,1686362508.884,8.301,-223.145,-68.359,-10.254,1585.781,126
417,1686362508.884,43.457,67.871,-45.898,-21.484,1585.793,126
418,1686362508.888,18.066,-694.336,-16.113,49.805,1585.785,136
419,1686362508.888,26.367,158.691,-27.832,-18.555,1585.797,136
420,1686362508.892,39.062,278.809,-62.012,9.766,1585.801,136
421,1686362508.892,24.902,125.0,21.973,67.871,1585.789,136
422,1686362508.896,22.949,648.438,-53.223,28.32,1585.793,136
423,1686362508.896,52.246,-26.855,-75.684,-6.836,1585.805,136
424,1686362508.899,33.203,-360.352,-32.715,-54.688,1585.809,147
425,1686362508.9,13.672,249.023,-47.852,11.23,1585.797,147
426,1686362508.903,1.953,-157.227,-20.996,-66.895,1585.813,147
427,1686362508.904,19.043,267.09,-25.879,41.992,1585.8,147
428,1686362508.907,-3.906,313.477,-32.227,-30.273,1585.817,147
429,1686362508.911,7.324,239.258,-62.5,14.648,1585.821,155
430,1686362508.915,4.395,-139.648,-65.918,17.09,1585.825,155
431,1686362508.919,-18.066,-159.668,-49.805,-25.391,1585.829,155
432,1686362508.922,-22.949,77.637,-35.156,-16.113,1585.832,155
433,1686362508.926,12.207,178.223,-64.941,13.184,1585.836,155
434,1686362508.93,28.809,-742.188,-120.117,-34.18,1585.839,160
435,1686362508.934,8.301,-777.344,-25.391,-100.098,1585.843,160
436,1686362508.938,2.93,362.305,-6.836,-91.309,1585.847,160
437,1686362508.942,20.996,80.078,-77.148,-30.762,1585.851,168
438,1686362508.945,21.973,-251.953,-39.551,-4.883,1585.855,168
439,1686362508.949,0.0,442.871,-16.113,2.441,1585.859,168
440,1686362508.953,0.488,558.594,-50.781,26.367,1585.863,179
441,1686362508.957,14.16,-187.012,-61.523,63.965,1585.867,179
442,1686362508.961,24.902,-269.531,-8.789,45.898,1585.871,179
443,1686362508.965,24.414,490.723,-21.484,-2.93,1585.875,179
444,1686362508.97,18.066,338.379,-68.359,14.648,1585.875,193
445,1686362508.974,35.156,-0.488,-45.898,55.664,1585.879,193
446,1686362508.978,59.57,149.414,-27.344,69.336,1585.883,193
447,1686362508.982,54.688,371.582,-46.875,59.57,1585.887,205
448,1686362508.986,26.855,172.852,-67.871,61.523,1585.891,205
449,1686362508.99,13.184,-324.219,-51.27,84.473,1585.895,205
450,1686362508.993,24.414,-234.375,-18.066,98.145,1585.899,214
451,1686362508.997,28.32,300.781,-27.344,64.453,1585.903,214
452,1686362509.001,9.277,109.375,-77.148,21.973,1585.907,214
453,1686362509.005,-4.883,-472.656,-37.598,26.855,1585.911,214
454,1686362509.009,5.371,-102.539,-5.859,35.156,1585.915,214
455,1686362509.013,14.16,139.648,-51.27,2.93,1585.918,220
456,1686362509.027,2.93,-335.938,-83.984,-44.922,1585.922,230
457,1686362509.031,-16.113,-353.516,-73.73,-63.965,1585.926,230
458,1686362509.035,-10.742,105.469,-29.297,-57.617,1585.93,230
459,1686362509.039,17.09,325.195,-44.434,-55.664,1585.934,244
460,1686362509.043,-1.953,-81.055,-77.148,-88.867,1585.938,244
461,1686362509.047,-56.152,-1000.0,-87.402,-106.445,1585.942,244
462,1686362509.05,-62.988,-573.242,0.0,-63.965,1585.946,244
463,1686362509.054,-22.949,445.312,-22.461,-16.113,1585.95,260
464,1686362509.058,-9.277,102.539,-55.176,-23.438,1585.954,260
465,1686362509.062,-30.273,-78.613,-21.973,-51.27,1585.958,260
466,1686362509.066,-26.855,272.949,-43.945,-27.832,1585.962,275
467,1686362509.07,2.441,208.008,-60.547,2.93,1585.965,275
468,1686362509.071,20.508,-10.254,-55.664,-20.508,1585.968,275
469,1686362509.075,8.301,2.441,-45.898,-60.547,1585.972,275
470,1686362509.079,-5.371,-97.168,-65.918,-47.852,1585.975,287
471,1686362509.083,2.441,-268.066,-52.246,19.043,1585.979,287
472,1686362509.087,2.441,-329.102,-19.531,29.785,1585.983,287
473,1686362509.091,-23.926,-375.0,-41.992,-20.508,1585.987,287
474,1686362509.094,-38.086,-226.074,-41.016,-16.113,1585.991,297
475,1686362509.098,-24.414,-40.527,-56.152,37.598,1585.995,297
476,1686362509.102,-5.371,-477.051,-41.992,62.5,1585.999,297
477,1686362509.106,-8.301,-267.09,19.531,21.484,1586.003,308
478,1686362509.11,-18.555,310.547,-37.598,-13.184,1586.007,308
479,1686362509.114,-11.719,-236.816,-91.309,18.066,1586.011,308
480,1686362509.116,11.23,-468.75,-41.992,37.109,1586.012,308
481,1686362509.12,14.648,100.098,-2.93,-3.906,1586.016,322
482,1686362509.124,4.883,221.191,-49.316,-47.363,1586.02,322
483,1686362509.128,-0.488,-222.168,-39.551,-25.879,1586.024,322
484,1686362509.132,8.301,-325.195,-13.184,7.324,1586.028,322
485,1686362509.136,19.531,-149.902,-34.668,12.207,1586.032,333
486,1686362509.139,0.0,-240.234,-42.48,-12.695,1586.036,333
487,1686362509.143,-18.066,-597.168,-61.523,-28.32,1586.04,333
488,1686362509.147,-13.672,-908.691,-4.395,-7.324,1586.044,338
489,1686362509.151,2.441,-91.309,46.875,-34.668,1586.047,338
490,1686362509.155,10.254,341.309,-31.738,-90.332,1586.051,338
491,1686362509.159,-8.301,-34.18,-30.273,-104.004,1586.055,338
492,1686362509.161,-7.812,-17.09,6.836,-74.707,1586.057,335
493,1686362509.165,17.578,182.617,-19.531,-49.316,1586.061,335
494,1686362509.169,14.16,0.0,-54.688,-76.66,1586.065,335
495,1686362509.173,-6.836,-247.559,-35.156,-113.77,1586.069,335
496,1686362509.177,-8.789,-162.598,-19.531,-90.332,1586.073,328
497,1686362509.181,17.578,-206.055,-37.109,-39.551,1586.077,328
498,1686362509.184,23.438,-340.82,-39.062,-55.664,1586.081,328
499,1686362509.188,-6.348,-784.668,-39.062,-83.496,1586.085,328
500,1686362509.192,-17.578,-612.305,26.367,-44.434,1586.089,324
501,1686362509.196,-8.789,194.336,30.762,4.395,1586.092,324
502,1686362509.2,-3.906,36.621,-48.34,15.137,1586.096,324
503,1686362509.204,-18.066,-510.742,-71.289,-9.277,1586.1,333
504,1686362509.207,-44.434,-360.84,-13.184,-46.875,1586.103,333
505,1686362509.211,-37.109,155.762,10.742,-16.113,1586.107,333
506,1686362509.215,-21.484,-229.492,-57.617,20.508,1586.111,343
507,1686362509.219,-24.902,-633.301,-37.598,-20.02,1586.114,343
508,1686362509.223,-23.926,-233.887,2.93,-36.621,1586.118,343
509,1686362509.227,-26.367,-240.723,-39.062,-11.719,1586.122,343
510,1686362509.23,-23.926,-672.363,-48.828,6.836,1586.126,343
511,1686362509.234,-23.438,-714.355,-12.695,-12.695,1586.13,350
512,1686362509.238,-20.996,-69.336,17.578,-43.945,1586.134,350
513,1686362509.242,-4.883,-14.648,-46.387,-31.738,1586.138,350
514,1686362509.246,9.766,-422.363,-30.762,8.789,1586.142,355
515,1686362509.25,14.648,-306.152,11.719,0.977,1586.146,355
516,1686362509.252,18.066,-28.809,-21.973,-19.531,1586.161,355
517,1686362509.256,-3.906,-221.68,-49.316,-7.812,1586.165,364
518,1686362509.26,-18.066,-499.512,-29.785,12.207,1586.169,364
519,1686362509.264,-2.441,-304.199,-1.465,25.879,1586.173,364
520,1686362509.268,-9.277,-128.418,-46.875,-1.465,1586.177,364
521,1686362509.272,-18.555,-529.297,-75.195,-18.066,1586.181,384
522,1686362509.275,-19.043,-874.512,-26.367,-8.789,1586.185,384
523,1686362509.279,-12.207,-530.273,26.855,-57.617,1586.189,384
524,1686362509.283,-10.742,-36.133,-11.23,-114.746,1586.193,384
525,1686362509.287,-27.344,-331.055,-62.988,-111.328,1586.196,407
526,1686362509.291,-22.461,-541.992,-58.105,-55.664,1586.2,407
527,1686362509.295,9.766,-465.82,-33.203,7.324,1586.204,407
528,1686362509.298,15.625,-581.055,-26.367,-13.184,1586.206,423
529,1686362509.302,-1.465,-721.68,-73.73,-94.727,1586.21,423
530,1686362509.306,-5.859,-925.293,-44.922,-127.441,1586.214,423
531,1686362509.31,9.766,-415.039,50.781,-100.098,1586.217,423
532,1686362509.314,22.461,15.625,-14.16,-63.477,1586.221,432
533,1686362509.318,-6.348,-570.312,-63.477,-59.57,1586.225,432
534,1686362509.321,-20.996,-881.348,-7.324,-65.43,1586.229,432
535,1686362509.325,4.395,-303.711,20.996,-30.762,1586.233,432
536,1686362509.329,7.812,-71.777,-44.922,-17.09,1586.237,436
537,1686362509.333,-7.812,-588.379,-47.852,-52.246,1586.241,436
538,1686362509.337,-24.414,-669.434,17.09,-55.176,1586.245,436
539,1686362509.341,-21.484,-194.824,16.113,-19.043,1586.249,437
540,1686362509.357,-8.789,-248.047,-17.578,-6.836,1586.253,439
541,1686362509.361,-24.902,-493.652,-5.371,-27.832,1586.257,439
542,1686362509.365,-44.434,-479.004,2.93,-57.617,1586.261,439
543,1686362509.369,-36.621,-561.035,-15.625,-61.035,1586.265,438
544,1686362509.373,-16.113,-552.246,-2.441,-54.199,1586.269,438
545,1686362509.377,-13.184,-792.969,-30.762,-74.707,1586.272,438
546,1686362509.38,-29.297,-805.664,18.066,-110.352,1586.276,438
547,1686362509.384,-36.621,-224.609,46.875,-114.258,1586.28,435
548,1686362509.388,-13.672,-282.227,-0.977,-90.82,1586.284,435
549,1686362509.392,10.254,-478.027,-1.953,-92.285,1586.288,435
550,1686362509.396,-8.301,-243.652,19.043,-101.074,1586.292,425
551,1686362509.4,-24.902,-354.004,-0.488,-81.055,1586.296,425
552,1686362509.402,-5.859,-769.043,-23.438,-33.203,1586.297,425
553,1686362509.406,20.508,-705.566,15.137,-2.441,1586.301,425
554,1686362509.41,14.16,-200.684,59.082,-53.711,1586.305,414
555,1686362509.414,-7.812,-52.734,16.113,-83.984,1586.309,414
556,1686362509.418,5.371,-328.125,12.695,-38.086,1586.313,414
557,1686362509.422,22.949,-560.547,22.461,-6.836,1586.317,414
558,1686362509.425,9.277,-500.977,28.809,-19.531,1586.321,405
559,1686362509.429,-14.648,-370.605,37.109,-30.762,1586.325,405
560,1686362509.433,-11.719,-654.785,-14.16,-3.418,1586.329,405
561,1686362509.437,-3.418,-893.555,35.156,9.277,1586.333,402
562,1686362509.441,-25.391,-79.59,101.562,-34.668,1586.336,402
563,1686362509.445,-52.734,253.906,11.719,-89.844,1586.34,402
564,1686362509.447,-54.199,-110.352,23.926,-79.102,1586.343,402
565,1686362509.451,-40.039,3.906,61.523,-43.457,1586.347,398
566,1686362509.455,-24.902,205.566,34.18,-66.895,1586.351,398
567,1686362509.459,-17.578,10.254,11.23,-113.281,1586.355,398
568,1686362509.463,-24.414,-230.957,19.531,-134.766,1586.359,398
569,1686362509.467,-14.648,-340.332,32.715,-130.371,1586.363,389
570,1686362509.47,5.859,-86.914,57.617,-109.863,1586.366,389
571,1686362509.474,-2.93,74.707,26.855,-91.309,1586.37,389
572,1686362509.478,-22.949,-693.359,-1.953,-76.172,1586.374,378
573,1686362509.482,-15.137,-479.004,89.844,-77.637,1586.378,378
574,1686362509.486,11.23,449.707,82.031,-85.938,1586.382,378
575,1686362509.49,14.648,144.043,-6.836,-93.262,1586.386,368
576,1686362509.492,-13.184,-592.285,17.578,-99.609,1586.388,368
577,1686362509.496,-27.344,-116.699,99.609,-100.098,1586.392,368
578,1686362509.5,-21.484,533.203,56.152,-98.145,1586.396,368
579,1686362509.504,-24.902,230.957,26.855,-98.633,1586.4,368
580,1686362509.508,-43.457,80.078,36.621,-103.516,1586.404,363
581,1686362509.512,-52.246,11.23,20.02,-83.496,1586.407,363
582,1686362509.515,-27.832,65.918,49.805,-50.293,1586.411,363
583,1686362509.519,-10.742,-155.762,14.16,-57.617,1586.415,361
584,1686362509.523,-27.832,-411.133,23.438,-91.797,1586.419,361
585,1686362509.527,-37.109,337.891,95.703,-111.816,1586.423,361
586,1686362509.531,-28.32,490.723,53.711,-104.492,1586.427,361
587,1686362509.535,-22.949,141.113,58.594,-97.656,1586.431,358
588,1686362509.537,-20.508,268.066,85.449,-121.582,1586.433,358
589,1686362509.541,-29.297,501.465,62.988,-156.25,1586.437,358
590,1686362509.545,-33.203,348.633,43.457,-139.648,1586.441,358
591,1686362509.549,-20.02,149.902,66.895,-91.797,1586.445,351
592,1686362509.553,-17.09,263.672,58.594,-85.449,1586.449,351
593,1686362509.557,-44.922,141.602,31.738,-96.191,1586.452,351
594,1686362509.56,-60.547,23.926,41.992,-71.777,1586.456,342
595,1686362509.564,-42.969,-340.82,52.734,-42.48,1586.46,342
596,1686362509.568,-25.879,-103.027,105.469,-39.062,1586.464,342
597,1686362509.572,-43.457,649.902,82.031,-43.457,1586.468,342
598,1686362509.576,-62.988,423.34,32.227,-28.32,1586.472,334
599,1686362509.58,-46.387,62.5,34.668,3.418,1586.476,334
600,1686362509.583,-28.809,279.785,58.105,8.301,1586.506,334
601,1686362509.587,-35.645,435.059,45.898,-28.809,1586.51,330
602,1686362509.591,-47.363,5.371,1.465,-43.945,1586.513,330
603,1686362509.595,-45.41,-489.746,43.457,-23.438,1586.517,330
604,1686362509.599,-42.48,116.211,120.605,-17.578,1586.521,330
605,1686362509.603,-45.898,534.668,55.176,-57.617,1586.525,327
606,1686362509.606,-51.758,-138.184,0.0,-113.77,1586.529,327
607,1686362509.61,-45.898,-296.875,56.152,-121.094,1586.533,327
608,1686362509.614,-30.273,550.293,119.141,-112.305,1586.537,327
609,1686362509.618,-34.18,800.293,55.176,-115.234,1586.541,322
610,1686362509.622,-55.664,345.215,37.598,-153.809,1586.545,322
611,1686362509.626,-62.012,267.09,62.988,-143.066,1586.549,322
612,1686362509.626,-45.898,564.453,76.66,-72.266,1586.535,322
613,1686362509.63,-42.969,527.344,49.316,-58.105,1586.539,311
614,1686362509.634,-69.824,208.008,40.039,-83.496,1586.543,311
615,1686362509.638,-94.238,222.656,61.035,-91.797,1586.547,311
616,1686362509.642,-78.613,192.871,50.293,-84.473,1586.551,298
617,1686362509.646,-49.316,161.133,46.875,-90.332,1586.555,298
618,1686362509.649,-53.223,-468.262,2.441,-119.629,1586.559,298
619,1686362509.653,-73.73,-520.996,60.059,-153.809,1586.562,298
620,1686362509.657,-72.266,562.988,115.234,-126.953,1586.566,286
621,1686362509.661,-55.664,550.293,38.086,-103.027,1586.57,286
622,1686362509.665,-59.082,154.785,29.785,-122.559,1586.574,286
623,1686362509.669,-79.59,99.121,56.152,-136.23,1586.578,277
624,1686362509.671,-77.148,390.625,69.824,-73.73,1586.582,277
625,1686362509.675,-49.805,387.695,20.508,4.395,1586.586,277
626,1686362509.679,-49.805,-333.496,8.301,-40.527,1586.59,277
627,1686362509.683,-81.543,95.703,103.027,-134.277,1586.593,270
628,1686362509.687,-91.309,724.609,56.152,-153.32,1586.597,270
629,1686362509.691,-73.242,76.172,-11.23,-120.605,1586.601,270
630,1686362509.694,-59.082,-315.918,23.926,-113.77,1586.605,270
631,1686362509.698,-62.988,285.645,86.914,-153.809,1586.609,264
632,1686362509.702,-74.219,711.914,60.547,-139.648,1586.613,264
633,1686362509.706,-68.848,112.305,-5.371,-71.777,1586.617,264
634,1686362509.71,-48.34,-83.984,44.922,-54.688,1586.621,256
635,1686362509.714,-41.016,655.273,90.332,-84.961,1586.625,256
636,1686362509.732,-49.316,596.68,43.457,-102.051,1586.631,250
637,1686362509.736,-44.434,329.102,47.363,-84.473,1586.635,250
638,1686362509.74,-26.367,438.477,69.824,-50.781,1586.639,251
639,1686362509.744,-33.203,577.637,59.082,-61.035,1586.643,251
640,1686362509.748,-49.316,401.367,32.715,-99.609,1586.647,251
641,1686362509.752,-49.316,-32.227,26.855,-96.191,1586.65,256
642,1686362509.755,-36.621,64.453,77.637,-53.711,1586.654,256
643,1686362509.759,-27.832,584.473,82.52,-45.898,1586.658,256
644,1686362509.763,-40.527,439.941,6.836,-67.871,1586.662,256
645,1686362509.767,-50.781,-393.555,24.902,-61.035,1586.666,262
646,1686362509.771,-34.668,-86.914,98.145,-40.039,1586.67,262
647,1686362509.775,-18.066,492.188,52.734,-45.898,1586.674,262
648,1686362509.777,-31.25,125.977,6.348,-98.633,1586.673,262
649,1686362509.781,-52.734,-209.473,25.879,-135.742,1586.677,265
650,1686362509.785,-56.641,274.414,90.332,-106.934,1586.681,265
651,1686362509.789,-49.805,830.078,67.383,-61.523,1586.685,265
652,1686362509.793,-52.734,324.219,2.93,-55.664,1586.689,265
653,1686362509.797,-77.637,-265.137,5.371,-36.133,1586.692,265
654,1686362509.8,-82.031,163.086,72.754,7.324,1586.696,265
655,1686362509.804,-74.219,716.797,71.777,14.16,1586.7,265
656,1686362509.808,-78.613,117.676,-4.883,-0.977,1586.704,265
657,1686362509.812,-89.844,-368.652,31.738,-37.598,1586.708,267
658,1686362509.816,-88.867,440.918,92.285,-54.199,1586.712,267
659,1686362509.82,-71.289,573.73,36.133,-5.859,1586.716,267
660,1686362509.853,-68.359,190.43,49.316,24.902,1586.75,291
661,1686362509.857,-80.078,276.855,70.312,22.949,1586.754,291
662,1686362509.861,-79.59,496.582,55.176,23.926,1586.758,291
663,1686362509.865,-70.312,368.652,36.133,32.227,1586.761,294
664,1686362509.869,-59.57,93.75,33.203,37.598,1586.765,294
665,1686362509.873,-53.711,-51.27,44.922,-10.254,1586.769,294
666,1686362509.876,-61.523,144.531,61.523,-63.965,1586.773,294
667,1686362509.88,-57.617,353.516,38.086,-70.801,1586.777,295
668,1686362509.882,-73.242,-116.211,33.203,-41.016,1586.778,295
669,1686362509.884,-47.852,-303.223,28.809,-54.199,1586.781,295
670,1686362509.886,-67.871,395.02,78.125,-43.457,1586.782,295
671,1686362509.888,-46.387,-180.176,100.098,-63.965,1586.785,295
672,1686362509.89,-68.359,376.465,42.48,-73.242,1586.786,298
673,1686362509.892,-66.895,604.98,74.707,-97.656,1586.789,298
674,1686362509.894,-58.105,-190.918,10.742,-48.34,1586.79,298
675,1686362509.896,-85.938,194.336,8.301,-86.914,1586.793,298
676,1686362509.898,-58.105,-222.656,41.992,-33.691,1586.794,298
677,1686362509.902,-64.453,177.246,68.848,-64.453,1586.797,298
678,1686362509.905,-71.289,175.781,42.48,-97.656,1586.801,306
679,1686362509.909,-80.566,-229.492,15.625,-108.398,1586.805,306
680,1686362509.912,-65.43,17.578,87.402,-23.438,1586.808,306
681,1686362509.913,-61.035,-158.691,53.223,-83.008,1586.809,306
682,1686362509.916,-46.875,456.055,67.871,4.883,1586.812,306
683,1686362509.917,-41.016,560.547,90.332,-41.016,1586.813,306
684,1686362509.92,-51.27,482.91,31.738,-23.438,1586.815,315
685,1686362509.921,-51.758,586.426,22.461,-49.316,1586.817,315
686,1686362509.924,-68.359,-340.332,-6.836,-43.457,1586.819,315
687,1686362509.925,-71.289,-5.371,15.625,-71.777,1586.821,315
688,1686362509.928,-75.195,-684.57,41.992,-21.484,1586.823,315
689,1686362509.932,-63.477,149.902,82.031,24.902,1586.827,320
690,1686362509.935,-53.711,174.316,31.25,28.32,1586.831,320
691,1686362509.939,-65.43,59.57,44.922,-27.344,1586.835,320
692,1686362509.943,-69.336,347.656,52.734,-32.715,1586.839,320
693,1686362509.947,-55.664,540.527,45.898,-19.043,1586.843,321
694,1686362509.951,-39.551,479.004,10.254,-24.414,1586.847,321
695,1686362509.955,-41.992,-508.789,-49.805,-26.855,1586.851,321
696,1686362509.957,-65.43,-794.434,61.523,-65.43,1586.853,321
697,1686362509.961,-63.477,437.012,109.375,-64.453,1586.857,321
698,1686362509.965,-40.527,543.945,20.996,-28.809,1586.861,321
699,1686362509.969,-39.551,355.469,34.18,-35.156,1586.865,321
700,1686362509.973,-57.129,538.086,31.738,-40.039,1586.869,324
701,1686362509.977,-55.664,351.074,10.742,-8.789,1586.872,324
702,1686362509.98,-28.809,-98.633,-10.742,-6.836,1586.876,324
703,1686362509.984,-20.508,-450.684,3.906,-54.199,1586.88,331
704,1686362509.988,-41.016,147.949,69.336,-100.586,1586.884,331
705,1686362509.992,-48.34,613.77,31.738,-73.73,1586.888,331
706,1686362509.996,-38.086,135.742,21.973,-6.836,1586.892,331
707,1686362510.0,-30.273,100.098,64.941,25.391,1586.896,331
708,1686362510.002,-38.086,567.871,41.992,13.184,1586.911,338
709,1686362510.006,-44.922,445.801,15.625,6.348,1586.915,338
710,1686362510.01,-40.527,232.91,30.273,39.551,1586.919,338
711,1686362510.014,-31.738,363.281,45.898,51.758,1586.923,340
712,1686362510.018,-24.414,387.207,16.113,17.09,1586.927,340
713,1686362510.022,-40.527,87.402,-0.488,5.859,1586.93,340
714,1686362510.025,-56.641,-484.375,28.809,48.34,1586.934,338
715,1686362510.029,-50.293,-176.27,89.355,63.965,1586.938,338
716,1686362510.033,-47.363,639.16,50.781,19.531,1586.942,338
717,1686362510.037,-50.293,347.656,2.93,-12.695,1586.946,338
718,1686362510.041,-46.387,-23.438,23.926,-3.418,1586.95,338
719,1686362510.045,-28.32,39.551,43.945,-9.766,1586.954,337
720,1686362510.047,-16.602,386.719,56.152,-38.574,1586.956,337
721,1686362510.051,-34.668,309.082,-18.066,-54.688,1586.96,337
722,1686362510.055,-50.293,-545.898,-5.371,-54.688,1586.964,340
723,1686362510.059,-33.203,-40.527,111.816,-53.711,1586.968,340
724,1686362510.063,-19.043,762.207,42.969,-54.688,1586.972,340
725,1686362510.067,-36.133,52.734,-41.016,-60.059,1586.976,340
726,1686362510.07,-60.059,-287.109,3.418,-65.918,1586.98,346
727,1686362510.074,-44.922,498.047,66.895,-36.133,1586.984,346
728,1686362510.078,-6.348,735.352,19.531,-48.34,1586.988,346
729,1686362510.082,-9.766,288.574,2.441,-98.145,1586.991,346
730,1686362510.086,-31.738,199.707,42.969,-109.863,1586.995,351
731,1686362510.09,-30.273,538.086,38.574,-70.312,1586.999,351
732,1686362510.106,-17.578,470.215,-1.465,-28.809,1587.002,352
733,1686362510.11,-19.043,142.09,12.695,-65.918,1587.006,352
734,1686362510.114,-36.133,219.727,41.504,-103.027,1587.01,349
735,1686362510.118,-41.992,466.309,29.297,-66.406,1587.014,349
736,1686362510.122,-30.273,398.926,-2.93,-21.484,1587.018,349
737,1686362510.126,-30.762,-258.789,3.906,-26.855,1587.022,348
738,1686362510.129,-56.152,-228.027,58.594,-56.152,1587.026,348
739,1686362510.133,-76.66,501.953,48.828,-59.57,1587.03,348
740,1686362510.137,-65.918,453.125,12.207,-35.645,1587.034,352
741,1686362510.141,-45.41,81.543,0.0,-43.457,1587.038,352
742,1686362510.145,-53.223,250.0,29.297,-62.5,1587.041,352
743,1686362510.149,-80.566,313.477,13.672,-40.527,1587.045,352
744,1686362510.151,-85.938,-5.371,-20.02,0.488,1587.048,352
745,1686362510.155,-80.566,-93.262,12.695,38.086,1587.051,358
746,1686362510.159,-89.844,383.789,50.293,13.184,1587.055,358
747,1686362510.163,-103.516,473.145,-0.488,-31.25,1587.059,358
748,1686362510.167,-94.727,-65.43,-29.297,-23.438,1587.063,361
749,1686362510.171,-61.523,-162.598,7.324,17.578,1587.067,361
750,1686362510.174,-41.016,350.098,33.691,6.836,1587.071,361
751,1686362510.178,-36.133,647.461,14.648,-35.156,1587.075,360
752,1686362510.182,-39.062,16.602,-25.879,-16.113,1587.079,360
753,1686362510.186,-33.203,-280.762,4.883,56.641,1587.083,360
754,1686362510.19,-29.297,608.887,55.176,72.754,1587.087,360
755,1686362510.194,-45.898,697.266,-13.184,59.57,1587.09,357
756,1686362510.196,-56.641,295.898,0.0,99.121,1587.092,357
757,1686362510.2,-39.062,395.02,36.621,148.926,1587.096,357
758,1686362510.204,-23.926,635.254,9.766,144.043,1587.1,357
759,1686362510.208,-33.203,493.164,-15.625,98.145,1587.104,357
760,1686362510.212,-51.27,171.875,-16.113,56.152,1587.108,357
761,1686362510.216,-61.035,66.895,-0.488,54.688,1587.112,357
762,1686362510.219,-55.664,105.469,-2.93,86.426,1587.116,357
763,1686362510.223,-62.012,250.977,-12.207,73.242,1587.12,362
764,1686362510.227,-76.66,-429.199,-30.273,43.457,1587.124,362
765,1686362510.231,-68.848,-449.219,25.391,41.992,1587.128,362
766,1686362510.235,-46.387,701.66,43.945,40.527,1587.131,367
767,1686362510.239,-41.992,442.383,-43.945,-10.742,1587.135,367
768,1686362510.242,-54.199,-87.402,-10.254,-71.289,1587.137,367
769,1686362510.246,-61.035,375.977,50.293,-56.152,1587.141,369
770,1686362510.25,-43.945,710.449,0.977,0.0,1587.145,369
771,1686362510.254,-37.109,392.578,-17.578,35.645,1587.149,369
772,1686362510.258,-65.43,268.555,-15.137,22.461,1587.153,369
773,1686362510.262,-88.867,161.133,-37.598,16.113,1587.157,369
774,1686362510.265,-89.844,301.758,-0.488,38.086,1587.161,367
775,1686362510.269,-73.73,127.441,-21.973,16.113,1587.165,367
776,1686362510.273,-83.984,-451.66,-27.832,-44.434,1587.169,367
777,1686362510.277,-109.375,106.445,44.922,-69.824,1587.173,364
778,1686362510.281,-101.562,594.727,-1.465,-42.48,1587.177,364
779,1686362510.285,-83.496,177.734,-3.906,-14.648,1587.18,364
780,1686362510.286,-91.797,97.656,48.34,-35.645,1587.182,364
781,1686362510.29,-112.305,553.711,5.859,-63.477,1587.186,365
782,1686362510.294,-117.188,458.008,-26.855,-41.992,1587.19,365
783,1686362510.298,-96.68,273.438,-13.184,-10.254,1587.194,365
784,1686362510.302,-80.078,357.422,-15.625,-49.805,1587.198,365
785,1686362510.306,-87.891,135.742,-48.34,-98.145,1587.202,370
786,1686362510.309,-97.168,-12.695,-33.203,-63.965,1587.206,370
787,1686362510.313,-90.82,-301.27,11.23,-31.25,1587.21,370
788,1686362510.317,-94.238,-54.199,56.152,-66.406,1587.213,375
789,1686362510.321,-106.934,651.367,13.184,-129.883,1587.217,375
790,1686362510.325,-108.398,340.332,-39.551,-145.02,1587.221,375
791,1686362510.329,-94.727,-31.25,-37.598,-126.465,1587.225,375
792,1686362510.331,-72.266,48.34,-0.977,-110.352,1587.227,375
793,1686362510.335,-59.57,422.363,12.695,-93.262,1587.231,375
794,1686362510.339,-59.57,227.539,-60.547,-90.332,1587.235,375
795,1686362510.343,-56.152,-565.43,-24.902,-81.055,1587.239,375
796,1686362510.347,-46.875,-7.812,62.012,-77.637,1587.243,372
797,1686362510.351,-53.223,481.934,-8.789,-94.727,1587.247,372
798,1686362510.354,-82.52,-112.305,-33.691,-109.375,1587.251,372
799,1686362510.358,-90.332,-336.914,0.977,-91.309,1587.255,370
800,1686362510.362,-65.43,465.82,56.641,-53.223,1587.259,370
801,1686362510.366,-47.363,745.117,3.906,-45.41,1587.263,370
802,1686362510.37,-53.223,328.125,-9.766,-53.711,1587.266,370
803,1686362510.374,-62.5,273.926,26.367,-32.227,1587.27,371
804,1686362510.377,-43.945,469.727,15.625,-4.883,1587.274,371
805,1686362510.381,-22.949,361.328,-14.16,5.371,1587.278,371
806,1686362510.385,-29.785,-127.93,-2.93,-12.207,1587.282,371
807,1686362510.389,-37.109,-19.531,44.434,-24.414,1587.285,376
808,1686362510.393,-35.156,365.723,20.508,22.461,1587.289,376
809,1686362510.397,-16.602,166.016,-14.16,56.152,1587.293,376
810,1686362510.4,-10.742,-456.055,3.906,6.348,1587.297,379
811,1686362510.404,-28.32,-221.68,64.453,-24.414,1587.301,379
812,1686362510.408,-37.109,561.523,51.758,12.695,1587.305,379
813,1686362510.412,-24.414,394.043,13.672,19.531,1587.309,379
814,1686362510.416,-12.207,218.75,6.348,-26.367,1587.313,378
815,1686362510.42,-23.926,126.953,-5.371,-78.613,1587.317,378
816,1686362510.421,-25.879,189.941,41.992,-97.168,1587.332,378
817,1686362510.425,-18.066,176.758,8.301,-75.195,1587.336,378
818,1686362510.429,-20.02,-145.508,-12.695,-71.289,1587.34,373
819,1686362510.433,-37.109,260.254,54.688,-113.281,1587.344,373
820,1686362510.437,-54.199,343.262,21.973,-114.746,1587.347,373
821,1686362510.441,-55.664,-159.18,-34.668,-60.547,1587.351,371
822,1686362510.444,-62.012,-643.066,2.93,-48.34,1587.355,371
823,1686362510.448,-81.055,96.68,94.238,-82.52,1587.359,371
824,1686362510.452,-102.051,692.871,28.809,-79.102,1587.363,371
825,1686362510.456,-99.609,335.449,15.137,-44.434,1587.367,374
826,1686362510.46,-75.195,429.199,46.875,-14.648,1587.371,374
827,1686362510.464,-74.219,649.414,34.18,-8.301,1587.375,374
828,1686362510.481,-84.473,452.148,3.906,-36.621,1587.378,380
829,1686362510.485,-81.543,170.898,22.461,-37.109,1587.381,380
830,1686362510.489,-60.059,208.984,60.547,-3.906,1587.385,380
831,1686362510.493,-38.086,447.266,46.875,-3.906,1587.389,380
832,1686362510.497,-43.945,405.273,11.719,-32.715,1587.393,378
833,1686362510.501,-58.105,-34.18,4.395,-45.898,1587.397,378
834,1686362510.504,-52.734,-23.438,28.32,-44.434,1587.401,378
835,1686362510.508,-48.34,320.312,47.363,-76.172,1587.405,374
836,1686362510.512,-63.477,456.543,16.602,-139.16,1587.409,374
837,1686362510.516,-68.359,-349.121,-13.184,-144.531,1587.413,374
838,1686362510.52,-44.434,-237.305,62.5,-102.539,1587.417,374
839,1686362510.524,-26.367,560.547,41.016,-75.684,1587.42,373
840,1686362510.526,-45.898,209.961,-15.137,-90.332,1587.436,373
841,1686362510.53,-58.594,-59.082,9.277,-122.559,1587.44,373
842,1686362510.534,-49.805,431.152,64.453,-115.234,1587.444,373
843,1686362510.538,-34.18,798.828,18.555,-87.402,1587.448,377
844,1686362510.542,-30.762,405.273,-14.648,-111.328,1587.452,377
845,1686362510.546,-40.039,46.875,1.953,-139.648,1587.456,377
846,1686362510.549,-41.504,245.117,19.531,-112.305,1587.46,381
847,1686362510.553,-20.02,674.316,30.273,-59.082,1587.464,381
848,1686362510.557,-25.391,164.062,-29.297,-33.203,1587.467,381
849,1686362510.561,-66.406,-483.398,-10.742,-66.895,1587.471,381
850,1686362510.565,-75.684,275.879,68.848,-67.383,1587.475,381
851,1686362510.569,-61.035,698.73,12.695,-2.441,1587.479,381
852,1686362510.572,-55.176,297.363,-1.953,20.508,1587.467,381
853,1686362510.576,-57.617,296.387,29.297,-35.156,1587.471,381
854,1686362510.58,-59.082,593.262,21.973,-64.453,1587.475,377
855,1686362510.584,-49.805,548.828,-8.789,-27.832,1587.479,377
856,1686362510.588,-44.434,152.344,-16.113,-12.695,1587.483,377
857,1686362510.592,-54.688,-9.277,3.418,-54.199,1587.487,373
858,1686362510.595,-68.848,288.086,13.672,-82.52,1587.491,373
859,1686362510.599,-71.289,425.293,-8.301,-69.824,1587.495,373
860,1686362510.603,-53.223,130.859,18.066,-60.059,1587.499,373
861,1686362510.607,-42.48,328.125,56.152,-83.008,1587.502,373
862,1686362510.611,-56.641,655.762,6.348,-120.117,1587.506,373
863,1686362510.615,-56.152,360.352,-30.273,-111.328,1587.51,373
864,1686362510.617,-44.922,-557.617,-35.156,-45.898,1587.512,373
865,1686362510.621,-51.27,-218.262,43.457,-51.758,1587.516,377
866,1686362510.625,-65.43,824.707,22.461,-96.68,1587.52,377
867,1686362510.629,-74.707,427.734,-39.062,-94.238,1587.524,377
868,1686362510.633,-62.012,200.684,-21.973,-73.242,1587.528,380
869,1686362510.637,-52.734,315.918,-7.812,-87.402,1587.532,380
870,1686362510.64,-64.453,470.215,4.395,-142.578,1587.536,380
871,1686362510.644,-77.637,145.508,-23.438,-142.578,1587.54,380
872,1686362510.648,-78.613,-288.086,0.977,-106.934,1587.544,379
873,1686362510.652,-55.176,517.578,53.223,-111.328,1587.548,379
874,1686362510.656,-55.664,723.145,-9.277,-122.07,1587.551,379
875,1686362510.66,-82.031,315.918,-18.066,-131.836,1587.555,375
876,1686362510.662,-68.848,346.191,13.184,-116.211,1587.557,375
877,1686362510.666,-42.969,541.992,-3.418,-68.359,1587.561,375
878,1686362510.67,-43.945,395.02,-40.039,-59.082,1587.565,375
879,1686362510.674,-58.594,-75.684,-18.555,-72.754,1587.569,372
880,1686362510.678,-62.012,77.148,16.602,-65.918,1587.573,372
881,1686362510.682,-50.781,295.41,-12.207,-33.203,1587.577,372
882,1686362510.685,-37.109,159.18,-25.879,-49.805,1587.581,372
883,1686362510.689,-52.246,-299.316,-11.23,-110.84,1587.585,374
884,1686362510.693,-74.707,-183.105,39.551,-108.398,1587.588,374
885,1686362510.697,-71.777,585.938,18.066,-52.246,1587.592,374
886,1686362510.701,-60.547,526.855,-24.902,-14.648,1587.596,378
887,1686362510.705,-62.5,64.453,-37.109,-28.809,1587.6,378
888,1686362510.706,-81.055,125.0,10.742,-52.246,1587.602,378
889,1686362510.71,-82.031,574.219,31.738,-53.711,1587.606,378
890,1686362510.714,-73.73,263.672,-38.574,-53.711,1587.61,378
891,1686362510.718,-73.73,-162.109,-25.879,-57.129,1587.614,380
892,1686362510.722,-69.336,198.73,19.531,-50.781,1587.618,380
893,1686362510.726,-63.477,235.352,-19.043,-21.973,1587.622,380
894,1686362510.729,-49.805,-149.902,-35.156,0.977,1587.626,380
895,1686362510.733,-35.156,-625.977,5.859,-28.809,1587.63,378
896,1686362510.737,-44.922,105.957,77.148,-87.402,1587.634,378
897,1686362510.741,-45.41,653.32,15.625,-83.984,1587.638,378
898,1686362510.745,-33.203,319.824,9.277,-26.367,1587.641,374
899,1686362510.749,-30.762,380.859,34.18,-12.695,1587.645,374
900,1686362510.751,-36.621,539.551,26.367,-54.688,1587.661,374
901,1686362510.755,-51.27,346.68,-2.441,-72.266,1587.665,374
902,1686362510.759,-54.688,74.219,6.836,-45.898,1587.669,372
903,1686362510.763,-39.551,234.863,32.227,-54.199,1587.673,372
904,1686362510.767,-36.621,354.98,-2.93,-93.262,1587.677,372
905,1686362510.771,-62.5,43.945,-20.508,-106.934,1587.681,375
906,1686362510.774,-84.473,-506.348,3.418,-90.332,1587.685,375
907,1686362510.778,-69.824,-365.234,48.34,-67.383,1587.689,375
908,1686362510.782,-50.781,268.066,46.387,-91.309,1587.693,375
909,1686362510.786,-48.34,236.328,14.16,-118.164,1587.696,379
910,1686362510.79,-56.641,-49.316,17.09,-91.309,1587.7,379
911,1686362510.794,-44.922,-29.785,35.645,-43.457,1587.704,379
912,1686362510.797,-28.809,292.969,49.316,-54.688,1587.707,379
913,1686362510.801,-43.945,201.66,-4.883,-100.098,1587.711,379
914,1686362510.805,-64.453,-285.156,-18.066,-92.285,1587.714,379
915,1686362510.809,-62.5,219.727,73.73,-71.777,1587.718,379
916,1686362510.813,-44.922,519.043,34.18,-83.984,1587.722,375
917,1686362510.817,-54.688,-184.082,-40.527,-124.512,1587.726,375
918,1686362510.82,-87.402,-384.766,7.324,-137.695,1587.73,375
919,1686362510.824,-92.285,279.297,57.129,-97.656,1587.734,371
920,1686362510.828,-74.219,493.652,16.602,-48.34,1587.738,371
921,1686362510.832,-72.754,-85.938,-13.184,-32.715,1587.742,371
922,1686362510.836,-84.473,-417.48,16.113,-49.316,1587.746,371
923,1686362510.84,-74.219,173.828,52.246,-27.344,1587.75,371
924,1686362510.857,-47.363,403.32,7.324,8.789,1587.753,374
925,1686362510.861,-49.316,-133.301,-6.836,-9.277,1587.756,374
926,1686362510.865,-66.895,-176.758,41.016,-50.781,1587.76,377
927,1686362510.869,-67.383,280.762,28.32,-42.48,1587.764,377
928,1686362510.873,-44.434,234.863,3.418,-10.254,1587.768,377
929,1686362510.877,-19.043,-156.738,3.906,-16.113,1587.772,377
930,1686362510.88,-38.086,-153.809,20.02,-45.898,1587.776,377
931,1686362510.884,-62.988,176.758,15.137,-51.758,1587.78,376
932,1686362510.888,-58.105,84.961,-11.23,-25.879,1587.784,376
933,1686362510.892,-45.41,-358.398,16.602,5.371,1587.788,376
934,1686362510.896,-55.176,-80.566,47.363,-22.949,1587.792,371
935,1686362510.9,-70.312,141.602,-3.418,-55.176,1587.795,371
936,1686362510.902,-57.617,-256.348,-49.805,-28.32,1587.798,371
937,1686362510.906,-43.457,-628.906,-12.207,-7.324,1587.801,371
938,1686362510.91,-49.805,-198.73,75.684,-47.852,1587.805,368
939,1686362510.914,-63.477,440.918,17.09,-95.215,1587.809,368
940,1686362510.918,-69.336,143.555,-22.949,-79.102,1587.813,368
941,1686362510.922,-64.941,-180.176,-2.93,-9.766,1587.817,368
942,1686362510.925,-62.988,115.723,19.043,-19.531,1587.821,368
943,1686362510.929,-75.195,420.41,0.488,-96.68,1587.825,368
944,1686362510.933,-84.473,-216.797,-43.945,-75.684,1587.829,368
945,1686362510.937,-62.988,-592.285,2.441,-17.578,1587.833,372
946,1686362510.941,-46.387,251.465,47.852,-8.301,1587.837,372
947,1686362510.945,-66.406,353.027,-14.16,-22.949,1587.84,372
948,1686362510.946,-71.289,-28.32,0.488,-20.996,1587.842,372
949,1686362510.95,-52.246,70.312,34.18,-2.93,1587.846,372
950,1686362510.954,-40.527,284.668,2.441,-10.254,1587.85,374
951,1686362510.958,-45.41,64.941,-19.531,-35.645,1587.854,374
952,1686362510.962,-52.734,-437.988,-7.812,-27.344,1587.858,374
953,1686362510.966,-43.457,-481.445,22.949,19.043,1587.862,373
954,1686362510.969,-33.203,50.781,42.48,42.969,1587.866,373
955,1686362510.973,-34.668,276.367,-10.742,-0.488,1587.87,373
956,1686362510.977,-40.527,-437.988,-4.395,-40.527,1587.873,368
957,1686362510.981,-32.227,-291.016,71.289,-40.527,1587.877,368
958,1686362510.985,-12.695,497.07,27.832,-16.113,1587.881,368
959,1686362510.989,-13.184,156.25,-31.25,-0.977,1587.885,368
960,1686362510.991,-35.645,-258.301,-1.465,-53.711,1587.887,368
961,1686362510.995,-51.27,174.316,56.152,-97.656,1587.891,365
962,1686362510.999,-43.945,487.305,22.949,-66.406,1587.895,365
963,1686362511.003,-40.527,132.324,-14.648,-34.668,1587.899,365
964,1686362511.007,-53.711,-85.938,-22.949,-71.777,1587.903,367
965,1686362511.011,-68.848,-4.883,2.93,-111.328,1587.907,367
966,1686362511.014,-62.5,5.371,15.625,-82.52,1587.911,367
967,1686362511.018,-35.645,-230.469,-35.156,-48.34,1587.915,371
968,1686362511.022,-23.438,-704.59,-5.859,-76.66,1587.919,371
969,1686362511.026,-37.109,46.875,71.777,-112.793,1587.923,371
970,1686362511.03,-40.527,574.219,14.16,-93.75,1587.927,371
971,1686362511.034,-18.555,302.246,1.465,-87.891,1587.93,372
972,1686362511.036,-14.16,378.906,16.113,-122.07,1587.932,372
973,1686362511.04,-30.273,509.766,0.0,-135.254,1587.936,372
974,1686362511.044,-40.527,316.895,-21.484,-100.098,1587.94,372
975,1686362511.048,-25.879,135.742,-6.836,-77.148,1587.944,370
976,1686362511.052,-11.23,253.906,-5.371,-102.539,1587.947,370
977,1686362511.056,-14.648,98.145,-41.992,-135.254,1587.951,370
978,1686362511.059,-18.066,32.227,-28.809,-110.352,1587.955,370
979,1686362511.063,-12.695,-290.039,5.859,-59.57,1587.959,366
980,1686362511.067,-18.555,-219.238,38.574,-61.523,1587.963,366
981,1686362511.071,-46.875,460.938,23.438,-93.262,1587.967,366
982,1686362511.075,-64.453,452.148,-18.555,-91.309,1587.971,365
983,1686362511.079,-55.664,-17.09,-23.438,-60.547,1587.975,365
984,1686362511.081,-46.875,206.055,25.879,-20.996,1587.977,365
985,1686362511.085,-54.199,713.379,7.812,-7.324,1587.981,365
986,1686362511.089,-76.66,324.707,-57.129,-52.734,1587.985,368
987,1686362511.093,-76.66,-146.973,-29.297,-77.637,1587.989,368
988,1686362511.097,-52.246,358.887,26.367,-60.547,1587.993,368
989,1686362511.101,-47.363,450.684,-32.227,-70.801,1587.996,368
990,1686362511.104,-68.359,-124.512,-52.246,-106.445,1588.0,372
991,1686362511.108,-71.777,-272.461,-16.602,-117.188,1588.004,372
992,1686362511.112,-48.34,415.527,36.133,-92.285,1588.008,372
993,1686362511.116,-31.738,722.168,-0.977,-72.754,1588.012,372
994,1686362511.12,-42.48,428.711,-30.762,-96.68,1588.016,372
995,1686362511.124,-52.246,181.641,-18.555,-79.59,1588.02,372
996,1686362511.126,-39.551,437.988,8.301,-0.488,1588.04,372
997,1686362511.13,-23.438,648.438,-12.207,34.668,1588.044,368
998,1686362511.134,-31.25,128.906,-32.715,9.277,1588.048,368
999,1686362511.138,-52.734,113.77,9.766,-12.695,1588.052,368
1000,1686362511.142,-58.105,474.609,-10.742,3.906,1588.055,368
1001,1686362511.146,-51.758,330.078,-39.062,28.32,1588.059,364
1002,1686362511.149,-54.688,-268.066,-16.602,0.977,1588.063,364
1003,1686362511.153,-69.336,-105.469,26.367,-35.156,1588.067,364
1004,1686362511.157,-75.684,660.645,16.113,-33.691,1588.071,364
1005,1686362511.161,-46.387,509.277,-22.949,-36.133,1588.075,364
1006,1686362511.165,-16.602,381.836,-25.391,-93.75,1588.079,364
1007,1686362511.169,-28.809,309.082,-23.926,-173.828,1588.083,367
1008,1686362511.173,-53.711,332.031,0.977,-198.73,1588.082,367
1009,1686362511.177,-45.41,329.59,-28.32,-164.551,1588.086,367
1010,1686362511.181,-18.066,-350.098,-24.902,-139.648,1588.09,367
1011,1686362511.185,-17.09,127.441,70.312,-151.367,1588.094,369
1012,1686362511.189,-43.457,787.598,1.953,-148.438,1588.098,369
1013,1686362511.193,-51.27,104.98,-50.781,-92.285,1588.102,369
1014,1686362511.196,-40.039,-146.484,-2.93,-47.363,1588.106,369
1015,1686362511.2,-37.598,622.07,23.926,-46.875,1588.11,367
1016,1686362511.204,-52.734,732.91,-15.625,-63.965,1588.113,367
1017,1686362511.208,-48.828,247.559,-4.395,-40.039,1588.117,367
1018,1686362511.212,-28.32,238.77,16.113,2.93,1588.121,363
1019,1686362511.216,-22.461,564.941,-3.906,-31.25,1588.125,363
1020,1686362511.232,-30.273,449.219,-25.879,-80.078,1588.128,359
1021,1686362511.236,-48.828,174.805,-19.043,-81.543,1588.132,359
1022,1686362511.24,-55.664,309.57,9.766,-52.734,1588.136,360
1023,1686362511.244,-41.504,503.906,-15.625,-59.57,1588.139,360
1024,1686362511.248,-40.527,308.594,-40.527,-88.379,1588.143,360
1025,1686362511.252,-72.754,-316.406,-16.602,-86.914,1588.147,360
1026,1686362511.255,-73.73,-211.914,40.039,-68.848,1588.151,364
1027,1686362511.259,-53.223,596.68,24.414,-52.734,1588.155,364
1028,1686362511.263,-60.547,506.836,-33.203,-72.754,1588.159,364
1029,1686362511.267,-83.496,-113.77,-0.488,-90.332,1588.163,366
1030,1686362511.271,-77.148,193.848,34.668,-66.406,1588.167,366
1031,1686362511.275,-57.617,480.957,-24.414,-48.34,1588.171,366
1032,1686362511.292,-58.594,144.531,-66.406,-74.219,1588.188,363
1033,1686362511.296,-70.312,-84.961,-15.137,-95.703,1588.192,358
1034,1686362511.3,-83.984,352.539,42.48,-72.754,1588.196,358
1035,1686362511.304,-67.383,784.668,-3.906,-40.527,1588.2,358
1036,1686362511.308,-57.617,439.453,-46.387,-62.012,1588.204,356
1037,1686362511.312,-76.66,-6.836,-55.176,-116.211,1588.208,356
1038,1686362511.315,-70.801,104.98,-24.414,-131.836,1588.212,356
1039,1686362511.319,-43.457,339.355,-22.461,-109.375,1588.215,358
1040,1686362511.322,-12.207,471.68,-21.484,-14.648,1588.218,358
1041,1686362511.323,-25.391,-33.203,-52.246,-99.609,1588.219,358
1042,1686362511.326,-14.16,547.363,-10.742,-33.203,1588.222,358
1043,1686362511.327,-33.691,-541.016,1.465,-92.285,1588.223,358
1044,1686362511.33,-36.621,520.996,-22.461,-39.062,1588.225,358
1045,1686362511.331,-55.664,259.766,44.434,-77.637,1588.227,358
1046,1686362511.334,-43.457,387.695,-20.996,-8.789,1588.229,358
1047,1686362511.335,-44.922,751.953,-26.367,-45.41,1588.231,358
1048,1686362511.338,-47.363,318.359,-33.691,-5.859,1588.233,362
1049,1686362511.342,-54.688,163.086,-31.738,-18.555,1588.237,362
1050,1686362511.345,-77.148,243.652,-20.996,-41.992,1588.241,362
1051,1686362511.349,-85.449,338.379,-42.969,-37.109,1588.245,363
1052,1686362511.353,-67.871,180.664,-24.414,-0.977,1588.249,363
1053,1686362511.357,-53.711,269.043,-4.883,-8.789,1588.253,363
1054,1686362511.361,-55.664,341.309,-29.297,-63.477,1588.257,359
1055,1686362511.365,-55.664,272.949,-52.246,-76.66,1588.261,359
1056,1686362511.367,-33.203,-544.922,-75.195,-49.805,1588.263,359
1057,1686362511.371,-21.484,-599.609,10.254,-64.453,1588.267,359
1058,1686362511.375,-38.574,615.723,19.531,-92.285,1588.271,359
1059,1686362511.379,-54.199,647.461,-51.758,-82.031,1588.275,355
1060,1686362511.383,-41.016,388.672,-50.293,-31.738,1588.279,355
1061,1686362511.387,-22.949,396.484,-44.922,24.902,1588.283,355
1062,1686362511.39,-27.832,491.211,-17.578,5.371,1588.286,355
1063,1686362511.394,-58.594,167.969,-49.316,-47.852,1588.29,355
1064,1686362511.398,-70.312,-241.699,-9.766,-32.715,1588.294,355
1065,1686362511.402,-39.551,568.848,35.156,-4.883,1588.298,355
1066,1686362511.406,-30.273,778.809,-35.156,-12.695,1588.302,358
1067,1686362511.41,-57.617,310.059,-53.711,-58.105,1588.306,358
1068,1686362511.412,-70.312,105.469,-18.555,-94.238,1588.308,358
1069,1686362511.416,-40.039,439.453,2.93,-90.332,1588.312,358
1070,1686362511.42,-11.719,619.629,-49.316,-95.703,1588.316,361
1071,1686362511.424,-23.438,65.918,-48.828,-108.887,1588.32,361
1072,1686362511.428,-24.902,30.273,-3.906,-88.379,1588.324,361
1073,1686362511.432,-10.254,252.93,-28.809,-34.18,1588.328,360
1074,1686362511.435,-12.207,252.93,-48.828,-6.348,1588.332,360
1075,1686362511.439,-27.344,-187.988,-28.32,0.488,1588.336,360
1076,1686362511.443,-50.781,-86.914,8.301,-2.93,1588.34,360
1077,1686362511.447,-62.5,625.0,-19.043,-7.324,1588.344,356
1078,1686362511.451,-42.48,525.391,-53.223,-8.789,1588.348,356
1079,1686362511.455,-39.062,157.227,-65.918,-41.016,1588.351,356
1080,1686362511.457,-60.059,186.035,-37.109,-54.688,1588.353,356
1081,1686362511.461,-52.734,534.18,-20.996,-36.621,1588.357,351
1082,1686362511.465,-26.855,309.57,-83.008,-28.32,1588.36,351
1083,1686362511.469,-28.32,-496.094,-55.664,-41.992,1588.364,351
1084,1686362511.473,-43.945,-85.938,17.578,-71.777,1588.368,351
1085,1686362511.477,-48.828,516.113,-44.922,-73.73,1588.372,351
1086,1686362511.48,-41.504,-24.902,-72.754,-51.758,1588.376,351
1087,1686362511.484,-43.457,-186.035,-34.18,-43.457,1588.38,351
1088,1686362511.488,-65.43,580.078,2.441,-28.809,1588.384,355
1089,1686362511.492,-73.242,770.996,-62.988,29.297,1588.388,355
1090,1686362511.496,-66.406,253.906,-37.109,74.219,1588.392,355
1091,1686362511.5,-69.824,276.367,13.184,59.57,1588.396,358
1092,1686362511.516,-76.66,652.832,-35.156,-2.93,1588.413,357
1093,1686362511.52,-80.566,475.586,-61.523,-56.152,1588.417,357
1094,1686362511.524,-71.777,199.219,-37.109,-36.621,1588.421,357
1095,1686362511.528,-46.875,365.234,-20.996,4.883,1588.425,357
1096,1686362511.532,-40.527,392.09,-56.152,-27.832,1588.429,352
1097,1686362511.536,-51.27,157.227,-57.129,-100.586,1588.433,352
1098,1686362511.539,-50.781,-534.668,-56.152,-90.82,1588.436,352
1099,1686362511.543,-37.598,-406.25,-5.859,-40.527,1588.44,349
1100,1686362511.547,-19.531,584.473,4.883,-64.453,1588.444,349
1101,1686362511.547,6.348,425.293,-19.531,-69.336,1588.457,349
1102,1686362511.551,-20.508,375.0,-47.363,-111.816,1588.448,349
1103,1686362511.551,7.812,342.773,-79.59,-102.539,1588.461,349
1104,1686362511.555,-1.465,-179.199,-60.547,-94.727,1588.465,349
1105,1686362511.555,-28.32,169.922,-38.574,-100.098,1588.452,349
1106,1686362511.559,9.277,294.922,18.555,-41.504,1588.469,351
1107,1686362511.559,-18.555,246.094,-24.902,-55.176,1588.456,351
1108,1686362511.563,10.254,649.902,-48.828,-21.484,1588.473,351
1109,1686362511.567,-10.742,-23.438,-88.379,-48.828,1588.477,351
1110,1686362511.57,-39.551,-169.922,-42.969,-74.219,1588.48,356
1111,1686362511.574,-41.504,330.078,-30.762,-67.383,1588.484,356
1112,1686362511.578,-27.832,343.262,-28.809,-13.672,1588.488,356
1113,1686362511.582,-27.344,-121.582,-50.781,-18.066,1588.492,358
1114,1686362511.586,-47.852,-572.754,-16.602,-65.43,1588.496,358
1115,1686362511.59,-65.918,230.957,32.227,-50.293,1588.5,358
1116,1686362511.607,-71.289,673.828,-32.715,2.441,1588.503,355
1117,1686362511.611,-83.008,359.863,-20.02,-29.297,1588.507,350
1118,1686362511.615,-96.191,326.172,-18.555,-110.352,1588.511,350
1119,1686362511.619,-93.75,444.336,-44.922,-114.258,1588.514,350
1120,1686362511.623,-83.984,272.949,-45.898,-52.734,1588.518,348
1121,1686362511.627,-82.52,-121.582,-20.02,-42.969,1588.522,348
1122,1686362511.63,-94.727,-19.043,2.441,-89.355,1588.526,348
1123,1686362511.634,-99.121,345.215,-8.789,-102.539,1588.53,348
1124,1686362511.638,-82.031,263.672,-29.785,-83.008,1588.534,348
1125,1686362511.642,-55.664,-176.27,-5.859,-76.66,1588.538,351
1126,1686362511.646,-47.852,-102.539,11.719,-111.328,1588.542,351
1127,1686362511.65,-65.918,68.359,-20.996,-144.531,1588.546,351
1128,1686362511.652,-65.43,-27.344,-50.781,-141.602,1588.547,355
1129,1686362511.656,-41.504,-459.473,-19.043,-140.137,1588.551,355
1130,1686362511.66,-35.156,-60.059,50.781,-163.574,1588.555,355
1131,1686362511.664,-45.898,625.0,2.93,-187.5,1588.559,355
1132,1686362511.668,-49.316,255.859,-32.227,-166.992,1588.563,355
1133,1686362511.672,-24.414,-72.754,-20.02,-126.953,1588.567,355
1134,1686362511.675,-8.789,194.336,8.789,-129.395,1588.571,355
1135,1686362511.679,-41.016,502.93,0.488,-177.734,1588.575,355
1136,1686362511.683,-64.941,-130.859,-45.41,-175.293,1588.579,352
1137,1686362511.687,-38.574,-503.418,-0.977,-108.398,1588.583,352
1138,1686362511.691,-19.531,317.871,37.598,-66.406,1588.587,352
1139,1686362511.695,-24.414,439.941,-25.391,-77.637,1588.59,348
1140,1686362511.697,-27.832,-24.414,-39.062,-82.031,1588.592,348
1141,1686362511.701,-33.203,-123.047,-13.184,-47.363,1588.596,348
1142,1686362511.705,-21.484,226.074,-0.977,-15.137,1588.6,348
1143,1686362511.709,-15.137,282.227,-37.109,0.0,1588.604,348
1144,1686362511.713,-32.227,-283.203,-51.27,-7.324,1588.608,348
1145,1686362511.717,-34.18,-478.516,-12.207,-16.602,1588.612,348
1146,1686362511.72,-23.438,41.504,15.137,-35.156,1588.616,348
1147,1686362511.724,-28.32,269.531,-33.691,-47.363,1588.619,351
1148,1686362511.728,-40.039,-412.598,-24.414,-33.203,1588.623,351
1149,1686362511.732,-46.387,-326.172,33.691,-29.785,1588.627,351
1150,1686362511.736,-34.18,379.395,-15.137,-3.906,1588.631,355
1151,1686362511.74,-29.785,51.758,-72.266,13.672,1588.635,355
1152,1686362511.741,-50.293,-426.758,-32.715,-40.527,1588.637,355
1153,1686362511.745,-72.266,14.648,25.879,-94.727,1588.641,355
1154,1686362511.749,-61.523,220.215,-18.555,-77.637,1588.645,355
1155,1686362511.753,-27.344,-250.488,-43.457,-55.664,1588.648,353
1156,1686362511.757,-28.809,-227.539,-44.922,-89.355,1588.652,353
1157,1686362511.761,-55.176,-135.254,-41.504,-109.863,1588.656,353
1158,1686362511.764,-48.828,41.992,-16.602,-102.539,1588.66,349
1159,1686362511.768,-26.855,-146.484,-39.551,-98.633,1588.664,349
1160,1686362511.772,-28.809,-668.457,-14.16,-126.953,1588.668,349
1161,1686362511.776,-42.48,60.059,36.133,-163.574,1588.672,346
1162,1686362511.78,-37.598,372.559,-32.227,-153.809,1588.676,346
1163,1686362511.784,-24.902,31.25,-31.25,-119.629,1588.68,346
1164,1686362511.786,-21.973,55.176,-8.789,-93.75,1588.682,346
1165,1686362511.79,-28.809,196.289,-24.902,-130.371,1588.686,346
1166,1686362511.794,-35.156,69.824,-47.363,-151.367,1588.69,348
1167,1686362511.798,-16.113,-90.332,-37.598,-110.84,1588.694,348
1168,1686362511.802,-0.488,18.066,-26.367,-90.332,1588.698,348
1169,1686362511.806,-20.02,-184.082,-63.965,-106.445,1588.701,352
1170,1686362511.809,-39.551,-322.266,-43.945,-76.66,1588.705,352
1171,1686362511.813,-37.109,-717.285,-52.246,-16.602,1588.709,352
1172,1686362511.817,-35.645,-616.211,-16.602,-13.184,1588.713,354
1173,1686362511.821,-41.504,379.395,-5.859,-59.082,1588.717,354
1174,1686362511.825,-46.875,232.91,-69.824,-112.305,1588.721,354
1175,1686362511.829,-51.27,-243.652,-59.57,-104.004,1588.725,354
1176,1686362511.831,-38.086,-0.977,-28.809,-57.617,1588.727,353
1177,1686362511.835,-26.367,383.789,-26.855,-56.152,1588.731,353
1178,1686362511.839,-42.969,-92.773,-90.332,-83.496,1588.735,353
1179,1686362511.843,-47.852,-539.551,-62.012,-87.891,1588.739,353
1180,1686362511.847,-28.32,11.23,-12.695,-77.148,1588.743,349
1181,1686362511.851,-22.949,160.156,-57.129,-90.332,1588.747,349
1182,1686362511.854,-38.086,-375.977,-76.172,-105.957,1588.751,349
1183,1686362511.858,-48.34,-562.988,-43.945,-112.793,1588.755,346
1184,1686362511.862,-41.992,108.398,-12.695,-102.539,1588.759,346
1185,1686362511.866,-18.066,215.82,-67.383,-88.867,1588.762,346
1186,1686362511.87,-16.602,-239.746,-55.664,-97.168,1588.766,346
1187,1686362511.874,-33.691,-135.742,-13.672,-86.914,1588.77,349
1188,1686362511.876,-32.227,358.887,-34.18,-29.785,1588.786,349
1189,1686362511.88,-11.23,276.367,-65.43,4.883,1588.79,349
1190,1686362511.884,-11.23,54.199,-56.152,-19.043,1588.794,349
1191,1686362511.888,-35.645,123.047,-47.852,-32.227,1588.798,353
1192,1686362511.892,-36.133,171.387,-73.73,1.465,1588.802,353
1193,1686362511.896,-21.973,-60.547,-85.938,21.484,1588.806,353
1194,1686362511.899,-30.273,-609.863,-46.875,-9.277,1588.809,353
1195,1686362511.903,-51.27,-353.027,-8.789,-42.969,1588.813,354
1196,1686362511.907,-61.035,402.832,-38.086,-36.621,1588.817,354
1197,1686362511.911,-38.086,248.047,-68.359,4.883,1588.821,354
1198,1686362511.915,-8.301,59.57,-80.078,1.953,1588.825,351
1199,1686362511.919,-19.531,6.348,-69.336,-23.438,1588.829,351
1200,1686362511.922,-42.48,-77.637,-44.922,18.066,1588.83,351
1201,1686362511.926,-43.457,-78.125,-79.59,56.641,1588.834,346
1202,1686362511.93,-35.645,-499.512,-60.059,42.969,1588.838,346
1203,1686362511.934,-40.039,-79.102,16.602,22.949,1588.842,346
1204,1686362511.938,-56.641,588.379,-52.246,0.488,1588.846,346
1205,1686362511.942,-51.758,-49.316,-105.469,-8.789,1588.85,345
1206,1686362511.945,-23.438,-291.992,-47.363,-10.742,1588.854,345
1207,1686362511.949,-23.438,488.281,-21.484,-45.41,1588.858,345
1208,1686362511.953,-49.316,389.16,-80.566,-80.078,1588.862,345
1209,1686362511.957,-37.598,-90.332,-32.227,-67.871,1588.866,349
1210,1686362511.961,-10.742,198.242,-2.441,-19.531,1588.87,349
1211,1686362511.965,-15.137,527.344,-53.711,-1.465,1588.873,349
1212,1686362511.982,-42.48,363.281,-66.406,-30.273,1588.878,353
1213,1686362511.986,-60.059,-24.902,-70.801,-39.551,1588.882,354
1214,1686362511.99,-56.641,-22.949,-50.781,-22.461,1588.885,354
1215,1686362511.994,-46.387,351.562,-47.363,-27.344,1588.889,354
1216,1686362511.998,-50.781,456.543,-84.961,-70.312,1588.893,350
1217,1686362512.002,-64.941,-453.613,-96.191,-85.449,1588.897,350
1218,1686362512.005,-54.688,-563.965,-23.926,-71.777,1588.901,350
1219,1686362512.009,-28.32,604.004,-24.902,-88.867,1588.905,346
1220,1686362512.013,-24.902,534.668,-77.148,-110.84,1588.909,346
1221,1686362512.017,-34.668,136.23,-50.293,-130.371,1588.913,346
1222,1686362512.021,-19.043,335.938,-35.156,-104.98,1588.917,346
1223,1686362512.025,-9.766,345.703,-58.105,-67.871,1588.921,347
1224,1686362512.026,-22.949,60.547,-81.543,-88.379,1588.922,347
1225,1686362512.03,-51.27,-159.18,-62.988,-98.145,1588.926,347
1226,1686362512.034,-54.199,221.191,-20.996,-61.523,1588.929,347
1227,1686362512.038,-43.945,637.207,-52.246,-20.996,1588.933,351
1228,1686362512.042,-53.223,261.719,-93.75,-21.973,1588.937,351
1229,1686362512.046,-62.988,-125.488,-81.055,-67.871,1588.941,351
1230,1686362512.049,-61.035,110.84,-36.621,-58.105,1588.945,351
1231,1686362512.053,-41.992,580.566,-42.969,-20.996,1588.949,354
1232,1686362512.057,-28.32,165.527,-75.195,-43.945,1588.953,354
1233,1686362512.061,-34.668,-419.922,-23.438,-78.613,1588.957,354
1234,1686362512.065,-36.621,400.879,1.465,-79.102,1588.961,353
1235,1686362512.069,-17.578,726.562,-59.082,-45.898,1588.965,353
1236,1686362512.071,0.488,424.805,-51.758,-20.508,1588.967,353
1237,1686362512.075,1.953,436.035,-39.062,-38.086,1588.971,353
1238,1686362512.079,-17.578,499.023,-54.199,-65.918,1588.975,348
1239,1686362512.083,-35.156,398.438,-55.664,-47.852,1588.979,348
1240,1686362512.087,-29.785,223.145,-59.57,-15.625,1588.983,348
1241,1686362512.091,-25.391,109.863,-56.641,-7.812,1588.987,348
1242,1686362512.094,-33.203,161.133,-48.34,-61.523,1588.991,345
1243,1686362512.098,-22.949,291.992,-50.293,-105.957,1588.994,345
1244,1686362512.102,-0.488,-338.379,-52.734,-104.004,1588.998,345
1245,1686362512.106,6.836,-319.336,-20.508,-141.602,1589.002,347
1246,1686362512.11,-17.09,742.676,-24.902,-179.688,1589.006,347
1247,1686362512.114,-40.039,431.641,-66.406,-144.043,1589.01,347
1248,1686362512.116,-40.527,115.723,-35.156,-77.148,1589.012,347
1249,1686362512.12,-31.25,606.934,-16.602,-64.941,1589.016,351
1250,1686362512.124,-36.133,767.578,-26.855,-98.633,1589.02,351
1251,1686362512.128,-55.664,322.754,-77.637,-120.117,1589.024,351
1252,1686362512.132,-42.969,-417.48,-53.223,-86.426,1589.028,351
1253,1686362512.136,-15.137,-48.34,20.02,-32.227,1589.032,353
1254,1686362512.139,-17.09,713.379,-25.879,-61.523,1589.036,353
1255,1686362512.143,-36.133,300.293,-62.5,-117.188,1589.039,353
1256,1686362512.147,-38.086,-131.348,-25.879,-104.98,1589.043,350
1257,1686362512.151,-22.949,496.094,1.953,-90.332,1589.047,350
1258,1686362512.155,-20.02,587.402,-44.434,-124.023,1589.051,350
1259,1686362512.159,-35.156,96.191,-31.25,-173.828,1589.055,345
1260,1686362512.191,-34.668,172.363,12.695,-143.555,1589.087,347
1261,1686362512.195,-20.996,701.66,-6.348,-76.172,1589.091,347
1262,1686362512.199,-6.836,491.699,-40.039,-49.805,1589.095,347
1263,1686362512.203,-11.719,252.93,-28.32,-49.316,1589.099,351
1264,1686362512.207,-24.414,357.422,-19.043,-47.852,1589.103,351
1265,1686362512.207,-46.875,72.754,-41.504,-182.129,1589.103,351
1266,1686362512.211,-16.113,251.465,-30.273,11.23,1589.106,351
1267,1686362512.211,-56.641,391.113,-20.996,-170.41,1589.107,351
1268,1686362512.214,-9.766,276.367,-26.367,35.645,1589.11,351
1269,1686362512.215,-29.785,355.469,-62.5,-98.145,1589.111,351
1270,1686362512.218,-17.09,-162.598,-20.996,-9.277,1589.114,352
1271,1686362512.219,-2.93,-58.105,-41.992,-61.035,1589.115,352
1272,1686362512.222,-41.016,-49.805,40.039,-37.598,1589.118,352
1273,1686362512.223,-15.625,271.484,15.625,-64.941,1589.118,352
1274,1686362512.226,-46.875,703.613,20.02,-46.387,1589.122,352
1275,1686362512.227,-39.551,351.074,-39.551,-55.664,1589.122,352
1276,1686362512.23,-28.809,550.293,-33.203,-89.844,1589.126,349
1277,1686362512.23,-34.18,-0.488,-36.133,-35.645,1589.126,349
1278,1686362512.234,-27.344,169.922,-48.34,-146.973,1589.13,349
1279,1686362512.234,-23.438,189.941,-1.953,-19.531,1589.13,349
1280,1686362512.238,-37.598,599.609,-13.672,-39.062,1589.134,349
1281,1686362512.242,-53.223,546.387,-27.344,-53.711,1589.138,349
1282,1686362512.246,-42.969,-95.215,-47.363,-7.812,1589.142,344
1283,1686362512.25,-26.855,-262.207,-8.789,20.996,1589.146,344
1284,1686362512.251,-28.809,499.512,18.066,-4.395,1589.161,344
1285,1686362512.255,-39.551,619.629,-32.227,-35.645,1589.165,344
1286,1686362512.259,-51.27,-252.93,-69.824,-29.785,1589.169,343
1287,1686362512.263,-41.992,-478.027,2.93,-12.695,1589.173,343
1288,1686362512.267,-37.598,524.414,25.879,-30.762,1589.177,343
1289,1686362512.271,-49.805,478.027,-43.945,-43.457,1589.181,347
1290,1686362512.274,-48.828,-397.949,-39.062,-22.949,1589.185,347
1291,1686362512.278,-40.039,-243.652,20.996,-5.859,1589.188,347
1292,1686362512.282,-27.344,811.523,35.645,-24.414,1589.192,347
1293,1686362512.286,-34.18,594.727,-29.297,-45.898,1589.196,351
1294,1686362512.29,-54.199,279.785,-23.438,-37.109,1589.2,351
1295,1686362512.294,-52.734,213.379,-20.508,25.391,1589.204,351
