,timestamps,TP9,AF7,AF8,TP10,Secondary Timestamp,emg_signal
0,1686016721.1,-40.039,965.82,131.348,-47.852,118485.54,313.60491076178323
1,1686016721.11,-39.062,546.387,-7.812,-50.781,118485.544,312.3248040847251
2,1686016721.11,-26.855,99.121,126.465,-29.785,118485.547,313.55062404094264
3,1686016721.12,-19.043,718.262,354.98,-15.625,118485.551,310.4463235538375
4,1686016721.12,-17.09,-983.398,169.434,-22.949,118485.555,316.2888890833729
5,1686016721.12,-25.391,357.422,-33.691,-36.621,118485.559,309.8505761966896
6,1686016721.13,-29.297,-12.695,108.398,-23.926,118485.563,310.32314020142485
7,1686016721.13,-25.879,557.129,330.566,-14.648,118485.567,314.61206986797634
8,1686016721.14,-29.785,-911.133,280.762,-16.602,118485.571,317.3778018355439
9,1686016721.14,-37.598,411.621,39.551,-29.785,118485.575,315.3571913081332
10,1686016721.14,-39.062,-135.742,144.043,-44.922,118485.579,318.51055073956513
11,1686016721.15,-29.297,767.578,362.793,-37.109,118485.583,309.3870736969593
12,1686016721.15,-22.461,-978.027,173.34,-28.32,118485.584,320.7732567587918
13,1686016721.16,-27.832,706.543,57.617,-41.016,118485.588,310.15212583245676
14,1686016721.16,-32.715,669.434,115.723,-54.199,118485.592,319.6585694620544
15,1686016721.16,-27.832,905.273,145.508,-41.504,118485.596,309.2946640874488
16,1686016721.17,-18.555,965.332,82.031,-15.625,118485.6,310.20928133146555
17,1686016721.17,-20.508,540.527,18.555,-20.02,118485.604,313.9888406375807
18,1686016721.18,-24.902,455.078,122.07,-42.969,118485.608,312.7576420422305
19,1686016721.18,-19.043,835.449,154.297,-39.062,118485.612,313.17208010751943
20,1686016721.18,-18.066,890.625,68.848,-25.879,118485.616,317.0753269575686
21,1686016721.19,-28.32,93.262,64.453,-29.785,118485.619,304.8612995557403
22,1686016721.19,-29.785,23.438,265.137,-29.785,118485.623,318.24284773048544
23,1686016721.19,-27.344,906.25,331.543,-33.203,118485.627,317.4140110351263
24,1686016721.22,-21.973,851.562,180.176,-24.902,118485.646,309.2466252906177
25,1686016721.23,-24.414,532.715,55.664,-21.973,118485.65,311.0417686259494
26,1686016721.23,-34.668,625.977,87.891,-40.039,118485.654,317.2011456770358
27,1686016721.24,-26.855,989.746,134.277,-39.062,118485.658,314.60949948326066
28,1686016721.24,-23.926,745.605,46.875,-24.414,118485.662,316.3305588177848
29,1686016721.24,-28.809,33.691,147.461,-22.949,118485.666,310.4538509675604
30,1686016721.25,-31.25,349.121,350.586,-35.645,118485.67,311.1865614765057
31,1686016721.25,-31.738,989.258,239.746,-32.715,118485.674,320.31783090916707
32,1686016721.25,-16.113,357.422,100.098,-30.273,118485.675,319.38871922406537
33,1686016721.26,-22.461,520.02,49.805,-12.207,118485.678,318.7322943527263
34,1686016721.26,-5.371,606.445,322.754,-15.625,118485.679,314.24816266339064
35,1686016721.26,-21.973,312.5,176.27,-7.324,118485.681,308.66326136957923
36,1686016721.26,-11.23,-992.188,232.91,-16.602,118485.683,316.99466333927
37,1686016721.26,-28.809,818.848,243.164,-17.578,118485.685,323.20220740513497
38,1686016721.27,-14.648,906.25,45.41,-23.438,118485.687,310.9339549049487
39,1686016721.27,-30.273,646.484,50.781,-33.203,118485.689,305.6554251423711
40,1686016721.27,-18.066,702.148,78.125,-17.09,118485.691,318.803924810916
41,1686016721.27,-12.207,555.664,117.676,-9.277,118485.694,311.3388386481913
42,1686016721.28,-9.766,772.949,121.582,-21.973,118485.698,315.46756862620884
43,1686016721.28,-17.09,805.176,59.082,-33.691,118485.702,318.3316522476057
44,1686016721.28,-13.184,522.949,171.875,-30.273,118485.706,318.9868245741701
45,1686016721.29,0.488,795.898,340.332,-18.555,118485.71,315.94169141667805
46,1686016721.29,0.977,-993.652,216.309,-14.648,118485.714,317.5879575319811
47,1686016721.3,-15.625,928.223,37.109,-27.832,118485.718,313.5076226146214
48,1686016721.32,-18.555,-74.707,7.812,-26.855,118485.742,315.23356861292046
49,1686016721.32,-13.184,-221.191,271.484,-18.555,118485.746,313.6080825421242
50,1686016721.32,-7.812,739.258,357.422,-22.949,118485.75,317.6987525755721
51,1686016721.33,-10.254,622.07,98.145,-27.344,118485.754,314.68827882654506
52,1686016721.33,-29.785,-62.012,31.738,-32.227,118485.757,314.5551801764072
53,1686016721.34,-26.367,187.012,294.922,-30.762,118485.761,306.975429450126
54,1686016721.34,-6.836,872.559,319.336,-11.719,118485.765,305.9537441022713
55,1686016721.34,-9.277,557.129,83.496,-9.277,118485.769,315.23563612829327
56,1686016721.34,-15.137,925.293,108.398,-21.484,118485.765,311.7837196773664
57,1686016721.35,-16.113,208.008,123.047,-28.809,118485.773,320.60573586799
58,1686016721.35,-20.996,970.215,105.469,-34.668,118485.769,307.56106986076287
59,1686016721.35,-10.254,818.848,357.422,-25.879,118485.777,313.2994502494865
60,1686016721.35,-18.066,964.844,73.73,-25.391,118485.773,311.4407348766617
61,1686016721.35,8.301,-985.84,233.398,-6.348,118485.781,319.34816618540333
62,1686016721.36,-17.578,860.84,57.617,-14.648,118485.777,314.98048463378825
63,1686016721.36,4.395,867.676,116.211,-6.836,118485.785,319.9560709028314
64,1686016721.36,-21.484,755.859,78.125,-26.367,118485.781,315.97199364077386
65,1686016721.36,-23.438,652.344,82.031,-33.691,118485.785,317.326120494465
66,1686016721.37,-27.832,648.438,90.82,-22.949,118485.789,314.69141024486913
67,1686016721.37,-20.996,736.328,175.781,-5.859,118485.793,313.8244767824337
68,1686016721.38,-16.602,879.883,291.992,-10.254,118485.797,319.03805432241785
69,1686016721.38,-34.18,966.797,189.453,-24.414,118485.801,310.4531922386317
70,1686016721.38,-36.133,-995.117,55.176,-6.348,118485.805,317.82951110418026
71,1686016721.39,-21.973,229.492,28.809,13.184,118485.808,319.00436032226185
72,1686016721.4,-17.578,156.738,208.496,3.906,118485.841,303.7846895475814
73,1686016721.41,-24.902,862.793,177.246,-22.949,118485.845,307.27143267171795
74,1686016721.41,-28.809,563.477,-8.301,-20.996,118485.849,316.6317331352478
75,1686016721.42,-17.578,444.824,160.645,7.324,118485.853,312.76895173097995
76,1686016721.42,-16.602,891.602,332.52,8.301,118485.857,311.9132539500983
77,1686016721.42,-33.203,941.895,124.512,-15.137,118485.861,321.03753228408766
78,1686016721.43,-30.273,439.453,-13.184,-11.23,118485.865,310.49367898534894
79,1686016721.43,-22.949,-63.477,100.586,17.578,118485.869,311.8964857306526
80,1686016721.43,-15.625,994.629,330.566,14.16,118485.868,320.52833869151686
81,1686016721.44,-26.855,601.562,357.422,20.02,118485.873,313.23492598501446
82,1686016721.44,-21.973,961.914,131.348,3.418,118485.872,316.2890399499662
83,1686016721.44,-21.973,-942.383,190.43,0.0,118485.877,313.8974095462109
84,1686016721.44,-28.32,880.371,62.012,-16.113,118485.876,317.4416566920554
85,1686016721.44,-26.367,791.504,46.387,-14.648,118485.881,313.39957056113656
86,1686016721.44,-25.391,903.809,175.781,-18.555,118485.88,310.78199503606135
87,1686016721.45,-22.461,874.023,262.207,-0.977,118485.884,313.15778260515765
88,1686016721.45,-22.461,992.188,170.41,-0.488,118485.884,325.0665403000383
89,1686016721.45,-28.32,880.859,64.453,-1.953,118485.888,308.6897825150502
90,1686016721.46,-32.227,684.082,167.48,-22.461,118485.892,315.534205577037
91,1686016721.46,-29.785,843.262,320.312,-19.043,118485.896,312.4126325426143
92,1686016721.46,-17.09,-998.535,224.121,2.93,118485.9,309.4065874909915
93,1686016721.47,-8.301,942.871,62.988,2.441,118485.903,318.40000824921236
94,1686016721.47,-15.137,496.094,78.613,-15.625,118485.907,319.5885281269071
95,1686016721.48,-27.344,627.93,281.25,-25.879,118485.911,309.2421180498503
96,1686016721.48,-22.949,-962.891,307.617,-12.695,118485.915,306.4806232995263
97,1686016721.48,-11.719,901.855,65.918,-6.836,118485.919,308.2949141749428
98,1686016721.49,-20.02,63.965,-15.625,-18.555,118485.922,311.07517594896086
99,1686016721.49,-26.855,197.754,294.434,-29.297,118485.926,316.70106847810666
100,1686016721.5,-22.461,-898.438,336.914,-30.273,118485.93,310.1302219472931
101,1686016721.5,-20.02,722.168,50.293,-25.391,118485.934,311.1874243445226
102,1686016721.5,-25.391,476.562,109.863,-29.297,118485.938,302.7973679901267
103,1686016721.51,-33.691,949.707,265.137,-43.457,118485.942,319.9956218894139
104,1686016721.51,-24.414,-1000.0,81.055,-40.527,118485.946,316.0525217796557
105,1686016721.51,-17.578,847.656,109.375,-23.438,118485.95,314.2694076261604
106,1686016721.52,-26.367,904.297,248.535,-25.879,118485.954,318.0891475764324
107,1686016721.52,-36.621,891.113,129.883,-42.48,118485.958,326.4114045165326
108,1686016721.54,-36.621,892.578,48.828,-44.922,118485.966,320.1134585452717
109,1686016721.55,-25.879,797.852,125.488,-37.109,118485.97,312.7195237496494
110,1686016721.55,-28.809,828.125,283.691,-36.621,118485.974,315.3596171956722
111,1686016721.55,-30.273,999.023,149.902,-45.898,118485.978,309.2932679441726
112,1686016721.56,-37.109,954.59,18.066,-51.758,118485.981,319.34077782243827
113,1686016721.56,-34.18,804.688,66.895,-35.645,118485.985,314.99702151165525
114,1686016721.57,-26.855,833.496,118.164,-26.367,118485.989,311.41611680081036
115,1686016721.57,-33.691,-994.629,107.422,-42.48,118485.993,314.54850732396545
116,1686016721.57,-39.551,927.246,35.645,-51.758,118485.997,302.96824851086797
117,1686016721.58,-40.039,597.656,125.0,-39.551,118486.001,307.36056404128215
118,1686016721.58,-32.715,783.691,321.289,-20.996,118486.005,316.2295102513701
119,1686016721.58,-36.621,-961.426,181.152,-45.898,118486.009,315.7264975737146
120,1686016721.58,-42.969,891.113,4.395,-72.266,118486.009,298.7749190147917
121,1686016721.59,-38.574,725.098,58.594,-56.152,118486.013,317.49212058770416
122,1686016721.59,-22.461,835.938,121.582,-35.156,118486.017,320.4757235925627
123,1686016721.6,-15.137,-973.145,105.957,-38.086,118486.021,312.0326819957107
124,1686016721.6,-33.203,800.293,5.859,-54.688,118486.025,318.305656058133
125,1686016721.6,-34.18,553.223,21.484,-48.34,118486.029,322.2793985682476
126,1686016721.61,-23.438,832.52,160.156,-30.273,118486.033,317.9219590327289
127,1686016721.61,-28.32,-967.285,115.723,-26.367,118486.037,320.198249440986
128,1686016721.62,-32.715,770.02,20.02,-39.062,118486.04,315.26347489049573
129,1686016721.62,-37.109,-202.148,15.625,-38.086,118486.044,322.6342802836995
130,1686016721.62,-38.086,130.859,217.285,-38.574,118486.048,312.35691682534144
131,1686016721.63,-20.02,-958.008,265.137,-29.297,118486.052,313.27547234600945
132,1686016721.63,-20.996,942.871,113.281,-30.762,118486.051,318.46499217730485
133,1686016721.63,-36.133,940.43,91.309,-54.688,118486.054,313.575452824019
134,1686016721.64,-26.855,974.121,92.285,-48.34,118486.058,306.9565028888657
135,1686016721.64,-15.625,969.727,48.34,-28.32,118486.062,307.3963530079635
136,1686016721.64,-22.461,916.016,15.625,-40.527,118486.066,308.20223541245844
137,1686016721.65,-36.621,907.227,81.543,-53.711,118486.07,315.03076548381046
138,1686016721.65,-41.504,907.227,87.891,-44.922,118486.074,312.80439157214624
139,1686016721.66,-34.18,-943.359,73.242,-32.715,118486.078,316.3886579475122
140,1686016721.66,-28.32,445.312,9.766,-22.949,118486.082,308.4013736195085
141,1686016721.66,-31.738,251.953,146.484,-33.203,118486.086,312.45411218006154
142,1686016721.67,-31.738,-996.094,300.781,-42.969,118486.09,318.8217837442573
143,1686016721.67,-17.09,972.168,119.629,-20.508,118486.094,316.6641946409092
144,1686016721.67,-14.648,943.848,43.457,-9.277,118486.095,317.63685563165797
145,1686016721.68,-27.344,931.641,52.246,-28.32,118486.099,317.66166273096945
146,1686016721.68,-23.438,976.562,83.984,-37.109,118486.103,318.0137444575262
147,1686016721.69,-9.277,858.398,24.902,-17.578,118486.107,312.136617727248
148,1686016721.69,-32.715,691.895,73.73,-23.438,118486.111,316.18425409211324
149,1686016721.69,-48.34,901.855,154.785,-44.434,118486.115,315.5269785996781
150,1686016721.7,-36.621,-966.309,81.055,-45.41,118486.119,314.42263418650043
151,1686016721.7,-45.898,745.605,28.809,-45.41,118486.122,313.1665286054078
152,1686016721.7,-48.828,333.008,79.102,-31.738,118486.126,317.071526090756
153,1686016721.71,-37.109,828.613,298.828,-30.273,118486.13,316.1225407717114
154,1686016721.71,-48.828,-962.891,104.004,-49.805,118486.134,309.34774449496655
155,1686016721.72,-62.012,794.434,36.133,-53.223,118486.138,309.7947638096525
156,1686016721.72,-45.41,880.371,290.527,-31.738,118486.14,313.3206002721437
157,1686016721.72,-24.414,999.023,224.121,-20.996,118486.144,316.217640242196
158,1686016721.73,-34.668,963.379,18.066,-42.969,118486.148,313.3863002686734
159,1686016721.73,-41.992,886.719,43.457,-47.852,118486.152,319.35932138238394
160,1686016721.74,-30.762,919.922,105.469,-28.32,118486.156,316.85727371667537
161,1686016721.74,-25.879,968.262,51.758,-13.184,118486.16,307.9147383902733
162,1686016721.74,-26.855,-993.652,33.691,-25.879,118486.163,315.64194618926086
163,1686016721.75,-35.156,537.109,48.828,-38.574,118486.167,314.0958367995189
164,1686016721.75,-38.574,567.871,284.18,-28.809,118486.171,312.2706675598422
165,1686016721.75,-35.645,-952.637,228.027,-19.531,118486.175,312.8924209982337
166,1686016721.76,-39.551,937.012,-13.672,-25.391,118486.179,311.3195630108959
167,1686016721.76,-37.109,861.816,139.16,-35.156,118486.183,321.4116690659527
168,1686016721.76,-30.762,931.152,256.348,-30.762,118486.185,312.3626034682623
169,1686016721.77,-27.832,-995.605,99.609,-22.949,118486.189,321.06070860472903
170,1686016721.77,-31.25,891.602,-36.133,-27.344,118486.193,324.0061945983702
171,1686016721.78,-37.598,753.418,107.91,-42.969,118486.197,324.16896552814416
172,1686016721.78,-41.016,917.969,229.98,-49.316,118486.201,326.90170491554915
173,1686016721.78,-36.621,-957.52,73.73,-34.668,118486.205,315.5966759295553
174,1686016721.79,-32.715,783.691,-14.648,-26.855,118486.208,311.83535868275465
175,1686016721.79,-32.227,584.961,116.699,-33.203,118486.212,314.8966135001199
176,1686016721.8,-31.738,953.125,321.289,-41.504,118486.216,316.86825254139774
177,1686016721.8,-25.879,993.652,120.605,-29.297,118486.22,308.49926988976966
178,1686016721.8,-15.625,940.43,55.664,-16.113,118486.224,317.217515174195
179,1686016721.81,-26.367,965.332,88.867,-32.715,118486.228,307.14019075326013
180,1686016721.81,-26.855,969.727,55.664,-50.781,118486.234,308.47426489274693
181,1686016721.81,-20.508,970.215,46.875,-39.062,118486.238,315.4603738654736
182,1686016721.82,-14.16,879.883,109.375,-19.531,118486.241,306.2869782456765
183,1686016721.82,-7.812,916.992,209.473,-20.02,118486.245,307.6677179730853
184,1686016721.83,-24.414,977.051,65.918,-38.086,118486.249,316.5738380716647
185,1686016721.83,-27.832,993.652,3.418,-33.691,118486.253,309.4682097244958
186,1686016721.83,-17.09,676.758,79.59,-8.789,118486.257,318.32109152427734
187,1686016721.84,-23.926,711.914,251.953,-15.625,118486.261,318.21354704419525
188,1686016721.84,-37.598,-977.051,168.457,-40.039,118486.265,320.6333651300109
189,1686016721.84,-37.109,946.289,3.418,-43.457,118486.269,324.79511386515736
190,1686016721.85,-24.902,952.637,145.996,-26.367,118486.273,316.86275338944273
191,1686016721.85,-18.555,956.543,183.105,-14.16,118486.277,305.54955955723455
192,1686016721.85,-24.902,998.535,54.199,-27.832,118486.305,319.2881976713035
193,1686016721.86,-40.039,903.809,-32.227,-39.062,118486.308,321.5140654208059
194,1686016721.86,-37.598,742.676,117.676,-32.715,118486.312,313.1348261145368
195,1686016721.87,-27.832,916.016,261.23,-25.391,118486.316,310.39591976124484
196,1686016721.87,-27.344,-972.168,89.844,-28.809,118486.32,313.79054864863093
197,1686016721.87,-36.621,807.129,-71.289,-43.945,118486.324,315.47036269996204
198,1686016721.88,-36.133,363.77,45.41,-35.645,118486.328,310.42615901668324
199,1686016721.88,-16.602,755.371,324.219,-18.066,118486.332,318.15066229455607
200,1686016721.88,-17.09,-961.426,153.809,-27.344,118486.336,310.08143227996254
201,1686016721.89,-30.273,906.25,35.156,-42.48,118486.34,316.1233070396317
202,1686016721.89,-26.367,960.449,134.766,-31.25,118486.344,312.8860715416267
203,1686016721.9,-18.555,976.562,88.867,-11.719,118486.348,317.0166726145189
204,1686016721.91,-20.996,967.285,27.344,-17.09,118486.335,321.8334457018105
205,1686016721.92,-22.949,961.914,45.41,-26.367,118486.339,322.0440337636862
206,1686016721.92,-24.902,962.402,88.867,-30.273,118486.343,313.64843481976385
207,1686016721.93,-26.367,973.633,73.242,-20.508,118486.347,324.14549309060493
208,1686016721.93,-17.578,967.285,29.785,-8.789,118486.351,326.8922564704187
209,1686016721.93,-20.02,926.27,12.207,-17.09,118486.355,318.356555936789
210,1686016721.94,-29.297,937.5,52.734,-28.32,118486.358,318.4812475314114
211,1686016721.94,-15.625,979.004,114.746,-15.625,118486.362,318.4735343837184
212,1686016721.94,-7.812,957.031,62.012,-3.418,118486.366,316.42080152152613
213,1686016721.95,-20.508,894.531,92.773,-13.672,118486.37,322.4713689036371
214,1686016721.95,-29.297,943.359,89.355,-29.297,118486.374,321.577729967747
215,1686016721.96,-30.762,961.426,44.434,-26.855,118486.378,312.64028959728364
216,1686016721.96,-20.508,-960.938,50.293,-15.625,118486.38,310.5529034049419
217,1686016721.96,-20.996,403.809,-41.992,-21.484,118486.384,314.8622638128171
218,1686016721.97,-36.621,339.844,139.648,-36.621,118486.388,307.57749862989067
219,1686016721.97,-34.18,-960.938,210.938,-41.504,118486.392,321.51832762884254
220,1686016721.98,-16.113,916.992,18.066,-18.555,118486.396,314.65769455595694
221,1686016721.98,-14.16,893.066,2.441,-17.09,118486.4,328.5583150020133
222,1686016721.98,-22.461,949.219,74.219,-29.297,118486.404,319.06065261790724
223,1686016721.99,-23.926,-974.609,61.035,-35.645,118486.407,320.80368421159307
224,1686016721.99,-22.949,782.715,-11.719,-20.02,118486.411,325.2446796654904
225,1686016721.99,-12.207,468.75,83.008,3.418,118486.415,311.0150984047928
226,1686016722.0,-17.578,889.16,216.797,-15.137,118486.419,322.6204915649315
227,1686016722.0,-37.109,-990.234,45.898,-32.227,118486.423,314.5303105389055
228,1686016722.0,-33.691,939.941,54.199,-23.926,118486.425,327.1706586940302
229,1686016722.01,-28.809,973.145,123.535,-7.812,118486.429,320.9887124193914
230,1686016722.01,-33.691,972.656,61.523,-7.324,118486.433,324.96948326738624
231,1686016722.02,-36.133,969.238,11.719,-19.043,118486.437,324.12858040254093
232,1686016722.02,-32.227,938.477,38.086,-14.16,118486.441,318.60860713579706
233,1686016722.02,-23.926,947.754,78.125,3.418,118486.445,320.1368011145501
234,1686016722.03,0.0,975.098,82.52,21.973,118486.448,307.84520892652245
235,1686016722.03,-5.371,998.047,36.133,21.484,118486.452,313.6142401600783
236,1686016722.04,-49.316,644.043,41.992,-2.93,118486.456,310.97881962536877
237,1686016722.04,-60.059,726.562,268.066,-3.906,118486.46,320.43379886122545
238,1686016722.04,-48.828,-961.914,161.621,11.719,118486.464,320.9528878937484
239,1686016722.05,-41.992,931.152,-57.617,15.625,118486.468,310.54933986767094
240,1686016722.05,-46.387,872.07,122.07,11.23,118486.474,310.9873037776909
241,1686016722.05,-49.316,933.594,221.68,24.902,118486.478,310.221454121941
242,1686016722.06,-36.621,-990.234,76.66,43.945,118486.481,315.52927475668395
243,1686016722.06,-38.574,889.648,-24.902,31.738,118486.485,325.97490936480705
244,1686016722.07,-50.293,748.047,50.293,26.855,118486.489,316.4063419380835
245,1686016722.07,-40.039,919.434,147.461,45.41,118486.493,309.7170191834842
246,1686016722.07,-30.762,-953.125,108.398,59.082,118486.497,326.45853324250305
247,1686016722.08,-20.996,760.742,3.906,74.219,118486.501,328.51790830836114
248,1686016722.08,-18.555,569.824,96.68,62.988,118486.505,317.062351537393
249,1686016722.08,-21.484,965.332,271.973,60.059,118486.509,319.3347629969554
250,1686016722.09,5.371,991.211,60.547,88.867,118486.513,331.44834795342194
251,1686016722.09,6.348,925.293,63.477,92.773,118486.517,313.79902393102714
252,1686016722.1,-1.465,958.984,136.23,70.801,118486.518,317.0831906981162
253,1686016722.1,9.277,970.215,62.5,60.059,118486.522,317.98666110967986
254,1686016722.1,21.484,967.773,54.199,74.707,118486.526,317.0825627737631
255,1686016722.11,24.902,944.336,77.637,84.961,118486.529,317.1963510563598
256,1686016722.11,12.207,956.543,76.66,74.219,118486.533,307.71279929640264
257,1686016722.12,10.742,945.801,17.578,64.453,118486.537,308.4125775371953
258,1686016722.12,17.578,-967.773,85.449,66.406,118486.541,310.39855097504795
259,1686016722.12,20.02,622.07,43.457,72.754,118486.545,320.68301096528313
260,1686016722.13,21.484,502.93,161.133,62.012,118486.549,318.5315179318789
261,1686016722.13,13.184,-996.094,216.797,42.48,118486.553,314.2708402549117
262,1686016722.13,1.465,968.262,32.715,51.758,118486.557,310.9633344570335
263,1686016722.14,5.371,948.242,79.59,64.453,118486.561,316.7814503384384
264,1686016722.14,3.906,958.496,86.914,49.805,118486.566,325.00541464128224
265,1686016722.14,-7.812,985.84,33.691,22.949,118486.569,326.4162847554632
266,1686016722.15,-8.301,898.926,-26.367,17.578,118486.573,314.2494536210996
267,1686016722.15,-0.488,769.043,108.398,29.297,118486.577,317.4259424604075
268,1686016722.16,-4.883,919.922,205.566,32.227,118486.581,317.5519434976423
269,1686016722.16,-18.066,-968.262,62.988,16.602,118486.585,321.8439129780835
270,1686016722.16,-20.02,815.43,-4.395,1.465,118486.589,319.5050789992762
271,1686016722.17,-12.207,429.199,62.988,7.324,118486.593,320.2971114562549
272,1686016722.17,-6.348,819.824,304.688,8.789,118486.597,325.7291899206005
273,1686016722.17,-16.602,-972.656,117.676,-6.348,118486.601,317.5928782221482
274,1686016722.18,-26.367,914.551,19.531,-17.578,118486.605,318.160567626204
275,1686016722.18,-16.602,962.891,124.023,-3.418,118486.609,316.32580160934236
276,1686016722.18,-12.207,975.586,59.57,8.301,118486.619,321.03691065548225
277,1686016722.19,-16.113,968.262,3.906,1.465,118486.623,314.8163312995478
278,1686016722.19,-20.996,965.82,30.273,-9.277,118486.627,317.0098354738628
279,1686016722.2,-20.996,964.844,100.586,-1.465,118486.63,314.5361924507005
280,1686016722.2,-10.742,939.941,37.598,22.461,118486.634,319.2114364887215
281,1686016722.2,-12.207,-940.918,-13.184,28.32,118486.638,323.66214442441833
282,1686016722.21,-20.02,467.773,5.371,17.09,118486.642,316.9831357992624
283,1686016722.21,-13.672,330.566,181.641,16.113,118486.646,325.84174400558857
284,1686016722.22,-3.906,-970.703,248.047,19.531,118486.65,321.8967730056823
285,1686016722.22,1.465,960.449,32.715,18.066,118486.654,316.61183473373734
286,1686016722.22,-4.395,892.09,27.832,-2.441,118486.658,321.84943715292036
287,1686016722.23,-20.02,944.336,92.773,-7.324,118486.662,321.6898476386399
288,1686016722.23,-21.484,-998.047,69.336,7.324,118486.664,327.1746987571557
289,1686016722.23,-16.602,905.762,-31.738,10.742,118486.668,323.532307183557
290,1686016722.24,-26.367,718.262,113.281,-1.465,118486.672,324.9715763950566
291,1686016722.24,-37.598,897.949,236.816,-23.926,118486.676,337.1364105759554
292,1686016722.24,-30.273,-958.496,78.125,-18.066,118486.68,318.29428511915364
293,1686016722.25,-18.066,797.852,-30.762,3.906,118486.684,331.0483411168233
294,1686016722.25,-19.531,687.5,56.641,0.0,118486.688,331.9619546699728
295,1686016722.26,-30.273,945.801,139.648,-15.625,118486.692,331.33465033655983
296,1686016722.26,-35.156,-953.125,39.062,-12.695,118486.696,327.8185029849965
297,1686016722.26,-32.715,687.012,6.348,0.977,118486.699,330.3148391300401
298,1686016722.27,-24.414,510.254,154.785,4.395,118486.703,329.77881211845937
299,1686016722.27,-41.992,978.027,180.664,-27.344,118486.707,330.6451967511923
300,1686016722.29,-56.152,980.469,9.277,-46.875,118486.71,338.81645455566724
301,1686016722.29,-36.621,930.664,75.684,-24.414,118486.714,346.1966339206904
302,1686016722.3,-21.973,960.938,106.934,-6.836,118486.718,345.47244680320637
303,1686016722.3,-27.344,971.191,39.551,-20.996,118486.722,333.69381826290976
304,1686016722.3,-31.25,967.773,20.02,-33.691,118486.726,346.4511984277051
305,1686016722.31,-22.949,844.727,45.898,-20.02,118486.73,352.14448394920873
306,1686016722.31,-22.949,866.211,113.77,3.418,118486.734,347.64016552488084
307,1686016722.32,-27.832,993.164,85.938,-1.465,118486.738,344.743593794525
308,1686016722.32,-36.621,958.496,-7.812,-25.879,118486.742,347.6205202927561
309,1686016722.32,-36.133,686.035,93.75,-16.113,118486.746,359.52380140566476
310,1686016722.33,-26.855,803.223,253.906,-2.441,118486.749,352.647307176786
311,1686016722.33,-24.414,-983.887,90.82,-11.719,118486.753,352.56645485568845
312,1686016722.33,-25.879,829.59,-26.367,-21.973,118486.755,352.3946189251697
313,1686016722.34,-29.297,482.91,102.051,-27.344,118486.759,356.5038202692919
314,1686016722.34,-20.996,744.629,301.27,-21.973,118486.763,355.56135210214273
315,1686016722.35,-13.672,-925.293,161.133,-26.367,118486.767,349.7677576892641
316,1686016722.35,-14.648,799.316,-36.133,-44.922,118486.771,359.537828639353
317,1686016722.35,-27.344,505.371,-5.371,-47.363,118486.774,356.1163906904436
318,1686016722.36,-26.855,788.086,118.652,-37.598,118486.778,363.8841410150544
319,1686016722.36,-16.602,-910.156,91.797,-32.715,118486.782,360.48764919794195
320,1686016722.36,-25.391,651.367,-43.945,-34.668,118486.786,358.95158378921514
321,1686016722.37,-32.227,326.172,118.164,-38.086,118486.79,367.6071351606011
322,1686016722.37,-25.391,924.805,253.906,-29.297,118486.794,366.9751009337405
323,1686016722.38,-15.137,994.141,47.852,-15.137,118486.798,369.41601731090606
324,1686016722.38,-16.602,895.996,75.684,-22.461,118486.803,364.76408502239354
325,1686016722.38,-22.949,951.172,85.938,-39.062,118486.807,370.3441281775324
326,1686016722.39,-19.531,902.832,66.895,-30.273,118486.811,373.01869281258087
327,1686016722.39,-14.648,962.891,78.613,-10.742,118486.815,376.5730001052581
328,1686016722.4,-18.555,749.512,31.738,-14.16,118486.819,376.5169592617599
329,1686016722.4,-15.137,563.965,62.988,-27.344,118486.823,369.99545482939624
330,1686016722.4,-11.23,837.891,103.027,-30.273,118486.827,377.6541114709847
331,1686016722.41,-9.277,-978.516,70.312,-24.902,118486.83,371.6319357745569
332,1686016722.41,-13.672,530.273,48.828,-15.137,118486.834,373.98316193886177
333,1686016722.42,-23.438,557.129,240.723,-27.344,118486.838,373.0475346440583
334,1686016722.42,-23.926,-965.82,165.527,-45.41,118486.842,369.7690807060139
335,1686016722.42,-5.859,932.129,41.504,-32.715,118486.846,370.30734869673006
336,1686016722.42,-0.488,933.594,58.594,-20.508,118486.845,371.4840991246317
337,1686016722.43,-7.324,878.418,42.48,-30.273,118486.849,375.1853030298988
338,1686016722.43,-13.184,941.895,87.402,-44.434,118486.853,365.52530461440966
339,1686016722.44,-21.484,857.422,14.16,-39.551,118486.857,372.4802025320264
340,1686016722.44,-19.531,516.113,98.633,-20.508,118486.861,368.99241093448745
341,1686016722.44,-18.555,730.469,192.871,-31.738,118486.865,373.2538999958163
342,1686016722.45,-20.02,882.324,73.73,-43.945,118486.869,364.59691491435854
343,1686016722.45,-20.508,582.52,29.297,-35.645,118486.873,367.7848502066767
344,1686016722.46,-11.719,134.766,73.73,-21.973,118486.877,365.0409541211635
345,1686016722.46,-15.625,657.715,281.738,-22.949,118486.88,374.0794100299478
346,1686016722.46,-27.344,-962.402,113.281,-41.016,118486.884,368.0333873095829
347,1686016722.47,-20.508,868.652,36.133,-41.016,118486.888,370.8478883614273
348,1686016722.47,-11.719,934.082,132.812,-20.02,118486.89,374.77397069625994
349,1686016722.47,-10.742,981.934,77.148,-23.926,118486.894,369.5382874989711
350,1686016722.48,-15.625,962.402,20.508,-47.363,118486.898,368.99739425305546
351,1686016722.48,-15.625,885.254,53.711,-49.805,118486.902,354.2321966343193
352,1686016722.48,-9.766,914.551,86.426,-26.367,118486.905,367.29493371100205
353,1686016722.49,-14.648,894.043,39.062,-15.137,118486.909,362.36634727154836
354,1686016722.49,-24.902,954.59,51.758,-34.668,118486.913,362.4362416389509
355,1686016722.5,-31.25,202.148,0.488,-46.875,118486.917,367.4170980581914
356,1686016722.5,-27.344,-11.23,184.082,-30.762,118486.921,361.4522414301936
357,1686016722.5,-19.043,979.98,313.965,-16.602,118486.925,351.35959519103596
358,1686016722.51,-25.879,952.148,80.078,-30.762,118486.929,357.9508669630703
359,1686016722.51,-38.086,809.082,26.855,-43.457,118486.933,343.6027158418826
360,1686016722.51,-36.621,930.664,83.984,-36.621,118486.935,349.74039872863807
361,1686016722.52,-24.902,976.074,73.242,-22.461,118486.939,357.6941742273403
362,1686016722.52,-23.438,779.297,-17.578,-29.785,118486.943,365.31827873720255
363,1686016722.53,-33.203,493.652,103.027,-51.758,118486.947,363.17887639596944
364,1686016722.53,-29.785,774.902,214.355,-51.758,118486.951,353.3959369992094
365,1686016722.53,-13.672,-979.98,55.664,-29.297,118486.955,358.4389210167303
366,1686016722.54,-6.836,701.172,-23.926,-23.926,118486.958,358.3315877132919
367,1686016722.54,-10.254,372.559,109.863,-37.598,118486.962,354.2718052739823
368,1686016722.54,-16.113,827.637,249.512,-51.758,118486.966,357.02227789077887
369,1686016722.55,-11.23,-935.059,53.711,-40.039,118486.97,346.57843018772826
370,1686016722.55,-6.836,652.344,40.039,-18.555,118486.974,351.2220892963415
371,1686016722.56,-14.648,631.836,165.527,-30.273,118486.978,347.7070688824817
372,1686016722.56,-26.367,-996.094,129.395,-48.828,118486.994,341.9338794439384
373,1686016722.56,-16.113,959.473,50.781,-31.738,118486.998,345.2617610002232
374,1686016722.57,-3.418,888.672,55.664,-7.324,118487.002,339.66914043670636
375,1686016722.57,3.418,927.734,83.984,-0.488,118487.006,348.91109906638354
376,1686016722.58,8.301,958.984,37.109,-1.953,118487.01,343.0732725361335
377,1686016722.58,-15.137,865.234,9.277,-20.996,118487.014,347.1086698491039
378,1686016722.58,-27.832,214.844,66.895,-21.973,118487.017,335.43427132243573
379,1686016722.59,-24.902,300.293,280.273,-19.043,118487.021,343.08854367476033
380,1686016722.59,-35.156,-958.984,192.871,-44.922,118487.025,346.2225126775
381,1686016722.59,-25.391,886.719,8.789,-33.203,118487.029,338.6056427799177
382,1686016722.6,-17.578,798.34,110.352,-14.648,118487.033,332.39051220113373
383,1686016722.6,-13.184,950.195,105.469,-10.254,118487.037,330.6585844175583
384,1686016722.6,-13.184,939.941,41.016,-17.578,118487.038,349.9593876854453
385,1686016722.61,-22.949,642.578,-4.883,-31.738,118487.042,332.5470565909589
386,1686016722.61,-11.719,-19.531,53.223,-11.23,118487.046,340.15956761636465
387,1686016722.62,-7.324,414.551,304.199,9.766,118487.05,338.0899301804877
388,1686016722.62,-18.555,-893.066,144.043,-2.93,118487.054,341.5288641457655
389,1686016722.62,-23.438,511.23,-80.566,-16.113,118487.058,335.0056735674267
390,1686016722.63,-16.113,319.824,108.887,-8.789,118487.062,342.5868298175476
391,1686016722.63,-5.371,914.551,251.465,-0.488,118487.066,332.40262207471
392,1686016722.64,-4.883,-923.828,46.387,-3.906,118487.07,330.0962623543616
393,1686016722.64,-16.602,544.434,7.812,-21.973,118487.074,331.54636169417546
394,1686016722.64,-22.461,416.992,230.469,-20.996,118487.077,336.5061297151465
395,1686016722.65,-15.625,991.211,195.312,6.836,118487.081,328.60314131728535
396,1686016722.65,-17.09,982.91,20.02,8.789,118487.084,327.2479674985659
397,1686016722.65,-20.02,811.523,47.363,-8.301,118487.088,318.3022715693666
398,1686016722.66,-21.484,812.988,70.801,-11.23,118487.092,324.05018927687416
399,1686016722.66,-10.742,801.758,89.355,-1.953,118487.095,319.3295187997008
400,1686016722.67,-3.906,-979.492,83.008,7.812,118487.099,326.21614393734876
401,1686016722.67,-18.555,340.332,-40.527,-3.906,118487.103,322.4260630190422
402,1686016722.67,-30.273,-94.727,144.043,-24.902,118487.107,315.7773160955478
403,1686016722.68,-21.484,882.812,238.77,-17.09,118487.111,326.53387502455655
404,1686016722.68,-9.277,971.191,47.852,0.0,118487.115,320.9485784092762
405,1686016722.68,-15.625,796.387,68.359,-11.23,118487.119,322.595236605066
406,1686016722.69,-25.879,916.016,94.727,-40.039,118487.123,325.23329085097095
407,1686016722.69,-20.996,985.84,55.176,-42.48,118487.127,324.64371557528966
408,1686016722.71,-10.254,936.035,21.484,-15.137,118487.13,316.0907823676102
409,1686016722.71,-13.184,697.266,44.922,-18.066,118487.134,314.73730526436907
410,1686016722.72,-27.344,690.918,100.586,-44.434,118487.138,312.03852691122313
411,1686016722.72,-31.25,-988.77,81.543,-48.34,118487.142,300.4828915617733
412,1686016722.72,-22.461,811.523,-32.227,-21.973,118487.146,308.3430984516997
413,1686016722.73,-13.184,55.176,5.371,-8.301,118487.15,306.5589328060424
414,1686016722.73,-12.695,192.871,152.832,-32.715,118487.154,309.06885150101476
415,1686016722.74,-12.695,845.215,69.336,-44.922,118487.158,305.2381360404414
416,1686016722.74,-3.418,644.531,15.625,-19.043,118487.162,307.5903871037686
417,1686016722.74,0.488,299.316,118.164,-8.301,118487.166,304.84342599375003
418,1686016722.75,-1.465,863.281,174.805,-22.949,118487.169,301.4017240147227
419,1686016722.75,-4.395,-991.699,17.578,-35.156,118487.173,300.49590147333555
420,1686016722.75,-10.742,821.289,41.016,-26.855,118487.175,301.90891934608703
421,1686016722.76,-5.859,888.184,103.516,-9.766,118487.179,305.6441223536766
422,1686016722.76,-6.836,979.004,46.875,-24.414,118487.183,305.8254146657957
423,1686016722.77,-29.785,934.57,8.301,-47.363,118487.187,302.22598263704583
424,1686016722.77,-22.949,769.531,24.414,-40.527,118487.191,308.4380556787647
425,1686016722.77,-6.836,655.762,61.035,-21.484,118487.195,297.37536813600474
426,1686016722.78,-12.207,801.27,79.102,-26.855,118487.199,297.1260874769201
427,1686016722.78,-16.113,-983.398,45.898,-43.457,118487.202,298.95808252702597
428,1686016722.78,-23.438,80.078,-17.578,-34.668,118487.206,307.58767215814504
429,1686016722.79,-25.391,-93.75,188.965,-18.066,118487.21,300.96603321041016
430,1686016722.79,-21.484,-997.559,196.289,-22.949,118487.214,302.33971901993004
431,1686016722.8,-29.297,861.328,-24.414,-32.227,118487.218,298.4855786913866
432,1686016722.8,-28.32,711.426,33.203,-30.762,118487.22,292.1802629546002
433,1686016722.8,-19.531,810.547,67.871,-22.461,118487.224,291.3909848763433
434,1686016722.81,-13.672,934.082,91.309,-14.16,118487.228,298.4438625499989
435,1686016722.81,-8.301,820.801,-5.859,-27.344,118487.232,300.2225059758821
436,1686016722.82,-13.672,364.258,62.5,-40.039,118487.236,300.27254460332654
437,1686016722.82,-25.391,525.391,161.133,-35.645,118487.239,297.9364280621105
438,1686016722.82,-20.996,878.418,57.617,-20.02,118487.243,288.29577253005226
439,1686016722.83,-10.254,619.629,-22.949,-17.09,118487.247,297.78313571772105
440,1686016722.83,-27.344,234.863,80.566,-31.25,118487.251,297.23218474272716
441,1686016722.83,-27.344,776.367,185.547,-30.762,118487.255,294.17743906290264
442,1686016722.84,-12.695,-936.523,12.207,-15.625,118487.259,294.4806442171025
443,1686016722.84,-17.578,617.188,26.855,-18.555,118487.263,297.40791736569594
444,1686016722.84,-29.785,612.793,158.203,-41.504,118487.265,287.30914371163504
445,1686016722.85,-33.203,-992.676,96.191,-45.41,118487.269,290.79872537838025
446,1686016722.85,-23.438,950.195,16.602,-22.949,118487.273,291.6132188826932
447,1686016722.86,-16.113,912.598,35.156,-17.578,118487.277,287.6181139244945
448,1686016722.86,-16.113,907.227,24.902,-35.645,118487.281,283.7947303675881
449,1686016722.86,-20.02,702.148,4.883,-47.852,118487.285,298.77960626618176
450,1686016722.87,-16.113,769.531,45.898,-28.32,118487.289,294.9781529888194
451,1686016722.87,-11.23,376.465,33.203,-0.488,118487.292,297.1014855789589
452,1686016722.88,-11.23,367.188,206.543,-11.719,118487.296,290.53623205120067
453,1686016722.88,-16.113,-969.727,134.277,-35.645,118487.3,288.69011327473606
454,1686016722.88,-18.066,906.738,-13.672,-29.297,118487.304,285.0058214088472
455,1686016722.89,-8.789,834.961,52.734,-16.113,118487.308,294.70588278787875
456,1686016722.89,-8.789,937.988,45.41,-22.949,118487.313,301.18895204167137
457,1686016722.89,-21.484,825.684,31.738,-43.945,118487.317,303.18603714350064
458,1686016722.9,-28.32,548.828,-11.719,-46.387,118487.321,283.682353386025
459,1686016722.9,-28.809,18.066,58.594,-23.926,118487.325,287.8050098784967
460,1686016722.91,-20.02,474.121,253.906,-21.973,118487.329,285.8509184572091
461,1686016722.91,-23.438,939.941,85.449,-41.504,118487.333,288.12836607026765
462,1686016722.91,-43.945,379.883,-54.688,-54.199,118487.337,290.48716417839904
463,1686016722.92,-37.109,221.68,132.324,-37.109,118487.341,293.2524480212093
464,1686016722.92,-27.832,844.727,242.188,-27.344,118487.345,285.6967109754583
465,1686016722.92,-29.785,-969.727,25.879,-43.457,118487.349,296.1742561017569
466,1686016722.93,-34.18,745.605,51.758,-53.711,118487.353,295.0794902201041
467,1686016722.93,-30.762,802.734,121.582,-34.668,118487.356,296.33878489991315
468,1686016722.94,-22.949,995.605,72.266,-20.02,118487.357,298.97534084204335
469,1686016722.94,-22.461,967.773,13.184,-34.668,118487.361,299.84206807600845
470,1686016722.94,-27.832,837.402,23.926,-47.852,118487.365,289.44810598378035
471,1686016722.95,-23.438,868.164,67.871,-29.297,118487.369,289.0261583615837
472,1686016722.95,-2.93,871.094,36.133,0.488,118487.373,289.7352924603924
473,1686016722.96,-5.859,868.652,49.805,-6.836,118487.377,298.1881873511995
474,1686016722.96,-25.391,174.805,1.953,-33.203,118487.381,305.2285296457021
475,1686016722.96,-27.832,-132.812,174.316,-41.504,118487.385,293.4953991085468
476,1686016722.97,-20.996,862.305,257.812,-23.438,118487.388,289.08569891559466
477,1686016722.97,-28.809,970.215,37.109,-18.555,118487.392,297.5849829550056
478,1686016722.98,-41.016,798.34,27.832,-45.898,118487.396,295.2259605062031
479,1686016722.98,-35.156,921.875,91.797,-53.711,118487.4,301.72526417041206
480,1686016722.98,-17.578,-995.605,68.359,-29.785,118487.414,297.1473027375021
481,1686016722.98,-7.324,797.852,0.0,-15.625,118487.418,302.053603212805
482,1686016722.99,-15.137,686.523,15.137,-36.621,118487.422,295.2014149323589
483,1686016722.99,-30.273,901.855,62.012,-49.316,118487.426,293.3076609626437
484,1686016723.0,-31.25,996.094,50.781,-34.18,118487.43,304.1806759582207
485,1686016723.0,-20.996,759.277,-42.48,-5.371,118487.434,296.2539001513168
486,1686016723.0,-22.461,-286.621,-46.387,6.836,118487.438,298.20628089628354
487,1686016723.01,-34.668,-137.695,165.527,-13.672,118487.442,299.6610373456179
488,1686016723.01,-31.25,955.078,116.699,-8.789,118487.445,308.51313447033783
489,1686016723.01,-16.602,673.34,12.207,10.254,118487.449,298.1611508748351
490,1686016723.02,-13.672,552.246,97.168,0.977,118487.453,304.10107699746845
491,1686016723.02,-13.184,996.094,71.289,-14.648,118487.457,302.1060809355352
492,1686016723.02,-17.578,966.309,22.949,-15.625,118487.459,308.6005302529338
493,1686016723.03,-11.719,858.398,50.293,1.465,118487.463,308.1557563413227
494,1686016723.03,-4.395,902.344,79.59,19.531,118487.467,305.0462010539161
495,1686016723.04,-12.207,966.797,33.691,-4.395,118487.471,319.56611161749015
496,1686016723.04,-19.531,936.523,13.672,-31.738,118487.475,298.29305595807153
497,1686016723.04,-21.973,635.742,24.414,-13.184,118487.479,307.03959513807274
498,1686016723.05,-20.02,654.785,77.148,3.906,118487.482,300.5579148680478
499,1686016723.05,-16.602,979.004,62.012,-13.184,118487.486,305.1258393887831
500,1686016723.06,-20.02,949.707,11.719,-29.785,118487.49,307.8146303150608
501,1686016723.06,-18.066,52.246,29.785,-22.949,118487.494,314.8254324508697
502,1686016723.06,-5.859,99.121,236.328,-4.883,118487.498,311.2741855668717
503,1686016723.07,-7.812,-939.941,151.367,-11.719,118487.502,316.73247674759654
504,1686016723.08,-14.16,839.844,-37.109,-26.367,118487.505,313.68934340740367
505,1686016723.09,-20.996,442.383,34.18,-24.414,118487.509,312.7878000360691
506,1686016723.09,-13.672,642.09,88.379,-2.93,118487.513,326.4419591970296
507,1686016723.1,-9.277,-951.172,67.383,-0.488,118487.517,315.8450755359658
508,1686016723.1,-21.484,759.766,-54.199,-15.137,118487.521,313.2892591323522
509,1686016723.1,-20.508,-148.438,-21.484,-8.789,118487.525,331.5090418682886
510,1686016723.11,-4.883,276.855,171.875,8.301,118487.529,323.7544843400327
511,1686016723.11,2.93,-884.277,83.008,7.324,118487.532,333.9880858526725
512,1686016723.12,-8.301,617.188,-14.648,-21.484,118487.536,321.292245232088
513,1686016723.12,-13.672,420.898,56.152,-34.668,118487.54,332.7454035422023
514,1686016723.12,-11.23,947.754,78.613,-20.02,118487.544,317.6912077187648
515,1686016723.13,-10.742,-998.535,-7.324,-16.113,118487.548,322.33818077449104
516,1686016723.13,-8.301,493.652,37.598,-23.926,118487.55,324.7312618359165
517,1686016723.13,-14.648,472.168,166.016,-29.297,118487.554,317.8938442346794
518,1686016723.14,-15.137,978.027,91.797,-21.484,118487.558,314.74670856820745
519,1686016723.14,-2.441,956.543,19.531,-11.23,118487.562,327.24136107844697
520,1686016723.14,-4.395,792.969,6.348,-21.484,118487.566,333.4181723093222
521,1686016723.15,-17.578,569.824,3.906,-41.992,118487.57,326.1351217941031
522,1686016723.15,-25.391,619.629,59.082,-43.945,118487.574,331.4402857036756
523,1686016723.16,-16.113,968.75,32.715,-22.461,118487.578,334.2254981754697
524,1686016723.16,-14.16,312.5,9.277,-20.508,118487.581,327.4331988087995
525,1686016723.16,-21.973,214.355,203.613,-34.668,118487.585,328.20649642657395
526,1686016723.17,-26.367,987.793,132.324,-34.18,118487.589,331.71892845185516
527,1686016723.17,-15.137,879.883,16.113,-8.789,118487.593,327.20021578875134
528,1686016723.18,-5.371,830.566,38.086,1.953,118487.598,333.56402995700694
529,1686016723.18,-14.16,730.957,28.32,-22.461,118487.602,329.7397730361628
530,1686016723.18,-21.973,512.207,45.898,-39.551,118487.606,336.0633211692591
531,1686016723.19,-21.973,494.141,-14.648,-28.809,118487.61,337.81209570953337
532,1686016723.19,-17.578,17.578,6.348,-6.348,118487.614,341.89138744968716
533,1686016723.2,-20.02,129.395,100.098,-16.113,118487.618,349.6287303952022
534,1686016723.2,-24.414,773.926,65.43,-41.504,118487.622,343.03521978668203
535,1686016723.2,-19.531,552.734,-14.648,-32.227,118487.626,333.50611765827216
536,1686016723.21,-12.207,222.656,108.398,-3.418,118487.629,340.65123625676154
537,1686016723.21,-10.742,871.582,220.215,-3.906,118487.633,340.530376515561
538,1686016723.21,-14.648,988.281,-20.508,-23.438,118487.637,340.3221697377609
539,1686016723.22,-13.184,645.996,10.742,-25.391,118487.641,327.32622157893474
540,1686016723.22,-5.371,797.852,99.121,-8.301,118487.654,340.97680992262343
541,1686016723.22,-8.301,-992.188,48.828,-3.418,118487.658,333.895369490664
542,1686016723.23,-17.578,926.27,0.0,-18.555,118487.662,342.7103542919029
543,1686016723.23,-23.438,730.957,18.066,-28.809,118487.666,333.8312350828644
544,1686016723.24,-14.16,815.43,55.664,-16.113,118487.669,337.9538237960334
545,1686016723.24,-3.418,822.266,17.09,-2.93,118487.673,335.91478307134804
546,1686016723.24,-0.488,759.277,34.668,-9.277,118487.677,338.2014080125432
547,1686016723.25,-3.418,25.391,-14.16,-4.395,118487.681,333.1847537900257
548,1686016723.25,-6.348,-223.145,160.645,14.16,118487.685,343.1727904861025
549,1686016723.25,0.0,862.305,193.359,17.578,118487.689,337.2013434344738
550,1686016723.26,-6.836,925.293,-16.602,4.395,118487.693,337.0905452505932
551,1686016723.26,-31.738,667.48,20.02,-14.16,118487.697,342.5030613559669
552,1686016723.26,-25.391,872.07,56.152,1.953,118487.685,343.19656627197975
553,1686016723.27,7.324,902.832,37.109,47.852,118487.689,334.40490902280015
554,1686016723.27,-18.555,616.699,-40.039,27.832,118487.693,332.3573289635812
555,1686016723.28,-57.617,311.035,81.055,-20.02,118487.697,338.008499027607
556,1686016723.28,-49.316,655.762,194.824,-16.602,118487.701,329.400671403775
557,1686016723.28,-32.227,916.016,47.852,10.254,118487.705,324.0133615910676
558,1686016723.29,-26.367,541.504,-26.855,17.09,118487.709,337.1577570940999
559,1686016723.29,-32.715,-39.062,22.949,-5.859,118487.713,331.82166511040845
560,1686016723.3,-50.293,438.477,141.113,-37.109,118487.717,332.5553131874787
561,1686016723.3,-46.387,-886.23,50.293,-28.32,118487.72,321.2722205801221
562,1686016723.3,-29.785,589.844,-27.344,0.0,118487.724,336.79414493279336
563,1686016723.31,-38.574,209.473,103.516,-16.602,118487.728,328.9587971877338
564,1686016723.31,-38.574,843.75,153.809,-44.434,118487.733,319.4451761814994
565,1686016723.32,-19.531,-997.559,12.695,-32.227,118487.737,328.0211162224751
566,1686016723.32,-3.906,877.93,41.992,-3.906,118487.74,326.4142124480118
567,1686016723.32,-0.488,950.684,57.617,-10.254,118487.744,323.5778830881694
568,1686016723.33,-13.184,898.438,-0.977,-29.297,118487.748,316.6565189147605
569,1686016723.33,-14.648,745.117,-9.766,-33.691,118487.752,324.86878034906835
570,1686016723.34,-3.906,175.781,41.992,-6.836,118487.756,323.50445546218134
571,1686016723.34,0.0,280.762,220.703,4.395,118487.76,324.4271720279318
572,1686016723.34,-10.254,-972.168,122.07,-20.996,118487.764,327.9794600277794
573,1686016723.35,-12.207,856.445,-19.043,-36.133,118487.768,325.9829287010936
574,1686016723.35,10.254,639.16,66.406,-16.113,118487.772,320.1454715439848
575,1686016723.35,-9.766,-958.008,11.719,-8.301,118487.789,320.6954154623767
576,1686016723.35,11.23,855.957,86.426,8.789,118487.776,322.2492946319109
577,1686016723.36,-13.672,629.395,-43.945,-29.785,118487.793,318.17097267281355
578,1686016723.36,-10.254,391.113,44.434,-11.719,118487.797,316.11139330007046
579,1686016723.37,-11.23,861.328,100.098,11.23,118487.801,313.262064382246
580,1686016723.37,-14.648,-974.121,14.648,-9.277,118487.805,307.03151225361074
581,1686016723.37,-17.09,674.805,-62.012,-30.762,118487.809,311.34820194669226
582,1686016723.38,-10.742,-408.691,-60.059,-12.695,118487.813,296.75108783309355
583,1686016723.38,-0.488,-97.656,153.809,5.859,118487.817,311.6274119677249
584,1686016723.38,-5.859,-975.586,97.168,-3.906,118487.821,301.91913452189357
585,1686016723.39,-16.602,764.16,20.02,-22.461,118487.824,303.93903608043234
586,1686016723.39,-16.113,717.285,106.445,-21.484,118487.828,296.6476014185912
587,1686016723.4,-4.395,992.676,43.945,6.348,118487.832,304.0949525391674
588,1686016723.4,8.301,961.426,-17.578,18.066,118487.834,290.6521012197416
589,1686016723.41,7.812,458.496,53.223,5.371,118487.838,287.0632164679755
590,1686016723.41,2.93,486.816,169.922,-2.441,118487.842,290.25594860896445
591,1686016723.41,12.695,996.094,72.754,11.23,118487.846,293.5527279680212
592,1686016723.42,25.879,952.148,-1.953,20.996,118487.85,293.3542851656383
593,1686016723.42,14.16,586.426,-25.391,4.395,118487.854,288.2238773556
594,1686016723.43,4.395,394.531,41.504,-7.324,118487.858,288.66065441431357
595,1686016723.43,8.789,778.809,78.613,9.277,118487.862,292.0252050221995
596,1686016723.43,12.207,-990.234,24.414,27.344,118487.865,272.1311251765952
597,1686016723.44,8.789,471.191,38.086,22.461,118487.869,286.34927185524646
598,1686016723.44,-2.441,487.793,97.656,-5.859,118487.873,283.44543207664844
599,1686016723.44,2.93,997.559,53.711,-12.695,118487.877,276.7271483034585
600,1686016723.46,13.672,903.809,-3.906,5.859,118487.879,264.2700472805459
601,1686016723.46,1.465,632.812,-12.695,6.836,118487.883,265.614664080033
602,1686016723.47,-9.277,663.574,8.789,-12.207,118487.887,266.0040337741469
603,1686016723.47,-10.742,697.266,40.039,-20.996,118487.891,272.30581284742095
604,1686016723.47,-8.789,610.84,-10.742,-1.953,118487.895,259.0822654451784
605,1686016723.48,-6.836,-243.164,-98.145,18.066,118487.899,259.8574990186706
606,1686016723.48,-11.23,-259.277,108.398,2.93,118487.903,267.37390386461755
607,1686016723.48,-11.23,837.891,110.84,-14.648,118487.907,261.7877753653436
608,1686016723.49,-2.93,740.723,28.32,4.395,118487.911,266.20365991805085
609,1686016723.49,-3.418,710.938,94.238,13.672,118487.915,259.6228281208779
610,1686016723.5,-11.23,991.699,36.621,-5.859,118487.919,259.549001129249
611,1686016723.5,-9.766,962.402,-17.09,-15.137,118487.922,261.2422449872299
612,1686016723.5,-7.324,726.562,31.25,-6.836,118487.925,265.89167556493703
613,1686016723.51,-0.977,789.062,83.008,9.277,118487.929,263.9288041644391
614,1686016723.51,-1.953,991.699,17.578,0.0,118487.933,260.10169872109077
615,1686016723.52,-14.16,928.223,-7.812,-29.297,118487.937,255.58855567560815
616,1686016723.52,-12.695,714.355,4.883,-24.902,118487.941,264.39693827874373
617,1686016723.52,0.977,617.676,29.785,2.441,118487.944,258.15141024705235
618,1686016723.53,-3.418,665.039,29.785,8.301,118487.948,245.88293367996445
619,1686016723.53,1.465,737.793,31.25,-1.465,118487.952,259.96826471532165
620,1686016723.54,-4.883,59.57,-14.648,-1.953,118487.956,259.0420254304131
621,1686016723.54,-24.902,-135.254,118.652,-7.812,118487.96,249.21169133324898
622,1686016723.54,-19.043,895.02,129.883,-6.836,118487.964,250.63967200384144
623,1686016723.55,-17.578,888.184,-31.25,-14.648,118487.968,258.71116010158664
624,1686016723.56,-20.996,709.473,4.395,-33.203,118487.976,247.64006151312333
625,1686016723.56,-15.137,740.723,39.062,-19.531,118487.979,250.405963996168
626,1686016723.56,-16.113,832.031,53.711,-3.906,118487.983,254.96273665895424
627,1686016723.57,-19.043,766.602,-43.945,-7.812,118487.987,249.8302544170523
628,1686016723.57,-19.043,256.836,20.02,-16.113,118487.991,255.38046030384638
629,1686016723.58,-16.113,372.07,114.746,-5.859,118487.995,248.77423326705926
630,1686016723.58,-8.789,852.051,56.641,2.93,118487.999,251.47520218486946
631,1686016723.58,-9.277,663.574,-26.855,-4.395,118488.003,256.46084495384616
632,1686016723.59,-20.996,-26.367,-13.672,-19.531,118488.007,254.86798360322015
633,1686016723.59,-21.973,523.438,108.887,-21.484,118488.011,253.3564877676335
634,1686016723.59,-13.672,496.582,88.379,-11.23,118488.015,251.12090323913412
635,1686016723.6,-12.207,-915.527,12.207,-6.836,118488.015,264.20160581280976
636,1686016723.6,-7.812,953.613,41.992,-18.066,118488.018,249.34713193796605
637,1686016723.6,-10.742,613.77,6.836,2.93,118488.019,257.1517341779769
638,1686016723.6,2.93,963.379,-8.789,2.93,118488.022,253.9583344304487
639,1686016723.6,1.465,878.906,17.578,8.789,118488.026,253.96750638454677
640,1686016723.61,-13.672,927.246,22.949,-16.113,118488.03,250.6842524459543
641,1686016723.61,-26.367,711.426,8.301,-35.156,118488.034,251.16516258970717
642,1686016723.62,-20.02,648.438,34.18,-16.113,118488.038,256.3200040366591
643,1686016723.62,-16.113,252.93,42.969,-0.977,118488.042,257.00410985492675
644,1686016723.62,-26.367,267.578,125.977,-21.484,118488.046,253.03292422572298
645,1686016723.63,-31.738,991.699,49.805,-44.922,118488.05,254.4396372174607
646,1686016723.63,-28.32,840.332,-4.883,-35.156,118488.054,250.87732980538854
647,1686016723.64,-31.738,567.383,28.809,-7.812,118488.058,247.33063065129608
648,1686016723.64,-29.785,822.266,30.273,-9.277,118488.06,244.75202249128523
649,1686016723.64,-33.203,823.73,25.391,-31.25,118488.064,247.83419842399263
650,1686016723.65,-35.156,476.562,-40.527,-28.32,118488.068,253.3742800473549
651,1686016723.65,-25.391,-41.992,34.668,0.488,118488.072,245.93388704414588
652,1686016723.66,-20.996,315.43,185.059,9.766,118488.075,257.7754041607176
653,1686016723.66,-28.32,833.984,15.137,-13.184,118488.079,255.14904979504718
654,1686016723.66,-29.785,354.004,-57.129,-15.625,118488.083,259.46680061677864
655,1686016723.67,-19.531,139.16,92.773,6.348,118488.087,252.69090546039692
656,1686016723.67,-15.625,762.207,187.5,18.066,118488.091,266.08174757819285
657,1686016723.67,-23.926,-963.379,-2.93,2.441,118488.095,262.4717530384384
658,1686016723.68,-31.738,714.355,23.926,-24.902,118488.099,255.9152417721008
659,1686016723.68,-18.555,738.77,97.168,-6.836,118488.103,264.70760685943446
660,1686016723.69,-2.93,-1000.0,39.062,14.16,118488.118,256.5396249297796
661,1686016723.69,-9.277,893.555,-20.996,-1.465,118488.122,255.66635424035934
662,1686016723.69,-16.113,309.57,56.152,-13.184,118488.126,254.36406004574474
663,1686016723.7,-14.16,421.387,201.172,-8.789,118488.13,255.24393265034107
664,1686016723.7,-6.348,991.211,47.363,3.906,118488.134,250.9432941428883
665,1686016723.71,-9.277,848.145,-59.57,-0.977,118488.138,260.2144341016865
666,1686016723.71,-28.32,48.34,15.137,-18.066,118488.142,253.8031030685273
667,1686016723.71,-32.715,96.191,137.695,-28.809,118488.146,257.0953765063492
668,1686016723.72,-15.625,977.051,77.148,-20.02,118488.15,257.6347037901215
669,1686016723.72,-12.695,914.062,-11.719,-14.648,118488.154,260.4783588619036
670,1686016723.72,-26.855,673.828,27.344,-30.762,118488.157,261.01109297403013
671,1686016723.73,-40.039,776.367,46.387,-35.645,118488.161,265.1639063924108
672,1686016723.73,-30.273,-995.117,38.574,-20.996,118488.165,267.64645217891297
673,1686016723.73,0.0,761.719,-51.27,2.441,118488.169,266.9718403229616
674,1686016723.74,-6.836,270.508,74.707,-10.254,118488.173,273.50428719378607
675,1686016723.74,-30.762,552.246,147.461,-36.621,118488.177,260.9369587694193
676,1686016723.74,-33.691,710.938,30.273,-38.574,118488.181,272.71353488847535
677,1686016723.75,-28.32,513.672,-13.184,-15.137,118488.185,270.7832625914868
678,1686016723.75,-26.855,-293.457,-41.992,-6.348,118488.188,278.00330494328927
679,1686016723.76,-42.969,-77.148,114.746,-31.25,118488.192,273.1821083143141
680,1686016723.76,-46.875,913.574,53.223,-34.668,118488.196,273.0767834523042
681,1686016723.76,-40.039,725.098,57.617,-11.23,118488.2,268.73783350126524
682,1686016723.77,-37.109,724.121,96.191,-11.23,118488.204,282.1962680760117
683,1686016723.77,-40.039,978.516,17.578,-29.297,118488.208,282.9878305723321
684,1686016723.79,-41.016,936.523,2.93,-22.949,118488.211,270.17730652088727
685,1686016723.79,-29.297,764.648,32.715,-4.395,118488.215,274.69481345216315
686,1686016723.8,-24.902,820.801,64.453,-3.906,118488.219,280.8603114486044
687,1686016723.8,-28.809,982.91,20.996,-19.043,118488.223,273.40038113775694
688,1686016723.8,-30.762,909.18,-19.043,-24.902,118488.227,278.24489054477226
689,1686016723.81,-25.879,549.805,-3.906,-14.648,118488.231,286.23642070748616
690,1686016723.81,-19.531,376.953,38.574,-11.719,118488.235,285.51478401374175
691,1686016723.82,-21.973,641.113,54.199,-21.973,118488.239,284.5258330513392
692,1686016723.82,-23.926,864.258,28.809,-32.227,118488.243,289.3050862435814
693,1686016723.82,-25.391,24.902,2.441,-4.395,118488.247,286.9628116878467
694,1686016723.83,-25.879,-0.977,149.902,18.555,118488.251,290.2440524129637
695,1686016723.83,-21.973,-990.723,131.836,6.348,118488.254,285.5981989648683
696,1686016723.83,-27.832,820.312,-4.395,-9.277,118488.255,289.21368215007124
697,1686016723.84,-28.809,393.066,19.531,-9.277,118488.259,285.7598303044972
698,1686016723.84,-20.996,613.77,74.219,7.812,118488.263,284.9911187894602
699,1686016723.85,-23.926,-964.844,54.199,9.277,118488.267,286.0790911938718
700,1686016723.85,-25.879,719.238,-44.434,-3.906,118488.271,284.1890682796122
701,1686016723.85,-20.02,-35.156,9.766,0.977,118488.274,290.13371382821407
702,1686016723.86,-16.602,208.496,164.062,12.207,118488.278,282.9340454082408
703,1686016723.86,-18.066,959.473,129.395,11.719,118488.282,290.6062534812694
704,1686016723.86,-20.996,625.977,-32.227,8.789,118488.286,286.82643973476183
705,1686016723.87,-27.832,-390.137,20.508,12.695,118488.29,296.619827148212
706,1686016723.87,-28.809,278.809,305.664,26.855,118488.294,289.5882148304937
707,1686016723.88,-13.184,-929.688,121.582,33.691,118488.298,289.22549370975236
708,1686016723.88,-7.324,716.797,32.227,27.344,118488.3,304.0461470370604
709,1686016723.88,-9.766,671.387,167.48,0.977,118488.304,292.3510823201039
710,1686016723.89,-11.23,923.828,78.125,-10.254,118488.308,312.0512938416098
711,1686016723.89,-6.836,967.773,36.621,14.16,118488.312,304.8276231558413
712,1686016723.9,-0.977,783.691,22.461,17.09,118488.315,303.92146994066735
713,1686016723.9,-7.812,448.242,24.414,3.418,118488.319,306.0743731084581
714,1686016723.9,-9.277,477.051,94.727,3.418,118488.323,308.78594342989567
715,1686016723.91,5.859,866.699,67.383,23.926,118488.327,302.4430343332528
716,1686016723.91,2.441,269.531,43.945,42.48,118488.331,298.79515860918394
717,1686016723.91,-14.648,153.32,250.488,21.484,118488.335,309.2691019231839
718,1686016723.92,-13.672,897.949,155.273,8.789,118488.339,309.53092934284894
719,1686016723.92,-4.883,733.887,6.348,26.367,118488.343,305.40733997031595
720,1686016723.92,-6.348,520.508,128.418,28.809,118488.345,321.25260518648685
721,1686016723.93,-19.531,515.625,118.652,8.789,118488.349,321.2346402840877
722,1686016723.93,-25.391,649.902,64.453,-1.465,118488.353,320.9892550506012
723,1686016723.94,-20.02,654.785,16.113,17.09,118488.357,317.17275712859055
724,1686016723.94,-10.254,109.863,69.336,26.367,118488.361,323.7305211541731
725,1686016723.94,-8.789,234.863,140.625,4.883,118488.364,322.15876849965156
726,1686016723.95,-9.277,687.5,78.613,-20.02,118488.368,321.2031438381996
727,1686016723.95,-2.441,455.566,17.09,-7.812,118488.372,329.0574225663701
728,1686016723.96,-10.254,62.5,137.207,4.883,118488.376,335.45476906887876
729,1686016723.96,-23.438,697.754,277.344,-22.949,118488.38,332.12639183745017
730,1686016723.96,-24.414,-995.117,56.152,-30.762,118488.384,324.4732754138956
731,1686016723.97,-23.438,644.043,58.594,-15.625,118488.388,326.7006585290342
732,1686016723.97,-14.16,696.289,143.555,3.418,118488.39,337.05163034615117
733,1686016723.97,-9.277,-994.141,86.914,0.977,118488.394,335.13644561619157
734,1686016723.98,-16.113,798.34,-1.465,-17.578,118488.398,326.80195742820064
735,1686016723.98,-17.09,240.234,89.355,-17.578,118488.402,333.36214946239977
736,1686016723.98,-9.766,417.969,272.949,-7.324,118488.406,336.2358971472936
737,1686016723.99,-3.906,741.211,137.207,6.348,118488.41,334.9020454454436
738,1686016723.99,-13.184,639.16,25.391,-6.348,118488.413,330.830219661492
739,1686016724.0,-35.645,-14.16,57.617,-32.715,118488.417,328.2562665481961
740,1686016724.0,-37.598,60.059,291.504,-25.879,118488.421,338.4609485789111
741,1686016724.0,-22.461,976.074,265.625,-8.789,118488.425,337.2068586889928
742,1686016724.01,-26.855,890.137,40.039,-20.996,118488.429,340.9098486778378
743,1686016724.01,-33.203,624.512,70.801,-40.527,118488.433,338.17406626160164
744,1686016724.01,-29.785,785.645,128.906,-36.133,118488.435,338.0735121681761
745,1686016724.02,-11.719,847.656,88.867,-11.23,118488.439,327.05746238015166
746,1686016724.02,-9.277,547.363,4.395,-2.93,118488.443,330.9150156892766
747,1686016724.03,-25.391,248.047,133.789,-20.02,118488.447,338.66138701830903
748,1686016724.03,-33.203,529.297,288.574,-27.832,118488.451,339.35586221321165
749,1686016724.03,-24.414,764.648,139.648,-12.207,118488.455,340.37476685787703
750,1686016724.04,-24.902,479.004,-10.254,-10.254,118488.458,346.6390851559618
751,1686016724.04,-27.344,-252.93,41.992,-24.414,118488.462,344.36521235466466
752,1686016724.04,-27.344,213.867,325.195,-38.086,118488.466,348.37219521146517
753,1686016724.05,-22.949,-979.004,178.711,-27.344,118488.47,345.0011686915283
754,1686016724.05,-17.578,731.445,66.406,-6.348,118488.474,347.86276075565155
755,1686016724.06,-24.902,672.363,128.418,-17.09,118488.478,351.06786452311485
756,1686016724.06,-43.945,948.73,100.098,-41.504,118488.493,348.9679465641552
757,1686016724.06,-38.574,951.172,60.547,-35.645,118488.497,346.97233943944434
758,1686016724.07,-23.438,790.039,62.988,-20.02,118488.501,345.37357742005304
759,1686016724.07,-33.203,862.793,102.051,-32.227,118488.505,345.60214336379596
760,1686016724.08,-41.016,948.242,57.129,-53.711,118488.509,345.0834425006689
761,1686016724.08,-47.363,773.438,26.367,-53.711,118488.513,339.37277420262586
762,1686016724.08,-42.969,133.789,60.059,-27.832,118488.517,343.9860174129813
763,1686016724.09,-37.109,58.105,216.797,-26.367,118488.521,338.42994288897034
764,1686016724.09,-39.062,736.328,195.312,-39.551,118488.525,346.5262753733744
765,1686016724.09,-37.598,801.758,37.598,-34.668,118488.529,330.60152634649825
766,1686016724.1,-36.621,547.363,187.012,-21.484,118488.532,335.3525370235462
767,1686016724.1,-28.32,760.254,326.172,-23.438,118488.536,333.05606782088347
768,1686016724.1,-23.438,-945.312,134.277,-41.992,118488.539,335.0978981111102
769,1686016724.11,-38.086,716.797,-10.254,-49.316,118488.543,345.65535560645674
770,1686016724.11,-33.203,245.605,166.504,-25.391,118488.547,338.5589063065688
771,1686016724.12,-20.996,691.895,355.957,-1.953,118488.551,340.08802017376195
772,1686016724.12,-24.414,-950.195,142.578,-25.879,118488.555,346.7861591839762
773,1686016724.12,-33.203,465.332,-58.594,-45.41,118488.559,343.71739468067426
774,1686016724.13,-30.273,140.137,127.93,-41.992,118488.563,338.48545428565103
775,1686016724.13,-14.648,790.039,352.051,-34.668,118488.567,339.2009857688832
776,1686016724.14,-21.973,-928.223,137.695,-38.574,118488.571,338.457154886832
777,1686016724.14,-39.062,618.164,43.457,-54.199,118488.574,341.41081970446993
778,1686016724.14,-38.574,342.285,166.504,-58.594,118488.578,337.80755890581565
779,1686016724.15,-24.414,800.781,213.867,-43.945,118488.582,341.2421555315172
780,1686016724.15,-20.996,-938.965,87.402,-27.344,118488.584,336.76745689947825
781,1686016724.16,-35.645,524.414,60.059,-39.551,118488.588,331.60846483654257
782,1686016724.16,-36.133,375.0,283.203,-54.688,118488.591,339.6162560072428
783,1686016724.16,-21.484,924.805,321.289,-41.016,118488.595,341.7825899550682
784,1686016724.17,-14.648,989.258,170.41,-25.391,118488.599,335.4970189510533
785,1686016724.17,-21.484,608.398,55.176,-36.133,118488.603,335.2763617158399
786,1686016724.18,-34.18,500.0,100.098,-49.316,118488.607,333.18647576658606
787,1686016724.18,-28.809,877.93,135.742,-33.203,118488.611,329.7092305684391
788,1686016724.18,-10.742,956.543,66.406,-2.441,118488.615,329.42432028729746
789,1686016724.19,-7.812,446.289,101.074,-4.883,118488.619,336.07948119454403
790,1686016724.19,-25.879,503.418,222.168,-45.898,118488.623,333.2916861480506
791,1686016724.19,-31.25,995.117,124.512,-48.34,118488.627,319.1757142277136
792,1686016724.21,-18.066,858.398,60.059,-22.461,118488.63,326.2526752352118
793,1686016724.21,-21.484,528.32,81.055,-26.367,118488.634,315.4942033307411
794,1686016724.22,-29.297,513.184,113.281,-41.016,118488.638,320.9336999280638
795,1686016724.22,-24.414,868.164,161.621,-44.434,118488.642,318.3068669387316
796,1686016724.22,-14.648,873.535,37.598,-25.879,118488.646,320.35269808746494
797,1686016724.23,-14.16,-106.445,4.395,-17.09,118488.649,321.2471794495709
798,1686016724.23,-24.414,70.801,308.105,-32.227,118488.653,317.0884164074688
799,1686016724.24,-22.949,-975.098,301.758,-34.668,118488.657,318.2675012952095
800,1686016724.24,-16.602,663.086,87.402,-19.043,118488.661,316.4349191210854
801,1686016724.24,-11.23,513.672,145.508,-8.789,118488.665,322.9098208417297
802,1686016724.25,-11.23,983.398,201.172,-20.508,118488.669,308.187925129369
803,1686016724.25,-15.625,977.539,76.172,-40.527,118488.673,320.46491668292
804,1686016724.25,-14.16,800.781,81.543,-30.273,118488.675,316.6207396588792
805,1686016724.26,-9.766,845.703,157.227,-7.812,118488.679,319.16976383214086
806,1686016724.26,-18.555,994.141,104.004,-18.555,118488.683,312.1174928136958
807,1686016724.27,-25.879,852.051,29.785,-30.273,118488.687,314.5853046328529
808,1686016724.27,-24.414,362.305,92.773,-23.926,118488.691,311.0471621736263
809,1686016724.27,-22.949,360.352,199.707,-8.301,118488.695,321.8019394905136
810,1686016724.28,-17.578,751.465,170.41,-7.812,118488.699,325.7409711173561
811,1686016724.28,-24.414,910.645,89.355,-28.32,118488.703,318.546442383113
812,1686016724.28,-27.344,226.074,63.477,-21.973,118488.706,318.49719900786283
813,1686016724.29,-20.508,269.531,304.199,-6.836,118488.71,321.2862366819332
814,1686016724.29,-16.602,-934.082,325.195,-4.395,118488.714,318.4987216265333
815,1686016724.3,-18.066,881.836,92.773,-18.066,118488.718,318.73421212628375
816,1686016724.3,-26.855,714.355,66.895,-34.18,118488.72,330.21553305133983
817,1686016724.3,-20.996,709.473,123.535,-16.113,118488.724,323.39868750119155
818,1686016724.31,-7.812,875.0,153.809,-6.348,118488.728,332.34446884334847
819,1686016724.31,-14.16,847.656,53.223,-18.066,118488.732,320.85069417661686
820,1686016724.32,-26.367,329.102,96.68,-25.879,118488.736,322.121285943781
821,1686016724.32,-22.461,412.598,262.207,-22.949,118488.739,331.7828704010432
822,1686016724.32,-16.113,801.758,194.824,-13.672,118488.743,334.2170001952032
823,1686016724.33,-20.508,666.504,49.805,-9.277,118488.747,327.69852250955535
824,1686016724.33,-18.066,-68.359,68.848,-17.09,118488.751,325.5702704858475
825,1686016724.33,-20.508,422.363,345.703,-22.949,118488.755,329.9498293277032
826,1686016724.34,-18.555,-940.918,302.734,-5.859,118488.759,334.05304129750647
827,1686016724.34,-9.277,868.164,158.691,3.418,118488.763,339.2107993920232
828,1686016724.34,-20.996,918.457,142.09,-27.344,118488.765,334.6288994667416
829,1686016724.35,-33.691,980.957,120.605,-37.598,118488.769,330.3373756382292
830,1686016724.35,-20.508,956.543,78.125,-13.184,118488.773,331.5988519774434
831,1686016724.36,-7.324,892.09,114.258,-1.465,118488.777,334.39305720060173
832,1686016724.36,-13.184,905.273,119.629,-16.113,118488.781,337.24333684777224
833,1686016724.36,-25.879,700.684,65.918,-36.621,118488.785,340.8099469927065
834,1686016724.37,-20.02,724.609,104.98,-23.926,118488.788,329.90609352786134
835,1686016724.37,-21.484,375.488,105.469,-4.395,118488.792,333.70497837469395
836,1686016724.38,-25.391,174.805,251.465,-19.043,118488.796,335.3370704765436
837,1686016724.38,-32.227,819.824,266.113,-41.016,118488.8,343.2211568278441
838,1686016724.38,-32.227,925.293,100.098,-28.32,118488.804,338.2550749681436
839,1686016724.39,-19.531,710.938,210.938,-12.207,118488.808,344.7076642434066
840,1686016724.39,-21.484,880.371,346.191,-28.32,118488.81,348.6229356421689
841,1686016724.39,-27.344,918.945,151.367,-49.805,118488.814,328.46189353209485
842,1686016724.4,-35.645,619.141,25.391,-44.922,118488.818,339.1561266708653
843,1686016724.4,-35.645,460.449,203.613,-25.879,118488.822,340.60162100457654
844,1686016724.4,-27.832,843.262,357.422,-22.461,118488.826,342.64453973367307
845,1686016724.41,-30.273,917.969,145.996,-40.039,118488.83,340.6272670214302
846,1686016724.41,-30.762,433.594,16.113,-47.363,118488.834,345.02278859473483
847,1686016724.42,-33.691,258.301,185.059,-43.945,118488.837,343.7477560399725
848,1686016724.42,-31.25,831.055,385.254,-41.992,118488.841,337.9693128533329
849,1686016724.42,-31.25,-949.219,166.992,-49.316,118488.845,336.9013083200981
850,1686016724.43,-39.551,704.59,73.73,-52.734,118488.849,336.04458625283877
851,1686016724.43,-32.227,642.578,192.871,-28.809,118488.853,344.1300834739029
852,1686016724.44,-22.461,941.895,216.309,-12.695,118488.858,340.51543837621364
853,1686016724.44,-26.367,-959.473,81.055,-25.879,118488.862,339.164441521206
854,1686016724.44,-40.039,572.266,68.848,-39.551,118488.866,338.332111032942
855,1686016724.45,-41.016,507.324,328.613,-46.387,118488.87,339.5893506787299
856,1686016724.45,-20.02,971.68,314.941,-30.762,118488.874,343.4554337934626
857,1686016724.46,-21.484,904.785,100.098,-20.02,118488.878,336.91871384564405
858,1686016724.46,-37.598,177.734,54.688,-25.879,118488.882,344.27277317290185
859,1686016724.46,-33.691,167.48,290.039,-14.16,118488.886,345.09090128809925
860,1686016724.47,-27.344,985.84,365.234,4.395,118488.889,338.4472633319015
861,1686016724.47,-20.02,950.684,197.754,11.23,118488.893,335.9712563927359
862,1686016724.47,-20.996,749.023,158.203,-13.672,118488.897,337.3109567579691
863,1686016724.48,-28.32,778.32,187.012,-40.039,118488.901,339.76609763644274
864,1686016724.48,-23.926,988.281,143.555,-19.531,118488.914,336.23877937303246
865,1686016724.48,-19.043,833.008,61.035,12.695,118488.918,341.0814215080459
866,1686016724.49,-22.461,288.574,105.957,-0.488,118488.922,337.3401943378806
867,1686016724.49,-28.32,541.504,311.523,-16.602,118488.926,339.0158461988103
868,1686016724.5,-18.066,-936.523,277.832,1.465,118488.929,341.0425973648036
869,1686016724.5,-14.648,762.207,13.184,23.438,118488.933,337.92540614661795
870,1686016724.5,-25.879,-144.531,24.902,13.672,118488.937,328.5977287499729
871,1686016724.51,-42.48,280.273,319.336,-14.16,118488.941,331.80327994580375
872,1686016724.51,-42.48,-952.148,223.145,-17.09,118488.945,332.67189792932805
873,1686016724.52,-19.043,821.289,130.859,-2.441,118488.949,338.09905120191536
874,1686016724.52,-17.09,860.352,157.715,2.441,118488.953,334.19558283968024
875,1686016724.52,-32.227,984.863,91.797,-19.043,118488.957,332.41219335667444
876,1686016724.52,-37.109,958.496,68.848,-34.18,118488.959,344.5793416860432
877,1686016724.53,-38.574,875.0,103.516,-17.578,118488.963,338.7954761497071
878,1686016724.53,-35.645,908.203,152.344,1.953,118488.967,346.6037702054908
879,1686016724.54,-30.762,963.379,93.75,-5.371,118488.971,341.3685450560807
880,1686016724.54,-42.48,874.512,79.59,-20.996,118488.974,338.5639933197273
881,1686016724.54,-40.527,157.227,44.434,-4.883,118488.978,343.64195729719194
882,1686016724.55,-24.902,155.762,229.98,11.23,118488.982,349.73743023586184
883,1686016724.55,-34.18,-992.676,301.758,-5.371,118488.986,339.1932157106168
884,1686016724.56,-42.48,923.34,65.918,-22.461,118488.99,330.1171920315846
885,1686016724.56,-40.039,604.492,135.742,-16.602,118488.994,334.9809390183291
886,1686016724.56,-27.832,796.387,266.113,5.859,118488.998,329.04159950292404
887,1686016724.57,-24.902,-973.633,144.043,1.953,118489.002,332.00183382312537
888,1686016724.58,-33.691,900.391,23.438,-22.461,118489.005,332.54674620097836
889,1686016724.59,-37.598,608.887,60.547,-21.973,118489.009,338.6206327964054
890,1686016724.59,-28.809,717.285,168.457,-3.418,118489.013,337.5114114132973
891,1686016724.6,-29.297,-963.867,172.852,-5.859,118489.017,336.1966755626818
892,1686016724.6,-39.551,837.402,11.23,-24.414,118489.021,332.1896181891446
893,1686016724.6,-41.504,7.812,48.828,-22.461,118489.024,340.403284524417
894,1686016724.61,-33.691,243.652,328.613,-8.301,118489.028,330.5323426606607
895,1686016724.61,-24.902,-971.191,254.395,-5.371,118489.032,335.3372556808834
896,1686016724.62,-31.25,661.621,29.297,-20.996,118489.036,334.90143699084246
897,1686016724.62,-36.133,273.926,151.855,-24.414,118489.04,346.1972310924305
898,1686016724.62,-43.457,864.258,363.77,-14.648,118489.044,338.7380205256341
899,1686016724.63,-41.992,-980.469,150.879,-8.789,118489.048,329.0900045705572
900,1686016724.63,-40.527,857.422,71.289,-15.625,118489.05,338.5784669502084
901,1686016724.63,-55.176,922.852,133.789,-25.879,118489.054,334.16567624991205
902,1686016724.64,-48.34,980.957,110.84,-20.508,118489.058,338.372854719509
903,1686016724.64,-31.738,959.961,66.406,-3.906,118489.062,330.32468622350916
904,1686016724.64,-27.344,946.777,74.707,2.441,118489.065,339.24928735425414
905,1686016724.65,-36.621,840.82,81.543,-18.066,118489.069,340.2126788904194
906,1686016724.65,-41.504,815.43,130.859,-31.25,118489.073,333.7918253173195
907,1686016724.66,-20.508,-964.355,123.047,-16.602,118489.077,330.4546078099905
908,1686016724.66,-19.531,507.812,73.73,-3.418,118489.081,336.5260256264938
909,1686016724.66,-36.621,315.43,203.125,-15.625,118489.085,338.7174209760491
910,1686016724.67,-41.504,910.645,181.152,-26.367,118489.089,339.8814625532839
911,1686016724.67,-32.227,952.148,98.145,-5.371,118489.093,331.55649864287375
912,1686016724.67,-17.578,857.422,180.664,10.742,118489.096,333.8783834501044
913,1686016724.68,-26.855,866.699,169.922,-16.113,118489.099,334.16382962020276
914,1686016724.68,-40.039,938.965,107.91,-30.273,118489.103,329.23582079799854
915,1686016724.69,-32.715,898.438,68.359,-8.301,118489.107,334.84658072209186
916,1686016724.69,-26.855,684.082,131.836,9.766,118489.111,324.2597141664089
917,1686016724.69,-30.273,838.867,194.336,-2.441,118489.115,333.88101084409584
918,1686016724.7,-40.039,958.008,107.422,-27.832,118489.119,331.99106308104444
919,1686016724.7,-51.27,713.379,46.387,-23.438,118489.123,334.53252196711264
920,1686016724.7,-46.387,561.523,179.688,-7.812,118489.127,336.1364821824685
921,1686016724.71,-37.109,938.965,333.984,-9.766,118489.131,327.28842542918755
922,1686016724.71,-37.109,-1000.0,91.309,-16.602,118489.135,312.4472110549943
923,1686016724.72,-48.34,862.793,68.359,-15.625,118489.139,321.4515966930027
924,1686016724.72,-46.387,905.762,177.734,3.418,118489.14,319.7294795058043
925,1686016724.72,-37.598,979.98,173.34,10.742,118489.144,332.0834922562489
926,1686016724.73,-37.109,987.305,48.34,-11.719,118489.147,317.65235355259
927,1686016724.73,-45.41,784.668,83.496,-23.438,118489.151,312.7309862381696
928,1686016724.74,-52.246,819.336,274.414,-16.113,118489.155,323.97316451413064
929,1686016724.74,-45.41,978.027,160.156,-6.348,118489.159,321.4286561146275
930,1686016724.74,-41.504,-980.957,55.664,-10.742,118489.163,320.6857771022924
931,1686016724.75,-49.805,569.824,81.543,-19.043,118489.167,309.8210002875673
932,1686016724.75,-50.781,533.691,295.898,-14.648,118489.171,319.3578277415303
933,1686016724.75,-39.062,-967.285,292.969,-8.301,118489.175,319.7960732149449
934,1686016724.76,-41.016,950.684,68.359,-12.695,118489.179,318.3761599274669
935,1686016724.76,-42.969,921.387,75.684,-29.297,118489.183,319.68427594837243
936,1686016724.76,-41.016,946.777,135.254,-25.391,118489.185,309.2743368545061
937,1686016724.77,-36.621,974.609,109.863,-5.859,118489.189,308.71036208522224
938,1686016724.77,-32.715,970.215,30.273,-7.324,118489.193,322.986171264553
939,1686016724.78,-44.434,439.941,81.543,-20.996,118489.196,320.71355919233827
940,1686016724.78,-55.664,583.496,303.223,-22.461,118489.2,316.65135219387594
941,1686016724.78,-58.594,-909.18,205.078,-9.766,118489.204,307.6100436445821
942,1686016724.79,-59.57,813.965,1.953,0.0,118489.208,310.17481175297576
943,1686016724.79,-65.918,607.422,125.977,-13.672,118489.212,302.55118933469527
944,1686016724.8,-64.453,932.617,310.547,-19.531,118489.216,306.56898117499713
945,1686016724.8,-57.617,-999.512,140.137,-6.348,118489.22,311.107037248267
946,1686016724.8,-48.34,927.734,123.535,-3.906,118489.224,302.33092396889765
947,1686016724.81,-45.898,962.402,157.227,-11.719,118489.228,303.31668823601115
948,1686016724.81,-59.57,975.098,97.168,-30.273,118489.246,300.02694150977413
949,1686016724.81,-63.477,968.262,89.844,-29.297,118489.25,291.9830738919765
950,1686016724.82,-56.641,969.727,105.469,-10.742,118489.254,295.32107673780075
951,1686016724.82,-53.223,971.191,131.836,-20.996,118489.258,291.99562079451186
952,1686016724.82,-53.223,947.266,81.055,-41.016,118489.262,306.2563097317379
953,1686016724.83,-55.176,-970.703,72.266,-47.363,118489.266,300.06309816483684
954,1686016724.83,-54.199,666.016,57.617,-26.855,118489.27,302.4758674520165
955,1686016724.84,-56.152,561.523,193.848,-14.16,118489.274,297.0318529268898
956,1686016724.84,-64.453,-994.629,222.168,-34.18,118489.277,299.4540624817701
957,1686016724.84,-68.359,966.309,45.41,-40.039,118489.281,306.0480804692524
958,1686016724.85,-58.105,919.922,189.453,-19.531,118489.285,307.90327774950407
959,1686016724.85,-57.617,956.543,277.344,-10.254,118489.289,304.60989871046075
960,1686016724.85,-56.152,990.234,104.492,-26.367,118489.289,297.0094511273872
961,1686016724.86,-56.641,943.848,4.395,-38.574,118489.293,300.1897472421527
962,1686016724.86,-63.477,838.867,177.246,-26.367,118489.297,297.47697010165626
963,1686016724.87,-50.781,931.152,368.652,-11.719,118489.301,302.6138627147197
964,1686016724.87,-48.828,-983.398,190.43,-24.414,118489.305,302.9468858811492
965,1686016724.87,-62.988,889.16,-14.648,-43.457,118489.309,299.22698368401547
966,1686016724.88,-60.547,778.809,145.508,-35.645,118489.313,302.9550967555671
967,1686016724.88,-54.199,945.801,276.367,-22.949,118489.317,304.05571752106613
968,1686016724.88,-56.152,-978.027,125.977,-33.203,118489.321,301.57657504558347
969,1686016724.89,-58.594,830.078,54.199,-50.781,118489.325,299.3630484468857
970,1686016724.89,-63.965,754.395,116.211,-43.945,118489.328,297.2159316659781
971,1686016724.9,-61.035,980.957,214.844,-24.414,118489.332,309.37033885721064
972,1686016724.91,-57.129,977.539,95.215,-23.438,118489.335,300.7968185764147
973,1686016724.92,-66.406,963.867,76.172,-45.898,118489.339,306.26387052671373
974,1686016724.92,-70.801,973.145,140.625,-49.316,118489.343,302.7923134268938
975,1686016724.93,-57.617,972.168,132.324,-27.832,118489.347,301.95950204070283
976,1686016724.93,-47.852,972.168,79.59,-15.137,118489.351,311.5697286817754
977,1686016724.93,-55.664,972.168,46.875,-20.996,118489.355,314.9829310667389
978,1686016724.94,-58.105,967.773,114.258,-29.297,118489.359,299.6808681375977
979,1686016724.94,-54.199,975.586,170.898,-29.785,118489.363,304.72794824401143
980,1686016724.94,-47.363,971.68,84.473,-18.555,118489.367,304.50642605124375
981,1686016724.95,-45.898,897.949,77.637,-11.719,118489.37,301.54359010119504
982,1686016724.95,-54.199,940.918,168.945,-30.273,118489.374,303.8523987789969
983,1686016724.96,-57.617,986.328,141.602,-38.086,118489.378,307.3803494259886
984,1686016724.96,-55.176,963.867,60.547,-26.855,118489.383,299.8404397036777
985,1686016724.97,-58.105,948.242,99.121,-21.973,118489.387,304.9778816237522
986,1686016724.97,-63.477,964.355,176.27,-37.109,118489.391,306.80155944063256
987,1686016724.98,-61.523,977.051,121.582,-45.41,118489.395,307.6041124852017
988,1686016724.98,-59.57,968.262,34.18,-36.133,118489.399,310.4625376030296
989,1686016724.98,-62.5,954.102,45.41,-28.32,118489.403,299.34021476732096
990,1686016724.99,-69.824,966.797,157.715,-42.48,118489.407,316.636871805442
991,1686016724.99,-73.73,976.562,116.699,-50.781,118489.411,308.69593954635405
992,1686016725.0,-58.105,961.914,20.02,-28.809,118489.415,312.82562154802247
993,1686016725.0,-44.922,955.078,149.902,-18.555,118489.419,310.0034993339836
994,1686016725.0,-45.41,970.703,277.344,-39.062,118489.422,310.8918535807656
995,1686016725.0,-51.758,971.191,61.523,-35.645,118489.425,310.68813111469143
996,1686016725.01,-53.711,973.145,77.637,-50.293,118489.426,310.82257104215336
997,1686016725.01,-33.691,972.168,163.574,-17.578,118489.429,308.5044301580889
998,1686016725.01,-38.574,971.68,145.508,-26.367,118489.433,316.83303243475734
999,1686016725.02,-50.293,971.68,30.762,-52.246,118489.437,316.24412809038324
1000,1686016725.02,-49.316,970.703,49.805,-46.875,118489.441,307.49260704434516
1001,1686016725.02,-39.062,970.703,147.461,-17.09,118489.444,314.44305162715415
1002,1686016725.03,-31.738,972.168,129.395,-15.625,118489.448,311.06105054394067
1003,1686016725.03,-44.434,972.168,56.641,-41.992,118489.452,305.81486229366686
1004,1686016725.04,-52.246,959.961,56.641,-44.922,118489.456,319.07655924628904
1005,1686016725.04,-39.062,966.797,294.922,-25.391,118489.46,318.47824706741335
1006,1686016725.04,-32.227,973.633,224.121,-17.578,118489.464,308.7650238612975
1007,1686016725.05,-41.504,970.703,41.504,-26.367,118489.468,310.55228406198916
1008,1686016725.05,-46.875,972.168,95.215,-37.109,118489.47,306.6802921194179
1009,1686016725.05,-38.574,971.68,105.957,-20.02,118489.474,309.34385215184614
1010,1686016725.06,-33.203,972.168,106.934,-3.418,118489.478,316.72525978974875
1011,1686016725.06,-41.016,971.68,37.598,-14.648,118489.482,314.10524139379777
1012,1686016725.06,-43.945,968.75,50.781,-29.297,118489.486,313.49647896401626
1013,1686016725.07,-42.48,971.191,204.59,-24.414,118489.49,307.12481623244236
1014,1686016725.07,-28.32,972.656,194.336,-10.742,118489.494,318.25007492972287
1015,1686016725.08,-22.949,968.262,18.066,-12.207,118489.498,322.13874067489223
1016,1686016725.08,-32.715,970.215,95.215,-29.297,118489.501,314.2291265535526
1017,1686016725.08,-35.156,972.168,277.344,-37.598,118489.505,316.41990082543253
1018,1686016725.09,-26.367,971.68,103.027,-16.602,118489.509,321.3867905208805
1019,1686016725.09,-23.926,972.168,83.984,-5.371,118489.513,305.26492691366127
1020,1686016725.09,-39.062,972.168,126.953,-23.438,118489.515,316.1292636688043
1021,1686016725.1,-41.504,971.68,96.191,-35.645,118489.519,326.4454415876466
1022,1686016725.1,-23.438,971.68,71.777,-10.254,118489.523,317.350898987288
1023,1686016725.11,-12.207,971.68,89.844,11.719,118489.527,313.29719165654785
1024,1686016725.11,-20.508,971.68,80.566,-20.508,118489.531,316.6388176920315
1025,1686016725.11,-37.109,971.68,60.547,-60.547,118489.534,316.6337212598404
1026,1686016725.12,-36.133,972.168,113.77,-51.27,118489.538,319.86776743528446
1027,1686016725.12,-16.602,970.703,49.805,-12.695,118489.542,315.84024462743656
1028,1686016725.12,-14.16,968.75,181.641,-16.113,118489.546,309.75592248810113
1029,1686016725.13,-30.273,971.68,229.492,-43.457,118489.55,313.6544939396011
1030,1686016725.13,-28.809,972.168,62.5,-35.156,118489.554,310.41720185722943
1031,1686016725.14,-16.113,971.68,122.07,-15.625,118489.558,312.4753966451456
1032,1686016725.14,-11.23,971.68,140.137,-9.277,118489.56,314.11524472014656
1033,1686016725.14,-19.043,971.68,68.359,-28.809,118489.564,317.1586505300709
1034,1686016725.15,-25.391,971.68,13.184,-29.297,118489.568,313.08645935437795
1035,1686016725.15,-22.949,970.215,178.711,-8.301,118489.572,304.53703628679324
1036,1686016725.16,-19.043,971.191,283.691,-8.301,118489.576,311.20466733552837
1037,1686016725.16,-22.461,971.68,76.66,-24.902,118489.579,324.22809545052036
1038,1686016725.16,-29.297,971.68,3.418,-27.344,118489.583,321.03684800825573
1039,1686016725.17,-23.926,971.68,100.586,-9.277,118489.587,319.30905874047465
1040,1686016725.17,-13.672,971.68,186.523,-5.859,118489.591,308.1234259738739
1041,1686016725.17,-23.438,971.68,97.656,-22.461,118489.595,313.49879482208377
1042,1686016725.18,-33.691,971.68,69.336,-23.438,118489.599,323.6287107517081
1043,1686016725.18,-27.344,971.68,160.156,1.465,118489.603,318.110419849281
1044,1686016725.18,-16.113,971.68,166.016,15.625,118489.605,313.2604859415974
1045,1686016725.19,-16.113,972.168,54.199,12.695,118489.609,315.9965665580847
1046,1686016725.19,-22.461,971.68,73.242,5.371,118489.613,313.67006583457174
1047,1686016725.2,-19.043,971.68,141.602,14.648,118489.617,309.07314899353304
1048,1686016725.2,-14.16,971.68,112.793,34.18,118489.62,306.58944912699565
1049,1686016725.2,-18.555,971.68,46.875,24.414,118489.624,309.41764559880755
1050,1686016725.21,-27.832,972.168,43.945,4.883,118489.628,316.01259419331245
1051,1686016725.21,-25.391,972.168,179.688,4.883,118489.632,318.03581573539464
1052,1686016725.22,-19.043,972.168,186.035,20.02,118489.636,315.2411879458733
1053,1686016725.22,-17.578,972.168,70.312,27.832,118489.64,313.7985550850314
1054,1686016725.22,-27.344,971.68,72.266,14.16,118489.644,318.8284926928059
1055,1686016725.23,-34.668,971.68,119.629,2.441,118489.648,310.63978142167235
1056,1686016725.24,-31.738,971.68,167.969,20.508,118489.679,321.94711395125364
1057,1686016725.25,-25.391,972.168,65.43,36.621,118489.683,319.2810334694461
1058,1686016725.25,-27.832,971.68,50.781,17.09,118489.687,323.4368856757175
1059,1686016725.26,-34.668,971.68,217.285,-6.836,118489.691,323.9520999529359
1060,1686016725.26,-22.949,971.68,140.137,2.93,118489.694,330.9273701284551
1061,1686016725.26,-11.719,971.68,-9.766,22.461,118489.698,324.6036896383736
1062,1686016725.27,-21.484,971.68,95.215,19.531,118489.702,312.64269389236637
1063,1686016725.27,-32.715,971.68,203.613,2.93,118489.706,323.8648754328117
1064,1686016725.28,-34.18,971.68,93.75,-2.441,118489.71,318.94531799502124
1065,1686016725.28,-30.762,971.68,59.082,-19.043,118489.724,315.75186127676994
1066,1686016725.28,-31.738,971.68,112.305,13.184,118489.714,320.8865750184769
1067,1686016725.28,-18.066,971.68,54.688,0.0,118489.727,315.76819464960556
1068,1686016725.28,-15.625,972.168,104.004,7.812,118489.731,324.9558088605263
1069,1686016725.28,-26.367,971.68,152.832,14.16,118489.718,312.3173158974365
1070,1686016725.29,-30.762,972.168,89.844,-12.207,118489.722,312.691077160269
1071,1686016725.29,-22.461,971.68,106.445,-7.812,118489.735,319.49258665335907
1072,1686016725.29,-33.691,971.68,42.969,-24.414,118489.739,332.3299960790421
1073,1686016725.3,-31.738,972.168,68.848,-12.207,118489.743,321.60319990054995
1074,1686016725.3,-26.855,972.168,148.438,3.906,118489.747,323.87368119996586
1075,1686016725.3,-31.25,971.68,126.465,1.465,118489.751,319.7551997233329
1076,1686016725.31,-38.574,971.68,52.734,-9.766,118489.755,318.4262628823343
1077,1686016725.31,-35.645,971.68,70.312,-0.977,118489.759,319.44725565241936
1078,1686016725.32,-26.367,972.168,219.238,15.137,118489.763,316.85578028847044
1079,1686016725.32,-29.785,971.68,175.781,1.465,118489.767,320.65135096958994
1080,1686016725.35,-41.016,972.168,37.598,-17.09,118489.77,323.5065533623812
1081,1686016725.35,-40.039,971.68,98.633,-12.695,118489.774,323.37527606452113
1082,1686016725.36,-34.668,972.168,208.008,7.812,118489.778,320.52397172519323
1083,1686016725.36,-41.992,971.68,127.441,11.719,118489.782,320.1323018983889
1084,1686016725.36,-48.34,972.168,-14.16,-1.953,118489.786,324.3986400300467
1085,1686016725.37,-46.875,972.168,28.32,-10.742,118489.79,316.18168861208625
1086,1686016725.37,-39.551,971.68,215.332,-5.859,118489.794,330.13952209747595
1087,1686016725.38,-33.691,971.68,149.414,-0.977,118489.797,321.80661092209033
1088,1686016725.38,-28.809,971.68,60.059,0.488,118489.8,323.243123473185
1089,1686016725.38,-41.016,971.68,14.648,-9.766,118489.801,334.8298154309446
1090,1686016725.38,-43.945,971.68,132.324,-19.531,118489.804,328.3257853070302
1091,1686016725.38,-43.457,972.168,69.824,-14.16,118489.805,318.34243733476023
1092,1686016725.39,-49.316,971.68,95.703,-11.719,118489.808,324.9974553404192
1093,1686016725.39,-35.645,972.168,152.344,-2.93,118489.809,326.93985278458115
1094,1686016725.39,-41.504,971.68,62.5,1.465,118489.812,319.4936805554689
1095,1686016725.39,-28.32,971.68,55.176,10.742,118489.813,330.69817801933004
1096,1686016725.4,-37.109,971.68,34.668,-9.766,118489.816,332.42248070494634
1097,1686016725.4,-39.062,971.68,60.059,-24.414,118489.82,328.88439960824905
1098,1686016725.4,-46.387,971.68,98.633,-27.832,118489.824,320.89563352779663
1099,1686016725.41,-37.109,972.168,77.637,-10.254,118489.828,323.5443489568039
1100,1686016725.41,-31.738,971.68,120.605,-3.906,118489.832,336.93675226694586
1101,1686016725.41,-45.41,972.168,121.094,-18.066,118489.835,320.7016480882657
1102,1686016725.42,-44.434,971.68,62.988,-12.695,118489.839,322.00514647014637
1103,1686016725.42,-35.645,971.68,64.453,3.418,118489.843,321.1908296733819
1104,1686016725.42,-33.203,971.68,52.734,19.043,118489.845,321.4304290830651
1105,1686016725.43,-36.621,971.68,104.492,11.23,118489.849,326.6016693340578
1106,1686016725.43,-38.086,971.68,128.906,-10.742,118489.853,325.854763477164
1107,1686016725.44,-38.086,971.68,14.16,-8.789,118489.857,320.287444309235
1108,1686016725.44,-40.039,971.68,113.77,-3.418,118489.861,328.10226645317636
1109,1686016725.44,-44.434,972.168,153.32,-11.719,118489.864,321.43736873234116
1110,1686016725.45,-58.105,971.68,65.43,-27.832,118489.868,321.18794517778883
1111,1686016725.45,-63.965,971.68,18.066,-19.531,118489.872,322.59055589474303
1112,1686016725.46,-55.664,971.68,48.828,4.395,118489.876,324.2325878608504
1113,1686016725.46,-54.688,971.68,141.602,-3.906,118489.88,327.5224237802405
1114,1686016725.46,-58.594,971.68,28.809,-27.832,118489.884,329.3368539625047
1115,1686016725.47,-57.129,971.68,72.754,-30.762,118489.888,330.2763286579117
1116,1686016725.47,-46.387,971.68,167.48,-9.766,118489.89,323.38469599585903
1117,1686016725.47,-45.41,971.68,84.961,-4.395,118489.894,331.47278008629587
1118,1686016725.48,-61.035,971.68,2.441,-23.926,118489.898,321.2805808151495
1119,1686016725.48,-68.848,971.68,40.527,-29.785,118489.902,336.1501401330121
1120,1686016725.48,-63.477,972.168,83.008,-21.973,118489.906,327.8879639984379
1121,1686016725.49,-56.152,971.68,27.832,-17.09,118489.91,317.0770823497271
1122,1686016725.49,-55.664,971.68,31.25,-30.273,118489.913,328.22772117162293
1123,1686016725.5,-58.594,971.68,57.617,-39.551,118489.917,322.07356229227133
1124,1686016725.5,-55.176,971.68,159.668,-30.762,118489.921,322.56623413818306
1125,1686016725.5,-44.434,971.68,114.258,-17.578,118489.925,320.90567282537546
1126,1686016725.51,-45.898,971.191,16.602,-18.066,118489.929,319.5798631204117
1127,1686016725.51,-54.688,972.168,48.34,-29.297,118489.933,321.828564838752
1128,1686016725.52,-50.293,972.168,83.008,-26.367,118489.938,323.8538837498871
1129,1686016725.52,-41.992,971.68,74.707,-12.207,118489.942,324.86408735957576
1130,1686016725.52,-37.598,971.68,6.348,-13.184,118489.946,324.4921203112074
1131,1686016725.53,-39.551,971.68,41.992,-23.926,118489.95,333.02548436530145
1132,1686016725.53,-39.551,971.68,144.043,-24.902,118489.954,330.20542856502084
1133,1686016725.54,-33.203,971.68,78.125,-18.066,118489.958,321.676176298274
1134,1686016725.54,-32.227,971.68,-5.371,-10.254,118489.962,325.0761217717555
1135,1686016725.54,-34.18,971.68,38.574,-17.578,118489.966,324.98301853558456
1136,1686016725.55,-39.062,972.168,115.234,-41.016,118489.97,335.0851613595354
1137,1686016725.55,-36.133,971.68,20.996,-30.762,118489.974,327.1536098629592
1138,1686016725.55,-22.461,971.68,88.867,-6.348,118489.978,323.237256900847
1139,1686016725.56,-23.438,972.168,121.094,-22.461,118489.981,324.0370805108358
1140,1686016725.56,-27.832,972.168,41.992,-32.715,118489.995,333.52229001850367
1141,1686016725.56,-20.996,972.168,19.043,-24.902,118489.999,330.18859783194256
1142,1686016725.57,-13.672,972.168,18.555,-13.672,118490.003,330.76538593881577
1143,1686016725.57,-20.02,972.168,67.383,-15.137,118490.006,331.4411412140424
1144,1686016725.58,-35.156,972.168,23.438,-33.691,118490.01,319.51659390341166
1145,1686016725.58,-35.645,972.168,21.973,-27.832,118490.014,334.76650000942305
1146,1686016725.58,-31.25,971.68,25.391,-2.93,118490.018,327.4987141684284
1147,1686016725.59,-31.738,972.168,92.285,0.0,118490.022,323.82019853800296
1148,1686016725.59,-34.668,971.68,111.328,-21.973,118490.026,323.99693660185176
1149,1686016725.59,-38.086,971.68,21.973,-30.273,118490.03,325.20118466978795
1150,1686016725.6,-27.344,971.68,93.75,-18.555,118490.034,325.42725247428854
1151,1686016725.6,-21.484,971.68,75.195,-4.395,118490.038,314.44559346714584
1152,1686016725.6,-22.949,971.68,34.668,-14.16,118490.04,312.6037774905309
1153,1686016725.61,-23.438,971.68,8.301,-29.785,118490.044,323.7225751106181
1154,1686016725.61,-26.855,971.68,86.426,-18.555,118490.047,320.031881568379
1155,1686016725.62,-27.344,971.68,148.926,-2.441,118490.051,325.9906375416002
1156,1686016725.62,-24.902,971.68,18.555,-13.184,118490.055,319.49582223832465
1157,1686016725.62,-24.902,971.68,-45.898,-25.879,118490.059,338.26791464882956
1158,1686016725.63,-30.273,972.168,27.832,-24.414,118490.063,331.8346224181151
1159,1686016725.63,-26.855,971.68,109.863,-14.648,118490.067,326.0853174424654
1160,1686016725.64,-19.043,971.68,47.363,-12.207,118490.071,321.3455667942102
1161,1686016725.64,-28.32,972.168,-25.391,-31.738,118490.075,323.151606672751
1162,1686016725.64,-35.645,971.68,45.898,-39.062,118490.079,329.72383612664436
1163,1686016725.65,-25.391,971.68,100.098,-23.438,118490.083,321.31851661949554
1164,1686016725.65,-21.484,971.68,11.719,-12.207,118490.084,328.9848959293407
1165,1686016725.65,-30.762,971.68,29.785,-27.344,118490.088,327.9086772435708
1166,1686016725.66,-36.133,972.168,67.383,-37.109,118490.092,327.0254005006579
1167,1686016725.66,-40.039,971.68,67.871,-19.043,118490.095,330.3706094321051
1168,1686016725.67,-39.551,971.68,35.645,-9.277,118490.099,318.97311194134755
1169,1686016725.67,-41.504,972.168,12.695,-21.973,118490.103,325.35810573686274
1170,1686016725.67,-50.781,971.68,57.129,-39.062,118490.107,332.00076477110827
1171,1686016725.68,-44.434,971.68,41.992,-27.344,118490.111,328.33719667901846
1172,1686016725.68,-35.645,971.68,10.742,-14.16,118490.115,329.32078387998786
1173,1686016725.68,-30.762,972.168,1.465,-19.531,118490.119,325.7554285455747
1174,1686016725.69,-31.25,972.168,75.684,-26.855,118490.123,324.9082526242017
1175,1686016725.69,-29.785,972.168,82.031,-19.043,118490.127,321.4275782735927
1176,1686016725.71,-21.973,971.68,7.812,0.977,118490.144,331.6143761146946
1177,1686016725.71,-18.066,971.68,18.555,0.0,118490.148,327.15983280309393
1178,1686016725.72,-23.926,972.168,40.039,-28.809,118490.152,332.80427814317903
1179,1686016725.72,-27.832,971.68,58.105,-38.574,118490.156,328.25478532494924
1180,1686016725.72,-20.996,971.68,-10.254,-13.672,118490.16,332.7903808714589
1181,1686016725.73,-17.578,971.68,9.766,-6.836,118490.164,336.8903350316292
1182,1686016725.73,-26.367,972.168,145.508,-34.18,118490.168,328.84563615688285
1183,1686016725.74,-35.645,972.168,60.547,-44.434,118490.172,325.4786250774323
1184,1686016725.74,-26.367,971.68,1.953,-19.531,118490.176,313.97327242901486
1185,1686016725.74,-19.043,972.168,24.902,-12.207,118490.179,321.86767353268516
1186,1686016725.75,-17.578,971.68,52.246,-19.043,118490.183,325.51699257203745
1187,1686016725.75,-28.32,971.68,14.648,-28.809,118490.187,326.48719688339406
1188,1686016725.75,-38.574,972.168,45.41,-23.926,118490.176,326.0845108780679
1189,1686016725.76,-32.227,971.68,121.094,-6.348,118490.179,329.04091806994086
1190,1686016725.76,-36.133,971.68,75.684,-7.812,118490.183,326.5821952420136
1191,1686016725.77,-42.48,972.168,22.949,-20.996,118490.187,327.69633941422103
1192,1686016725.77,-37.598,971.68,20.02,-34.18,118490.191,325.04304270522755
1193,1686016725.77,-31.738,971.68,39.551,-23.438,118490.195,340.53699083341417
1194,1686016725.78,-32.227,971.68,60.547,-25.879,118490.199,319.106314070513
1195,1686016725.78,-33.203,971.68,30.762,-40.527,118490.203,325.3599433785204
1196,1686016725.78,-33.691,971.68,50.293,-39.062,118490.207,321.1661459499239
1197,1686016725.79,-23.438,972.168,126.465,-18.066,118490.211,324.492618894916
1198,1686016725.79,-14.16,971.68,61.035,-9.766,118490.215,322.4961054855665
1199,1686016725.8,-24.902,971.68,-0.977,-27.832,118490.219,328.82611103609423
1200,1686016725.8,-35.156,971.68,73.73,-36.621,118490.223,328.0111672159434
1201,1686016725.8,-27.832,971.68,99.609,-23.438,118490.227,327.9041559070309
1202,1686016725.81,-20.508,971.68,51.27,-12.207,118490.231,325.1609639511963
1203,1686016725.81,-13.184,971.68,-1.465,-18.555,118490.235,316.22228064456294
1204,1686016725.82,-25.879,971.68,7.324,-33.691,118490.239,322.1034758885992
1205,1686016725.82,-29.297,971.68,130.371,-32.715,118490.243,323.40712280769753
1206,1686016725.82,-11.23,971.68,108.398,-7.324,118490.247,323.7603713814933
1207,1686016725.83,-10.742,971.68,-23.926,-5.859,118490.251,319.87112293899406
1208,1686016725.83,-17.578,971.68,35.156,-22.461,118490.255,317.5614436623838
1209,1686016725.84,-17.578,971.68,144.531,-25.879,118490.259,323.96966191685294
1210,1686016725.84,-8.301,971.68,18.066,-13.672,118490.262,312.2072104821319
1211,1686016725.84,-14.16,972.168,43.945,-12.207,118490.266,322.03037804828745
1212,1686016725.84,-30.273,971.68,76.66,-38.086,118490.265,325.0593653274736
1213,1686016725.85,-34.18,971.68,35.156,-48.34,118490.269,328.41271394169434
1214,1686016725.85,-26.855,971.68,10.254,-30.273,118490.273,326.55849757375546
1215,1686016725.86,-27.344,971.68,34.18,-17.578,118490.277,320.871589665001
1216,1686016725.86,-32.227,971.68,53.223,-36.133,118490.281,329.2274608928901
1217,1686016725.86,-23.438,971.68,12.207,-47.852,118490.285,320.34001712637877
1218,1686016725.87,-29.297,971.68,50.293,-36.621,118490.288,324.9807845764258
1219,1686016725.87,-26.855,971.68,21.484,-21.973,118490.292,331.2978544746508
1220,1686016725.88,-23.926,972.168,84.961,-27.832,118490.296,326.46806036413443
1221,1686016725.88,-42.48,972.168,105.469,-56.641,118490.3,328.1308117561766
1222,1686016725.88,-41.504,971.68,17.09,-49.316,118490.304,328.5468290638383
1223,1686016725.89,-25.879,971.68,68.848,-21.973,118490.308,324.4811643299636
1224,1686016725.89,-29.785,971.68,62.5,-24.902,118490.31,321.2678600355672
1225,1686016725.89,-43.945,971.68,15.625,-52.734,118490.314,330.28439944319183
1226,1686016725.9,-39.062,972.168,0.488,-44.434,118490.318,328.0611061998297
1227,1686016725.9,-33.203,971.68,83.008,-11.23,118490.322,316.8430528659589
1228,1686016725.9,-37.109,971.68,103.516,-12.207,118490.326,321.54794522419417
1229,1686016725.91,-39.062,971.68,18.066,-26.855,118490.33,318.86550647945126
1230,1686016725.91,-41.992,971.68,-27.344,-35.645,118490.334,315.24294739271033
1231,1686016725.92,-47.852,972.168,0.977,-20.508,118490.338,319.1482132958643
1232,1686016725.92,-41.016,972.168,165.527,5.859,118490.341,317.8139142750916
1233,1686016725.92,-34.668,972.168,32.227,-1.953,118490.345,317.6085732915931
1234,1686016725.93,-42.969,972.168,36.133,-23.926,118490.349,324.5393082207083
1235,1686016725.93,-40.527,972.168,124.023,-14.16,118490.353,327.84580269588724
1236,1686016725.93,-36.621,971.68,56.641,0.0,118490.369,322.5717769226631
1237,1686016725.94,-36.621,971.68,16.602,-4.395,118490.373,329.0676456991197
1238,1686016725.94,-41.504,971.68,20.996,-24.414,118490.376,335.4073617761906
1239,1686016725.95,-43.945,972.168,77.148,-24.902,118490.38,322.35407958298117
1240,1686016725.95,-23.438,971.68,39.551,3.906,118490.384,319.8769341225678
1241,1686016725.95,-11.719,971.68,-5.859,9.766,118490.388,325.8557713498511
1242,1686016725.96,-25.879,972.168,14.648,-8.301,118490.392,329.7806291772863
1243,1686016725.96,-33.691,971.68,83.008,-23.438,118490.396,326.4479593225172
1244,1686016725.96,-28.32,971.68,69.824,-21.484,118490.4,319.90731499237177
1245,1686016725.97,-30.762,972.168,12.695,-20.508,118490.404,310.2032003012038
1246,1686016725.97,-45.41,972.168,61.035,-38.086,118490.408,323.08403930590094
1247,1686016725.98,-47.852,972.168,84.961,-52.734,118490.412,324.71521276640186
1248,1686016725.98,-39.551,971.68,26.855,-32.715,118490.414,324.3094063607751
1249,1686016725.98,-35.156,971.68,6.836,-15.137,118490.418,322.97142457995193
1250,1686016725.99,-37.109,972.168,62.988,-29.785,118490.422,319.30872061114616
1251,1686016725.99,-46.387,972.168,91.797,-39.062,118490.426,319.05112897179606
1252,1686016726.0,-45.41,971.68,41.504,-24.902,118490.43,327.1375240996153
1253,1686016726.0,-37.598,972.168,-30.762,-0.488,118490.434,319.1994560523384
1254,1686016726.0,-45.898,972.168,30.273,-7.812,118490.438,327.56779381883507
1255,1686016726.01,-50.781,971.68,110.84,-38.086,118490.442,328.79133654793776
1256,1686016726.01,-39.551,971.68,39.062,-47.852,118490.446,324.8054938181692
1257,1686016726.01,-29.297,971.68,57.129,-31.738,118490.45,327.5723293474462
1258,1686016726.02,-35.156,971.68,82.52,-29.785,118490.454,334.8231013581278
1259,1686016726.02,-46.875,971.68,62.5,-57.617,118490.457,335.84510579948443
1260,1686016726.03,-49.805,972.168,33.203,-68.359,118490.458,329.1018264802504
1261,1686016726.03,-41.504,971.68,51.758,-47.852,118490.462,324.5674213338876
1262,1686016726.04,-34.668,971.68,125.977,-31.25,118490.466,321.9156932029141
1263,1686016726.04,-41.504,971.68,56.152,-56.152,118490.47,337.6880965103194
1264,1686016726.04,-46.387,971.68,3.906,-71.289,118490.474,332.53439714766756
1265,1686016726.05,-40.527,972.168,32.227,-46.387,118490.478,332.73660042967725
1266,1686016726.05,-35.645,971.68,73.242,-30.273,118490.481,321.79570324142867
1267,1686016726.05,-40.527,971.68,42.969,-45.41,118490.485,333.1346119276263
1268,1686016726.06,-41.992,971.68,-2.441,-50.781,118490.489,328.9136117622838
1269,1686016726.06,-32.715,972.168,81.543,-29.785,118490.493,316.5181240948224
1270,1686016726.07,-23.438,971.68,147.949,-20.996,118490.497,325.3897702636169
1271,1686016726.07,-26.855,971.68,42.969,-31.25,118490.501,326.6845521274364
1272,1686016726.08,-43.457,971.68,6.836,-41.992,118490.508,322.8604111001722
1273,1686016726.09,-48.828,972.168,23.926,-40.527,118490.512,329.20896236089806
1274,1686016726.09,-41.504,971.68,52.246,-32.227,118490.516,326.3027447992512
1275,1686016726.1,-33.691,971.68,68.848,-29.297,118490.52,324.3506445412929
1276,1686016726.1,-35.156,971.68,3.418,-40.527,118490.524,338.1822415759173
1277,1686016726.1,-39.062,971.68,-41.504,-40.527,118490.528,333.6765045702902
1278,1686016726.11,-30.762,972.168,142.578,-30.762,118490.532,333.6599093525819
1279,1686016726.11,-17.09,972.168,135.742,-25.391,118490.536,347.5222076538695
1280,1686016726.12,-22.461,971.68,24.902,-28.32,118490.54,326.52755271742035
1281,1686016726.12,-32.715,971.191,69.336,-41.504,118490.543,334.97976959892145
1282,1686016726.12,-25.391,971.68,70.801,-32.227,118490.547,327.8747932334055
1283,1686016726.13,-15.137,971.68,29.785,-22.949,118490.551,323.8027884194714
1284,1686016726.13,-20.996,972.168,46.387,-42.48,118490.564,331.3816197094962
1285,1686016726.13,-30.273,972.168,83.496,-61.523,118490.568,336.2906210384036
1286,1686016726.14,-20.02,971.68,63.965,-46.387,118490.572,328.7489564976201
1287,1686016726.14,-16.602,971.68,45.41,-34.668,118490.576,329.1899185547117
1288,1686016726.14,-22.461,971.68,29.297,-41.504,118490.579,326.01705113318997
1289,1686016726.15,-28.32,971.68,47.363,-46.875,118490.583,326.69363116640886
1290,1686016726.15,-30.762,971.68,80.078,-43.457,118490.587,325.5169957410191
1291,1686016726.16,-22.461,971.68,89.355,-31.738,118490.591,331.4875865849871
1292,1686016726.16,-19.043,971.68,11.23,-25.879,118490.595,328.1301816015454
1293,1686016726.16,-21.484,971.68,102.051,-44.434,118490.599,335.9787592762003
1294,1686016726.17,-28.809,971.68,101.074,-56.641,118490.603,326.18950692605523
1295,1686016726.17,-18.066,971.68,9.277,-32.227,118490.607,337.09269505508985
