,timestamps,TP9,AF7,AF8,TP10,Secondary Timestamp,emg_signal
0,1686016709.54,-22.949,375.488,39.551,0.0,118473.96,312.9438552393082
1,1686016709.54,-9.766,291.992,112.305,17.578,118473.964,314.3125595332877
2,1686016709.55,-18.555,514.648,146.484,6.836,118473.968,317.43938049797606
3,1686016709.55,-37.598,507.812,16.113,-8.789,118473.971,309.07184014288896
4,1686016709.56,-22.461,249.512,-31.738,1.953,118473.975,317.0868344859655
5,1686016709.56,-7.812,-22.461,5.371,10.254,118473.979,311.26864708770603
6,1686016709.56,-22.461,154.297,151.367,-5.859,118473.983,313.1512313704336
7,1686016709.57,-33.203,482.91,180.664,-25.391,118473.987,316.2991823120123
8,1686016709.57,-27.832,113.77,-32.227,-17.09,118473.991,312.9249626807559
9,1686016709.57,-22.949,-163.086,-19.043,-2.93,118473.995,311.4771127776809
10,1686016709.58,-22.949,271.484,183.594,-17.09,118473.999,319.35473428829215
11,1686016709.58,-21.973,547.363,152.832,-36.621,118474.003,319.941190541356
12,1686016709.58,-22.461,117.188,-48.828,-34.668,118474.005,316.0002107564249
13,1686016709.59,-16.602,-948.73,-107.422,-15.137,118474.009,321.19199638290036
14,1686016709.59,-5.371,-465.82,197.266,-6.348,118474.013,312.8898061411351
15,1686016709.6,-5.371,556.641,184.082,-19.531,118474.017,301.0458297848962
16,1686016709.6,-21.484,124.512,-31.738,-32.227,118474.02,315.6492822609204
17,1686016709.6,-23.926,-185.059,120.117,-19.043,118474.024,315.97763617326325
18,1686016709.61,-15.137,217.285,222.656,-0.977,118474.028,318.68291336132427
19,1686016709.61,-17.578,569.824,73.73,-0.488,118474.032,320.5740326339705
20,1686016709.62,-27.832,-204.59,-75.684,-17.578,118474.036,311.18392099196484
21,1686016709.62,-30.273,-436.523,128.418,-21.973,118474.04,308.4218158173872
22,1686016709.62,-20.996,545.898,245.117,-5.859,118474.044,309.08395311992666
23,1686016709.63,-12.207,544.434,43.457,2.441,118474.048,308.32638731568125
24,1686016709.63,-16.602,17.09,-12.207,-20.996,118474.064,316.2968093335077
25,1686016709.63,-11.719,42.48,160.156,-19.531,118474.068,317.9154460415076
26,1686016709.64,-3.906,531.738,234.375,-8.301,118474.072,313.19787529688307
27,1686016709.64,-19.043,499.512,50.781,-20.02,118474.075,311.053965671862
28,1686016709.64,-27.832,2.441,-5.371,-13.672,118474.079,310.67041519177883
29,1686016709.65,-23.438,-136.719,78.125,-4.883,118474.083,315.96034638472497
30,1686016709.65,-25.391,223.633,180.664,5.371,118474.087,320.94834352368724
31,1686016709.66,-14.16,315.918,51.758,20.996,118474.091,315.42788834699013
32,1686016709.66,-16.113,-247.07,-7.324,12.695,118474.095,314.4355069496782
33,1686016709.66,-28.32,41.504,233.887,-1.953,118474.099,315.0180757485785
34,1686016709.67,-22.949,529.785,164.062,5.859,118474.103,314.74452281062776
35,1686016709.67,-6.836,342.773,113.281,21.484,118474.107,309.8145719461705
36,1686016709.67,-1.953,324.219,115.723,21.484,118474.095,308.7777578599886
37,1686016709.68,-18.066,205.566,21.973,7.324,118474.099,320.5252651212024
38,1686016709.68,-14.16,148.926,2.441,11.23,118474.103,311.86624981891106
39,1686016709.69,-6.836,-164.551,-48.828,45.898,118474.107,313.82577853148445
40,1686016709.69,-18.066,-506.836,46.875,62.988,118474.111,316.14375107239425
41,1686016709.69,-29.297,0.0,140.137,40.527,118474.115,309.79178457332205
42,1686016709.7,-34.668,146.484,-13.672,43.457,118474.118,315.6153357104698
43,1686016709.7,-25.391,-303.223,-20.02,70.312,118474.122,314.5626841090189
44,1686016709.7,-13.672,-178.711,166.992,85.449,118474.126,311.2296175962827
45,1686016709.71,-22.461,602.051,179.688,78.613,118474.13,315.76282142214177
46,1686016709.71,-38.086,445.312,-28.32,70.801,118474.134,310.29211175903225
47,1686016709.72,-24.414,151.855,58.594,80.078,118474.138,304.4910277428233
48,1686016709.72,-12.695,399.902,229.004,88.379,118474.14,312.85548680020975
49,1686016709.72,-25.391,654.297,137.695,72.754,118474.144,310.5532683582536
50,1686016709.73,-28.32,343.262,-40.527,58.105,118474.148,315.04381864663134
51,1686016709.73,-18.555,157.715,58.594,64.941,118474.152,318.74284812563207
52,1686016709.74,-11.23,381.348,155.762,81.055,118474.155,313.85772411430304
53,1686016709.74,-15.625,282.715,-3.906,76.172,118474.159,320.4621790152013
54,1686016709.74,-24.902,25.391,-89.844,59.082,118474.163,314.285588809004
55,1686016709.75,-34.18,-736.816,-90.82,56.152,118474.167,321.5234928091339
56,1686016709.75,-26.855,-340.332,190.918,74.219,118474.171,313.603483198406
57,1686016709.75,-13.184,658.203,175.781,79.59,118474.175,314.3905232103154
58,1686016709.76,-17.578,232.422,-46.387,51.758,118474.179,320.3427393694749
59,1686016709.76,-21.484,51.27,85.938,41.992,118474.183,318.5010253310099
60,1686016709.76,-19.531,504.883,193.359,58.105,118474.185,317.8891177022701
61,1686016709.77,-11.23,495.605,54.688,66.406,118474.189,317.66550811525815
62,1686016709.77,-13.184,-218.262,-107.422,54.199,118474.193,313.6310724495113
63,1686016709.78,-23.926,-416.504,35.156,50.781,118474.196,311.9633392399
64,1686016709.78,-25.879,307.617,198.242,54.688,118474.2,314.4957751830014
65,1686016709.78,-17.09,375.0,32.227,62.5,118474.204,314.5234616681516
66,1686016709.79,-13.672,-279.297,-71.289,55.664,118474.208,309.31974166723904
67,1686016709.79,-29.785,-423.828,39.551,39.062,118474.212,315.16411958798784
68,1686016709.8,-31.738,182.129,137.207,34.18,118474.216,310.2349014109867
69,1686016709.8,-21.973,413.574,89.844,40.527,118474.22,312.7504148214071
70,1686016709.8,-20.508,234.375,58.594,32.715,118474.224,313.9554457951615
71,1686016709.81,-30.762,249.512,126.953,9.277,118474.228,313.8066421839785
72,1686016709.81,-32.227,540.039,75.195,5.859,118474.236,312.83564703228836
73,1686016709.82,-15.137,460.938,-21.484,31.738,118474.24,317.93385913112417
74,1686016709.82,-9.766,369.629,55.664,35.645,118474.244,300.92155291164926
75,1686016709.82,-21.973,480.469,97.168,5.859,118474.248,310.75227807610827
76,1686016709.83,-27.344,497.07,-29.785,-2.93,118474.252,319.4374309212464
77,1686016709.83,-18.066,104.492,-100.586,19.531,118474.256,310.4023044185958
78,1686016709.84,-15.625,-382.812,33.691,25.879,118474.259,312.169270745376
79,1686016709.84,-17.578,83.008,208.008,12.207,118474.263,325.34925754581724
80,1686016709.84,-17.578,527.832,85.938,0.977,118474.267,314.44176739812696
81,1686016709.85,-12.695,228.027,-21.973,11.719,118474.271,311.2720129195161
82,1686016709.85,-16.113,184.082,56.152,24.902,118474.275,311.97160228800897
83,1686016709.86,-28.809,326.172,68.848,13.184,118474.279,310.84072770913184
84,1686016709.87,-35.156,448.242,-6.836,-5.859,118474.291,311.34826128525424
85,1686016709.87,-34.18,20.508,-11.23,-12.695,118474.295,314.5070718850356
86,1686016709.88,-25.879,-135.742,161.621,-6.348,118474.299,309.6597895813222
87,1686016709.88,-26.367,486.328,220.215,-9.766,118474.303,307.9235024953795
88,1686016709.88,-39.551,548.34,39.551,-20.996,118474.307,310.7297159977047
89,1686016709.89,-45.41,-187.012,-100.586,-23.926,118474.311,315.39024086220815
90,1686016709.89,-30.273,-1000.0,-12.695,1.465,118474.315,309.6885119049522
91,1686016709.9,-23.438,-320.312,195.312,8.789,118474.319,312.9810273624405
92,1686016709.9,-32.227,458.008,120.117,-13.672,118474.323,306.4320471348693
93,1686016709.9,-18.555,530.762,-26.367,-3.906,118474.333,314.5668930688134
94,1686016709.9,-30.762,196.289,-22.461,-17.09,118474.326,317.10049651253524
95,1686016709.91,-20.02,31.738,-1.953,-22.461,118474.337,310.01362426176183
96,1686016709.91,-17.09,353.027,137.207,4.883,118474.33,315.0813336847467
97,1686016709.91,-12.695,160.645,182.129,-16.113,118474.341,318.6232723575777
98,1686016709.91,-10.742,694.336,168.457,17.578,118474.334,318.0065803048835
99,1686016709.91,-7.812,616.699,210.449,0.488,118474.345,313.1265329296606
100,1686016709.92,-17.578,471.68,21.484,3.906,118474.349,304.6800438734357
101,1686016709.92,-31.25,-181.152,-49.316,-5.859,118474.353,315.32664446646066
102,1686016709.92,-36.621,-250.488,164.062,-0.977,118474.357,312.0858924791652
103,1686016709.93,-25.879,395.02,242.188,17.09,118474.361,315.2781276404074
104,1686016709.93,-17.09,392.578,-16.602,18.066,118474.365,304.01947063113914
105,1686016709.94,-27.832,-509.277,-108.887,1.953,118474.369,311.1066915847858
106,1686016709.94,-32.227,-175.293,214.844,-5.859,118474.372,320.52647868195646
107,1686016709.94,-21.973,542.48,197.266,11.23,118474.376,314.7068463512081
108,1686016709.96,-13.672,416.016,111.816,22.949,118474.38,316.07410663822697
109,1686016709.96,-23.438,103.027,28.809,18.066,118474.384,317.3815428489713
110,1686016709.97,-30.273,124.512,62.988,11.23,118474.388,310.22070928232006
111,1686016709.97,-22.461,490.234,175.293,18.555,118474.392,319.216635265565
112,1686016709.98,-24.414,26.367,-33.203,39.551,118474.396,324.5581419572879
113,1686016709.98,-22.949,-854.98,-39.062,39.551,118474.4,314.42795667668656
114,1686016709.98,-26.855,-217.285,236.816,17.09,118474.404,316.6511304146043
115,1686016709.99,-34.18,470.703,155.273,4.883,118474.408,320.9276760499194
116,1686016709.99,-22.949,98.145,54.688,12.695,118474.411,318.8786293381709
117,1686016709.99,-31.25,228.027,180.664,1.465,118474.415,325.9299395181124
118,1686016710.0,-39.551,591.309,80.566,-19.043,118474.419,315.951251590023
119,1686016710.0,-37.598,400.391,-28.32,-18.066,118474.423,316.26053699524147
120,1686016710.0,-34.18,253.418,80.078,-4.883,118474.425,323.3667259652541
121,1686016710.01,-29.785,430.176,188.965,-16.113,118474.429,311.7801169028242
122,1686016710.01,-28.32,578.125,92.773,-33.691,118474.433,316.9607285063902
123,1686016710.02,-26.367,299.316,-49.805,-28.809,118474.437,313.1343796096913
124,1686016710.02,-26.855,138.672,43.945,-12.695,118474.44,316.6386374683013
125,1686016710.02,-28.809,205.078,74.707,0.488,118474.444,318.64788224129796
126,1686016710.03,-37.598,92.285,32.227,-6.836,118474.448,314.9458152987083
127,1686016710.03,-37.598,-63.965,-52.734,-7.812,118474.452,318.4224319058783
128,1686016710.04,-24.902,-728.027,-85.449,12.207,118474.456,316.0785348080817
129,1686016710.04,-22.461,-247.07,205.566,18.066,118474.46,313.26308183006955
130,1686016710.04,-23.926,624.512,146.973,7.324,118474.464,322.5240556496333
131,1686016710.05,-25.391,247.07,19.043,0.0,118474.468,313.7338806632302
132,1686016710.05,-29.785,234.863,150.879,1.465,118474.47,323.36393254956295
133,1686016710.05,-26.855,336.426,70.312,6.836,118474.474,314.7023249832248
134,1686016710.06,-28.32,429.199,39.551,3.418,118474.478,308.65471578698794
135,1686016710.06,-30.762,-36.133,-25.879,-14.16,118474.482,305.99337466222556
136,1686016710.06,-21.484,-364.746,28.32,-9.277,118474.485,319.3663638755422
137,1686016710.07,-13.184,172.852,164.551,12.695,118474.489,316.9433158801435
138,1686016710.07,-0.488,307.129,100.586,19.531,118474.493,321.8902970872251
139,1686016710.08,-2.93,-211.426,-29.297,10.254,118474.497,315.10829823713397
140,1686016710.08,-9.766,-452.637,37.109,11.719,118474.501,318.1039574927315
141,1686016710.08,-5.371,234.375,218.75,21.973,118474.505,316.3167369254463
142,1686016710.09,-11.719,479.98,144.043,23.438,118474.509,317.78961817908913
143,1686016710.09,-13.184,201.66,37.109,15.625,118474.513,315.6358834669245
144,1686016710.09,-18.066,202.637,153.32,-0.488,118474.515,318.5331371348086
145,1686016710.1,-21.973,553.711,147.461,-0.977,118474.519,326.3180491419281
146,1686016710.1,-14.16,471.68,6.348,16.113,118474.523,311.88909207558015
147,1686016710.11,-18.555,359.375,55.664,1.465,118474.526,314.06673850592784
148,1686016710.11,-14.648,432.617,118.652,-20.508,118474.53,312.3075336742848
149,1686016710.11,-3.906,231.934,4.883,-7.812,118474.534,316.41736380495945
150,1686016710.12,-17.578,9.766,-6.836,-23.926,118474.538,321.1087570745333
151,1686016710.12,-43.945,-262.695,46.387,-62.5,118474.542,319.18921726072557
152,1686016710.12,-42.48,100.586,192.383,-88.379,118474.546,322.91953677438096
153,1686016710.13,-30.273,554.688,141.602,-99.609,118474.55,331.24366434690774
154,1686016710.13,-33.691,316.406,49.805,-103.516,118474.554,321.57803260540385
155,1686016710.14,-31.25,165.039,13.184,-106.445,118474.558,323.46410385709333
156,1686016710.14,-40.039,291.992,51.27,-127.441,118474.564,317.2105981805697
157,1686016710.14,-38.086,253.418,36.621,-140.625,118474.567,319.1939631985731
158,1686016710.15,-26.367,-232.422,-74.707,-117.676,118474.571,319.37042063231223
159,1686016710.15,-18.066,-456.543,76.66,-99.121,118474.575,324.9982452631975
160,1686016710.16,-13.184,256.836,205.078,-109.863,118474.579,324.83455705619434
161,1686016710.16,-20.02,378.906,-1.465,-125.488,118474.583,317.64564207685765
162,1686016710.16,-26.367,-385.254,-71.289,-117.188,118474.587,321.22099912713696
163,1686016710.17,-23.926,-298.828,101.562,-104.492,118474.591,320.20718569954363
164,1686016710.17,-20.508,621.582,146.973,-105.957,118474.595,324.06168260982975
165,1686016710.18,-23.926,535.156,-54.688,-101.562,118474.599,324.16832322261473
166,1686016710.18,-25.391,219.238,22.949,-95.703,118474.603,317.53649586949274
167,1686016710.18,-20.508,428.711,192.871,-81.055,118474.607,321.31715694397616
168,1686016710.18,-1.465,721.191,127.441,-60.547,118474.619,319.71648593703543
169,1686016710.19,11.23,467.285,-31.738,-53.223,118474.623,320.092811114986
170,1686016710.19,-17.09,-47.852,-6.836,-75.684,118474.627,318.67982570954024
171,1686016710.2,-41.016,228.027,194.824,-95.215,118474.631,311.33977300850336
172,1686016710.2,-35.156,611.816,144.043,-73.73,118474.635,312.40839981212025
173,1686016710.2,-23.926,261.719,-82.031,-71.289,118474.639,319.4101300513447
174,1686016710.21,-21.484,-690.918,-86.914,-74.219,118474.643,317.01839270705483
175,1686016710.21,-27.344,-428.711,170.898,-62.012,118474.647,318.42738073801524
176,1686016710.22,-27.832,632.812,222.168,-49.316,118474.65,320.9466143628386
177,1686016710.22,-32.715,429.199,17.09,-47.363,118474.654,330.21287483165423
178,1686016710.22,-30.762,198.242,-45.898,-64.453,118474.658,318.00514928184
179,1686016710.23,-12.695,451.172,44.434,-56.152,118474.662,324.6989396831506
180,1686016710.23,8.301,671.387,13.672,-30.273,118474.665,320.43101319632837
181,1686016710.23,8.789,115.723,-98.145,-27.832,118474.669,331.48728575123164
182,1686016710.24,2.441,-196.289,56.152,-49.316,118474.673,319.24492257923146
183,1686016710.24,10.742,381.348,180.664,-54.199,118474.676,325.3804762805162
184,1686016710.24,25.879,564.453,86.426,-33.691,118474.68,313.8633408891655
185,1686016710.25,32.227,-94.727,-47.852,-20.996,118474.684,321.8629825771062
186,1686016710.25,25.391,-610.352,26.855,-22.949,118474.688,323.38415258356605
187,1686016710.26,25.879,121.094,234.375,-20.02,118474.692,322.0381084870157
188,1686016710.26,27.832,533.203,142.578,-1.465,118474.696,323.99016178448704
189,1686016710.26,20.996,-36.621,37.109,14.648,118474.7,317.8869847607876
190,1686016710.27,13.672,-37.109,178.711,-0.488,118474.704,317.1340825196442
191,1686016710.27,0.488,525.879,125.0,-25.879,118474.708,321.2182354620013
192,1686016710.29,15.137,401.855,-16.602,-12.695,118474.71,318.95313301852565
193,1686016710.29,21.973,293.945,66.406,3.906,118474.714,320.1744131467496
194,1686016710.3,12.695,447.266,144.531,-12.207,118474.718,326.0363914042753
195,1686016710.3,2.441,532.227,41.992,-30.762,118474.722,314.6571751984933
196,1686016710.3,-0.977,291.016,-57.617,-22.461,118474.726,321.01401448872826
197,1686016710.31,18.066,-82.52,27.344,0.0,118474.729,321.52945662552924
198,1686016710.31,17.578,153.809,194.336,-9.766,118474.733,326.2255172002101
199,1686016710.32,6.348,312.988,98.145,-29.297,118474.737,322.1909713296843
200,1686016710.32,6.836,-120.117,-107.91,-22.461,118474.741,319.3641385995425
201,1686016710.32,0.0,-627.441,-45.898,-6.348,118474.745,310.57822189627854
202,1686016710.33,-5.371,-16.113,252.93,-11.23,118474.749,322.27470849864017
203,1686016710.33,-1.953,531.25,98.633,-26.855,118474.753,314.5952045962106
204,1686016710.33,-6.836,149.414,-0.488,-31.25,118474.755,307.4645526348415
205,1686016710.34,-2.441,-28.809,139.16,-14.648,118474.759,318.7992515192343
206,1686016710.34,9.277,222.656,182.129,8.301,118474.763,319.4727403047138
207,1686016710.35,4.883,566.406,135.742,-1.465,118474.767,316.4538875752806
208,1686016710.35,-4.395,-78.613,-41.016,-13.184,118474.771,313.29155981187387
209,1686016710.35,-0.977,-507.812,76.172,-9.766,118474.774,319.92978553299986
210,1686016710.36,6.836,44.922,221.68,0.0,118474.778,316.886495560098
211,1686016710.36,5.859,474.609,144.043,1.465,118474.782,319.4242391439373
212,1686016710.36,-0.977,-166.016,-44.434,-19.531,118474.786,314.8492116354165
213,1686016710.37,-6.836,-519.531,77.148,-19.531,118474.79,316.5092806911282
214,1686016710.37,-0.977,283.691,245.605,-7.812,118474.794,322.50787092251346
215,1686016710.38,5.371,488.281,116.699,-13.672,118474.798,319.2742343512951
216,1686016710.38,-3.906,135.742,29.297,-34.18,118474.813,321.85058255912503
217,1686016710.38,-9.766,192.871,180.176,-42.48,118474.817,317.254105552169
218,1686016710.39,0.488,621.094,225.098,-28.809,118474.821,317.62067473552804
219,1686016710.39,14.648,528.809,96.68,-5.859,118474.825,321.5919025168912
220,1686016710.4,1.953,322.754,37.109,-11.23,118474.829,316.4471465882006
221,1686016710.4,-12.207,109.375,17.09,-24.414,118474.833,317.1571919524777
222,1686016710.4,-3.906,144.531,113.77,-14.648,118474.837,324.03399548433816
223,1686016710.41,1.465,227.051,103.516,-6.348,118474.841,317.41993382433145
224,1686016710.41,2.441,-297.363,33.691,-14.16,118474.845,319.9663596166151
225,1686016710.41,-12.695,21.484,255.859,-29.785,118474.849,309.3477357723385
226,1686016710.42,-13.184,501.953,200.195,-23.926,118474.853,324.1896275289339
227,1686016710.42,-1.953,266.602,127.93,-17.578,118474.856,321.2010456968957
228,1686016710.42,-7.812,162.109,144.531,-19.043,118474.848,312.49174806911316
229,1686016710.43,-22.461,77.637,113.281,-27.344,118474.852,318.4730282100732
230,1686016710.43,-22.461,57.617,196.289,-30.762,118474.856,319.14387182210606
231,1686016710.44,-7.324,-187.988,107.91,-5.371,118474.86,320.9079043419829
232,1686016710.44,-7.324,-500.0,57.617,-0.977,118474.864,322.7156420855976
233,1686016710.44,-15.625,-70.801,224.609,-31.738,118474.868,325.49122386723883
234,1686016710.45,-25.879,156.25,201.172,-36.621,118474.872,319.961367373281
235,1686016710.45,-18.555,-289.062,109.375,-6.348,118474.875,325.7063270227169
236,1686016710.46,-10.742,-178.223,172.363,9.766,118474.879,316.48687037642316
237,1686016710.46,-20.996,586.426,219.238,-10.742,118474.883,322.450290380967
238,1686016710.46,-27.344,451.172,105.469,-35.645,118474.887,322.9314700648856
239,1686016710.47,-26.855,37.109,84.961,-26.367,118474.891,319.13449812518655
240,1686016710.47,-18.555,255.371,192.871,-16.113,118474.89,323.248938065682
241,1686016710.47,-12.695,646.973,196.777,-32.715,118474.894,323.71850088697005
242,1686016710.48,-16.602,320.312,42.48,-45.898,118474.898,324.3807741422011
243,1686016710.48,-12.695,-12.695,87.402,-41.992,118474.902,321.31005249026464
244,1686016710.48,-6.836,301.758,197.754,-27.344,118474.906,322.7448274016448
245,1686016710.49,-17.09,337.402,57.129,-31.25,118474.91,332.0967070625088
246,1686016710.49,-19.531,11.719,-51.27,-44.434,118474.914,329.19629705463774
247,1686016710.5,-20.508,-714.844,-55.176,-36.133,118474.918,325.7767793992175
248,1686016710.5,-16.602,-314.941,207.52,-20.508,118474.922,316.67581401002064
249,1686016710.5,-5.859,734.863,236.328,-17.578,118474.926,321.1024838278925
250,1686016710.51,-13.184,397.949,63.965,-27.832,118474.929,322.5476757807605
251,1686016710.51,-23.438,181.152,128.906,-36.133,118474.933,319.36366874439545
252,1686016710.51,-19.043,461.914,208.008,-19.043,118474.935,334.8680905906672
253,1686016710.52,-13.184,430.664,78.125,1.465,118474.939,328.4637025145689
254,1686016710.52,-17.578,-220.215,-84.961,-6.348,118474.943,332.2386627097474
255,1686016710.53,-26.367,-362.793,76.172,-27.344,118474.947,333.66383812125673
256,1686016710.53,-21.484,283.203,202.148,-18.066,118474.951,323.3178034270211
257,1686016710.53,-19.531,325.684,33.691,-0.488,118474.955,338.1577054283428
258,1686016710.54,-19.531,-302.246,-53.711,-10.254,118474.959,338.07991793406643
259,1686016710.54,-28.809,-725.586,92.773,-28.32,118474.963,330.0126097022467
260,1686016710.54,-29.297,145.508,273.438,-33.203,118474.966,330.1323500330214
261,1686016710.55,-14.648,542.969,137.695,-16.602,118474.97,339.7849237678
262,1686016710.55,-16.113,274.414,79.59,-20.996,118474.974,334.4846577617328
263,1686016710.56,-23.438,272.461,85.938,-43.457,118474.978,337.3432561045023
264,1686016710.57,-31.25,477.051,72.754,-47.852,118474.993,344.93731298333716
265,1686016710.57,-28.809,410.156,35.645,-38.574,118474.997,336.5724898119179
266,1686016710.57,-20.508,241.699,58.105,-28.32,118475.001,333.9485223405501
267,1686016710.58,-24.414,341.309,134.277,-38.574,118475.005,343.0240989117305
268,1686016710.58,-34.668,405.273,101.074,-51.27,118475.009,340.5256458110644
269,1686016710.59,-38.086,77.637,-39.551,-35.645,118475.013,345.246873677837
270,1686016710.59,-27.344,-424.316,25.879,-22.949,118475.017,336.72971372338986
271,1686016710.59,-15.625,10.742,204.102,-21.973,118475.021,349.6819785097314
272,1686016710.6,-20.996,344.238,89.844,-37.109,118475.025,351.2111403627506
273,1686016710.6,-34.18,-137.207,-75.684,-47.852,118475.029,351.9355783242852
274,1686016710.6,-28.32,-96.68,11.23,-17.09,118475.033,350.2155698136782
275,1686016710.6,-31.25,532.227,44.434,-43.945,118475.039,363.0251553885567
276,1686016710.61,-26.367,469.238,197.754,-13.672,118475.036,358.1578269054029
277,1686016710.61,-38.086,-34.668,-20.996,-42.48,118475.042,357.9793206509029
278,1686016710.61,-25.879,-78.125,187.988,-26.367,118475.046,354.1300966444523
279,1686016710.62,-16.602,448.242,188.965,-32.715,118475.05,363.41430912417053
280,1686016710.62,-31.738,576.66,19.043,-51.758,118475.054,356.6005079490043
281,1686016710.62,-38.086,-254.395,-111.328,-56.152,118475.058,347.8112880190712
282,1686016710.63,-29.785,-696.289,85.449,-39.062,118475.062,351.338675258551
283,1686016710.63,-20.02,320.312,274.414,-33.691,118475.066,353.22899180802443
284,1686016710.64,-20.996,543.457,62.988,-44.922,118475.07,358.0923372647636
285,1686016710.64,-34.18,-34.18,2.441,-58.594,118475.074,348.48151545244497
286,1686016710.64,-31.738,-54.199,149.902,-42.48,118475.078,361.45207280596856
287,1686016710.65,-22.461,304.199,105.469,-30.762,118475.082,353.80798805126375
288,1686016710.65,-22.949,333.008,7.324,-45.41,118475.083,358.8913567290159
289,1686016710.66,-32.227,60.547,81.055,-58.594,118475.087,355.0139087396876
290,1686016710.66,-35.156,183.105,205.078,-58.594,118475.091,357.71733615867413
291,1686016710.66,-29.297,572.266,176.27,-36.621,118475.095,359.76283991061854
292,1686016710.67,-26.855,457.031,8.301,-34.18,118475.099,353.0289090320608
293,1686016710.67,-30.273,-462.891,-75.684,-53.711,118475.103,360.7173551298559
294,1686016710.67,-32.227,-361.816,186.523,-57.617,118475.107,353.9391217444518
295,1686016710.68,-24.414,534.668,232.91,-38.574,118475.111,357.79719261098495
296,1686016710.68,-24.902,246.094,-10.742,-31.25,118475.115,345.3445375188751
297,1686016710.69,-26.855,-159.668,-41.016,-45.41,118475.119,357.4913612063601
298,1686016710.69,-22.461,226.074,204.102,-48.828,118475.122,355.93083174264297
299,1686016710.69,-14.648,484.863,166.016,-36.621,118475.126,360.9297750752746
300,1686016710.71,-3.418,245.117,73.242,-25.879,118475.133,352.6604584019609
301,1686016710.71,-9.766,-76.172,38.086,-33.691,118475.137,347.2521329818396
302,1686016710.72,-22.949,-162.598,-12.695,-52.734,118475.141,353.7660935615361
303,1686016710.72,-15.625,118.652,103.516,-46.875,118475.144,357.547419297608
304,1686016710.73,-3.906,-51.758,18.555,-32.715,118475.148,347.4536998093911
305,1686016710.73,-15.137,-897.461,-57.129,-35.156,118475.152,346.44015384477467
306,1686016710.73,-19.531,-330.078,229.004,-52.246,118475.156,340.669567602427
307,1686016710.74,-15.137,409.18,168.945,-58.105,118475.16,339.09175207151713
308,1686016710.74,-11.719,48.828,55.664,-39.062,118475.164,346.98672079306783
309,1686016710.74,-11.719,152.344,192.383,-29.785,118475.168,349.3879898766449
310,1686016710.75,-19.043,511.23,111.328,-48.34,118475.172,344.4802228628907
311,1686016710.75,-22.461,291.504,-32.715,-54.199,118475.176,351.4002548948093
312,1686016710.75,-11.23,208.984,75.195,-35.156,118475.175,346.00721847767926
313,1686016710.76,-0.488,446.289,198.242,-32.227,118475.179,354.5877727992121
314,1686016710.76,-8.789,566.895,96.68,-44.922,118475.183,344.9547375314345
315,1686016710.77,-19.531,266.113,-33.203,-57.129,118475.187,347.4460632689881
316,1686016710.77,-20.02,-75.195,4.395,-47.363,118475.191,348.96041578000944
317,1686016710.77,-17.09,-4.395,121.582,-28.32,118475.195,340.2125500643642
318,1686016710.78,-23.926,72.266,134.766,-46.875,118475.199,346.0727279631969
319,1686016710.78,-38.086,-97.168,-28.32,-60.059,118475.202,350.1384533729319
320,1686016710.78,-28.32,-761.719,-57.129,-37.109,118475.206,339.74253840850855
321,1686016710.79,-7.812,-288.574,213.867,-14.648,118475.21,340.8573856397747
322,1686016710.79,2.93,621.582,155.273,-20.996,118475.214,340.53712274660535
323,1686016710.8,-22.461,220.215,10.742,-53.711,118475.218,342.40763941357113
324,1686016710.81,-35.645,83.008,124.023,-57.617,118475.235,329.93028862507214
325,1686016710.82,-12.695,232.91,127.441,-29.297,118475.239,327.7895757205095
326,1686016710.82,5.859,244.629,94.238,-8.301,118475.243,331.7022589009018
327,1686016710.83,-6.348,-218.262,-25.879,-22.949,118475.247,326.57751098325946
328,1686016710.83,-18.555,-434.57,31.738,-43.457,118475.251,326.1292571570591
329,1686016710.83,-15.625,52.734,131.836,-27.832,118475.255,327.69850313324264
330,1686016710.84,-15.625,202.637,101.562,-16.113,118475.259,325.7860418498178
331,1686016710.84,-19.043,-283.691,-37.598,-18.555,118475.262,326.7107243861613
332,1686016710.84,-10.254,323.73,146.973,-42.48,118475.265,334.8195264139802
333,1686016710.84,-26.855,-696.777,69.824,-22.949,118475.266,322.50435063930405
334,1686016710.85,-9.766,467.285,111.816,-29.785,118475.269,330.2031717709797
335,1686016710.85,-22.949,242.188,289.551,-15.625,118475.27,332.7415520531005
336,1686016710.85,-11.719,414.551,45.898,-17.09,118475.273,326.11188058100527
337,1686016710.85,-9.277,567.871,98.633,-9.277,118475.274,325.7904322831856
338,1686016710.86,-11.719,225.586,41.992,-20.508,118475.277,328.79543853875583
339,1686016710.86,-7.812,279.297,81.055,-30.273,118475.278,325.9665332816992
340,1686016710.86,-15.137,274.902,112.793,-38.086,118475.281,336.0123871479978
341,1686016710.86,-13.184,156.25,17.09,-45.898,118475.285,318.55120187313224
342,1686016710.87,-1.465,-94.727,-33.691,-20.02,118475.289,324.1840841559064
343,1686016710.87,-5.371,-24.902,56.641,-6.348,118475.293,325.6310389198447
344,1686016710.88,-20.02,316.406,108.398,-28.32,118475.297,313.7824799171281
345,1686016710.88,-18.555,201.172,7.324,-28.32,118475.301,317.22363335502956
346,1686016710.88,-6.348,-143.555,-89.844,-4.395,118475.305,310.2477476125038
347,1686016710.89,-1.465,-677.734,-21.484,4.883,118475.308,320.4002679398342
348,1686016710.89,-11.23,-204.59,224.609,-12.207,118475.324,319.99050873319266
349,1686016710.89,-18.066,250.977,80.566,-38.086,118475.328,317.2374403508083
350,1686016710.9,-10.742,-435.059,-61.523,-20.02,118475.332,319.55802283213677
351,1686016710.9,-4.883,-328.613,80.566,1.953,118475.336,316.82582575471037
352,1686016710.9,-9.277,398.926,167.48,-15.137,118475.34,314.7670248239615
353,1686016710.91,-16.602,268.555,-7.812,-33.203,118475.344,315.2430079774962
354,1686016710.91,-17.578,-476.562,-53.711,-27.832,118475.348,321.62018290104515
355,1686016710.92,-15.625,-434.082,105.957,-11.719,118475.352,317.56518564635854
356,1686016710.92,-17.09,483.398,190.43,-20.508,118475.356,323.1946331757118
357,1686016710.92,-25.879,393.555,-24.902,-41.992,118475.36,321.2394628217804
358,1686016710.93,-20.996,159.18,25.391,-39.062,118475.363,312.5978566351781
359,1686016710.93,-2.441,225.098,145.996,-11.719,118475.367,314.558156089667
360,1686016710.94,-8.301,359.375,145.508,-6.836,118475.361,310.75808914039175
361,1686016710.94,-19.043,343.75,40.527,-26.367,118475.365,314.2912359918225
362,1686016710.94,-13.672,-62.012,54.199,-24.414,118475.369,312.7843831151034
363,1686016710.95,-8.301,145.508,220.215,-6.836,118475.373,307.606204715712
364,1686016710.95,-5.859,529.785,124.512,0.0,118475.377,304.68250298807794
365,1686016710.96,-7.324,116.699,-48.34,-2.441,118475.38,306.3498015112098
366,1686016710.96,-8.301,-209.473,19.531,-4.395,118475.384,308.9702586597943
367,1686016710.96,-5.859,193.359,206.055,2.441,118475.388,308.8961080205763
368,1686016710.97,2.441,501.465,160.645,13.184,118475.392,312.3236533114638
369,1686016710.97,1.953,131.348,-74.707,9.766,118475.396,305.4458549563081
370,1686016710.98,-15.137,-470.215,-69.336,-17.578,118475.4,310.93582456805785
371,1686016710.98,-17.09,-60.059,216.797,-16.113,118475.404,310.78022448407245
372,1686016711.0,-11.719,493.652,170.898,10.254,118475.418,304.41633952984597
373,1686016711.0,-9.766,114.258,25.879,11.719,118475.422,321.781467321467
374,1686016711.0,-15.137,-325.195,73.242,4.395,118475.426,315.79339955798457
375,1686016711.01,-20.02,4.395,151.855,0.977,118475.43,311.8005266153596
376,1686016711.01,-20.508,418.945,148.438,6.836,118475.434,308.64133956353544
377,1686016711.02,-15.625,-133.301,-43.945,17.578,118475.438,311.651293965614
378,1686016711.02,-21.484,-994.141,-43.945,7.324,118475.442,308.0396128291459
379,1686016711.02,-34.18,-272.461,228.516,-12.207,118475.446,300.16687136099864
380,1686016711.03,-22.949,397.461,178.711,4.883,118475.45,309.4804697580964
381,1686016711.03,-14.16,273.926,44.434,14.16,118475.454,296.0994301351842
382,1686016711.03,-21.484,360.352,30.762,-17.09,118475.457,307.6085430283714
383,1686016711.04,-26.367,378.906,-1.465,-32.715,118475.461,313.1488650201198
384,1686016711.04,-30.762,237.793,-20.02,-21.973,118475.474,310.1500825839184
385,1686016711.04,-27.344,200.684,72.266,-3.418,118475.478,310.6443083289222
386,1686016711.05,-24.414,394.043,153.809,-14.648,118475.482,306.6948316870912
387,1686016711.05,-28.32,419.922,27.832,-42.48,118475.486,297.5142265238186
388,1686016711.06,-21.973,144.043,-36.133,-36.133,118475.49,306.10155587508336
389,1686016711.06,-11.23,-88.379,24.902,-19.043,118475.494,308.8224741700672
390,1686016711.06,-15.137,-77.148,66.406,-22.949,118475.498,304.5093736696725
391,1686016711.07,-23.438,111.816,103.516,-50.781,118475.502,305.0751576427328
392,1686016711.07,-19.531,73.73,-2.441,-63.965,118475.506,307.91294835983274
393,1686016711.07,-18.066,-733.398,-74.707,-38.086,118475.51,304.6670212483965
394,1686016711.08,-19.531,-278.32,227.539,-28.809,118475.513,305.8667896810732
395,1686016711.08,-19.043,545.41,137.695,-42.969,118475.517,299.302170255701
396,1686016711.08,-24.414,160.156,-7.324,-56.152,118475.505,305.13540657066875
397,1686016711.09,-30.273,-137.207,94.238,-51.27,118475.509,313.34534221055424
398,1686016711.09,-16.113,161.621,152.832,-41.504,118475.512,300.37872862528815
399,1686016711.1,-14.648,534.668,80.078,-53.711,118475.516,311.4004133252105
400,1686016711.1,-34.18,-142.09,-102.539,-56.641,118475.52,307.1659454402072
401,1686016711.1,-36.621,-680.664,31.25,-49.316,118475.524,301.5723443135111
402,1686016711.11,-26.367,53.223,237.793,-48.34,118475.528,312.2468624868805
403,1686016711.11,-24.902,356.934,74.707,-48.828,118475.532,305.5056839442881
404,1686016711.12,-30.273,-244.629,-3.906,-58.594,118475.536,306.04818047987004
405,1686016711.12,-28.809,-176.758,187.988,-58.105,118475.54,306.54968404728737
406,1686016711.12,-22.949,477.051,199.219,-33.203,118475.544,309.81054908494224
407,1686016711.13,-16.113,545.898,62.5,-35.156,118475.548,303.16064985385464
408,1686016711.13,-19.043,-396.973,-94.727,-53.223,118475.55,312.13399880780014
409,1686016711.13,-25.879,-635.254,93.262,-48.828,118475.554,305.220299273511
410,1686016711.14,-12.695,373.047,237.305,-28.32,118475.558,304.56194238912536
411,1686016711.14,-7.812,418.945,46.387,-24.414,118475.561,306.7956372290737
412,1686016711.14,-14.16,92.773,-29.785,-40.039,118475.565,317.0926538863348
413,1686016711.15,-17.578,-92.285,-26.367,-46.875,118475.569,307.4472543166999
414,1686016711.15,-17.09,115.723,64.941,-34.18,118475.573,311.48260464426926
415,1686016711.16,-6.348,212.402,17.09,-19.531,118475.577,303.26604844040264
416,1686016711.16,-3.906,-381.348,-29.297,-23.438,118475.581,304.994806771635
417,1686016711.16,-12.695,-83.984,186.523,-42.48,118475.585,313.4458908812967
418,1686016711.17,-14.16,197.754,60.059,-41.016,118475.589,310.27579706503093
419,1686016711.17,-11.23,-147.461,-35.156,-21.484,118475.593,317.1723319972853
420,1686016711.18,-3.418,4.395,36.621,-18.555,118475.598,309.6235331510967
421,1686016711.18,-2.441,84.961,18.555,-32.715,118475.602,307.9153052929337
422,1686016711.18,-8.301,104.492,18.066,-40.527,118475.606,312.4176814978294
423,1686016711.19,-4.395,-144.043,-42.48,-29.297,118475.61,322.50329520566885
424,1686016711.19,-3.906,-466.797,13.672,-22.461,118475.614,314.9588360896106
425,1686016711.2,-10.742,-65.918,52.734,-41.016,118475.618,303.60977981703223
426,1686016711.2,-23.926,6.348,-28.809,-49.805,118475.622,310.4578381090848
427,1686016711.2,-24.902,-468.262,-41.992,-26.855,118475.626,312.98265184319536
428,1686016711.21,-7.324,-430.176,89.355,-11.23,118475.63,317.4290659432956
429,1686016711.21,-7.812,437.5,144.531,-29.297,118475.634,316.1059162054225
430,1686016711.21,-4.883,369.141,-47.852,-35.156,118475.637,319.12072694160025
431,1686016711.22,-2.441,134.277,61.523,-25.391,118475.641,323.43153847278614
432,1686016711.23,-0.488,196.289,131.348,-15.137,118475.656,326.7417082294412
433,1686016711.24,-1.465,324.707,81.055,-21.973,118475.66,328.1622858553158
434,1686016711.24,-19.043,254.395,10.254,-34.668,118475.664,322.3415701708285
435,1686016711.25,-17.09,-16.602,56.641,-25.879,118475.667,334.73294422359595
436,1686016711.25,-6.348,208.984,158.691,-13.672,118475.671,326.1304902989722
437,1686016711.25,-4.883,190.918,15.625,-8.301,118475.675,330.38590385844964
438,1686016711.26,-13.184,-42.969,-68.359,-20.508,118475.679,334.2114749946726
439,1686016711.26,-13.184,-723.633,-84.473,-26.367,118475.683,332.74937944136104
440,1686016711.26,-4.883,391.602,193.359,-7.324,118475.7,334.8464288046656
441,1686016711.26,-2.441,-423.828,202.148,-8.789,118475.687,328.87119740667947
442,1686016711.27,3.906,424.805,69.824,0.0,118475.704,331.8408259085471
443,1686016711.27,-6.836,534.668,181.152,-9.766,118475.691,337.2557782810584
444,1686016711.27,-8.301,-273.926,-100.098,-18.555,118475.707,332.4126017116928
445,1686016711.27,-13.184,197.266,-46.875,-24.414,118475.695,332.519727974757
446,1686016711.28,-12.695,-655.762,43.945,-35.156,118475.711,326.5798396958069
447,1686016711.28,-14.648,22.949,73.242,-25.879,118475.699,331.70534239862667
448,1686016711.28,0.977,53.223,220.215,-27.344,118475.715,332.9009725012831
449,1686016711.28,13.672,250.0,19.043,-5.859,118475.719,332.4278918330715
450,1686016711.29,6.348,-289.551,-14.16,-12.207,118475.723,336.12193387675137
451,1686016711.29,-2.93,-294.922,167.969,-28.32,118475.727,338.3640713233181
452,1686016711.3,-5.859,264.16,202.637,-18.555,118475.731,323.0710600038469
453,1686016711.3,3.906,547.363,122.559,0.0,118475.735,336.4989141873427
454,1686016711.3,11.23,-215.82,-53.711,3.418,118475.739,331.9861289851681
455,1686016711.31,-2.93,-619.141,40.039,-11.23,118475.743,342.76652397493353
456,1686016711.31,-3.906,243.164,184.082,-16.602,118475.732,339.8012413591002
457,1686016711.31,5.859,314.453,57.617,8.301,118475.736,339.98390281197146
458,1686016711.32,9.277,188.965,83.984,15.625,118475.74,345.7117828323606
459,1686016711.32,-2.441,333.496,109.375,3.418,118475.743,344.7427762898693
460,1686016711.33,-11.23,353.516,-21.484,-10.742,118475.747,350.86555309458464
461,1686016711.33,-7.324,20.02,-82.52,1.465,118475.751,337.551298596012
462,1686016711.33,3.418,-375.0,48.828,27.344,118475.755,345.1565677094352
463,1686016711.34,0.0,-86.914,188.965,9.766,118475.759,343.1199420622295
464,1686016711.34,-9.766,411.621,175.781,-5.371,118475.763,337.987681716194
465,1686016711.34,1.465,131.348,-37.109,14.16,118475.767,336.4595117605948
466,1686016711.35,11.719,-593.75,-51.758,29.785,118475.771,348.0575523279795
467,1686016711.35,5.859,-77.637,240.723,14.648,118475.775,344.90898030445237
468,1686016711.35,-0.488,520.508,64.941,-15.137,118475.789,343.01293204670714
469,1686016711.36,-1.465,-4.883,-6.836,-10.742,118475.793,347.98293613305674
470,1686016711.36,3.906,-145.02,174.316,6.348,118475.797,340.69344476060456
471,1686016711.37,-1.953,354.492,169.922,2.93,118475.801,342.8440950560938
472,1686016711.37,-10.254,471.191,8.301,-3.418,118475.805,343.23176069452273
473,1686016711.37,-9.766,-336.426,-130.371,-7.812,118475.809,346.0378306629427
474,1686016711.38,14.648,-802.246,119.629,16.602,118475.813,340.45665764905823
475,1686016711.38,20.996,160.645,275.391,16.113,118475.816,341.8279719589767
476,1686016711.38,-27.832,311.523,-8.789,-45.898,118475.82,345.7332113305673
477,1686016711.39,-47.852,-263.184,-0.488,-59.082,118475.824,348.0896936010604
478,1686016711.39,-31.738,-119.629,168.457,-24.414,118475.828,347.09736087714714
479,1686016711.4,-34.18,355.957,126.953,-7.324,118475.832,342.47037415023453
480,1686016711.41,-52.246,327.148,22.461,-15.137,118475.835,342.1353442579744
481,1686016711.42,-70.801,60.547,38.574,-38.574,118475.839,341.4433847228586
482,1686016711.42,-65.43,227.539,176.758,-45.41,118475.843,341.5672500646716
483,1686016711.43,-54.688,534.18,164.551,-27.832,118475.847,341.54195107435953
484,1686016711.43,-53.223,379.883,-21.973,-20.508,118475.851,351.2183629788966
485,1686016711.43,-53.223,-214.355,-42.969,-34.18,118475.854,330.91760714456734
486,1686016711.44,-50.781,-162.109,172.852,-33.203,118475.858,324.81945874045476
487,1686016711.44,-32.227,396.973,210.938,-11.719,118475.862,331.0694959122543
488,1686016711.44,-20.508,243.652,-19.043,4.395,118475.866,330.8903877311716
489,1686016711.45,-23.926,-321.289,-23.438,1.465,118475.87,328.2857676859812
490,1686016711.45,-24.902,-33.203,167.969,-11.23,118475.874,323.6481627631582
491,1686016711.46,-18.066,144.043,33.203,1.953,118475.878,319.7553412720558
492,1686016711.46,-16.602,-201.172,-61.523,21.484,118475.88,315.20749049769756
493,1686016711.46,-20.508,-451.66,-26.855,10.742,118475.884,312.35977274871215
494,1686016711.47,-28.32,-123.535,104.98,-2.93,118475.888,316.99042535913367
495,1686016711.47,-27.832,318.848,135.742,13.672,118475.892,309.28944214651005
496,1686016711.48,-7.812,-72.266,-15.625,33.691,118475.896,314.0278459709881
497,1686016711.48,-7.324,-526.367,-9.766,18.066,118475.899,310.1904448967746
498,1686016711.48,-28.809,-24.414,166.504,-11.719,118475.903,322.09142858572045
499,1686016711.49,-26.367,370.117,112.793,-7.324,118475.907,297.4580732400805
500,1686016711.49,-11.23,-276.855,-49.316,22.949,118475.911,299.31593585616577
501,1686016711.49,-14.648,-455.078,67.383,28.809,118475.915,305.2996568172112
502,1686016711.5,-19.531,374.512,139.16,8.301,118475.919,300.09683941145266
503,1686016711.5,-26.367,316.895,-44.434,4.883,118475.923,283.4331297037861
504,1686016711.5,-27.344,186.035,58.105,11.23,118475.929,284.5174180461954
505,1686016711.51,-22.949,218.75,103.516,6.836,118475.933,286.1611449769816
506,1686016711.51,-21.973,222.168,38.086,-12.207,118475.936,275.90777074645445
507,1686016711.52,-23.438,200.684,-24.414,-16.113,118475.94,270.9173245214502
508,1686016711.52,-28.32,-107.91,33.203,-0.977,118475.944,273.5930818361716
509,1686016711.52,-14.16,-137.695,137.695,12.695,118475.948,267.9146410831876
510,1686016711.53,-13.672,148.926,95.703,6.348,118475.952,257.19931439085474
511,1686016711.53,-21.484,115.234,-31.738,-10.742,118475.956,267.42633591879246
512,1686016711.54,-20.996,-495.117,-39.062,-7.812,118475.96,263.3564253670337
513,1686016711.54,-25.391,5.859,245.117,0.488,118475.964,266.48363265048135
514,1686016711.54,-23.926,547.363,72.266,-3.418,118475.968,250.14257441670063
515,1686016711.55,-28.809,83.008,-41.992,-13.184,118475.972,262.5533420088739
516,1686016711.55,-33.203,28.809,121.094,-11.719,118475.97,254.76756046568522
517,1686016711.55,-21.484,141.113,43.457,9.766,118475.974,253.79520433558406
518,1686016711.56,-12.207,278.809,47.363,12.695,118475.978,251.88224489255518
519,1686016711.56,-20.02,-118.652,-13.184,-1.953,118475.982,253.64149304822607
520,1686016711.56,-18.555,-680.176,22.461,-1.465,118475.986,257.724589722292
521,1686016711.57,-12.207,-145.508,218.75,9.277,118475.99,256.89400897795105
522,1686016711.57,-11.23,187.012,134.766,11.719,118475.994,249.9862214451316
523,1686016711.58,-9.766,-360.84,-54.199,4.883,118475.997,249.87157750480452
524,1686016711.58,-14.16,-778.32,77.637,-6.836,118476.001,243.27671064660026
525,1686016711.58,-14.16,126.953,285.156,-11.719,118476.005,251.60388228628204
526,1686016711.59,-12.695,473.633,95.703,0.977,118476.009,238.0789538138213
527,1686016711.59,-20.996,227.539,58.594,-7.812,118476.013,244.7168740854701
528,1686016711.59,-31.738,252.93,120.605,-16.602,118476.015,244.33645583630727
529,1686016711.6,-34.668,380.371,47.363,-5.859,118476.019,247.19376648680125
530,1686016711.6,-24.902,270.02,-6.348,0.0,118476.023,244.206721896047
531,1686016711.61,-25.879,140.625,67.871,5.859,118476.027,250.51835039998642
532,1686016711.61,-34.668,230.957,69.336,5.371,118476.03,236.76650320542433
533,1686016711.61,-35.156,46.875,-29.785,0.488,118476.034,240.94427836684434
534,1686016711.62,-31.25,-40.039,-23.438,8.301,118476.038,242.20477138175275
535,1686016711.62,-30.762,-644.043,-58.594,14.648,118476.042,242.19271625632098
536,1686016711.62,-38.574,-487.793,148.438,-10.742,118476.046,238.50537802439734
537,1686016711.63,-47.852,403.32,167.48,-29.297,118476.05,251.0186558372117
538,1686016711.63,-41.504,199.219,6.836,-12.695,118476.054,244.21846697539732
539,1686016711.64,-32.715,128.906,66.895,-2.93,118476.058,240.45931184338653
540,1686016711.64,-32.227,375.488,74.219,-17.578,118476.06,243.159349399733
541,1686016711.64,-37.598,183.105,-36.133,-32.227,118476.064,244.76108252479827
542,1686016711.65,-40.527,-374.512,-50.293,-20.02,118476.068,248.58976504669994
543,1686016711.65,-37.109,-368.652,61.523,-5.859,118476.071,243.8170038310106
544,1686016711.66,-34.668,277.832,140.137,-17.09,118476.075,255.4987937984311
545,1686016711.66,-27.344,195.312,-2.441,-36.621,118476.079,244.92214628204687
546,1686016711.66,-21.484,-548.828,-56.152,-27.344,118476.083,249.3345628493003
547,1686016711.67,-20.508,-532.715,115.234,-3.906,118476.087,238.52098041872196
548,1686016711.67,-22.461,365.234,155.762,-9.277,118476.091,245.85841840865808
549,1686016711.67,-34.18,208.496,-50.781,-36.133,118476.095,247.9119041455687
550,1686016711.68,-45.41,-266.113,23.926,-46.387,118476.099,254.0686878112878
551,1686016711.68,-36.133,54.688,191.406,-27.832,118476.103,255.13342520515883
552,1686016711.68,-32.227,565.43,169.434,-25.391,118476.119,262.4693815892257
553,1686016711.69,-38.574,337.402,13.184,-32.227,118476.123,250.49379104223343
554,1686016711.69,-43.457,29.785,63.965,-38.086,118476.127,246.28975345872905
555,1686016711.7,-33.203,286.621,219.238,-32.227,118476.131,253.22439726953291
556,1686016711.7,-12.695,470.703,145.508,-4.395,118476.134,245.69521812300653
557,1686016711.7,-20.02,79.102,-62.5,-4.395,118476.138,262.45782538377694
558,1686016711.71,-56.152,-598.633,-14.648,-32.227,118476.142,262.95251054294306
559,1686016711.71,-62.988,-197.754,223.633,-35.645,118476.146,258.96082376997424
560,1686016711.72,-43.945,527.344,201.66,-19.531,118476.15,254.05664837836053
561,1686016711.72,-39.062,254.395,31.738,-20.996,118476.154,268.35186867239474
562,1686016711.72,-49.316,53.223,27.344,-30.762,118476.158,261.5423663418011
563,1686016711.73,-50.293,212.402,87.891,-28.809,118476.162,258.9489765724817
564,1686016711.73,-38.086,172.363,30.762,-16.602,118476.164,270.2061077188062
565,1686016711.73,-28.809,-254.883,-61.035,-6.836,118476.168,267.6341407778224
566,1686016711.74,-37.109,-714.355,45.898,-20.996,118476.172,273.71993139628995
567,1686016711.74,-40.039,-65.43,270.996,-37.598,118476.176,259.6246234886161
568,1686016711.75,-18.555,435.547,131.836,-23.438,118476.18,273.4500747028645
569,1686016711.75,-20.996,-117.188,18.066,-13.672,118476.184,265.8222871451854
570,1686016711.75,-27.344,-300.293,138.184,-29.785,118476.188,262.553065496686
571,1686016711.76,-22.949,288.086,214.844,-50.781,118476.192,267.7855913883758
572,1686016711.76,-28.32,393.555,124.023,-48.34,118476.195,277.9723693307546
573,1686016711.76,-22.949,-22.949,64.453,-33.203,118476.199,271.67942030318136
574,1686016711.77,-29.785,35.156,176.27,-37.598,118476.203,266.17768198693125
575,1686016711.77,-45.41,415.527,175.781,-41.504,118476.207,262.9525625066925
576,1686016711.79,-37.109,282.227,73.73,-25.391,118476.223,280.04574517559524
577,1686016711.8,-24.414,123.535,117.676,-10.742,118476.227,277.9917297977644
578,1686016711.8,-35.645,101.074,145.02,-19.531,118476.231,272.73418869937444
579,1686016711.8,-39.551,146.973,99.121,-32.715,118476.235,279.0925389627301
580,1686016711.81,-31.738,153.32,46.875,-24.902,118476.239,281.5895188899766
581,1686016711.81,-17.578,-396.973,65.43,-3.418,118476.243,280.4620579174741
582,1686016711.81,-12.695,-228.027,229.004,-1.465,118476.247,282.9539243155295
583,1686016711.82,-25.391,404.785,216.309,-24.414,118476.251,271.0942326470576
584,1686016711.82,-34.18,95.703,15.137,-23.926,118476.255,274.34792765554084
585,1686016711.83,-28.32,-323.73,45.41,0.977,118476.259,280.3613907259393
586,1686016711.83,-23.438,140.625,223.145,4.395,118476.262,271.3704286873836
587,1686016711.83,-28.32,290.527,28.809,-6.836,118476.266,281.5713444949271
588,1686016711.83,-26.367,20.996,41.504,-18.555,118476.255,276.63691205181357
589,1686016711.84,-19.531,-163.574,158.203,-6.836,118476.259,269.4495218642032
590,1686016711.84,-18.066,118.652,219.238,12.207,118476.263,285.0499383221684
591,1686016711.85,-16.602,471.68,148.438,1.465,118476.267,276.0699859113902
592,1686016711.85,-26.855,-86.426,46.875,-16.113,118476.271,280.2395142590328
593,1686016711.85,-33.203,-435.059,181.641,-16.602,118476.275,275.6859446272623
594,1686016711.86,-17.09,-84.473,226.562,-4.883,118476.279,285.5698338729695
595,1686016711.86,-7.812,140.625,183.594,-3.418,118476.283,281.72431830821824
596,1686016711.86,-15.137,-384.277,21.484,-12.695,118476.286,281.9087715324566
597,1686016711.87,-23.926,-830.078,106.934,-10.254,118476.29,285.1597235983052
598,1686016711.87,-20.508,150.879,340.82,2.93,118476.294,296.24753374260735
599,1686016711.88,-17.578,570.312,166.992,4.395,118476.298,283.61303405545686
600,1686016711.88,-31.738,-68.848,57.129,-14.16,118476.301,284.46416804977656
601,1686016711.88,-35.645,-71.777,185.547,-23.926,118476.305,289.4023012700402
602,1686016711.89,-22.461,475.586,238.77,-10.254,118476.309,293.18652275522584
603,1686016711.89,-13.184,457.031,130.859,-2.441,118476.313,294.45584023529136
604,1686016711.9,-19.043,29.297,95.215,-16.113,118476.317,283.7670108582062
605,1686016711.9,-24.902,-141.113,191.406,-28.32,118476.32,288.9946633754676
606,1686016711.9,-21.484,142.578,235.352,-12.695,118476.324,293.1626217383557
607,1686016711.91,-19.043,299.805,137.695,0.488,118476.328,292.1856800672202
608,1686016711.91,-15.625,-583.008,-19.531,-1.465,118476.332,295.44994841013795
609,1686016711.91,-23.926,-458.984,187.5,-19.531,118476.336,283.8400485094342
610,1686016711.92,-29.297,460.449,249.512,-23.438,118476.34,289.9495451875905
611,1686016711.92,-16.602,264.16,137.207,-6.836,118476.344,287.5707655922878
612,1686016711.94,-12.695,229.004,173.828,-8.789,118476.36,295.92328354685054
613,1686016711.94,-25.879,207.031,106.445,-28.32,118476.364,294.08391803248657
614,1686016711.95,-28.809,168.457,117.676,-35.645,118476.368,302.7295754300972
615,1686016711.95,-15.137,-63.477,112.793,-12.695,118476.372,302.1143692970701
616,1686016711.95,-8.789,-327.148,64.941,-8.789,118476.375,303.0425334280649
617,1686016711.96,-20.02,-25.391,119.141,-33.691,118476.379,301.37597095893375
618,1686016711.96,-26.367,62.012,152.832,-36.133,118476.383,292.1083781655326
619,1686016711.96,-20.02,-350.098,93.262,-12.695,118476.387,296.5541472236434
620,1686016711.97,-31.25,187.988,226.562,-28.809,118476.39,306.5554701039386
621,1686016711.97,-19.043,-376.465,134.277,-3.906,118476.391,306.8133961372857
622,1686016711.97,-25.391,642.578,207.52,-19.531,118476.394,300.314482966691
623,1686016711.97,-25.879,405.762,227.539,-23.438,118476.395,307.4648125001802
624,1686016711.98,-22.461,343.262,75.195,-19.531,118476.398,301.10979398685276
625,1686016711.98,-29.785,194.336,64.453,-29.785,118476.399,310.57137988583844
626,1686016711.98,-29.785,112.305,96.191,-19.531,118476.402,305.74710942512894
627,1686016711.98,-29.297,-184.082,128.418,-27.832,118476.403,310.37835582562275
628,1686016711.98,-40.039,384.277,219.727,-9.766,118476.405,319.4088347455088
629,1686016711.99,-36.621,314.453,83.008,-5.371,118476.409,307.5359561622871
630,1686016711.99,-30.273,-104.492,-56.641,-13.672,118476.413,299.90156749165357
631,1686016712.0,-23.438,-245.117,65.43,-15.625,118476.417,307.88581856467914
632,1686016712.0,-8.789,247.559,257.812,0.977,118476.421,313.88033428687925
633,1686016712.0,-4.395,629.883,243.652,8.301,118476.425,313.71390721986086
634,1686016712.01,-13.672,182.617,21.484,-2.93,118476.429,311.6562109495533
635,1686016712.01,-22.461,-500.977,44.922,-8.789,118476.433,314.6507322026749
636,1686016712.01,-20.02,-23.926,269.531,-5.859,118476.437,317.47091478373346
637,1686016712.02,-17.578,333.008,202.637,-2.441,118476.441,315.47600197745766
638,1686016712.02,-20.996,-239.746,36.621,-10.742,118476.445,321.26792173154905
639,1686016712.03,-26.367,-647.949,97.168,-21.484,118476.449,327.8964300414718
640,1686016712.03,-24.902,44.922,291.992,-12.207,118476.453,319.4491442439608
641,1686016712.03,-11.23,399.414,189.453,0.0,118476.457,323.97943305465344
642,1686016712.04,-12.207,-277.344,72.266,-3.418,118476.461,330.8077581997368
643,1686016712.04,-24.414,-469.727,99.609,-18.066,118476.465,327.55972573617134
644,1686016712.04,-16.602,403.32,269.043,-23.926,118476.469,334.13846603576513
645,1686016712.05,-7.324,569.336,172.852,-3.418,118476.473,329.9811865969621
646,1686016712.05,-11.23,368.652,149.414,0.488,118476.476,334.11084140981404
647,1686016712.06,-23.438,393.555,208.008,-11.23,118476.48,339.4337464035101
648,1686016712.07,-25.879,486.328,202.637,-11.719,118476.496,335.43689147599
649,1686016712.08,-14.16,431.152,183.594,3.418,118476.499,332.1909668704515
650,1686016712.08,-14.648,294.922,168.457,4.395,118476.503,333.273363840601
651,1686016712.09,-25.879,210.449,176.758,-12.695,118476.507,328.9122860124227
652,1686016712.09,-26.855,176.758,173.828,-25.391,118476.511,339.94361817476306
653,1686016712.09,-28.32,185.547,168.945,-23.926,118476.515,336.98939991571615
654,1686016712.1,-26.367,-592.285,54.688,-1.465,118476.519,337.98990130095336
655,1686016712.1,-20.02,-478.027,182.617,-3.418,118476.523,331.55435836378575
656,1686016712.1,-21.973,523.438,193.848,-19.531,118476.539,335.3910710553021
657,1686016712.1,-22.949,487.793,269.531,-23.438,118476.527,332.0556246450381
658,1686016712.11,-25.391,-110.352,78.613,-15.137,118476.543,337.610671785283
659,1686016712.11,-18.555,271.973,146.484,-18.555,118476.531,335.74673587423365
660,1686016712.11,-25.879,-231.445,161.133,6.348,118476.547,338.4157876306164
661,1686016712.11,-8.301,194.336,162.598,0.0,118476.535,336.6516032347732
662,1686016712.12,-22.461,501.465,269.043,9.277,118476.55,338.32589173930546
663,1686016712.12,-16.113,531.738,229.004,1.465,118476.539,343.0590693362355
664,1686016712.12,-33.691,437.012,164.551,-5.371,118476.554,331.8736435667658
665,1686016712.12,-31.738,-208.008,85.938,-8.789,118476.558,331.2440987662095
666,1686016712.13,-22.949,-224.121,206.543,8.301,118476.562,334.72968940179527
667,1686016712.13,-19.043,229.98,251.953,14.648,118476.566,337.11776514929244
668,1686016712.14,-24.902,521.973,207.52,-5.371,118476.57,330.8592926205193
669,1686016712.14,-34.668,-235.352,1.953,-10.742,118476.574,326.55976739645104
670,1686016712.14,-32.715,-833.496,148.438,6.348,118476.578,332.57783711823424
671,1686016712.15,-20.508,265.137,361.328,5.371,118476.582,315.0392477041516
672,1686016712.16,-15.137,645.02,149.414,-9.277,118476.585,312.651164123611
673,1686016712.17,-20.996,147.461,140.137,-21.973,118476.589,313.61961443150193
674,1686016712.17,-29.785,218.75,243.164,-16.602,118476.593,312.5438701391161
675,1686016712.18,-28.32,596.68,238.281,-5.371,118476.597,311.4170006222226
676,1686016712.18,-20.508,510.254,141.113,-1.953,118476.6,315.8016736192399
677,1686016712.18,-22.461,-18.555,101.562,-4.395,118476.604,311.4993993998404
678,1686016712.19,-23.926,33.203,230.469,-2.441,118476.608,312.8860278906079
679,1686016712.19,-34.668,509.766,273.926,-10.742,118476.612,317.2509523523286
680,1686016712.2,-39.062,359.375,126.465,-11.23,118476.616,317.6120442587103
681,1686016712.2,-39.062,-570.801,9.766,-5.859,118476.62,315.9964294349979
682,1686016712.2,-38.574,-315.43,233.887,-20.996,118476.624,318.033816545241
683,1686016712.21,-29.785,575.195,285.156,-16.602,118476.628,321.1597939147842
684,1686016712.21,-25.879,174.316,79.102,-2.441,118476.63,323.3499642038582
685,1686016712.21,-34.668,-313.965,64.941,-13.184,118476.634,312.9651703510672
686,1686016712.22,-36.621,65.43,268.066,-15.625,118476.638,318.5210671583443
687,1686016712.22,-21.973,530.762,265.137,-4.883,118476.642,315.3238865190344
688,1686016712.22,-5.371,96.191,86.914,7.324,118476.646,320.3517970792624
689,1686016712.23,-8.789,-435.059,101.562,8.789,118476.649,309.30908915670096
690,1686016712.23,-20.996,32.227,269.043,-2.441,118476.653,316.84988955042485
691,1686016712.24,-22.949,458.008,234.863,-6.348,118476.657,315.28385878919744
692,1686016712.24,-23.438,-122.559,95.703,8.789,118476.661,319.9875095575051
693,1686016712.24,-26.855,-274.902,177.246,12.695,118476.665,314.3830449708857
694,1686016712.25,-34.18,476.562,256.836,-11.23,118476.669,316.61392154522804
695,1686016712.25,-41.016,217.285,154.785,-28.809,118476.673,312.6475096409743
696,1686016712.25,-23.926,-60.547,266.602,-21.973,118476.675,325.04041390606477
697,1686016712.26,-5.859,312.988,292.48,-18.066,118476.679,320.4681556067065
698,1686016712.26,-13.184,640.625,227.051,-32.227,118476.683,337.37575320158203
699,1686016712.27,-20.996,365.234,183.105,-37.109,118476.687,318.76259448534694
700,1686016712.27,-19.531,217.773,153.809,-28.32,118476.691,329.69998972667383
701,1686016712.27,-11.23,274.902,209.961,-17.09,118476.694,335.546906898623
702,1686016712.28,-10.742,288.574,284.668,-23.438,118476.698,332.2181250901501
703,1686016712.28,-12.207,212.891,161.133,-35.645,118476.702,323.12695923618605
704,1686016712.28,-7.324,-362.305,146.973,-19.043,118476.706,332.9970034043238
705,1686016712.29,0.0,115.234,325.195,-9.766,118476.71,336.18452222851835
706,1686016712.29,-2.441,719.238,238.281,-23.438,118476.714,333.50171306845425
707,1686016712.3,-20.996,291.016,136.719,-32.227,118476.718,336.5405569284185
708,1686016712.3,-21.484,193.359,170.898,-25.391,118476.723,332.0084393190109
709,1686016712.3,-10.742,328.125,227.051,-7.812,118476.727,335.20817614744993
710,1686016712.31,-15.137,247.559,230.469,-13.184,118476.731,332.4212093072531
711,1686016712.31,-16.602,-158.691,84.473,-30.273,118476.735,331.3238875977393
712,1686016712.32,-23.926,-678.711,125.0,-33.691,118476.739,342.84684611574136
713,1686016712.32,-24.414,-207.031,313.477,-29.297,118476.743,333.03116338730456
714,1686016712.32,-15.625,351.074,256.836,-22.949,118476.747,329.8370602975316
715,1686016712.33,-29.297,-136.719,123.535,-30.273,118476.751,336.9604069674443
716,1686016712.33,-35.645,-367.676,127.93,-36.133,118476.755,330.2044671702516
717,1686016712.34,-22.461,539.551,299.316,-33.691,118476.759,333.12418469238355
718,1686016712.34,-14.16,669.922,212.402,-10.742,118476.762,333.48598309554166
719,1686016712.34,-15.137,411.621,188.477,-9.766,118476.766,336.1276518779366
720,1686016712.34,-20.02,477.051,244.629,-36.133,118476.765,334.04162889330246
721,1686016712.35,-15.137,635.254,248.535,-33.691,118476.769,334.8776807568053
722,1686016712.35,-8.301,580.078,203.613,-20.508,118476.773,341.2376457847154
723,1686016712.36,-17.09,391.602,156.25,-29.785,118476.777,341.1628266759977
724,1686016712.36,-18.555,260.742,216.309,-43.457,118476.781,339.1270123194668
725,1686016712.36,-17.09,117.676,249.512,-41.016,118476.784,339.70805202246044
726,1686016712.37,-18.555,200.684,211.426,-24.414,118476.788,340.80485234981694
727,1686016712.37,-14.648,-457.031,71.289,-19.043,118476.792,345.3859923504759
728,1686016712.38,-25.879,-378.906,200.684,-35.156,118476.796,333.7615600609127
729,1686016712.38,-29.785,570.312,293.457,-40.039,118476.8,332.10553943284305
730,1686016712.38,-15.137,418.457,190.918,-19.531,118476.804,340.00924206807923
731,1686016712.39,-14.16,395.02,218.75,-11.719,118476.808,325.77659278911074
732,1686016712.39,-19.531,676.27,230.469,-18.555,118476.824,337.03133798169
733,1686016712.39,-21.973,433.594,111.816,-28.809,118476.828,338.38084303507253
734,1686016712.4,-21.973,-175.293,66.895,-10.742,118476.831,347.0223196050057
735,1686016712.4,-13.184,-124.512,175.293,7.812,118476.835,333.78870046770516
736,1686016712.4,-15.137,540.039,243.164,-17.578,118476.839,335.0606706742556
737,1686016712.41,-33.691,416.504,97.168,-35.156,118476.843,343.0264180116721
738,1686016712.41,-33.691,-328.125,21.973,-20.02,118476.847,332.564948828476
739,1686016712.42,-15.137,-441.895,147.461,1.953,118476.851,335.1451644708275
740,1686016712.42,-7.812,565.43,298.828,-10.742,118476.855,340.36018000513
741,1686016712.42,-16.602,688.477,187.988,-31.25,118476.859,334.94833002757673
742,1686016712.43,-23.438,275.879,188.965,-26.855,118476.863,334.7589818163177
743,1686016712.43,-14.16,437.988,270.02,-1.953,118476.867,335.5254350244381
744,1686016712.43,-5.859,804.199,263.184,-5.371,118476.885,340.8324152956533
745,1686016712.44,-22.949,608.398,157.227,-31.738,118476.889,342.6088825687353
746,1686016712.44,-33.203,220.703,144.043,-36.133,118476.893,336.615182959397
747,1686016712.45,-27.832,435.547,256.836,-21.484,118476.897,334.0157326296148
748,1686016712.45,-22.461,688.477,229.004,-12.695,118476.901,334.35826987639285
749,1686016712.45,-30.762,372.559,53.711,-22.461,118476.904,333.854693617371
750,1686016712.46,-38.086,-360.84,54.199,-31.738,118476.908,336.8734229006031
751,1686016712.46,-40.527,-15.625,263.672,-25.879,118476.912,338.0930728957828
752,1686016712.46,-33.691,757.812,264.648,-16.113,118476.916,334.957176613216
753,1686016712.47,-23.926,415.039,120.117,-21.973,118476.92,335.65723375713844
754,1686016712.47,-33.203,130.371,111.816,-38.574,118476.924,340.2212041053254
755,1686016712.48,-38.086,493.164,273.926,-40.527,118476.928,334.9661166007698
756,1686016712.48,-26.367,789.551,261.23,-22.949,118476.914,340.5500484994469
757,1686016712.48,-25.391,248.535,50.781,-15.137,118476.918,336.25770139402607
758,1686016712.49,-36.133,-519.043,123.047,-33.203,118476.922,326.385315764341
759,1686016712.49,-32.227,164.062,341.309,-43.457,118476.926,335.61848354065313
760,1686016712.49,-28.809,732.422,240.723,-28.32,118476.93,343.3142826562477
761,1686016712.5,-25.879,334.961,143.555,-14.648,118476.934,338.42774432069245
762,1686016712.5,-24.902,96.191,206.055,-35.156,118476.938,344.69046581031273
763,1686016712.5,-37.598,458.984,289.062,-60.547,118476.941,338.9009519675231
764,1686016712.51,-34.668,626.465,230.469,-41.992,118476.945,337.4906129985811
765,1686016712.51,-17.578,355.469,168.457,-14.648,118476.949,340.8945809549693
766,1686016712.52,-22.461,428.223,237.305,-22.461,118476.953,338.33670580886945
767,1686016712.52,-35.645,577.148,227.539,-45.41,118476.957,346.2799625644621
768,1686016712.53,-34.668,453.613,186.523,-45.898,118476.959,337.4245162153453
769,1686016712.53,-17.578,-198.242,118.164,-12.695,118476.963,336.40138535753607
770,1686016712.54,-13.672,-234.375,184.082,-10.254,118476.967,337.27864501583485
771,1686016712.54,-30.762,662.598,290.039,-36.133,118476.971,331.25112600149623
772,1686016712.54,-30.273,513.184,170.898,-35.645,118476.975,338.882502510953
773,1686016712.55,-18.066,121.094,136.719,-19.531,118476.979,341.2959387275575
774,1686016712.55,-17.09,341.797,255.371,-15.137,118476.983,331.2496884153131
775,1686016712.55,-13.184,737.793,278.32,-20.996,118476.986,342.5813514365046
776,1686016712.56,-14.648,404.785,112.793,-23.926,118476.99,331.97802184463285
777,1686016712.56,-11.719,-76.66,109.863,-14.16,118476.994,334.7508850364095
778,1686016712.57,-12.695,500.0,286.621,-14.648,118476.998,342.1090831451446
779,1686016712.57,-18.555,840.332,229.004,-30.273,118477.002,332.86458261912804
780,1686016712.58,-20.996,437.988,130.859,-34.668,118477.019,338.55532304539645
781,1686016712.59,-13.672,129.883,175.293,-20.02,118477.023,338.1320022196135
782,1686016712.59,-4.883,242.676,244.629,-14.648,118477.027,340.70628964296213
783,1686016712.6,-13.184,599.121,255.859,-24.902,118477.031,337.1603928258806
784,1686016712.6,-18.066,199.707,66.406,-24.414,118477.035,339.2845335090352
785,1686016712.6,-18.555,-685.059,94.727,-14.16,118477.039,328.09930466961515
786,1686016712.61,-11.719,18.555,341.309,-5.371,118477.043,339.608139173594
787,1686016712.61,-8.301,839.844,232.91,0.488,118477.047,337.3994474352293
788,1686016712.62,-21.484,161.621,84.473,-11.719,118477.051,332.6615757055397
789,1686016712.62,-27.344,-8.789,200.684,-22.461,118477.054,336.5257054041162
790,1686016712.62,-19.531,832.031,310.059,-2.441,118477.058,326.9727341628343
791,1686016712.63,-7.324,791.504,163.086,11.719,118477.062,339.5059227598786
792,1686016712.63,-6.348,453.125,133.789,-10.254,118477.05,337.3868899258737
793,1686016712.63,-18.555,578.125,252.93,-16.113,118477.054,333.14364479034197
794,1686016712.64,-15.137,800.293,269.531,6.836,118477.058,335.98865662648814
795,1686016712.64,-5.859,778.809,180.664,27.344,118477.062,336.7803091490166
796,1686016712.64,-13.672,486.816,114.258,8.301,118477.066,332.3773235548745
797,1686016712.65,-21.973,304.199,180.664,-14.16,118477.07,326.8883601284441
798,1686016712.65,-16.113,375.0,236.328,-11.719,118477.074,340.0106968413607
799,1686016712.66,-10.254,336.914,186.035,-0.488,118477.078,337.9042485038902
800,1686016712.66,-15.625,165.527,153.32,6.836,118477.081,345.20966376058476
801,1686016712.66,-19.043,473.145,236.816,-7.812,118477.085,336.25042115321645
802,1686016712.67,-18.555,729.004,234.375,-3.906,118477.089,328.870145061236
803,1686016712.67,-14.16,368.652,64.941,14.16,118477.093,331.98224093793925
804,1686016712.67,-15.137,-130.859,79.59,15.625,118477.109,334.51222332533024
805,1686016712.68,-28.809,139.648,248.047,-10.254,118477.113,334.0030733284071
806,1686016712.68,-28.32,538.574,240.723,-23.438,118477.117,338.260214246722
807,1686016712.69,-20.996,277.832,142.09,-1.953,118477.121,329.63806339272975
808,1686016712.69,-24.902,114.746,111.816,7.324,118477.125,333.7310853842224
809,1686016712.69,-26.367,454.59,152.832,-24.414,118477.129,322.21890283821176
810,1686016712.7,-24.414,501.465,69.336,-34.668,118477.133,323.2405755441487
811,1686016712.7,-17.09,-5.859,18.066,-4.883,118477.136,326.75706476274496
812,1686016712.7,-12.695,-231.934,138.672,14.648,118477.14,327.7772886805179
813,1686016712.71,-24.414,745.117,294.434,-3.906,118477.144,316.3514165815663
814,1686016712.71,-32.227,888.184,177.734,-20.508,118477.148,315.6130529148412
815,1686016712.72,-31.25,488.281,119.629,-21.484,118477.152,323.75459631627564
816,1686016712.72,-22.461,662.109,228.516,-10.742,118477.14,317.69269937465447
817,1686016712.72,-22.949,-998.535,259.277,-6.348,118477.144,328.5353658494822
818,1686016712.73,-31.738,785.645,100.098,-17.09,118477.147,327.4418272210554
819,1686016712.73,-26.367,481.934,132.324,-9.277,118477.151,324.0426484511185
820,1686016712.74,-12.695,709.961,264.16,14.648,118477.155,321.72302536455044
821,1686016712.74,-14.16,696.289,113.77,14.16,118477.159,317.63005416219505
822,1686016712.74,-23.926,368.652,-11.719,-5.371,118477.163,318.9873089673412
823,1686016712.75,-25.391,-198.242,63.477,-14.16,118477.167,318.1813677083806
824,1686016712.75,-19.043,219.727,282.715,-6.348,118477.171,315.8151084143817
825,1686016712.75,-16.602,-934.57,298.828,1.953,118477.175,308.44428204293945
826,1686016712.76,-20.02,569.824,28.809,-2.441,118477.179,313.53494021494043
827,1686016712.76,-20.02,-114.258,63.477,-6.348,118477.183,313.10538899496106
828,1686016712.78,-20.02,509.277,324.219,-0.488,118477.2,306.559655895375
829,1686016712.78,-22.949,927.246,225.098,0.488,118477.204,302.0608399695481
830,1686016712.79,-28.809,226.562,69.336,-16.602,118477.208,308.2551112812974
831,1686016712.79,-35.156,-92.285,119.629,-24.414,118477.211,305.9696011807315
832,1686016712.8,-27.344,589.355,263.672,-6.836,118477.215,308.8109035657127
833,1686016712.8,-15.137,784.18,200.684,9.277,118477.219,300.83572659333777
834,1686016712.8,-20.996,163.086,93.75,3.906,118477.223,295.5536728720295
835,1686016712.81,-33.203,-95.703,122.559,-7.324,118477.227,297.6100383450116
836,1686016712.81,-38.574,734.375,308.105,-10.254,118477.231,296.59260986723615
837,1686016712.81,-36.133,946.777,218.262,11.23,118477.235,298.30730941412276
838,1686016712.82,-32.227,718.262,191.895,13.672,118477.239,292.3254112157105
839,1686016712.82,-41.992,802.734,268.066,-9.277,118477.243,302.9144436061551
840,1686016712.84,-41.992,846.191,207.031,-12.695,118477.263,302.28304238724064
841,1686016712.84,-30.273,601.074,93.262,2.441,118477.267,305.00190639231613
842,1686016712.85,-24.902,418.945,188.477,12.695,118477.271,303.87379243831293
843,1686016712.85,-26.367,677.246,289.062,-2.441,118477.275,287.2299513018239
844,1686016712.85,-23.438,-958.008,256.348,-27.832,118477.29,284.2204144924572
845,1686016712.86,-35.156,868.164,204.102,-18.066,118477.279,299.4422205262525
846,1686016712.86,-20.508,378.906,75.195,-31.738,118477.294,299.20135711111584
847,1686016712.86,-26.855,449.707,47.363,-1.953,118477.283,294.48698459100524
848,1686016712.86,-20.996,190.918,126.953,-18.066,118477.298,300.0035382348412
849,1686016712.86,-13.672,321.289,128.418,5.371,118477.287,297.2910780073733
850,1686016712.87,-13.672,721.68,225.586,-19.531,118477.302,299.9472582645733
851,1686016712.87,-26.367,755.859,266.602,-11.23,118477.291,292.02333336226684
852,1686016712.87,-18.555,743.164,118.652,-38.574,118477.305,294.6659716695244
853,1686016712.87,-41.016,979.492,253.418,-23.438,118477.295,287.310412396153
854,1686016712.87,-34.18,109.375,18.555,-49.805,118477.309,295.72181793311216
855,1686016712.88,-32.715,627.441,94.727,-13.184,118477.299,283.2031391481192
856,1686016712.88,-31.25,-159.668,163.086,-36.133,118477.313,291.4873261618008
857,1686016712.88,-26.367,70.312,113.77,4.395,118477.303,292.7363413800246
858,1686016712.88,-26.367,754.883,317.383,-27.832,118477.317,298.6613668431905
859,1686016712.88,-28.809,568.359,340.82,-1.953,118477.306,294.99715693243
860,1686016712.88,-29.785,951.66,173.828,-35.156,118477.321,294.13540864236944
861,1686016712.89,-32.715,500.488,111.328,-52.734,118477.325,296.7186891426715
862,1686016712.89,-28.32,593.262,239.258,-43.945,118477.329,298.1619364773188
863,1686016712.9,-27.344,962.402,287.598,-28.809,118477.333,291.46467506120166
864,1686016712.91,-35.645,-995.605,203.613,-41.992,118477.335,300.3184661009532
865,1686016712.92,-41.016,41.504,34.668,-50.781,118477.339,299.42314329272835
866,1686016712.92,-42.48,-355.957,151.855,-44.922,118477.343,299.82011605982035
867,1686016712.93,-32.715,825.684,337.891,-38.574,118477.347,297.53725522661205
868,1686016712.93,-24.414,926.27,129.883,-29.297,118477.351,293.8336490043265
869,1686016712.93,-28.809,386.719,101.562,-39.551,118477.355,298.27755819664304
870,1686016712.94,-33.203,296.875,250.0,-49.805,118477.359,300.4521088549268
871,1686016712.94,-22.949,704.59,310.547,-29.785,118477.362,296.14394658852336
872,1686016712.94,-18.555,848.633,114.258,-15.625,118477.366,296.4374401514871
873,1686016712.95,-30.762,-12.207,-3.906,-36.133,118477.37,293.7717907126894
874,1686016712.95,-32.715,173.828,291.016,-47.363,118477.374,289.90559883062554
875,1686016712.96,-19.043,946.777,302.246,-21.973,118477.378,291.1935705625254
876,1686016712.96,-13.672,766.602,169.434,-14.16,118477.38,290.64657764486304
877,1686016712.96,-18.555,461.914,157.227,-34.18,118477.384,293.84482517734824
878,1686016712.97,-25.391,557.617,231.934,-46.387,118477.388,294.4887197327589
879,1686016712.97,-28.32,904.785,272.461,-35.645,118477.392,301.0578880238787
880,1686016712.98,-20.02,525.391,126.465,-21.973,118477.396,296.6337916540537
881,1686016712.98,-16.602,30.762,108.398,-31.738,118477.4,292.6106755320666
882,1686016712.98,-27.344,507.324,301.27,-50.781,118477.404,296.62910640635795
883,1686016712.99,-31.25,973.145,263.672,-51.27,118477.408,293.2316001173109
884,1686016712.99,-20.996,322.266,52.246,-25.879,118477.411,293.99728325442715
885,1686016713.0,-28.32,-171.387,145.02,-11.23,118477.415,300.1152052369295
886,1686016713.0,-39.062,732.91,327.637,-37.109,118477.419,298.2176526337086
887,1686016713.0,-27.832,926.27,187.988,-48.34,118477.423,302.2072690036361
888,1686016713.0,-30.762,709.961,174.805,-41.016,118477.425,300.35720060907107
889,1686016713.01,-42.48,882.324,274.902,-40.039,118477.429,299.6566924774612
890,1686016713.01,-36.133,-999.512,247.07,-40.527,118477.433,304.1451843311167
891,1686016713.02,-31.25,822.266,104.004,-35.156,118477.437,292.8424924585304
892,1686016713.02,-32.227,651.367,96.191,-29.785,118477.441,291.17557793789484
893,1686016713.02,-26.855,588.867,191.406,-27.344,118477.445,295.8865939894283
894,1686016713.03,-26.855,718.262,268.066,-35.156,118477.449,288.60217924803885
895,1686016713.03,-30.273,747.07,125.977,-46.387,118477.453,292.0853194761646
896,1686016713.04,-24.414,-0.977,40.039,-47.852,118477.457,289.3807321794822
897,1686016713.04,-18.555,358.887,295.41,-40.527,118477.461,288.48649066028077
898,1686016713.04,-24.414,-885.742,266.113,-34.668,118477.464,286.2344141733373
899,1686016713.05,-31.25,532.715,16.602,-36.621,118477.468,288.70504518679644
900,1686016713.05,-31.25,247.07,56.641,-34.668,118477.47,297.5682024383633
901,1686016713.05,-19.043,635.742,253.906,-22.949,118477.474,294.32330725499526
902,1686016713.06,-12.695,889.16,234.863,-20.996,118477.478,290.60243427994266
903,1686016713.06,-19.043,428.711,61.523,-33.203,118477.482,293.90221263483687
904,1686016713.06,-20.02,15.137,92.285,-35.645,118477.486,289.31354942726085
905,1686016713.07,-13.672,542.969,250.0,-27.832,118477.49,284.1132778561805
906,1686016713.07,-15.137,762.207,251.465,-30.762,118477.493,291.60345301004736
907,1686016713.08,-24.414,264.648,116.211,-41.992,118477.497,286.0438012570221
908,1686016713.08,-36.133,26.367,145.996,-46.875,118477.501,283.03075320442554
909,1686016713.08,-34.18,866.211,325.195,-38.086,118477.505,286.0931427050887
910,1686016713.09,-20.508,977.539,231.445,-17.09,118477.509,283.1239343038296
911,1686016713.09,-28.809,801.758,112.305,-28.32,118477.513,293.6629768021229
912,1686016713.1,-29.785,882.324,162.109,-44.922,118477.518,292.9258629779077
913,1686016713.1,-19.043,897.949,204.102,-35.645,118477.522,292.6150964288407
914,1686016713.1,-18.555,757.812,152.832,-18.555,118477.526,288.6659451126553
915,1686016713.11,-20.996,557.617,202.637,-17.09,118477.53,289.4081497310075
916,1686016713.11,-21.484,674.316,250.977,-32.715,118477.534,288.75450770714065
917,1686016713.12,-25.879,654.785,102.539,-37.109,118477.537,289.2443132427833
918,1686016713.12,-26.855,490.234,66.406,-19.531,118477.541,285.3746568918339
919,1686016713.12,-23.926,229.004,135.742,-15.625,118477.545,287.73864481512874
920,1686016713.13,-26.855,540.039,256.836,-42.48,118477.549,287.7998173204652
921,1686016713.13,-35.645,-951.66,245.117,-51.758,118477.553,299.2475318469855
922,1686016713.13,-25.391,742.676,106.445,-32.715,118477.557,291.8866251403339
923,1686016713.14,-13.184,684.57,132.324,-21.973,118477.561,292.3541475200046
924,1686016713.14,-22.949,978.027,235.352,-34.668,118477.574,295.1287170170098
925,1686016713.14,-33.203,830.078,110.352,-46.387,118477.578,295.6364852954712
926,1686016713.15,-33.691,238.77,1.953,-31.738,118477.582,286.47040434726006
927,1686016713.15,-36.133,238.281,135.254,-23.438,118477.586,293.0922255274215
928,1686016713.16,-35.645,749.512,193.359,-37.109,118477.59,290.34968118084055
929,1686016713.16,-45.898,675.781,54.688,-51.27,118477.593,300.5320006951436
930,1686016713.16,-46.387,146.484,1.465,-46.387,118477.597,297.4661152151052
931,1686016713.17,-29.785,-152.832,177.734,-16.113,118477.601,287.66238922280496
932,1686016713.17,-28.809,710.449,342.773,-16.602,118477.605,294.87547860484506
933,1686016713.17,-33.691,987.305,162.598,-40.527,118477.609,295.0390456354026
934,1686016713.18,-38.086,744.141,94.727,-49.316,118477.613,298.74299611029926
935,1686016713.18,-28.32,861.816,222.168,-34.18,118477.617,289.8365710717118
936,1686016713.18,-22.461,-987.305,256.348,-21.973,118477.606,291.300131432986
937,1686016713.19,-36.621,849.121,78.613,-37.109,118477.61,290.64597369769905
938,1686016713.19,-37.598,662.109,113.281,-49.316,118477.614,299.3985957027051
939,1686016713.2,-25.391,853.516,292.969,-29.297,118477.618,292.20312241179636
940,1686016713.2,-24.414,997.559,254.883,-18.066,118477.622,298.9923468272506
941,1686016713.2,-23.438,755.371,47.852,-31.738,118477.626,303.2923795156333
942,1686016713.21,-25.391,-36.621,27.344,-42.969,118477.63,308.60252616623745
943,1686016713.21,-21.973,93.262,283.691,-37.598,118477.634,299.1362171592467
944,1686016713.22,-16.113,962.891,343.75,-16.113,118477.638,305.0943086677863
945,1686016713.22,-23.438,778.809,74.219,-11.23,118477.641,290.7074900383938
946,1686016713.22,-30.762,249.512,43.945,-24.414,118477.645,307.28672876268615
947,1686016713.23,-33.203,654.297,312.5,-25.391,118477.649,304.55962646033424
948,1686016713.23,-22.949,-949.219,272.949,-10.742,118477.664,307.82220366423513
949,1686016713.23,-19.043,666.504,120.117,-14.648,118477.668,303.10204811504434
950,1686016713.24,-23.438,435.547,169.434,-33.203,118477.672,304.85999752341445
951,1686016713.24,-26.855,773.926,273.926,-41.992,118477.676,307.2810466839292
952,1686016713.24,-20.996,990.723,222.656,-27.344,118477.68,307.6417600515057
953,1686016713.25,-14.16,427.246,32.715,-11.23,118477.684,297.41182962566944
954,1686016713.25,-28.809,-233.398,140.625,-21.973,118477.688,300.9045860117575
955,1686016713.26,-35.645,524.902,367.676,-37.598,118477.691,296.4803017050937
956,1686016713.26,-28.32,970.215,218.75,-20.508,118477.695,295.51781339742774
957,1686016713.26,-16.602,642.09,85.449,3.418,118477.699,295.84756124800293
958,1686016713.27,-18.066,716.797,179.688,-4.883,118477.703,297.5873308785482
959,1686016713.27,-21.973,971.68,219.727,-12.695,118477.707,303.9927266688417
960,1686016713.29,-23.438,920.41,129.395,-1.465,118477.71,303.45871231270104
961,1686016713.29,-24.414,561.035,119.629,14.16,118477.714,307.2365437976054
962,1686016713.3,-15.625,646.973,234.375,20.996,118477.718,305.8754980435462
963,1686016713.3,-26.855,-990.234,254.395,-7.324,118477.722,313.1964767060129
964,1686016713.3,-38.574,805.176,93.75,-17.09,118477.726,312.5371976806871
965,1686016713.31,-32.715,462.891,96.191,-0.977,118477.73,309.6321483380583
966,1686016713.31,-32.715,514.648,258.301,-2.441,118477.734,306.13089377308626
967,1686016713.32,-33.203,861.328,271.973,-19.043,118477.737,316.05198820696967
968,1686016713.32,-36.133,693.359,85.449,-19.531,118477.741,320.990238508126
969,1686016713.32,-29.785,259.277,113.77,7.324,118477.745,298.4422183801704
970,1686016713.33,-24.414,750.0,310.059,20.02,118477.749,309.22546600298267
971,1686016713.33,-27.832,-955.566,120.117,-4.883,118477.753,315.94941086540086
972,1686016713.33,-27.344,442.871,-48.828,-18.066,118477.755,316.0025435628082
973,1686016713.34,-21.484,53.711,64.941,7.812,118477.759,313.36960750057017
974,1686016713.34,-16.113,630.859,288.574,22.461,118477.763,301.08604365212847
975,1686016713.35,-22.461,-910.645,244.141,12.695,118477.767,300.78099880577025
976,1686016713.35,-34.668,450.195,17.09,6.836,118477.77,309.0238036631714
977,1686016713.35,-41.016,-86.426,85.449,15.137,118477.774,309.16598104761465
978,1686016713.36,-25.391,576.66,293.945,20.02,118477.778,304.81226898520276
979,1686016713.36,-17.578,-921.387,223.633,15.137,118477.782,306.40977449573217
980,1686016713.36,-28.809,322.754,6.836,2.93,118477.786,316.03369043917075
981,1686016713.37,-32.715,-34.18,137.695,-4.883,118477.79,314.6435197132275
982,1686016713.37,-27.832,893.555,333.496,-1.953,118477.794,318.26668285929463
983,1686016713.38,-24.414,953.613,189.453,7.812,118477.798,322.5325387875074
984,1686016713.38,-27.344,683.594,71.289,-5.859,118477.808,313.8615422248767
985,1686016713.39,-35.645,776.855,68.848,-22.949,118477.812,319.80765491593274
986,1686016713.39,-30.273,806.152,45.41,-11.719,118477.815,313.20255575235706
987,1686016713.4,-22.949,659.18,18.066,-0.488,118477.819,321.29819024218017
988,1686016713.4,-31.25,489.746,132.324,-17.578,118477.823,311.5942051113319
989,1686016713.4,-35.645,326.172,136.23,-31.25,118477.827,305.0575778224666
990,1686016713.41,-29.297,581.543,145.996,-21.484,118477.831,313.4166154903395
991,1686016713.41,-22.949,756.836,104.492,-3.418,118477.835,318.37412082938795
992,1686016713.42,-22.461,210.938,47.363,-4.395,118477.839,314.9559629984564
993,1686016713.42,-27.344,431.152,255.371,-20.02,118477.843,314.1602401987447
994,1686016713.42,-30.273,962.402,242.188,-16.602,118477.847,311.2723652913731
995,1686016713.42,-13.672,719.238,53.223,24.414,118477.845,322.00879927060856
996,1686016713.43,-19.531,744.629,124.023,10.254,118477.851,311.6706224365752
997,1686016713.43,-27.344,648.438,54.688,11.719,118477.849,311.3770834303381
998,1686016713.43,-32.715,678.711,83.008,-0.977,118477.853,311.09782770616033
999,1686016713.44,-21.484,490.723,50.293,16.113,118477.857,317.57503007515066
1000,1686016713.44,-16.602,215.82,108.398,24.902,118477.861,317.10626711738894
1001,1686016713.44,-19.531,555.664,124.512,1.953,118477.864,312.8170696558742
1002,1686016713.45,-22.949,604.98,57.129,-0.977,118477.868,317.2364521056056
1003,1686016713.45,-16.113,160.645,17.578,15.625,118477.872,322.88871877384213
1004,1686016713.46,-15.625,-142.578,164.062,24.414,118477.876,321.51037691525426
1005,1686016713.46,-22.461,687.988,301.27,11.23,118477.88,325.43012322585525
1006,1686016713.46,-22.949,938.965,149.902,-1.465,118477.884,321.31635641835817
1007,1686016713.47,-19.531,748.535,105.957,3.418,118477.888,309.20695027200765
1008,1686016713.47,-11.23,888.672,194.824,12.207,118477.892,311.16496091843936
1009,1686016713.47,-19.043,-987.305,114.746,0.977,118477.896,317.22963491845474
1010,1686016713.48,-27.344,815.43,-8.301,-24.414,118477.9,310.28783982477336
1011,1686016713.48,-20.02,642.09,163.574,-29.297,118477.904,316.90565892247747
1012,1686016713.49,-4.883,855.469,244.141,-7.324,118477.908,311.6359590215464
1013,1686016713.49,-7.812,782.227,78.125,0.977,118477.912,308.9894578080485
1014,1686016713.49,-20.996,512.207,-5.859,-12.695,118477.915,313.960744708798
1015,1686016713.5,-23.438,-87.891,25.879,-25.391,118477.919,311.9546818418332
1016,1686016713.5,-19.531,185.547,270.02,-11.719,118477.923,308.5441207147527
1017,1686016713.5,-8.301,-950.195,294.434,9.277,118477.927,313.598664187218
1018,1686016713.51,-12.695,666.992,-11.719,0.0,118477.931,321.12607517879445
1019,1686016713.51,-26.367,249.512,33.203,-15.625,118477.935,316.5399304616932
1020,1686016713.51,-15.137,749.512,298.34,-16.113,118477.935,310.9144284648924
1021,1686016713.52,0.977,860.352,115.723,-1.953,118477.939,317.93333862471667
1022,1686016713.52,-7.324,426.758,-2.441,-4.883,118477.943,309.74620064025595
1023,1686016713.53,-22.949,482.422,192.383,-24.902,118477.947,317.2015330815594
1024,1686016713.53,-15.625,848.633,217.285,-25.391,118477.951,311.8566039264909
1025,1686016713.53,-2.93,815.918,83.984,-15.625,118477.955,314.7846421039251
1026,1686016713.54,-9.766,297.363,-19.043,-15.137,118477.959,316.8702521294855
1027,1686016713.54,-22.461,-459.473,50.293,-20.996,118477.963,322.88528944140756
1028,1686016713.54,-20.996,310.059,300.293,-30.273,118477.967,316.0337990578707
1029,1686016713.55,-12.207,-981.445,195.801,-20.02,118477.97,316.9536403044461
1030,1686016713.55,-12.207,666.016,20.996,-17.09,118477.974,315.17835241298775
1031,1686016713.56,-22.461,634.766,34.18,-33.691,118477.978,323.6882355642736
1032,1686016713.56,-28.32,919.434,62.012,-46.387,118477.982,319.5345565746866
1033,1686016713.56,-19.043,932.617,25.879,-38.086,118477.986,320.06166979151976
1034,1686016713.57,-9.277,571.777,52.246,-23.926,118477.99,316.46300199960524
1035,1686016713.57,-17.09,668.457,136.719,-38.086,118477.994,323.4984462204913
1036,1686016713.58,-29.297,932.129,41.504,-56.152,118477.998,326.9628525430133
1037,1686016713.58,-24.902,623.535,-29.297,-40.527,118478.002,317.0270888833028
1038,1686016713.58,-16.113,87.891,73.242,-15.625,118478.006,317.0971496721401
1039,1686016713.59,-22.461,388.184,233.887,-25.879,118478.01,313.873946567489
1040,1686016713.59,-25.391,961.914,108.398,-45.898,118478.014,318.96512298181926
1041,1686016713.6,-23.438,699.707,-23.438,-33.203,118478.018,319.24177821435745
1042,1686016713.6,-23.438,649.902,106.445,-16.602,118478.021,324.77505063061324
1043,1686016713.6,-23.926,947.754,124.512,-29.297,118478.025,320.9928741944728
1044,1686016713.6,-21.484,953.613,20.996,-46.387,118478.039,321.5155784789477
1045,1686016713.61,-15.625,383.789,-38.086,-37.109,118478.043,320.24280570960906
1046,1686016713.61,-12.695,71.777,60.547,-17.09,118478.047,321.7602634691679
1047,1686016713.62,-9.277,739.746,238.281,-18.066,118478.051,321.6973623435194
1048,1686016713.62,-17.09,959.473,76.172,-34.18,118478.055,323.2718557314223
1049,1686016713.62,-22.461,166.016,-83.984,-42.48,118478.059,321.68172875329464
1050,1686016713.63,-22.949,-559.082,77.637,-24.902,118478.063,325.9782536265924
1051,1686016713.63,-19.531,366.211,325.195,-22.461,118478.067,324.46248035953914
1052,1686016713.64,-20.508,-973.633,145.508,-30.762,118478.07,319.9074390971864
1053,1686016713.64,-25.879,662.109,0.488,-31.25,118478.074,318.7194057284702
1054,1686016713.64,-28.32,733.887,84.473,-23.438,118478.078,322.01704558219024
1055,1686016713.65,-23.926,-998.535,69.336,-12.207,118478.082,317.12932197170073
1056,1686016713.66,-15.625,896.484,-5.859,-17.09,118478.085,316.85557761867227
1057,1686016713.67,-26.367,652.832,80.078,-36.621,118478.089,319.8629504622018
1058,1686016713.67,-27.832,752.441,123.047,-27.832,118478.093,317.3337640628277
1059,1686016713.68,-18.066,812.5,37.598,-2.441,118478.097,326.5621730605785
1060,1686016713.68,-21.484,672.852,20.508,-1.953,118478.101,326.0988577580487
1061,1686016713.68,-34.668,126.953,22.461,-15.625,118478.105,328.47557466547704
1062,1686016713.69,-39.551,156.25,198.242,-22.949,118478.109,326.16001958846596
1063,1686016713.69,-31.738,898.438,253.906,-6.348,118478.113,317.6964644052333
1064,1686016713.7,-19.043,797.363,5.859,10.254,118478.116,323.30012417903316
1065,1686016713.7,-20.996,300.781,72.266,-9.766,118478.12,327.5159046639411
1066,1686016713.7,-32.227,618.652,280.762,-22.949,118478.124,327.97085611605866
1067,1686016713.71,-20.996,990.234,101.562,-4.883,118478.128,338.600551119165
1068,1686016713.71,-10.254,775.391,31.25,10.254,118478.13,327.3536945469138
1069,1686016713.71,-17.578,484.375,36.133,0.488,118478.134,319.53357775416526
1070,1686016713.72,-19.531,533.691,61.523,-17.578,118478.138,330.8852798394791
1071,1686016713.72,-18.066,912.109,75.195,-9.766,118478.142,316.50706172145783
1072,1686016713.72,-10.742,512.695,-22.949,6.348,118478.145,329.02100017265786
1073,1686016713.73,-9.277,-6.836,37.598,-2.441,118478.149,324.420034645969
1074,1686016713.73,-22.949,351.562,104.492,-21.484,118478.153,334.03972544274234
1075,1686016713.74,-23.438,574.707,62.5,-23.926,118478.157,326.8181576311996
1076,1686016713.74,-13.672,168.945,3.418,-4.395,118478.161,316.26530116628425
1077,1686016713.74,-12.695,-155.762,140.625,5.859,118478.165,323.5288385063244
1078,1686016713.75,-22.949,656.25,301.27,-20.02,118478.169,323.3723935851286
1079,1686016713.75,-25.391,892.578,88.867,-27.344,118478.173,320.40863001720686
1080,1686016713.75,-22.949,729.98,95.215,-1.953,118478.175,332.84300569706744
1081,1686016713.76,-18.066,893.555,230.469,2.441,118478.179,324.7830479502926
1082,1686016713.76,-16.113,-997.559,83.496,-21.484,118478.183,323.3761678568578
1083,1686016713.77,-21.484,774.414,-1.953,-35.156,118478.186,325.077099166182
1084,1686016713.77,-18.066,577.148,110.352,-22.949,118478.19,324.09737419272244
1085,1686016713.77,-10.742,565.918,95.215,-5.859,118478.194,328.4616991906564
1086,1686016713.78,-12.695,660.645,73.242,-22.461,118478.198,331.23918112632134
1087,1686016713.78,-18.066,673.34,6.836,-36.133,118478.202,323.4638110325139
1088,1686016713.78,-20.508,-73.242,18.555,-10.254,118478.206,326.7124379553721
1089,1686016713.79,-7.812,220.703,300.781,13.672,118478.21,330.9301407291991
1090,1686016713.79,8.789,-936.523,198.73,16.113,118478.214,330.6859713762747
1091,1686016713.8,5.859,617.188,-58.594,5.859,118478.218,326.3160805466686
1092,1686016713.8,-16.602,248.535,39.551,8.301,118478.22,324.9768042383771
1093,1686016713.8,-18.066,577.637,131.836,20.02,118478.224,334.1506703972502
1094,1686016713.81,-6.836,832.52,50.781,21.484,118478.228,328.2519862147325
1095,1686016713.81,-20.02,442.871,-1.465,2.93,118478.232,325.3292909025373
1096,1686016713.82,-29.297,52.734,95.215,-5.371,118478.236,318.2846043270898
1097,1686016713.82,-19.043,447.754,128.906,8.789,118478.24,319.5008524233007
1098,1686016713.82,-14.648,665.527,51.27,19.043,118478.243,326.2469658065997
1099,1686016713.83,-18.555,230.957,12.207,5.371,118478.247,320.50808491039993
1100,1686016713.83,-23.926,-44.434,122.559,-14.16,118478.251,322.5440010078473
1101,1686016713.83,-14.648,798.828,276.855,0.0,118478.255,327.7197573820268
1102,1686016713.84,3.906,964.844,72.754,24.902,118478.259,332.7460131994077
1103,1686016713.84,2.93,601.074,9.766,19.531,118478.263,324.3060458616216
1104,1686016713.84,-11.23,631.836,90.82,1.465,118478.265,331.39266167716187
1105,1686016713.85,-12.207,918.457,62.012,3.418,118478.269,324.0298842204147
1106,1686016713.85,3.418,895.508,20.996,22.949,118478.273,327.4456476914057
1107,1686016713.86,4.883,542.48,76.172,17.09,118478.277,333.67231808862294
1108,1686016713.86,-4.395,533.203,75.684,-1.465,118478.281,326.0234352218407
1109,1686016713.86,-5.371,550.781,12.207,-2.441,118478.285,324.1288280410177
1110,1686016713.87,3.906,457.031,17.09,11.719,118478.289,328.9474124433748
1111,1686016713.87,2.93,151.855,50.293,20.02,118478.292,330.6510030866091
1112,1686016713.87,-8.789,391.113,189.453,6.836,118478.296,310.86716399582207
1113,1686016713.88,-15.137,921.875,75.195,-2.93,118478.3,331.1327887201546
1114,1686016713.88,-9.277,700.684,-7.324,5.371,118478.304,330.8503033480631
1115,1686016713.89,0.0,690.43,33.691,18.066,118478.308,322.8444008227567
1116,1686016713.9,-0.977,923.34,21.484,16.113,118478.329,314.88666208417686
1117,1686016713.91,-6.348,696.289,7.812,0.977,118478.333,329.22658887918
1118,1686016713.91,0.0,144.531,-33.691,10.254,118478.337,326.5961379946196
1119,1686016713.92,12.207,-165.039,136.23,43.945,118478.341,317.9106495742318
1120,1686016713.92,13.672,558.594,284.668,37.109,118478.344,330.1258333445286
1121,1686016713.92,-6.348,777.344,48.828,-2.93,118478.348,329.8260232366273
1122,1686016713.93,-16.113,-29.297,-31.25,-0.977,118478.352,323.00559636588
1123,1686016713.93,-1.465,-18.066,154.785,20.508,118478.356,332.6432099251503
1124,1686016713.93,-7.324,980.469,66.895,20.02,118478.371,330.41709694472627
1125,1686016713.94,4.883,905.273,214.844,11.719,118478.36,338.06872008545895
1126,1686016713.94,-10.254,874.023,-7.812,5.371,118478.375,332.3326013606396
1127,1686016713.94,-17.578,954.102,-5.371,-11.23,118478.364,325.5295246877576
1128,1686016713.94,-16.602,581.055,94.727,-9.766,118478.379,324.9901830155171
1129,1686016713.94,-23.438,541.016,-20.02,-16.602,118478.368,328.62654639378803
1130,1686016713.95,-20.508,727.539,158.691,2.93,118478.383,324.83659165258575
1131,1686016713.95,-8.301,577.637,59.082,8.301,118478.372,334.0648754041311
1132,1686016713.95,-10.742,827.637,38.086,21.973,118478.387,327.5474208823271
1133,1686016713.95,-2.93,515.137,18.555,8.789,118478.391,331.4974111900345
1134,1686016713.96,-13.672,283.203,50.293,-20.996,118478.395,328.5117441527683
1135,1686016713.96,-18.066,604.492,89.355,-30.273,118478.399,319.3371339347027
1136,1686016713.96,-5.859,923.34,62.5,-11.23,118478.403,327.14673836908963
1137,1686016713.97,-8.789,727.539,-45.898,-17.578,118478.406,322.8201454567088
1138,1686016713.97,-11.719,-329.102,-62.988,-30.762,118478.41,322.47621462496477
1139,1686016713.98,-3.418,-146.973,253.906,-22.949,118478.414,319.33788361412854
1140,1686016713.98,-1.465,972.656,191.895,-16.602,118478.43,322.02652823841504
1141,1686016713.98,-0.488,473.633,-50.781,-20.508,118478.434,325.04806101541874
1142,1686016713.99,-4.883,120.605,54.199,-41.016,118478.438,330.0163933711703
1143,1686016713.99,-15.137,724.609,123.535,-47.363,118478.442,329.29430447222524
1144,1686016714.0,-12.207,922.363,20.02,-28.32,118478.446,327.66466836194434
1145,1686016714.0,-7.812,270.02,-38.574,-15.625,118478.45,324.8997011042242
1146,1686016714.0,-10.254,-161.621,84.473,-28.32,118478.454,326.7899677963097
1147,1686016714.01,-12.695,376.465,160.156,-44.434,118478.457,322.5739320224482
1148,1686016714.01,-10.254,785.156,37.598,-33.203,118478.461,334.18517435770866
1149,1686016714.01,-3.906,356.445,6.836,-2.93,118478.465,340.3703060079042
1150,1686016714.02,-7.812,242.188,205.078,-5.371,118478.469,330.9334115966506
1151,1686016714.02,-22.461,821.777,135.254,-28.809,118478.473,329.73499113616634
1152,1686016714.04,-22.461,738.77,-5.859,-25.879,118478.46,322.349709574579
1153,1686016714.04,-10.254,622.559,76.66,-15.137,118478.464,327.9508757910796
1154,1686016714.05,-12.695,775.391,89.844,-22.949,118478.468,332.61927744564065
1155,1686016714.05,-20.996,864.746,39.062,-35.645,118478.472,335.14517356795284
1156,1686016714.06,-22.949,645.02,-1.465,-31.25,118478.476,319.6580465621681
1157,1686016714.06,-13.184,261.23,77.637,-10.254,118478.48,330.0247379098181
1158,1686016714.06,-4.883,428.223,155.762,-10.254,118478.484,321.57110412853166
1159,1686016714.07,-19.043,844.238,58.105,-27.832,118478.488,324.977239012453
1160,1686016714.07,-28.32,557.617,-6.836,-23.438,118478.492,335.7458458783213
1161,1686016714.07,-26.855,121.094,9.277,-3.418,118478.495,330.73251636102765
1162,1686016714.08,-26.367,463.867,78.125,13.672,118478.499,320.7744503990277
1163,1686016714.08,-20.02,862.305,66.406,5.371,118478.503,323.23918341816096
1164,1686016714.08,-27.344,524.414,-44.922,-13.184,118478.505,327.7541449533451
1165,1686016714.09,-31.25,-666.016,-36.621,6.836,118478.509,327.1568630556546
1166,1686016714.09,-16.602,-295.41,282.227,23.438,118478.513,328.47039582326886
1167,1686016714.1,-12.695,917.969,197.266,3.906,118478.517,318.3451285246556
1168,1686016714.1,-21.484,523.438,20.508,0.488,118478.521,331.1854896852058
1169,1686016714.1,-17.578,126.465,102.051,16.113,118478.525,328.93798953856367
1170,1686016714.11,-12.207,478.516,97.656,22.949,118478.528,327.95957049381934
1171,1686016714.11,-15.137,918.945,53.223,13.184,118478.532,322.42817829923223
1172,1686016714.12,-21.973,232.91,-30.273,-9.277,118478.536,341.1177672715904
1173,1686016714.12,-25.879,-164.062,153.32,-21.973,118478.54,326.0275059998481
1174,1686016714.12,-17.09,765.137,234.863,-9.277,118478.544,339.13265233601163
1175,1686016714.13,-8.789,877.441,37.598,-2.93,118478.548,318.2427871560615
1176,1686016714.13,-19.043,427.246,29.297,-20.996,118478.55,331.49939859652585
1177,1686016714.13,-26.367,459.961,89.844,-21.973,118478.554,322.75423695286946
1178,1686016714.14,-11.719,799.805,69.336,-2.441,118478.558,324.1023371936794
1179,1686016714.14,1.953,791.016,8.301,16.602,118478.562,332.1148334572399
1180,1686016714.14,0.0,354.004,103.516,11.23,118478.566,321.9549361587501
1181,1686016714.15,-11.23,185.059,135.742,-4.883,118478.57,331.4112828513489
1182,1686016714.15,-13.184,347.656,66.406,0.977,118478.573,314.98492375026575
1183,1686016714.16,-10.742,431.641,21.484,17.578,118478.577,330.917835182893
1184,1686016714.16,-10.254,55.176,57.129,17.578,118478.581,326.1673709927283
1185,1686016714.16,-18.066,274.902,236.816,-4.395,118478.585,325.4523931380182
1186,1686016714.17,-17.09,845.703,119.629,-13.184,118478.589,323.0661753558489
1187,1686016714.17,-9.766,641.113,16.113,-0.977,118478.593,323.2100427898031
1188,1686016714.17,-12.207,589.355,28.809,-1.465,118478.595,328.8613634437815
1189,1686016714.18,-20.996,531.25,36.621,-17.578,118478.599,329.1302386550845
1190,1686016714.18,-25.879,347.656,56.152,-23.438,118478.603,321.17879783647544
1191,1686016714.19,-21.973,124.023,4.395,-3.906,118478.607,329.39001400034067
1192,1686016714.19,-20.02,-230.469,130.859,8.301,118478.61,330.77963500651936
1193,1686016714.19,-25.391,139.16,190.918,-18.066,118478.614,331.4591378827997
1194,1686016714.2,-27.344,431.152,38.086,-34.18,118478.618,332.4559411179884
1195,1686016714.2,-25.391,-40.039,0.0,-24.414,118478.622,333.77757026084254
1196,1686016714.2,-25.879,-48.828,152.344,-14.648,118478.626,326.6413893244331
1197,1686016714.21,-29.297,823.73,218.75,-25.391,118478.63,324.26023216439216
1198,1686016714.21,-30.762,833.984,13.184,-39.551,118478.634,329.03713977439554
1199,1686016714.22,-25.879,563.477,34.668,-31.25,118478.638,321.5667048830225
1200,1686016714.23,-14.648,735.352,101.074,-15.137,118478.655,325.13318190846286
1201,1686016714.24,-15.625,994.629,50.781,-19.531,118478.659,334.0001824961003
1202,1686016714.24,-26.367,778.809,-19.531,-44.922,118478.663,325.50251509914335
1203,1686016714.25,-27.832,530.762,134.277,-42.969,118478.667,325.703647426901
1204,1686016714.25,-21.973,709.961,179.688,-22.949,118478.671,334.07362203010257
1205,1686016714.25,-19.043,635.254,16.113,-12.695,118478.675,323.2990526389388
1206,1686016714.26,-27.344,449.707,11.23,-24.902,118478.679,332.03388408479117
1207,1686016714.26,-33.203,-413.086,-14.16,-34.18,118478.683,326.40015328187326
1208,1686016714.26,-25.879,794.922,71.777,-27.832,118478.685,331.51444534901816
1209,1686016714.26,-22.461,-262.695,218.75,-18.555,118478.687,325.3388051015189
1210,1686016714.27,-12.207,820.801,49.805,-14.648,118478.689,329.68671616232564
1211,1686016714.27,-11.719,912.109,227.539,-12.207,118478.69,335.6021140656357
1212,1686016714.27,-19.043,223.633,-24.414,-19.043,118478.693,324.653473547007
1213,1686016714.27,-14.648,666.992,0.977,-20.02,118478.694,318.77756863896536
1214,1686016714.28,-29.785,-40.039,106.445,-31.25,118478.697,324.684358000356
1215,1686016714.28,-27.832,439.453,29.297,-33.691,118478.698,326.4219494737787
1216,1686016714.28,-25.879,637.695,284.668,-29.785,118478.7,309.9990827375763
1217,1686016714.28,-13.672,709.473,61.035,-8.301,118478.704,318.15464110510715
1218,1686016714.29,-6.836,278.32,64.453,-1.465,118478.708,325.7918101099778
1219,1686016714.29,-13.184,361.328,245.117,-22.461,118478.712,324.0612880278859
1220,1686016714.3,-17.09,522.949,137.207,-33.203,118478.716,319.3837127503111
1221,1686016714.3,-8.789,802.734,84.961,-17.578,118478.72,322.9035637873975
1222,1686016714.3,-4.883,296.387,-16.113,-1.953,118478.724,323.34186628720636
1223,1686016714.31,-19.531,-311.523,124.023,-15.625,118478.728,314.9963860945884
1224,1686016714.31,-27.344,492.676,259.277,-33.691,118478.744,314.1386441776751
1225,1686016714.32,-14.648,768.066,56.641,-22.461,118478.748,325.3364374785302
1226,1686016714.32,-12.207,674.316,116.699,-12.207,118478.752,331.3231935891354
1227,1686016714.32,-14.648,827.637,190.43,-22.461,118478.756,322.75340407071445
1228,1686016714.33,-16.113,789.062,40.039,-32.227,118478.76,322.22082428220443
1229,1686016714.33,-11.23,476.562,-26.367,-18.066,118478.764,325.31205845400666
1230,1686016714.34,8.789,-15.137,83.008,-0.977,118478.768,317.02977416842504
1231,1686016714.34,-5.371,319.824,269.531,-17.09,118478.772,324.1108510876521
1232,1686016714.34,-27.832,934.57,130.371,-40.527,118478.776,327.78784926409406
1233,1686016714.35,-15.625,680.176,0.0,-34.18,118478.779,325.6013675052986
1234,1686016714.35,-2.441,436.035,26.855,-7.812,118478.783,329.62173360712166
1235,1686016714.35,-15.625,844.238,82.031,-32.227,118478.789,324.6780167319345
1236,1686016714.36,-8.301,567.871,84.473,-9.766,118478.787,317.7212749303235
1237,1686016714.36,-15.625,390.625,-37.598,-28.32,118478.793,319.63729600321255
1238,1686016714.36,-14.16,-268.066,78.125,-7.812,118478.797,321.38597010806234
1239,1686016714.37,-13.672,458.496,308.105,-9.277,118478.801,317.79020666942
1240,1686016714.37,-13.184,-1000.0,95.215,-27.344,118478.805,325.1646243562073
1241,1686016714.37,-19.043,339.844,-5.371,-40.527,118478.809,324.74762460934056
1242,1686016714.38,-23.926,257.812,256.348,-32.715,118478.813,321.588912302101
1243,1686016714.38,-17.578,890.625,248.047,-15.625,118478.816,317.6214287222176
1244,1686016714.38,-12.695,-973.633,8.789,-17.09,118478.82,327.0865984001939
1245,1686016714.39,-18.066,250.488,-9.277,-33.691,118478.824,321.98118597584795
1246,1686016714.39,-23.926,71.777,265.137,-32.715,118478.828,322.25084550336567
1247,1686016714.4,-14.16,931.152,255.371,-15.137,118478.832,316.6746442046946
1248,1686016714.4,-20.02,900.391,41.992,-19.531,118478.833,325.37843749278466
1249,1686016714.41,-31.738,455.078,56.641,-40.039,118478.837,322.8495550257462
1250,1686016714.41,-20.996,535.156,123.047,-41.992,118478.841,329.30312423663224
1251,1686016714.41,-3.418,950.684,80.078,-21.973,118478.845,325.284459039467
1252,1686016714.42,-7.812,874.512,-2.441,-19.043,118478.849,331.35379395023483
1253,1686016714.42,-20.02,231.934,101.074,-35.645,118478.853,319.915493975517
1254,1686016714.42,-11.719,289.062,288.086,-33.203,118478.857,322.15048819845975
1255,1686016714.43,-8.301,902.344,234.375,-18.555,118478.861,319.5811440632298
1256,1686016714.43,-14.648,769.531,18.066,-17.09,118478.865,319.4202685173701
1257,1686016714.44,-7.324,234.863,107.422,-25.391,118478.869,326.2010308707
1258,1686016714.44,-11.23,474.121,289.551,-35.645,118478.872,331.73277467611985
1259,1686016714.44,-19.043,866.211,136.719,-26.367,118478.876,319.63715137835976
1260,1686016714.46,-12.207,697.266,35.645,-8.301,118478.88,313.2758776882903
1261,1686016714.46,-13.672,335.938,28.32,-17.09,118478.884,319.166690061084
1262,1686016714.47,-14.16,483.887,59.57,-32.227,118478.888,312.397609672545
1263,1686016714.47,-8.301,692.871,56.641,-24.902,118478.892,311.85312521630516
1264,1686016714.48,-1.953,282.227,15.137,-3.418,118478.896,321.36693475627595
1265,1686016714.48,0.0,-527.832,52.734,-3.906,118478.9,317.1559667768559
1266,1686016714.48,-8.789,-23.926,305.664,-24.902,118478.904,325.92790244776126
1267,1686016714.49,-8.789,852.539,237.305,-27.832,118478.908,320.1604097659053
1268,1686016714.49,2.441,438.965,104.98,-6.348,118478.912,324.57682729784216
1269,1686016714.49,-1.465,479.98,261.23,-0.977,118478.915,316.404463219561
1270,1686016714.5,-14.648,965.82,150.879,-19.531,118478.919,320.61845095771037
1271,1686016714.5,-23.438,822.754,18.066,-24.902,118478.923,327.15986951876783
1272,1686016714.5,-18.066,631.348,75.684,-10.742,118478.926,320.70315463506466
1273,1686016714.51,-12.695,795.898,112.793,-1.953,118478.93,323.56256014295934
1274,1686016714.51,-20.508,976.074,64.941,-23.926,118478.934,322.9927406392738
1275,1686016714.52,-33.203,762.695,13.672,-46.875,118478.938,320.86843451256357
1276,1686016714.52,-24.414,398.438,146.484,-26.855,118478.942,318.5391637474773
1277,1686016714.52,-12.207,430.176,221.191,0.488,118478.946,319.6304290306955
1278,1686016714.53,-22.461,539.062,104.004,-5.371,118478.95,318.640234877698
1279,1686016714.53,-33.691,518.066,32.715,-25.391,118478.954,317.6268623930762
1280,1686016714.54,-26.855,-224.121,11.23,-12.695,118478.958,311.29580078427847
1281,1686016714.54,-10.254,-7.324,270.508,14.648,118478.961,320.20890520956016
1282,1686016714.54,-13.672,-970.215,240.723,-0.488,118478.965,309.7238703509633
1283,1686016714.55,-20.996,705.078,4.395,-34.668,118478.969,310.6525230284908
1284,1686016714.55,-20.996,605.957,54.688,-33.691,118478.97,316.1150571631133
1285,1686016714.55,-16.602,744.629,93.262,-12.695,118478.974,314.9144525817442
1286,1686016714.56,-12.207,827.637,86.426,-5.859,118478.978,321.96530933528413
1287,1686016714.56,-26.367,468.262,16.602,-26.367,118478.982,316.2197847706678
1288,1686016714.56,-38.574,49.316,93.75,-34.18,118478.986,316.312423568481
1289,1686016714.57,-21.973,496.094,156.25,-11.23,118478.99,324.62410552637795
1290,1686016714.57,-12.695,698.242,66.406,6.836,118478.994,326.2846753188602
1291,1686016714.58,-26.855,240.723,4.883,-5.859,118478.998,322.0244953246734
1292,1686016714.58,-41.504,-240.234,90.332,-33.203,118479.002,310.68963491942185
1293,1686016714.58,-33.203,491.699,284.668,-26.367,118479.005,319.93965419321955
1294,1686016714.59,-19.531,-998.047,168.457,-8.789,118479.009,322.8083613160129
1295,1686016714.59,-23.926,640.625,55.664,-22.949,118479.013,314.5614466975159
