,timestamps,TP9,AF7,AF8,TP10,Secondary Timestamp,emg_signal
0,1686016744.264,15.137,881.836,34.18,-36.133,118508.685,313
1,1686016744.268,25.391,980.469,10.254,-19.531,118508.689,313
2,1686016744.272,29.785,994.629,-10.254,-20.996,118508.693,315
3,1686016744.276,10.742,812.988,0.977,-37.598,118508.697,315
4,1686016744.28,-1.465,813.477,47.363,-50.293,118508.701,315
5,1686016744.284,8.301,996.582,-1.953,-40.039,118508.705,315
6,1686016744.288,21.484,993.652,-11.23,-22.949,118508.709,317
7,1686016744.291,16.113,787.109,-2.93,-29.297,118508.713,317
8,1686016744.295,-4.883,804.199,51.27,-43.945,118508.717,317
9,1686016744.299,-3.418,-992.188,15.137,-38.574,118508.72,317
10,1686016744.303,6.348,959.961,-20.02,-21.484,118508.724,318
11,1686016744.307,-2.93,957.52,-13.184,-19.531,118508.728,318
12,1686016744.309,-5.371,966.309,-7.324,-21.973,118508.731,318
13,1686016744.313,-1.465,978.027,-6.348,-8.789,118508.735,318
14,1686016744.317,7.324,963.379,-30.762,-4.883,118508.739,316
15,1686016744.321,15.137,925.293,6.348,-8.789,118508.743,316
16,1686016744.325,6.348,949.707,3.418,-15.137,118508.747,316
17,1686016744.329,2.93,999.023,-29.785,-20.02,118508.751,314
18,1686016744.333,7.812,899.414,-32.227,-6.348,118508.754,314
19,1686016744.336,15.137,800.781,-0.488,7.812,118508.758,314
20,1686016744.34,10.742,961.914,47.852,-4.883,118508.762,314
21,1686016744.344,6.348,983.887,-31.738,-27.344,118508.766,315
22,1686016744.348,14.648,946.777,22.949,-22.461,118508.77,315
23,1686016744.352,20.02,967.773,59.57,-6.836,118508.774,315
24,1686016744.355,13.672,954.59,-28.32,-12.695,118508.778,315
25,1686016744.359,17.09,-978.516,-33.203,-27.344,118508.782,317
26,1686016744.363,27.832,730.469,-14.648,-17.578,118508.786,317
27,1686016744.367,28.32,623.047,34.668,2.441,118508.79,317
28,1686016744.371,11.719,975.098,11.23,-3.418,118508.794,319
29,1686016744.375,-6.836,-964.844,-46.875,-25.879,118508.798,319
30,1686016744.379,-3.906,657.227,-11.23,-18.066,118508.802,319
31,1686016744.382,-0.488,574.707,56.152,-6.348,118508.806,319
32,1686016744.386,2.93,-993.164,35.645,-16.602,118508.809,319
33,1686016744.39,7.324,968.262,-41.016,-22.461,118508.813,319
34,1686016744.394,0.977,929.199,3.418,-34.668,118508.817,319
35,1686016744.398,-0.488,965.82,27.344,-17.578,118508.821,317
36,1686016744.4,7.812,976.562,1.953,-3.418,118508.834,317
37,1686016744.404,7.812,964.844,-22.461,-17.09,118508.838,317
38,1686016744.408,-3.418,962.891,-3.906,-23.926,118508.842,317
39,1686016744.412,0.0,946.777,9.766,-14.648,118508.846,315
40,1686016744.416,8.789,991.699,5.371,-2.441,118508.85,315
41,1686016744.42,6.348,941.895,-57.129,-6.836,118508.854,315
42,1686016744.424,0.977,337.891,-38.574,-14.16,118508.858,316
43,1686016744.427,0.977,583.496,88.867,-9.766,118508.861,316
44,1686016744.431,11.23,-943.848,1.953,2.93,118508.865,316
45,1686016744.435,11.719,915.039,0.977,7.812,118508.869,316
46,1686016744.439,-2.93,952.637,37.598,-14.648,118508.873,319
47,1686016744.443,-5.859,978.516,12.695,-26.855,118508.877,319
48,1686016744.46,1.953,974.609,-0.488,-11.719,118508.88,320
49,1686016744.464,11.719,901.855,-2.93,0.488,118508.884,320
50,1686016744.468,6.836,928.711,16.113,-10.254,118508.888,319
51,1686016744.472,1.953,954.102,-11.23,-11.23,118508.892,319
52,1686016744.476,1.465,-959.473,-20.996,3.418,118508.896,319
53,1686016744.48,-3.418,661.133,-30.762,14.16,118508.9,317
54,1686016744.484,-5.859,479.98,13.184,5.371,118508.904,317
55,1686016744.487,-3.418,987.305,26.367,-17.578,118508.908,317
56,1686016744.491,3.418,974.121,11.23,-5.859,118508.912,317
57,1686016744.495,4.395,919.922,31.738,3.418,118508.916,316
58,1686016744.499,1.953,959.473,20.996,-13.184,118508.919,316
59,1686016744.503,4.883,983.398,7.812,-16.602,118508.923,316
60,1686016744.504,0.0,950.195,-5.859,-10.254,118508.926,316
61,1686016744.508,8.301,878.418,13.672,3.418,118508.929,316
62,1686016744.512,12.695,950.684,37.109,-3.906,118508.933,317
63,1686016744.516,4.883,988.77,-9.766,-29.785,118508.937,317
64,1686016744.52,5.371,932.129,-29.785,-32.715,118508.941,317
65,1686016744.524,2.93,919.922,-12.695,-21.973,118508.945,320
66,1686016744.528,3.418,937.5,41.992,-13.672,118508.949,320
67,1686016744.531,-4.395,-971.191,25.879,-21.973,118508.953,320
68,1686016744.535,-5.859,788.574,-32.715,-21.973,118508.957,321
69,1686016744.539,3.906,472.656,7.324,-2.441,118508.961,321
70,1686016744.543,3.418,877.441,59.082,3.418,118508.965,321
71,1686016744.547,-1.953,-944.824,18.066,-8.789,118508.968,321
72,1686016744.549,-16.602,727.051,-3.418,-21.973,118508.97,321
73,1686016744.553,-14.648,685.547,38.086,-15.137,118508.974,320
74,1686016744.557,-0.488,964.844,46.387,-6.836,118508.978,320
75,1686016744.561,-5.371,-959.473,-12.207,-20.02,118508.982,320
76,1686016744.565,-18.555,629.395,-27.344,-29.297,118508.986,318
77,1686016744.569,-18.555,485.352,36.133,-24.414,118508.99,318
78,1686016744.573,3.906,957.52,56.641,-20.02,118508.994,318
79,1686016744.576,14.16,-954.102,-1.465,-15.137,118508.998,318
80,1686016744.58,0.488,554.199,-25.879,-16.602,118509.002,318
81,1686016744.584,-12.695,532.227,64.941,-25.879,118509.005,318
82,1686016744.588,-1.953,-965.332,41.992,-11.23,118509.009,318
83,1686016744.592,8.789,951.66,-18.066,0.488,118509.013,319
84,1686016744.594,0.488,902.344,0.488,-19.043,118509.015,319
85,1686016744.598,-8.301,943.359,32.227,-33.203,118509.019,319
86,1686016744.602,-7.324,991.699,26.367,-17.09,118509.023,319
87,1686016744.606,4.395,937.988,-27.832,4.883,118509.027,322
88,1686016744.61,5.859,792.969,-18.555,3.906,118509.031,322
89,1686016744.614,-7.324,871.582,27.832,-19.531,118509.035,322
90,1686016744.618,-5.371,-983.398,22.461,-16.113,118509.039,322
91,1686016744.621,12.695,817.871,-15.625,5.859,118509.043,322
92,1686016744.625,11.23,586.914,3.418,4.395,118509.047,322
93,1686016744.629,-2.93,928.223,65.43,-14.16,118509.05,322
94,1686016744.633,-14.648,997.559,-4.395,-14.648,118509.054,321
95,1686016744.637,-20.508,911.621,29.297,1.953,118509.058,321
96,1686016744.639,-9.277,958.496,54.199,0.488,118509.074,321
97,1686016744.643,-10.254,927.734,-5.859,-17.09,118509.078,321
98,1686016744.647,-24.414,979.004,1.465,-33.203,118509.082,319
99,1686016744.651,-5.371,537.109,-1.465,-17.578,118509.086,319
100,1686016744.655,-1.465,367.188,50.293,-5.859,118509.09,319
101,1686016744.659,-20.508,955.566,39.551,-27.832,118509.094,319
102,1686016744.663,-15.137,-967.285,-3.906,-42.969,118509.098,319
103,1686016744.666,-10.254,521.484,28.809,-20.996,118509.101,319
104,1686016744.67,-6.348,520.508,84.961,-2.441,118509.105,319
105,1686016744.674,6.348,-965.82,27.344,-8.301,118509.109,322
106,1686016744.678,2.441,941.406,-9.277,-17.578,118509.113,322
107,1686016744.682,-13.672,901.367,31.738,-22.461,118509.117,322
108,1686016744.685,-7.324,953.125,44.922,-7.324,118509.107,323
109,1686016744.689,-3.906,994.141,34.668,2.93,118509.111,323
110,1686016744.693,-15.137,905.762,-9.277,-10.742,118509.115,323
111,1686016744.697,-6.348,851.074,15.625,-9.766,118509.119,323
112,1686016744.701,5.371,932.129,24.414,-0.488,118509.123,323
113,1686016744.705,-1.953,-978.027,-1.465,-3.418,118509.127,323
114,1686016744.709,-3.906,747.07,-45.898,-13.672,118509.131,323
115,1686016744.712,-7.812,218.75,5.859,-22.461,118509.135,323
116,1686016744.716,0.0,676.27,114.258,-15.137,118509.139,321
117,1686016744.72,6.836,-878.418,35.156,-7.812,118509.143,321
118,1686016744.724,1.953,607.422,-32.715,-24.414,118509.146,321
119,1686016744.728,-3.418,385.254,25.391,-32.227,118509.15,319
120,1686016744.729,-3.418,924.805,60.059,-25.391,118509.164,319
121,1686016744.733,2.93,-937.988,1.953,-7.324,118509.168,319
122,1686016744.737,2.93,514.648,0.977,-3.906,118509.171,319
123,1686016744.741,-2.93,353.516,54.199,-20.508,118509.175,319
124,1686016744.745,0.977,942.871,36.621,-23.926,118509.179,320
125,1686016744.749,8.789,-956.543,17.578,-7.324,118509.183,320
126,1686016744.753,3.906,503.418,6.836,1.953,118509.187,320
127,1686016744.756,-4.883,-93.75,49.805,-9.766,118509.191,322
128,1686016744.76,-11.719,574.707,101.074,-26.367,118509.195,322
129,1686016744.764,-3.418,989.746,43.945,-14.16,118509.199,322
130,1686016744.768,14.648,830.566,59.082,2.93,118509.203,324
131,1686016744.772,9.277,910.645,56.641,-7.324,118509.207,324
132,1686016744.774,-10.254,996.094,9.766,-26.855,118509.21,324
133,1686016744.778,-17.09,933.105,11.23,-28.809,118509.214,324
134,1686016744.782,-4.395,896.973,11.719,-19.531,118509.218,324
135,1686016744.786,-0.488,949.707,14.16,-26.367,118509.222,323
136,1686016744.79,-6.836,979.98,-0.977,-38.574,118509.225,323
137,1686016744.794,-3.418,603.516,-41.016,-32.715,118509.229,323
138,1686016744.798,-5.371,395.02,32.227,-20.996,118509.233,320
139,1686016744.801,-6.836,889.648,84.961,-22.949,118509.237,320
140,1686016744.805,-9.766,-958.008,14.648,-28.809,118509.241,320
141,1686016744.809,-16.113,707.031,32.227,-33.691,118509.245,320
142,1686016744.813,-13.672,580.566,79.102,-20.02,118509.249,319
143,1686016744.817,-13.184,841.309,81.055,-5.859,118509.253,319
144,1686016744.82,-6.348,-930.664,28.32,-17.578,118509.254,319
145,1686016744.824,6.348,384.277,-27.832,-5.371,118509.258,319
146,1686016744.828,7.324,-130.371,69.824,20.02,118509.262,320
147,1686016744.832,-0.977,783.691,108.887,4.883,118509.266,320
148,1686016744.836,-18.066,-983.887,-2.93,-22.949,118509.27,323
149,1686016744.84,-27.832,481.445,3.418,-35.156,118509.274,323
150,1686016744.844,-26.367,503.418,72.266,-31.738,118509.278,323
151,1686016744.847,-32.227,964.355,54.199,-23.438,118509.282,323
152,1686016744.851,-34.668,990.723,-7.812,-23.438,118509.286,323
153,1686016744.855,-30.762,400.879,49.805,-19.043,118509.29,323
154,1686016744.859,-20.996,441.406,132.324,-11.23,118509.294,323
155,1686016744.863,-18.066,-974.121,69.336,-7.812,118509.297,323
156,1686016744.867,-15.137,893.066,11.23,-7.324,118509.3,321
157,1686016744.871,-12.207,583.008,30.273,-26.367,118509.304,321
158,1686016744.875,-16.113,684.082,70.312,-24.414,118509.308,321
159,1686016744.879,-8.301,-994.141,68.848,-6.836,118509.312,319
160,1686016744.883,-3.906,827.148,11.23,-7.324,118509.316,319
161,1686016744.887,-14.16,112.305,5.859,-23.926,118509.32,319
162,1686016744.891,-22.949,299.805,99.609,-37.598,118509.324,319
163,1686016744.894,-21.484,989.746,71.777,-29.785,118509.327,318
164,1686016744.898,-7.324,673.828,-6.836,-21.973,118509.331,318
165,1686016744.902,-7.812,243.652,38.574,-36.133,118509.335,318
166,1686016744.906,-15.625,719.727,91.309,-45.41,118509.339,320
167,1686016744.91,-13.672,924.316,29.297,-28.32,118509.343,320
168,1686016744.924,-21.973,746.094,41.992,-31.25,118509.345,322
169,1686016744.928,-25.391,553.711,62.012,-37.109,118509.349,322
170,1686016744.932,-27.832,529.785,41.504,-45.898,118509.353,322
171,1686016744.936,-29.785,715.332,38.574,-47.852,118509.357,322
172,1686016744.94,-19.043,208.008,16.602,-27.344,118509.361,322
173,1686016744.944,-16.602,-332.52,74.707,-23.438,118509.365,322
174,1686016744.948,-16.113,272.949,107.422,-45.41,118509.369,320
175,1686016744.951,-10.742,703.613,24.414,-49.805,118509.373,320
176,1686016744.955,-5.371,278.32,80.566,-22.949,118509.377,320
177,1686016744.959,-11.23,460.938,151.367,-22.461,118509.38,320
178,1686016744.963,-25.391,-954.102,51.758,-42.48,118509.384,320
179,1686016744.967,-32.227,804.688,1.465,-43.945,118509.388,318
180,1686016745.0,-21.484,613.77,52.246,-35.156,118509.422,321
181,1686016745.004,-13.184,853.027,88.867,-27.832,118509.426,321
182,1686016745.008,-13.184,-984.375,31.738,-34.668,118509.43,323
183,1686016745.012,-13.184,737.305,18.555,-42.48,118509.433,323
184,1686016745.014,-15.625,622.559,114.746,-41.016,118509.435,323
185,1686016745.016,-6.348,579.102,30.273,-28.32,118509.437,322
186,1686016745.018,-4.395,752.441,59.57,-22.949,118509.439,322
187,1686016745.02,3.418,628.906,36.621,-11.23,118509.441,322
188,1686016745.022,7.812,725.586,47.852,-11.23,118509.443,322
189,1686016745.024,-1.465,606.934,63.477,-16.602,118509.445,322
190,1686016745.026,-4.883,214.355,43.945,-35.645,118509.447,322
191,1686016745.027,-19.043,431.641,-29.785,-39.062,118509.449,322
192,1686016745.03,-22.461,-61.035,72.754,-51.27,118509.451,320
193,1686016745.031,-15.625,-362.305,20.02,-38.574,118509.453,320
194,1686016745.034,-17.578,519.531,74.219,-25.879,118509.455,320
195,1686016745.035,-2.93,199.707,170.898,-28.32,118509.457,320
196,1686016745.038,-5.859,593.262,43.945,-13.184,118509.459,320
197,1686016745.039,-8.789,-957.52,45.41,-25.391,118509.461,320
198,1686016745.041,-9.277,558.594,49.805,-39.062,118509.463,320
199,1686016745.043,-17.578,615.234,48.34,-33.203,118509.465,320
200,1686016745.045,-17.09,600.098,33.691,-55.176,118509.467,318
201,1686016745.049,-16.113,640.137,52.734,-42.48,118509.471,318
202,1686016745.053,-8.301,796.875,64.453,-22.461,118509.474,318
203,1686016745.057,-12.695,555.176,60.059,-26.855,118509.478,319
204,1686016745.059,-22.949,540.527,86.426,-46.387,118509.495,319
205,1686016745.063,-16.113,860.84,61.035,-39.551,118509.498,319
206,1686016745.067,-2.93,943.359,35.645,-13.672,118509.502,319
207,1686016745.071,18.555,18.555,-8.789,11.719,118509.506,322
208,1686016745.075,-3.418,-277.344,57.617,-19.531,118509.51,322
209,1686016745.079,-47.852,501.953,71.289,-57.129,118509.514,322
210,1686016745.083,-42.48,318.359,3.418,-27.344,118509.518,322
211,1686016745.086,-17.09,117.188,50.781,4.395,118509.522,322
212,1686016745.09,-10.254,690.43,123.047,-2.441,118509.526,323
213,1686016745.094,-23.438,-988.77,36.621,-13.672,118509.53,323
214,1686016745.098,-16.113,720.215,63.965,5.371,118509.534,322
215,1686016745.102,-5.371,627.93,104.492,28.32,118509.537,322
216,1686016745.105,-19.043,794.922,52.246,21.973,118509.529,322
217,1686016745.109,-19.043,782.715,44.434,25.879,118509.533,322
218,1686016745.113,-7.324,159.668,8.301,51.27,118509.536,320
219,1686016745.117,-4.395,-54.199,77.637,66.895,118509.54,320
220,1686016745.121,-4.395,789.551,86.426,66.406,118509.544,320
221,1686016745.125,-6.836,763.184,4.883,48.828,118509.548,320
222,1686016745.129,0.977,362.305,79.59,44.434,118509.552,319
223,1686016745.132,12.207,693.359,92.285,58.594,118509.556,319
224,1686016745.136,18.555,-997.07,61.523,65.43,118509.56,319
225,1686016745.14,17.578,949.219,28.32,46.875,118509.564,321
226,1686016745.144,5.859,262.207,31.738,35.156,118509.568,321
227,1686016745.148,11.23,306.641,117.676,58.594,118509.572,321
228,1686016745.151,19.531,-952.148,80.566,66.406,118509.583,321
229,1686016745.155,9.766,835.938,10.254,42.969,118509.587,321
230,1686016745.159,3.418,465.332,37.598,29.297,118509.591,324
231,1686016745.163,8.789,711.914,91.309,41.016,118509.595,324
232,1686016745.167,23.926,995.605,56.152,55.176,118509.599,324
233,1686016745.171,20.02,738.281,-31.25,43.945,118509.603,325
234,1686016745.175,-0.977,-353.027,-24.414,24.414,118509.607,325
235,1686016745.178,-4.395,-149.902,129.883,12.695,118509.611,325
236,1686016745.182,8.301,983.398,89.355,19.531,118509.615,324
237,1686016745.186,4.395,783.691,55.176,20.996,118509.619,324
238,1686016745.19,-7.324,689.941,102.051,4.395,118509.622,324
239,1686016745.194,-6.836,885.254,67.383,5.371,118509.626,324
240,1686016745.21,4.883,987.793,58.594,16.113,118509.632,323
241,1686016745.214,11.719,688.965,53.223,23.438,118509.635,323
242,1686016745.218,5.859,559.082,78.613,11.719,118509.639,323
243,1686016745.222,2.441,874.023,45.898,-3.418,118509.643,326
244,1686016745.226,9.277,875.0,41.504,2.441,118509.647,326
245,1686016745.23,7.812,224.121,28.32,20.02,118509.651,326
246,1686016745.234,1.953,-393.555,100.098,8.301,118509.655,326
247,1686016745.237,-6.348,458.008,135.742,-18.555,118509.659,326
248,1686016745.241,-1.953,923.34,39.551,-17.578,118509.663,329
249,1686016745.245,10.254,704.59,78.613,-9.277,118509.667,329
250,1686016745.249,4.395,891.113,80.566,-9.766,118509.671,329
251,1686016745.253,-2.441,986.328,36.133,-19.043,118509.675,331
252,1686016745.269,-5.859,759.277,30.762,-19.043,118509.698,330
253,1686016745.273,-0.488,645.508,50.781,-2.93,118509.702,330
254,1686016745.277,-2.441,892.578,56.152,-2.93,118509.706,330
255,1686016745.281,-11.719,-1000.0,35.156,-21.973,118509.71,330
256,1686016745.285,-20.996,696.289,18.555,-16.602,118509.713,330
257,1686016745.289,-20.02,340.82,36.133,7.812,118509.717,330
258,1686016745.293,-13.672,626.465,78.125,15.625,118509.721,332
259,1686016745.296,-13.672,786.621,58.594,6.348,118509.725,332
260,1686016745.299,-15.137,700.684,31.25,-16.113,118509.72,332
261,1686016745.3,-17.578,418.457,-9.766,-6.836,118509.729,332
262,1686016745.303,-17.578,451.172,75.684,-12.207,118509.724,332
263,1686016745.304,-15.625,-350.586,37.598,4.883,118509.733,332
264,1686016745.307,-12.207,725.586,74.707,1.465,118509.728,332
265,1686016745.308,-2.93,161.621,154.297,17.09,118509.737,336
266,1686016745.311,-3.906,-922.363,13.672,8.789,118509.732,336
267,1686016745.312,-7.812,-960.449,48.828,-2.93,118509.741,336
268,1686016745.315,-6.836,416.504,3.906,-3.418,118509.736,336
269,1686016745.319,-14.648,-60.059,94.238,-8.789,118509.74,336
270,1686016745.323,-20.508,647.461,87.891,1.953,118509.744,341
271,1686016745.326,-19.043,962.891,39.551,6.348,118509.748,341
272,1686016745.33,-18.066,685.547,35.156,-14.16,118509.752,341
273,1686016745.334,-19.531,546.875,51.758,-29.297,118509.756,343
274,1686016745.338,-20.02,725.586,75.684,-16.113,118509.759,343
275,1686016745.342,-16.113,-977.051,49.316,-4.395,118509.763,343
276,1686016745.344,-8.789,180.176,-0.977,-12.695,118509.765,343
277,1686016745.348,-11.719,-150.879,83.496,-29.297,118509.769,343
278,1686016745.352,-12.695,851.562,92.285,-21.973,118509.773,343
279,1686016745.356,-11.23,904.785,39.062,-7.324,118509.777,343
280,1686016745.36,-13.184,777.832,11.719,-16.602,118509.781,343
281,1686016745.364,-17.578,687.988,31.25,-25.391,118509.785,346
282,1686016745.368,-20.996,583.496,83.008,-21.973,118509.789,346
283,1686016745.371,-16.602,497.559,10.742,-13.184,118509.793,346
284,1686016745.375,-24.902,241.211,37.109,-13.672,118509.797,351
285,1686016745.379,-34.668,711.426,108.398,-34.18,118509.801,351
286,1686016745.383,-33.203,-984.863,26.855,-46.387,118509.804,351
287,1686016745.387,-17.578,771.484,55.664,-29.297,118509.808,351
288,1686016745.39,-4.395,705.566,95.215,-20.02,118509.813,359
289,1686016745.394,-9.277,641.602,31.25,-38.086,118509.817,359
290,1686016745.398,-14.16,653.32,37.109,-51.758,118509.821,359
291,1686016745.402,-5.859,275.391,35.645,-23.438,118509.825,365
292,1686016745.406,1.953,8.789,66.895,2.93,118509.829,365
293,1686016745.41,-5.859,573.73,89.355,-16.113,118509.833,365
294,1686016745.414,-14.648,723.145,37.598,-33.691,118509.837,367
295,1686016745.417,-17.09,165.039,31.25,-28.809,118509.841,367
296,1686016745.421,-18.066,257.812,100.586,-20.02,118509.845,367
297,1686016745.425,-21.973,-959.473,75.684,-23.926,118509.849,367
298,1686016745.429,-27.344,885.254,25.879,-30.273,118509.852,367
299,1686016745.433,-27.344,738.281,79.102,-39.062,118509.856,368
300,1686016745.434,-17.578,912.598,104.492,-24.902,118509.856,368
301,1686016745.438,-8.301,-969.727,55.176,-3.418,118509.859,368
302,1686016745.442,-15.137,783.691,3.906,-16.602,118509.863,368
303,1686016745.446,-23.438,498.047,43.457,-24.902,118509.867,370
304,1686016745.45,-8.789,819.336,79.59,8.789,118509.871,370
305,1686016745.454,-0.488,922.852,59.082,35.156,118509.875,370
306,1686016745.458,-17.09,598.145,-4.395,18.066,118509.879,372
307,1686016745.461,-26.855,-253.906,0.0,7.812,118509.883,372
308,1686016745.465,-12.695,178.223,156.738,26.367,118509.887,372
309,1686016745.469,-5.371,-920.898,79.102,39.551,118509.891,372
310,1686016745.473,-21.484,752.441,57.129,16.113,118509.895,374
311,1686016745.477,-26.367,708.008,100.586,-0.488,118509.898,374
312,1686016745.479,-11.23,930.176,58.594,8.301,118509.914,374
313,1686016745.483,-7.812,958.496,51.758,13.672,118509.918,374
314,1686016745.487,-13.184,374.512,16.602,13.184,118509.922,373
315,1686016745.491,-31.25,269.043,85.449,-2.93,118509.926,373
316,1686016745.495,-32.227,848.145,70.312,-4.395,118509.93,373
317,1686016745.499,-13.184,866.699,17.578,12.695,118509.934,373
318,1686016745.503,-10.254,225.586,23.438,9.766,118509.938,369
319,1686016745.506,-19.043,-137.207,83.984,-14.16,118509.942,369
320,1686016745.51,-18.555,778.809,113.281,-23.438,118509.946,369
321,1686016745.514,-14.16,972.168,45.41,-9.766,118509.95,364
322,1686016745.518,-22.461,817.871,62.5,-10.254,118509.953,364
323,1686016745.522,-26.855,937.5,70.801,-22.949,118509.957,364
324,1686016745.525,-25.391,990.234,58.105,-31.25,118509.959,360
325,1686016745.529,-22.949,896.484,42.48,-14.648,118509.963,360
326,1686016745.533,-13.672,806.152,55.176,2.441,118509.967,360
327,1686016745.537,-13.672,926.758,63.477,-5.371,118509.971,360
328,1686016745.541,-31.738,-994.141,21.484,-14.16,118509.975,358
329,1686016745.545,-25.391,610.352,-21.973,-3.906,118509.979,358
330,1686016745.549,-17.09,273.926,67.383,9.277,118509.982,358
331,1686016745.552,-18.066,784.18,103.027,8.301,118509.986,358
332,1686016745.556,-21.973,871.094,21.973,-4.883,118509.99,356
333,1686016745.56,-24.414,376.465,27.832,-1.953,118509.994,356
334,1686016745.564,-17.578,238.77,55.664,12.207,118509.998,356
335,1686016745.568,-8.789,805.664,84.473,11.719,118510.002,352
336,1686016745.584,-15.137,-963.867,25.879,3.418,118510.005,345
337,1686016745.588,-20.508,578.125,25.391,-6.348,118510.009,345
338,1686016745.592,-15.137,569.824,93.75,0.488,118510.013,345
339,1686016745.596,-16.602,983.398,74.707,2.93,118510.017,338
340,1686016745.6,-16.113,-985.84,19.043,-18.066,118510.021,338
341,1686016745.604,-23.438,176.27,-29.297,-21.484,118510.025,338
342,1686016745.608,-21.484,-133.301,90.332,-6.836,118510.029,334
343,1686016745.611,-17.09,879.883,126.465,-3.906,118510.033,334
344,1686016745.615,-17.09,972.168,11.23,-13.672,118510.036,334
345,1686016745.617,-23.438,926.27,29.297,-19.531,118510.049,334
346,1686016745.619,-11.719,709.473,27.344,-28.32,118510.04,334
347,1686016745.621,-30.762,607.422,44.434,-33.691,118510.053,334
348,1686016745.623,-14.648,744.629,58.594,-29.785,118510.044,333
349,1686016745.625,-33.691,759.766,84.961,-36.133,118510.057,333
350,1686016745.627,-18.555,904.785,66.895,-17.578,118510.048,333
351,1686016745.629,-17.09,-979.492,56.641,-10.254,118510.061,333
352,1686016745.633,-20.02,894.043,29.785,-21.484,118510.065,333
353,1686016745.637,-52.246,581.543,10.742,-58.105,118510.069,331
354,1686016745.641,-55.176,586.426,59.57,-53.711,118510.073,331
355,1686016745.644,-26.367,992.676,75.684,-27.832,118510.077,331
356,1686016745.648,-7.812,774.414,-4.395,-3.418,118510.081,331
357,1686016745.652,-11.719,255.371,22.461,-12.695,118510.085,327
358,1686016745.656,-23.926,715.332,99.609,-38.574,118510.088,327
359,1686016745.66,-14.16,-982.422,24.902,-24.414,118510.092,327
360,1686016745.674,-0.488,833.008,41.992,-1.465,118510.096,322
361,1686016745.678,-9.766,775.391,63.965,-9.277,118510.1,318
362,1686016745.682,-11.719,637.207,37.598,-24.902,118510.104,318
363,1686016745.686,-9.766,720.215,51.27,-23.438,118510.108,318
364,1686016745.69,-9.766,392.578,31.25,-3.906,118510.112,318
365,1686016745.694,-16.602,-187.012,79.102,-7.812,118510.116,317
366,1686016745.698,-36.621,481.934,116.211,-42.969,118510.12,317
367,1686016745.701,-41.992,991.699,21.973,-47.363,118510.124,317
368,1686016745.705,-32.227,523.926,61.523,-21.973,118510.127,317
369,1686016745.709,-25.391,602.539,129.395,-18.066,118510.131,317
370,1686016745.713,-25.391,-959.473,41.992,-33.691,118510.135,317
371,1686016745.717,-27.344,897.949,23.926,-41.016,118510.139,316
372,1686016745.719,-18.555,837.891,73.242,-36.133,118510.141,316
373,1686016745.723,-12.695,935.059,75.195,-33.691,118510.145,316
374,1686016745.727,-20.02,-986.816,35.156,-42.969,118510.149,316
375,1686016745.731,-21.973,823.73,7.324,-51.27,118510.153,316
376,1686016745.735,-20.508,587.891,16.602,-52.246,118510.157,313
377,1686016745.739,-14.16,729.98,51.758,-39.062,118510.16,313
378,1686016745.743,-17.09,973.633,70.312,-44.922,118510.164,313
379,1686016745.746,-28.32,747.559,-32.227,-63.477,118510.168,309
380,1686016745.75,-22.461,-4.883,23.438,-52.246,118510.172,309
381,1686016745.754,-11.719,546.875,164.062,-34.668,118510.176,309
382,1686016745.758,-12.207,-928.223,40.527,-36.621,118510.18,306
383,1686016745.762,-17.578,782.715,53.711,-56.152,118510.184,306
384,1686016745.764,-20.996,824.707,81.055,-66.895,118510.185,306
385,1686016745.768,-16.602,885.742,34.668,-49.805,118510.189,306
386,1686016745.772,-12.207,966.797,42.48,-42.969,118510.193,306
387,1686016745.776,-17.09,519.043,26.367,-62.5,118510.197,306
388,1686016745.78,-23.438,356.445,68.848,-74.219,118510.201,306
389,1686016745.784,-25.879,769.043,55.176,-55.664,118510.205,306
390,1686016745.788,-19.043,859.863,39.551,-38.086,118510.209,307
391,1686016745.791,-19.043,331.055,6.348,-43.945,118510.213,307
392,1686016745.795,-37.109,-36.133,69.336,-56.641,118510.216,307
393,1686016745.799,-38.086,840.82,114.258,-59.082,118510.22,307
394,1686016745.803,-19.043,981.934,37.109,-41.504,118510.224,306
395,1686016745.807,-18.066,869.141,58.594,-36.621,118510.228,306
396,1686016745.809,-24.902,958.008,59.57,-53.711,118510.23,306
397,1686016745.813,-17.578,983.887,38.574,-54.199,118510.234,306
398,1686016745.817,-4.395,916.016,28.32,-36.621,118510.238,303
399,1686016745.821,-14.16,882.812,30.273,-36.133,118510.242,303
400,1686016745.825,-33.691,918.457,32.227,-58.594,118510.246,303
401,1686016745.829,-28.809,810.547,31.25,-70.312,118510.25,300
402,1686016745.833,-19.531,615.234,10.254,-51.758,118510.254,300
403,1686016745.836,-23.926,377.441,37.109,-38.086,118510.257,300
404,1686016745.84,-30.273,777.344,71.289,-62.012,118510.261,300
405,1686016745.844,-37.598,955.078,13.672,-75.684,118510.265,299
406,1686016745.848,-35.645,527.344,31.25,-46.875,118510.269,299
407,1686016745.852,-22.461,580.566,66.895,-27.832,118510.273,299
408,1686016745.854,-23.438,988.281,44.434,-41.504,118510.289,299
409,1686016745.858,-40.527,884.766,-1.953,-53.223,118510.293,302
410,1686016745.862,-48.828,354.492,27.832,-51.758,118510.297,302
411,1686016745.866,-37.598,427.246,90.82,-37.109,118510.301,302
412,1686016745.87,-30.762,-996.094,57.617,-37.598,118510.305,304
413,1686016745.874,-35.156,910.645,12.207,-55.176,118510.309,304
414,1686016745.878,-34.668,229.004,35.156,-51.27,118510.313,304
415,1686016745.881,-30.762,292.969,86.914,-32.227,118510.316,304
416,1686016745.885,-31.738,-960.938,76.172,-32.715,118510.32,304
417,1686016745.889,-39.062,922.363,6.348,-47.363,118510.324,304
418,1686016745.893,-41.992,812.988,32.227,-50.781,118510.328,304
419,1686016745.897,-31.25,911.133,68.359,-41.016,118510.332,304
420,1686016745.902,-22.949,984.375,64.941,-31.25,118510.328,302
421,1686016745.906,-28.809,924.805,6.348,-42.48,118510.332,302
422,1686016745.91,-40.039,716.797,37.598,-47.852,118510.336,300
423,1686016745.914,-35.156,851.562,77.637,-35.156,118510.34,300
424,1686016745.918,-23.438,-942.871,31.25,-25.391,118510.344,300
425,1686016745.922,-25.391,774.902,-41.504,-27.832,118510.348,300
426,1686016745.926,-34.668,382.812,6.836,-42.48,118510.352,301
427,1686016745.929,-26.367,800.293,110.352,-40.527,118510.355,301
428,1686016745.933,-16.602,-950.195,35.156,-32.227,118510.359,301
429,1686016745.937,-15.625,791.016,46.875,-28.809,118510.363,301
430,1686016745.941,-16.113,780.273,87.891,-35.645,118510.367,304
431,1686016745.945,-19.531,978.516,47.363,-37.598,118510.371,304
432,1686016745.959,-13.672,993.652,28.809,-25.391,118510.382,306
433,1686016745.963,-16.602,750.488,43.945,-21.484,118510.386,306
434,1686016745.967,-28.809,578.613,74.219,-44.434,118510.39,307
435,1686016745.971,-32.227,758.301,56.641,-61.035,118510.394,307
436,1686016745.975,-28.809,-946.289,44.922,-42.969,118510.397,307
437,1686016745.979,-23.438,575.195,-26.367,-28.32,118510.401,307
438,1686016745.983,-32.227,-287.598,63.965,-46.875,118510.405,305
439,1686016745.986,-42.969,442.871,153.809,-62.5,118510.409,305
440,1686016745.99,-27.832,-957.52,27.344,-49.316,118510.413,305
441,1686016745.994,-15.137,897.461,37.598,-27.344,118510.417,305
442,1686016745.998,-19.531,953.125,45.898,-28.32,118510.421,305
443,1686016746.002,-27.832,967.285,7.812,-37.598,118510.425,305
444,1686016746.004,-21.973,935.547,20.996,-20.02,118510.425,305
445,1686016746.008,-10.254,901.855,48.828,-6.348,118510.429,308
446,1686016746.012,-16.602,940.43,53.711,-20.996,118510.433,308
447,1686016746.016,-30.273,-990.234,6.836,-41.992,118510.437,308
448,1686016746.02,-32.715,833.984,-1.465,-45.41,118510.441,313
449,1686016746.024,-18.066,581.055,24.902,-24.902,118510.445,313
450,1686016746.028,-20.996,735.352,41.992,-25.879,118510.449,313
451,1686016746.031,-37.598,-986.816,51.27,-52.734,118510.453,313
452,1686016746.035,-33.691,740.234,-34.668,-63.477,118510.457,313
453,1686016746.039,-19.043,128.418,44.922,-43.457,118510.46,316
454,1686016746.043,-10.254,695.801,140.137,-27.344,118510.464,316
455,1686016746.047,-16.602,-942.383,15.625,-33.203,118510.468,316
456,1686016746.049,-35.156,806.152,17.578,-44.434,118510.47,318
457,1686016746.053,-38.574,735.352,63.477,-43.457,118510.474,318
458,1686016746.057,-23.926,837.402,68.359,-14.16,118510.478,318
459,1686016746.061,-24.902,-937.988,3.418,-6.836,118510.482,317
460,1686016746.065,-37.109,556.152,-10.254,-23.438,118510.486,317
461,1686016746.069,-34.18,230.469,91.797,-24.902,118510.49,317
462,1686016746.073,-33.203,803.223,76.172,-17.09,118510.494,317
463,1686016746.076,-29.785,-916.992,25.391,-22.461,118510.498,317
464,1686016746.08,-27.344,433.594,-8.301,-40.039,118510.502,319
465,1686016746.084,-32.227,98.145,71.777,-38.574,118510.506,319
466,1686016746.088,-24.414,935.547,100.586,-21.973,118510.509,319
467,1686016746.092,-19.531,985.84,12.695,-5.371,118510.513,323
468,1686016746.094,-26.367,872.559,27.832,-15.625,118510.515,323
469,1686016746.098,-31.25,959.473,52.734,-30.273,118510.519,323
470,1686016746.102,-24.414,976.562,61.523,-18.555,118510.523,330
471,1686016746.106,-20.996,947.754,23.926,0.0,118510.527,330
472,1686016746.11,-28.32,945.312,-3.418,-7.324,118510.531,330
473,1686016746.114,-40.039,872.559,5.371,-22.949,118510.535,330
474,1686016746.118,-43.945,910.645,58.105,-14.16,118510.539,335
475,1686016746.121,-27.344,820.801,4.883,-0.977,118510.543,335
476,1686016746.125,-21.484,536.133,25.391,2.441,118510.546,335
477,1686016746.129,-28.32,865.723,72.266,-6.348,118510.55,335
478,1686016746.133,-29.785,-985.84,-6.348,-10.742,118510.554,335
479,1686016746.137,-27.832,739.746,38.574,6.836,118510.558,335
480,1686016746.139,-23.438,747.559,57.129,14.16,118510.56,335
481,1686016746.143,-27.832,935.059,5.859,-3.418,118510.564,335
482,1686016746.147,-31.25,975.586,18.066,-18.555,118510.568,336
483,1686016746.151,-20.02,674.805,25.391,-3.906,118510.572,336
484,1686016746.155,-14.648,603.027,54.688,4.883,118510.576,336
485,1686016746.159,-16.602,972.168,27.344,-14.648,118510.58,339
486,1686016746.163,-23.438,-999.512,15.137,-28.809,118510.584,339
487,1686016746.166,-22.949,494.141,25.391,-11.23,118510.588,339
488,1686016746.17,-16.602,463.867,78.613,5.859,118510.592,339
489,1686016746.174,-20.508,-969.727,61.523,-7.812,118510.595,342
490,1686016746.178,-17.578,943.848,-0.488,-14.16,118510.599,342
491,1686016746.182,-17.09,905.273,38.574,-10.742,118510.603,342
492,1686016746.187,-16.602,944.336,40.527,3.418,118510.611,342
493,1686016746.191,-22.461,990.723,21.484,7.324,118510.615,347
494,1686016746.195,-26.855,932.617,-8.301,-13.672,118510.619,347
495,1686016746.199,-27.832,790.039,16.113,-22.461,118510.623,347
496,1686016746.203,-27.832,903.32,52.734,-1.953,118510.627,347
497,1686016746.207,-19.043,-968.75,15.137,12.207,118510.631,347
498,1686016746.211,-24.902,834.473,-19.531,-11.719,118510.635,347
499,1686016746.214,-31.738,478.027,31.738,-26.855,118510.639,345
500,1686016746.218,-31.25,841.797,104.98,-20.996,118510.642,345
501,1686016746.222,-28.32,-970.215,22.949,-20.02,118510.646,345
502,1686016746.226,-25.879,872.07,44.434,-26.367,118510.65,345
503,1686016746.229,-37.598,973.145,25.391,-37.598,118510.664,343
504,1686016746.23,-33.691,920.898,73.73,-41.504,118510.654,343
505,1686016746.233,-19.531,988.281,10.254,-11.23,118510.668,343
506,1686016746.237,-19.531,789.062,41.992,-17.578,118510.672,343
507,1686016746.241,-28.32,760.254,95.703,-42.969,118510.676,343
508,1686016746.245,-20.996,945.801,55.664,-45.898,118510.68,343
509,1686016746.249,-11.719,-971.68,24.414,-36.133,118510.684,343
510,1686016746.253,-8.789,686.523,13.672,-25.391,118510.688,345
511,1686016746.256,-16.113,-163.574,47.852,-34.18,118510.692,345
512,1686016746.26,-20.508,402.832,130.371,-43.457,118510.696,345
513,1686016746.264,-12.695,-938.965,44.434,-23.926,118510.7,345
514,1686016746.268,-11.23,912.109,46.875,-12.695,118510.703,345
515,1686016746.272,-19.531,958.984,58.594,-24.414,118510.707,345
516,1686016746.274,-28.32,977.051,24.414,-44.922,118510.709,345
517,1686016746.278,-26.855,961.914,21.973,-40.527,118510.713,345
518,1686016746.282,-18.555,945.801,31.738,-21.484,118510.717,342
519,1686016746.286,-16.602,950.195,41.992,-23.438,118510.721,342
520,1686016746.29,-15.625,993.164,1.465,-30.273,118510.725,342
521,1686016746.294,-20.508,868.164,-24.902,-19.531,118510.729,338
522,1686016746.298,-19.043,646.973,20.02,6.836,118510.733,338
523,1686016746.301,-11.23,867.188,70.312,4.883,118510.737,338
524,1686016746.305,-13.184,-937.988,27.344,-19.531,118510.741,338
525,1686016746.309,-16.602,754.395,-11.719,-21.484,118510.745,338
526,1686016746.313,-11.23,584.961,49.805,-2.441,118510.749,332
527,1686016746.317,-10.742,957.52,100.098,-8.789,118510.752,332
528,1686016746.319,-13.672,-966.797,13.672,-29.297,118510.769,332
529,1686016746.323,-10.254,713.867,-7.812,-21.484,118510.773,332
530,1686016746.327,-20.508,687.012,75.195,-14.16,118510.777,332
531,1686016746.331,-33.691,994.141,73.73,-28.809,118510.781,332
532,1686016746.335,-48.34,-992.188,9.766,-50.293,118510.785,332
533,1686016746.339,-63.477,576.172,-4.395,-56.641,118510.789,331
534,1686016746.343,-55.176,552.246,98.633,-41.504,118510.793,331
535,1686016746.346,-47.363,998.535,81.055,-36.621,118510.797,331
536,1686016746.35,-57.617,-975.098,3.906,-48.34,118510.8,331
537,1686016746.354,-74.219,561.035,41.992,-61.035,118510.804,329
538,1686016746.358,-72.266,548.828,118.652,-50.293,118510.808,329
539,1686016746.362,-50.781,-967.285,61.523,-36.133,118510.812,329
540,1686016746.38,-29.297,952.148,0.977,-28.809,118510.802,324
541,1686016746.384,-31.738,933.105,23.438,-35.156,118510.806,319
542,1686016746.388,-33.691,956.543,48.828,-43.457,118510.81,319
543,1686016746.392,-26.855,993.652,59.57,-37.109,118510.814,319
544,1686016746.396,-24.902,923.828,-11.719,-39.062,118510.818,316
545,1686016746.4,-39.551,804.688,-17.578,-55.176,118510.822,316
546,1686016746.404,-46.875,921.875,64.941,-63.965,118510.826,316
547,1686016746.407,-23.438,-992.676,47.363,-50.293,118510.83,314
548,1686016746.411,-11.719,870.117,-12.207,-33.203,118510.834,314
549,1686016746.415,-22.461,836.914,5.371,-41.992,118510.837,314
550,1686016746.419,-29.785,953.613,7.324,-57.617,118510.841,314
551,1686016746.423,-28.32,-977.051,3.418,-44.434,118510.845,312
552,1686016746.424,-15.625,775.391,10.742,-26.855,118510.859,312
553,1686016746.428,-20.508,551.27,30.273,-36.133,118510.863,312
554,1686016746.432,-28.809,940.43,70.312,-49.805,118510.867,312
555,1686016746.436,-23.438,999.023,5.859,-47.852,118510.871,309
556,1686016746.44,-18.066,886.23,19.531,-34.18,118510.875,309
557,1686016746.444,-20.508,931.641,54.199,-34.668,118510.879,309
558,1686016746.448,-27.832,946.777,39.551,-47.852,118510.883,301
559,1686016746.451,-25.879,-960.449,21.973,-49.805,118510.887,301
560,1686016746.455,-8.301,651.367,-19.531,-34.668,118510.89,301
561,1686016746.459,-0.488,434.082,59.57,-23.438,118510.894,301
562,1686016746.463,-14.16,972.656,96.191,-46.875,118510.898,292
563,1686016746.467,-23.438,984.375,16.113,-64.453,118510.902,292
564,1686016746.47,-16.113,923.828,34.668,-54.199,118510.894,292
565,1686016746.474,-11.23,960.449,41.992,-41.992,118510.898,292
566,1686016746.478,-20.508,982.91,33.691,-49.805,118510.902,285
567,1686016746.482,-26.367,950.195,-15.137,-59.082,118510.906,285
568,1686016746.486,-21.484,875.977,5.371,-45.898,118510.91,285
569,1686016746.49,-10.742,939.453,50.293,-29.785,118510.914,285
570,1686016746.494,-17.09,-987.793,19.043,-36.621,118510.918,280
571,1686016746.497,-24.902,868.164,-47.363,-50.781,118510.922,280
572,1686016746.501,-19.531,753.906,1.465,-46.387,118510.926,280
573,1686016746.505,-15.625,955.078,83.496,-36.621,118510.929,277
574,1686016746.509,-17.09,-980.469,21.484,-30.273,118510.933,277
575,1686016746.513,-21.484,809.57,16.113,-44.434,118510.937,277
576,1686016746.515,-21.484,784.668,40.527,-55.176,118510.936,277
577,1686016746.519,-18.555,973.633,41.016,-25.879,118510.94,272
578,1686016746.523,-21.484,-979.98,26.855,-10.254,118510.944,272
579,1686016746.527,-27.344,723.633,23.926,-22.461,118510.948,272
580,1686016746.531,-28.32,658.691,60.547,-32.715,118510.952,272
581,1686016746.535,-23.926,979.492,44.922,-20.996,118510.955,266
582,1686016746.539,-15.625,-970.215,44.434,-3.418,118510.959,266
583,1686016746.542,-20.996,712.891,-19.531,-9.277,118510.963,266
584,1686016746.546,-30.762,561.035,43.945,-23.926,118510.967,261
585,1686016746.55,-22.949,983.887,107.422,-23.438,118510.971,261
586,1686016746.554,-11.23,980.957,19.531,-5.371,118510.975,261
587,1686016746.558,-10.742,933.594,39.062,-10.254,118510.979,259
588,1686016746.574,-25.391,969.238,45.41,-34.668,118510.996,259
589,1686016746.578,-27.832,974.609,22.461,-32.715,118511.0,259
590,1686016746.582,-14.648,969.727,20.996,-7.812,118511.004,259
591,1686016746.586,-14.648,973.633,22.461,-6.836,118511.008,259
592,1686016746.59,-24.902,963.379,-4.395,-28.32,118511.012,259
593,1686016746.594,-36.621,971.191,-7.324,-43.945,118511.015,259
594,1686016746.598,-31.25,989.746,2.441,-28.32,118511.019,256
595,1686016746.601,-24.414,602.539,-24.414,1.465,118511.023,256
596,1686016746.604,-25.391,967.285,22.949,-25.391,118511.025,256
597,1686016746.605,-22.461,686.523,69.824,-9.766,118511.027,256
598,1686016746.608,-20.508,999.023,-7.324,-33.691,118511.029,256
599,1686016746.609,-30.273,-971.68,35.156,-36.621,118511.031,256
600,1686016746.612,-18.555,825.195,6.348,-23.438,118511.033,256
601,1686016746.613,-31.738,933.105,20.508,-26.367,118511.035,256
602,1686016746.616,-19.531,798.828,74.707,-11.23,118511.037,254
603,1686016746.617,-25.391,958.984,79.59,-13.184,118511.039,254
604,1686016746.62,-23.926,997.07,27.832,-14.648,118511.041,254
605,1686016746.624,-28.809,965.332,-28.32,-33.691,118511.045,254
606,1686016746.628,-31.738,944.824,57.617,-39.062,118511.049,252
607,1686016746.631,-21.973,962.891,72.754,-17.578,118511.053,252
608,1686016746.635,-13.672,956.055,22.461,-10.254,118511.057,252
609,1686016746.639,-18.555,-969.238,18.555,-20.996,118511.061,252
610,1686016746.643,-24.414,656.25,2.441,-22.949,118511.065,253
611,1686016746.647,-21.484,560.059,83.496,-13.672,118511.068,253
612,1686016746.651,-15.625,-996.582,92.285,-10.742,118511.072,253
613,1686016746.655,-16.602,972.656,-9.766,-26.855,118511.076,256
614,1686016746.659,-24.902,955.566,18.555,-47.363,118511.08,256
615,1686016746.663,-21.973,962.402,48.34,-37.109,118511.084,256
616,1686016746.667,-8.301,988.77,28.809,-18.066,118511.088,257
617,1686016746.671,-18.555,946.289,-38.574,-23.926,118511.092,257
618,1686016746.675,-29.297,796.387,19.531,-36.133,118511.096,257
619,1686016746.678,-19.043,930.176,104.98,-30.762,118511.1,257
620,1686016746.682,-21.973,996.582,25.391,-18.555,118511.104,257
621,1686016746.686,-18.555,937.988,26.855,-25.879,118511.108,256
622,1686016746.69,-8.301,962.891,31.25,-31.738,118511.112,256
623,1686016746.694,-7.324,962.402,-0.977,-24.902,118511.115,256
624,1686016746.701,-16.113,-993.652,27.832,-29.785,118511.129,254
625,1686016746.705,-26.855,821.777,12.207,-39.062,118511.133,254
626,1686016746.709,-27.344,750.488,37.109,-36.133,118511.137,254
627,1686016746.713,-28.809,969.727,46.875,-38.086,118511.141,254
628,1686016746.717,-35.645,-980.469,17.578,-40.527,118511.145,254
629,1686016746.721,-26.855,804.688,-7.324,-23.926,118511.149,254
630,1686016746.725,-22.461,647.949,69.336,-18.555,118511.152,257
631,1686016746.728,-28.809,957.031,107.422,-34.668,118511.156,257
632,1686016746.732,-21.484,987.793,-2.441,-29.297,118511.16,257
633,1686016746.736,-17.09,948.73,23.438,-8.301,118511.164,257
634,1686016746.74,-17.09,973.145,31.738,-4.395,118511.168,260
635,1686016746.744,-17.578,973.633,0.488,-13.184,118511.172,260
636,1686016746.755,-20.02,970.215,0.0,-13.672,118511.179,262
637,1686016746.759,-13.672,966.797,17.09,0.977,118511.183,262
638,1686016746.763,-13.672,960.938,43.945,0.488,118511.186,262
639,1686016746.767,-21.973,982.422,59.57,-17.578,118511.19,262
640,1686016746.771,-23.926,957.031,-12.695,-20.02,118511.194,262
641,1686016746.775,-20.02,847.168,7.324,-5.371,118511.198,262
642,1686016746.779,-12.207,933.105,107.422,-3.418,118511.202,261
643,1686016746.782,-18.555,-996.094,49.805,-18.555,118511.206,261
644,1686016746.786,-28.32,909.668,-45.898,-23.926,118511.21,261
645,1686016746.79,-19.043,891.113,2.441,-1.953,118511.214,262
646,1686016746.794,-8.301,978.516,52.246,10.254,118511.218,262
647,1686016746.798,-9.277,973.633,3.906,-2.93,118511.222,262
648,1686016746.799,-14.648,962.402,26.367,-11.719,118511.223,262
649,1686016746.803,-16.113,965.82,45.898,-5.371,118511.227,262
650,1686016746.807,-11.719,969.727,59.082,10.254,118511.231,266
651,1686016746.811,-14.648,989.258,28.809,2.93,118511.235,266
652,1686016746.815,-25.879,795.898,-7.812,-19.531,118511.239,266
653,1686016746.819,-28.809,810.059,66.895,-19.043,118511.243,270
654,1686016746.823,-16.602,982.91,73.73,-0.488,118511.247,270
655,1686016746.826,-12.695,-987.305,37.109,0.977,118511.251,270
656,1686016746.83,-18.555,781.738,-12.695,-12.695,118511.255,270
657,1686016746.834,-17.09,669.922,57.617,-15.625,118511.258,270
658,1686016746.838,-9.277,981.934,81.543,-5.859,118511.262,272
659,1686016746.842,-5.859,978.027,6.836,3.906,118511.266,272
660,1686016746.844,-18.066,953.125,38.086,-11.719,118511.265,272
661,1686016746.848,-20.02,972.168,34.18,-18.066,118511.269,273
662,1686016746.852,-15.137,972.656,22.461,-11.719,118511.273,273
663,1686016746.856,-7.812,971.68,12.695,-0.488,118511.277,273
664,1686016746.86,-3.906,972.168,-8.789,-1.465,118511.281,273
665,1686016746.864,-16.602,960.938,6.348,-30.762,118511.285,273
666,1686016746.868,-20.508,979.492,68.359,-30.762,118511.289,273
667,1686016746.871,-14.648,962.891,10.254,-8.301,118511.292,273
668,1686016746.875,-8.301,780.273,-7.812,-2.93,118511.296,273
669,1686016746.879,-8.301,887.695,104.004,-23.438,118511.3,276
670,1686016746.883,-17.09,-998.047,20.996,-36.621,118511.304,276
671,1686016746.887,-14.648,947.266,46.387,-20.02,118511.308,276
672,1686016746.889,-3.418,968.262,98.145,-12.695,118511.31,281
673,1686016746.893,-5.859,970.703,8.301,-31.25,118511.314,281
674,1686016746.897,-15.137,982.91,14.648,-43.945,118511.318,281
675,1686016746.901,-10.254,897.461,30.273,-23.926,118511.322,285
676,1686016746.905,-8.301,898.926,64.453,-6.836,118511.326,285
677,1686016746.909,-15.625,981.934,29.297,-18.555,118511.33,285
678,1686016746.913,-25.391,984.375,17.578,-44.434,118511.334,285
679,1686016746.916,-29.785,877.441,34.668,-38.086,118511.338,285
680,1686016746.92,-22.461,878.418,81.055,-10.254,118511.342,286
681,1686016746.924,-23.438,992.188,58.594,-21.973,118511.345,286
682,1686016746.928,-33.691,964.844,-10.254,-43.945,118511.349,286
683,1686016746.932,-37.598,948.242,61.035,-38.086,118511.353,286
684,1686016746.934,-25.879,965.332,92.773,-22.949,118511.356,286
685,1686016746.938,-13.672,976.074,51.27,-25.391,118511.36,286
686,1686016746.942,-19.531,968.262,18.066,-41.504,118511.364,287
687,1686016746.946,-30.762,962.402,36.621,-53.711,118511.368,287
688,1686016746.95,-28.809,963.867,47.363,-45.898,118511.372,287
689,1686016746.954,-22.949,983.398,15.625,-35.156,118511.376,287
690,1686016746.958,-24.902,952.637,-26.367,-42.48,118511.38,290
691,1686016746.961,-29.297,872.07,23.438,-48.828,118511.384,290
692,1686016746.965,-14.648,953.125,111.816,-29.785,118511.388,290
693,1686016746.969,-10.742,983.887,9.277,-18.066,118511.391,290
694,1686016746.973,-21.973,953.613,33.691,-38.574,118511.395,295
695,1686016746.977,-30.762,968.75,74.707,-57.617,118511.399,295
696,1686016746.98,-30.273,962.402,25.391,-53.223,118511.405,295
697,1686016746.984,-18.066,-999.023,35.156,-37.109,118511.408,295
698,1686016746.988,-12.695,867.676,-8.301,-36.133,118511.412,298
699,1686016746.992,-14.648,780.273,42.969,-35.156,118511.416,298
700,1686016746.996,-23.926,961.914,64.453,-44.434,118511.42,298
701,1686016747.0,-37.109,-990.234,20.02,-36.621,118511.424,300
702,1686016747.004,-35.156,842.285,11.23,-17.09,118511.428,300
703,1686016747.007,-22.461,779.297,52.246,-19.043,118511.432,300
704,1686016747.011,-18.555,980.957,74.219,-24.902,118511.436,300
705,1686016747.015,-19.531,974.609,15.625,-6.836,118511.44,301
706,1686016747.019,-15.137,954.102,46.387,6.348,118511.444,301
707,1686016747.023,-15.137,970.703,35.645,-7.812,118511.447,301
708,1686016747.026,-19.043,973.145,17.09,-18.555,118511.447,301
709,1686016747.03,-14.648,971.191,28.32,-9.766,118511.451,304
710,1686016747.034,-7.324,972.168,16.602,-6.348,118511.455,304
711,1686016747.038,-15.625,965.82,55.664,-19.043,118511.459,304
712,1686016747.042,-28.32,972.656,56.641,-34.668,118511.463,310
713,1686016747.046,-27.832,987.793,-33.691,-20.508,118511.467,310
714,1686016747.05,-18.066,779.297,17.578,3.418,118511.471,310
715,1686016747.053,-15.137,840.82,116.699,-0.977,118511.475,316
716,1686016747.057,-18.555,-992.188,21.484,-30.273,118511.479,316
717,1686016747.061,-19.043,944.824,-1.953,-45.41,118511.483,316
718,1686016747.065,-13.672,963.867,58.105,-34.18,118511.487,316
719,1686016747.069,-8.789,975.098,31.25,-28.809,118511.49,319
720,1686016747.069,-21.484,971.191,7.324,-42.48,118511.505,319
721,1686016747.073,-20.508,963.867,39.062,-51.27,118511.509,319
722,1686016747.077,-2.441,967.285,71.777,-26.367,118511.513,319
723,1686016747.081,-12.695,955.566,49.316,-19.531,118511.517,319
724,1686016747.085,-21.973,-987.305,2.441,-46.875,118511.52,319
725,1686016747.089,-21.484,739.258,-25.879,-48.34,118511.524,319
726,1686016747.093,-19.043,543.945,72.754,-27.344,118511.528,319
727,1686016747.096,-7.812,943.359,105.957,-19.043,118511.532,318
728,1686016747.1,-9.766,991.699,-0.977,-28.32,118511.536,318
729,1686016747.104,-18.066,935.547,0.488,-39.062,118511.54,318
730,1686016747.108,-12.207,970.703,48.34,-36.621,118511.544,318
731,1686016747.112,-7.812,977.539,44.922,-20.02,118511.548,320
732,1686016747.129,-9.277,966.309,-1.953,-20.508,118511.55,323
733,1686016747.133,-15.625,934.082,28.809,-38.574,118511.554,323
734,1686016747.137,-22.461,961.914,57.617,-41.016,118511.558,325
735,1686016747.141,-14.16,979.98,37.598,-21.484,118511.562,325
736,1686016747.145,-6.836,961.914,0.977,-11.719,118511.566,325
737,1686016747.149,-8.789,950.684,-12.695,-21.973,118511.57,325
738,1686016747.153,-17.09,955.566,39.551,-27.832,118511.574,326
739,1686016747.156,-15.137,996.582,39.062,-19.531,118511.578,326
740,1686016747.16,-20.508,914.551,-31.25,-10.254,118511.582,326
741,1686016747.164,-28.32,762.207,2.93,-19.531,118511.586,323
742,1686016747.168,-31.25,936.035,93.262,-35.645,118511.589,323
743,1686016747.172,-29.785,993.652,25.391,-23.438,118511.593,323
744,1686016747.174,-13.184,944.824,31.25,-11.719,118511.595,323
745,1686016747.178,-17.09,964.844,48.34,-20.996,118511.599,323
746,1686016747.182,-28.32,965.82,35.645,-34.668,118511.603,322
747,1686016747.186,-21.484,993.164,26.367,-41.504,118511.607,322
748,1686016747.19,-21.973,866.699,-5.371,-23.438,118511.611,322
749,1686016747.194,-19.531,850.098,41.016,-14.16,118511.615,322
750,1686016747.198,-11.719,984.863,56.641,-34.18,118511.619,322
751,1686016747.201,-22.461,994.141,-3.906,-41.504,118511.623,322
752,1686016747.205,-25.391,818.848,-15.625,-15.137,118511.627,325
753,1686016747.209,-25.879,829.59,61.523,-4.395,118511.63,325
754,1686016747.213,-34.18,-996.582,19.043,-19.043,118511.634,325
755,1686016747.217,-35.645,959.473,-23.926,-30.762,118511.638,325
756,1686016747.234,-20.996,939.941,53.711,-23.926,118511.655,323
757,1686016747.238,-3.906,964.844,59.082,-7.812,118511.659,323
758,1686016747.242,-5.859,975.586,11.23,-20.02,118511.663,323
759,1686016747.246,-21.484,968.75,3.906,-40.527,118511.667,319
760,1686016747.25,-23.926,974.609,0.0,-25.391,118511.671,319
761,1686016747.254,-17.578,958.008,18.555,-0.977,118511.675,319
762,1686016747.258,-19.531,994.629,43.457,-1.953,118511.679,319
763,1686016747.261,-20.02,915.527,-48.828,-15.625,118511.683,319
764,1686016747.265,-28.32,966.797,48.828,-28.809,118511.689,316
765,1686016747.265,-21.973,779.785,5.859,-13.184,118511.687,316
766,1686016747.269,-21.973,949.707,106.445,1.953,118511.691,316
767,1686016747.269,-18.066,953.125,1.953,-19.531,118511.693,316
768,1686016747.273,-13.184,989.746,-14.648,3.418,118511.695,316
769,1686016747.273,-21.484,-982.91,24.902,-11.23,118511.697,316
770,1686016747.277,-22.949,944.336,8.301,-16.602,118511.698,315
771,1686016747.277,-22.461,789.551,-17.578,-19.531,118511.701,315
772,1686016747.281,-22.461,658.203,21.973,-34.668,118511.705,315
773,1686016747.285,-16.602,977.539,62.012,-23.926,118511.709,315
774,1686016747.289,5.371,980.957,13.672,0.977,118511.713,314
775,1686016747.292,3.906,956.055,34.18,-21.484,118511.717,314
776,1686016747.296,-27.832,967.773,39.551,-61.523,118511.72,314
777,1686016747.3,-29.297,972.168,29.297,-57.617,118511.724,314
778,1686016747.304,3.418,992.188,0.0,-19.531,118511.728,312
779,1686016747.308,9.277,769.531,9.766,-6.836,118511.732,312
780,1686016747.309,-18.066,827.637,76.172,-41.016,118511.73,312
781,1686016747.313,-27.344,-991.211,19.531,-59.57,118511.734,312
782,1686016747.317,-18.066,958.984,2.93,-36.621,118511.738,306
783,1686016747.321,-18.066,974.609,8.789,-26.367,118511.742,306
784,1686016747.325,-21.973,960.938,-9.277,-39.062,118511.746,306
785,1686016747.329,-20.508,974.121,14.648,-41.504,118511.75,306
786,1686016747.333,-13.672,984.863,-25.391,-22.949,118511.754,302
787,1686016747.336,-5.371,658.203,-21.973,-5.859,118511.758,302
788,1686016747.34,-11.23,766.113,87.891,-21.484,118511.761,302
789,1686016747.344,-19.043,-974.609,20.996,-37.109,118511.765,301
790,1686016747.348,-14.648,936.035,24.902,-26.367,118511.769,301
791,1686016747.352,0.977,963.867,58.105,-11.719,118511.773,301
792,1686016747.354,-4.395,961.914,9.766,-20.508,118511.775,301
793,1686016747.358,-20.996,-991.699,-7.812,-45.898,118511.779,306
794,1686016747.362,-16.113,785.645,-11.719,-34.18,118511.783,306
795,1686016747.366,-0.977,738.77,50.293,-12.695,118511.787,306
796,1686016747.37,-0.488,975.098,24.902,-12.695,118511.791,306
797,1686016747.374,-8.301,-966.797,-18.555,-20.996,118511.795,313
798,1686016747.378,-4.883,677.246,-7.324,-19.043,118511.799,313
799,1686016747.381,2.93,523.926,70.312,-4.395,118511.803,313
800,1686016747.385,-0.488,987.305,76.66,-9.277,118511.807,320
801,1686016747.389,-4.395,976.074,-25.879,-20.02,118511.81,320
802,1686016747.393,-9.766,932.129,-3.418,-24.414,118511.814,320
803,1686016747.397,-4.395,969.238,29.785,-10.742,118511.818,324
804,1686016747.399,-0.488,977.051,19.531,2.93,118511.834,324
805,1686016747.403,-9.277,964.355,-8.301,-5.371,118511.838,324
806,1686016747.407,-16.602,951.172,4.883,-18.066,118511.842,324
807,1686016747.411,-6.836,953.613,35.645,-5.371,118511.845,324
808,1686016747.415,3.418,992.676,31.25,12.207,118511.849,327
809,1686016747.419,-6.836,940.918,-33.691,0.977,118511.853,327
810,1686016747.423,-15.625,708.984,19.043,-10.254,118511.857,327
811,1686016747.426,-12.695,883.301,87.891,-14.648,118511.861,333
812,1686016747.43,-2.441,-978.027,12.695,-1.465,118511.865,333
813,1686016747.434,-3.418,884.277,-12.207,5.859,118511.869,333
814,1686016747.438,-19.043,906.25,-7.324,-16.602,118511.873,338
815,1686016747.442,-16.113,962.402,40.527,-18.555,118511.877,338
816,1686016747.459,-0.977,-972.168,43.945,2.93,118511.88,344
817,1686016747.463,-1.465,724.609,-0.488,13.672,118511.884,344
818,1686016747.467,-9.766,602.051,32.715,-0.977,118511.888,345
819,1686016747.471,-18.066,964.355,35.645,-25.879,118511.892,345
820,1686016747.475,-26.855,-954.102,3.906,-20.02,118511.896,345
821,1686016747.479,-24.414,672.363,-16.602,10.254,118511.9,345
822,1686016747.483,-21.973,498.047,52.734,-0.977,118511.904,344
823,1686016747.486,-27.344,972.656,64.941,-15.625,118511.908,344
824,1686016747.49,-16.602,979.492,-7.812,1.953,118511.912,344
825,1686016747.492,-13.672,946.777,-5.859,2.441,118511.925,344
826,1686016747.494,-14.16,938.477,13.672,12.695,118511.915,344
827,1686016747.496,-3.418,884.766,65.918,20.996,118511.929,343
828,1686016747.498,-17.578,966.309,26.855,9.277,118511.919,343
829,1686016747.5,4.883,945.312,69.336,20.996,118511.932,343
830,1686016747.502,-10.742,971.191,-17.578,-1.953,118511.923,343
831,1686016747.504,-11.719,989.258,-7.812,-7.812,118511.936,343
832,1686016747.508,-21.484,936.523,-26.367,-23.926,118511.94,343
833,1686016747.512,-15.137,902.344,11.719,-8.789,118511.944,343
834,1686016747.516,-5.371,931.152,51.758,9.766,118511.948,343
835,1686016747.519,-10.254,-968.262,37.109,-4.883,118511.952,343
836,1686016747.523,-20.508,814.453,-47.852,-10.742,118511.956,343
837,1686016747.527,-20.02,503.418,21.973,5.371,118511.96,344
838,1686016747.531,-18.555,900.879,99.609,8.301,118511.964,344
839,1686016747.535,-19.043,-985.352,0.488,2.93,118511.968,344
840,1686016747.549,-22.949,883.301,29.785,-14.648,118511.97,342
841,1686016747.553,-19.043,917.48,70.801,-12.207,118511.974,342
842,1686016747.557,-14.16,915.039,49.316,3.418,118511.978,342
843,1686016747.561,-15.625,-961.426,33.691,0.488,118511.982,342
844,1686016747.565,-19.043,651.367,-31.25,-5.371,118511.986,338
845,1686016747.569,-19.043,-65.43,25.879,-2.441,118511.99,338
846,1686016747.573,-8.789,577.637,121.094,6.836,118511.994,338
847,1686016747.576,-1.953,-939.941,12.695,1.953,118511.998,338
848,1686016747.58,-11.719,754.883,3.418,-15.137,118512.002,336
849,1686016747.584,-17.578,846.68,74.707,-21.973,118512.006,336
850,1686016747.588,-17.578,-991.211,29.785,-15.625,118512.009,336
851,1686016747.592,-13.184,942.383,12.695,-10.254,118512.013,336
852,1686016747.595,-19.043,923.34,36.133,-18.066,118512.016,336
853,1686016747.599,-35.156,956.055,27.344,-38.574,118512.019,336
854,1686016747.603,-31.25,977.051,22.949,-37.109,118512.023,336
855,1686016747.607,-15.137,945.312,19.043,-13.672,118512.027,338
856,1686016747.611,-13.184,937.5,-15.137,-19.531,118512.031,338
857,1686016747.615,-21.484,866.211,-2.93,-36.133,118512.035,338
858,1686016747.619,-23.926,785.645,35.645,-32.227,118512.039,338
859,1686016747.622,-15.137,838.867,-14.648,-12.207,118512.043,338
860,1686016747.626,-16.602,120.117,-24.414,-0.488,118512.047,338
861,1686016747.63,-31.25,259.766,73.242,-19.043,118512.051,336
862,1686016747.634,-27.832,-906.738,29.297,-30.762,118512.055,336
863,1686016747.638,-8.301,739.746,3.906,0.0,118512.058,336
864,1686016747.639,-0.488,684.082,39.551,3.906,118512.06,336
865,1686016747.643,-13.184,892.578,14.16,-35.156,118512.064,336
866,1686016747.647,-25.879,909.668,6.836,-49.805,118512.068,332
867,1686016747.651,-19.531,638.672,0.0,-27.832,118512.072,332
868,1686016747.655,-10.742,543.945,25.879,-11.719,118512.076,332
869,1686016747.659,-8.789,909.18,12.207,-20.996,118512.08,331
870,1686016747.663,-15.625,916.016,11.719,-30.762,118512.084,331
871,1686016747.666,-10.254,310.059,8.789,-21.973,118512.088,331
872,1686016747.67,-2.441,62.5,66.406,-5.859,118512.092,331
873,1686016747.674,-8.789,933.594,85.449,-19.531,118512.095,331
874,1686016747.678,-9.766,964.844,-2.93,-30.273,118512.099,332
875,1686016747.682,-17.578,798.828,20.996,-20.508,118512.103,332
876,1686016747.684,-20.996,933.105,41.504,-9.766,118512.119,332
877,1686016747.688,-21.484,-994.141,17.09,-10.742,118512.123,333
878,1686016747.692,-28.809,883.789,-14.648,-28.32,118512.127,333
879,1686016747.696,-25.391,776.367,13.184,-38.086,118512.131,333
880,1686016747.7,-16.602,906.738,32.715,-29.297,118512.135,333
881,1686016747.704,-10.742,908.203,18.555,-16.602,118512.139,333
882,1686016747.708,-18.066,634.277,-41.504,-29.297,118512.142,333
883,1686016747.711,-25.391,142.09,-0.977,-42.48,118512.146,333
884,1686016747.715,-24.414,558.105,99.121,-27.832,118512.15,333
885,1686016747.719,-19.531,-886.719,27.832,-13.184,118512.154,330
886,1686016747.723,-8.789,586.914,1.465,-20.02,118512.158,330
887,1686016747.727,-16.602,307.129,34.18,-40.527,118512.162,330
888,1686016747.73,-16.113,851.562,35.645,-34.668,118512.15,327
889,1686016747.734,-9.277,914.551,9.766,-7.812,118512.154,327
890,1686016747.738,-10.254,267.578,-3.906,-12.207,118512.158,327
891,1686016747.742,-15.625,147.461,46.875,-39.062,118512.162,325
892,1686016747.746,-24.414,851.562,41.992,-44.922,118512.166,325
893,1686016747.75,-14.648,852.051,-7.324,-24.902,118512.17,325
894,1686016747.754,-7.812,349.121,54.688,-12.207,118512.174,325
895,1686016747.757,-15.625,365.723,76.172,-33.203,118512.178,325
896,1686016747.761,-23.926,853.027,22.949,-44.434,118512.181,325
897,1686016747.765,-16.602,907.227,10.254,-22.461,118512.185,325
898,1686016747.769,-4.883,564.941,25.391,-12.695,118512.189,324
899,1686016747.773,-8.301,617.188,21.484,-27.832,118512.193,324
900,1686016747.776,-18.555,746.582,-16.602,-46.387,118512.202,324
901,1686016747.78,-13.184,464.355,12.695,-41.992,118512.206,324
902,1686016747.784,-8.789,396.484,72.754,-22.461,118512.209,321
903,1686016747.788,-7.812,711.426,67.383,-28.32,118512.213,321
904,1686016747.792,-11.23,843.262,3.418,-48.828,118512.217,321
905,1686016747.796,-12.207,376.953,-45.41,-43.457,118512.221,321
906,1686016747.8,-3.418,-93.262,22.461,-19.043,118512.225,315
907,1686016747.803,-4.395,424.316,99.121,-22.461,118512.229,315
908,1686016747.807,-20.508,937.012,14.16,-50.293,118512.233,315
909,1686016747.811,-30.273,486.328,-10.254,-52.246,118512.237,310
910,1686016747.815,-24.902,387.207,34.18,-34.668,118512.241,310
911,1686016747.819,-15.137,823.73,35.645,-25.879,118512.245,310
912,1686016747.819,-20.996,858.887,-27.344,-36.621,118512.255,310
913,1686016747.823,-31.25,130.371,-29.785,-51.758,118512.259,310
914,1686016747.827,-25.879,-29.297,60.059,-39.551,118512.263,306
915,1686016747.831,-20.508,468.262,53.711,-27.832,118512.267,306
916,1686016747.835,-29.297,625.488,23.438,-42.48,118512.271,306
917,1686016747.839,-34.18,18.066,-25.879,-42.48,118512.275,305
918,1686016747.843,-26.855,-771.973,70.312,-23.926,118512.279,305
919,1686016747.846,-18.066,189.941,123.047,-16.113,118512.283,305
920,1686016747.85,-19.531,734.863,-12.207,-25.879,118512.286,305
921,1686016747.854,-35.645,416.992,-22.949,-50.781,118512.29,301
922,1686016747.858,-36.621,524.902,32.715,-48.828,118512.294,301
923,1686016747.862,-23.438,830.566,17.578,-17.09,118512.298,301
924,1686016747.881,-25.879,693.848,-21.484,-14.648,118512.302,290
925,1686016747.885,-26.855,390.137,11.719,-35.645,118512.306,290
926,1686016747.889,-23.926,496.094,34.18,-37.598,118512.31,290
927,1686016747.893,-16.113,716.797,29.785,-28.32,118512.314,286
928,1686016747.897,-11.23,578.125,-17.578,-24.902,118512.318,286
929,1686016747.901,-17.578,83.984,-26.855,-29.785,118512.322,286
930,1686016747.905,-21.484,13.184,28.809,-41.016,118512.326,286
931,1686016747.908,-16.113,175.293,40.039,-37.109,118512.329,285
932,1686016747.912,-11.23,140.137,-29.297,-13.672,118512.333,285
933,1686016747.916,-19.043,-432.617,-35.156,-15.137,118512.337,285
934,1686016747.92,-32.227,-78.125,67.871,-44.434,118512.341,285
935,1686016747.924,-35.645,588.379,16.602,-40.039,118512.345,286
936,1686016747.924,-21.484,420.898,28.809,-19.531,118512.346,286
937,1686016747.928,-23.438,182.129,64.453,-27.832,118512.35,286
938,1686016747.932,-36.621,187.012,33.691,-41.504,118512.354,286
939,1686016747.936,-32.227,414.551,0.0,-37.598,118512.357,286
940,1686016747.94,-22.949,192.383,26.855,-27.832,118512.361,286
941,1686016747.944,-20.508,-66.406,59.57,-27.832,118512.365,286
942,1686016747.948,-26.367,200.195,21.484,-40.527,118512.369,286
943,1686016747.951,-19.531,431.152,3.906,-41.992,118512.373,285
944,1686016747.955,-12.695,-206.543,-37.109,-20.02,118512.377,285
945,1686016747.959,-14.16,-1000.0,18.066,-8.301,118512.381,285
946,1686016747.963,-24.414,-237.793,67.383,-35.156,118512.385,283
947,1686016747.967,-33.691,384.766,-4.883,-51.27,118512.389,283
948,1686016747.969,-27.832,163.574,15.137,-32.715,118512.39,283
949,1686016747.973,-20.02,402.832,34.18,-17.09,118512.394,282
950,1686016747.977,-19.043,626.465,5.859,-30.762,118512.398,282
951,1686016747.981,-27.344,318.359,-4.883,-41.016,118512.402,282
952,1686016747.985,-15.625,111.328,-11.23,-30.762,118512.406,282
953,1686016747.989,-3.906,125.0,2.441,-20.508,118512.41,282
954,1686016747.993,-9.766,111.816,23.926,-25.879,118512.414,284
955,1686016747.996,-21.973,-46.875,-47.363,-39.062,118512.418,284
956,1686016748.0,-33.203,-519.531,9.277,-44.434,118512.422,284
957,1686016748.004,-25.391,43.945,94.238,-34.668,118512.425,286
958,1686016748.008,-12.695,608.398,-9.766,-23.926,118512.429,286
959,1686016748.012,-17.578,-72.754,-29.297,-31.25,118512.433,286
960,1686016748.015,-24.902,-284.668,32.227,-33.203,118512.439,286
961,1686016748.019,-16.602,118.652,31.25,-12.695,118512.443,286
962,1686016748.023,-12.207,178.223,-1.465,-3.418,118512.447,286
963,1686016748.027,-16.113,-280.273,-7.324,-17.09,118512.45,286
964,1686016748.031,-23.926,-527.344,29.297,-27.832,118512.454,286
965,1686016748.035,-21.973,-107.91,32.227,-18.555,118512.458,285
966,1686016748.039,-13.672,90.82,20.02,-8.301,118512.462,285
967,1686016748.042,-13.672,-373.047,-10.254,-22.949,118512.466,285
968,1686016748.046,-13.672,-610.352,31.738,-33.203,118512.47,285
969,1686016748.05,-2.93,249.512,50.293,-16.602,118512.474,285
970,1686016748.054,-1.953,380.371,5.859,-4.395,118512.478,285
971,1686016748.058,-7.812,151.855,21.484,-12.695,118512.482,285
972,1686016748.06,-4.395,209.473,26.855,-26.367,118512.484,285
973,1686016748.064,-5.371,146.973,16.113,-20.996,118512.488,286
974,1686016748.068,-0.977,-100.098,29.785,6.836,118512.492,286
975,1686016748.072,1.465,-2.93,30.762,16.113,118512.496,286
976,1686016748.076,-11.719,218.75,5.371,-8.789,118512.5,290
977,1686016748.08,-23.926,-42.48,5.859,-30.762,118512.504,290
978,1686016748.084,-19.531,-264.648,-6.836,-12.207,118512.508,290
979,1686016748.087,-19.531,-745.117,-4.883,15.625,118512.512,293
980,1686016748.091,-26.367,-486.328,83.008,5.371,118512.516,293
981,1686016748.095,-21.484,288.086,9.766,-7.812,118512.519,293
982,1686016748.099,-7.812,-39.551,-7.812,3.906,118512.523,293
983,1686016748.103,3.418,-137.207,47.852,20.02,118512.527,294
984,1686016748.126,0.0,279.785,29.297,5.371,118512.551,293
985,1686016748.13,-5.859,98.145,-11.23,-23.926,118512.555,293
986,1686016748.134,3.906,-611.816,-0.488,-20.508,118512.559,293
987,1686016748.138,8.301,-596.68,36.621,-6.836,118512.563,293
988,1686016748.142,3.418,-38.086,25.391,-12.695,118512.566,295
989,1686016748.146,-0.977,-87.402,27.344,-26.855,118512.57,295
990,1686016748.15,-5.371,-622.07,3.906,-25.391,118512.574,295
991,1686016748.15,10.254,374.023,24.414,8.789,118512.572,295
992,1686016748.153,4.395,-791.504,66.406,-5.371,118512.578,295
993,1686016748.154,3.418,149.414,-1.953,-4.395,118512.576,299
994,1686016748.157,0.488,60.547,93.75,-2.441,118512.582,299
995,1686016748.158,-9.277,-180.176,17.578,-25.391,118512.58,299
996,1686016748.161,-7.324,257.324,-18.066,-18.555,118512.586,299
997,1686016748.162,-7.812,14.648,41.016,-17.09,118512.584,299
998,1686016748.165,-1.465,-76.172,-7.324,-28.809,118512.59,299
999,1686016748.166,-0.488,231.445,14.648,2.441,118512.587,299
1000,1686016748.169,2.93,79.59,39.551,-10.742,118512.594,299
1001,1686016748.17,-9.766,-114.746,-24.414,-3.418,118512.591,301
1002,1686016748.174,-14.648,-465.82,-25.879,-19.531,118512.595,301
1003,1686016748.177,-19.043,-308.105,15.625,-21.484,118512.599,301
1004,1686016748.181,-17.09,114.258,57.129,-14.648,118512.603,301
1005,1686016748.185,-9.766,-61.523,-46.387,-9.277,118512.607,301
1006,1686016748.189,-17.578,-868.652,-20.02,-16.602,118512.611,301
1007,1686016748.193,-18.066,-543.457,114.258,-28.809,118512.615,301
1008,1686016748.194,-4.395,121.582,13.184,-16.113,118512.645,301
1009,1686016748.198,0.488,-236.816,15.625,-4.395,118512.649,299
1010,1686016748.202,-1.953,-395.02,74.219,-20.996,118512.653,299
1011,1686016748.206,-7.324,-53.223,15.137,-31.738,118512.657,299
1012,1686016748.21,-8.789,41.504,-10.742,-23.438,118512.661,299
1013,1686016748.214,2.441,-491.699,-27.832,-9.277,118512.665,299
1014,1686016748.218,-2.93,-896.484,54.199,-12.207,118512.669,299
1015,1686016748.221,-13.672,-218.75,83.008,-33.203,118512.673,299
1016,1686016748.225,-13.672,-9.277,-8.301,-26.367,118512.677,302
1017,1686016748.229,-8.301,-323.73,10.254,-7.324,118512.681,302
1018,1686016748.233,-6.348,-188.965,29.785,-22.461,118512.685,302
1019,1686016748.237,-18.555,35.156,-7.812,-46.875,118512.688,305
1020,1686016748.254,-23.926,-114.258,-9.766,-36.621,118512.69,307
1021,1686016748.258,-7.812,-447.266,46.875,-14.16,118512.694,307
1022,1686016748.262,-8.789,-262.695,63.965,-20.508,118512.698,307
1023,1686016748.266,-20.508,65.43,11.23,-35.156,118512.702,306
1024,1686016748.27,-18.066,-214.355,-21.973,-30.273,118512.706,306
1025,1686016748.274,-11.23,-629.883,-11.719,-13.184,118512.71,306
1026,1686016748.278,-2.441,-408.691,39.062,0.0,118512.713,304
1027,1686016748.281,-10.742,17.09,14.16,-24.902,118512.717,304
1028,1686016748.285,-27.832,-373.047,-39.551,-53.711,118512.721,304
1029,1686016748.289,-17.09,-644.531,-14.648,-39.062,118512.725,304
1030,1686016748.293,-1.465,-122.07,22.949,-17.578,118512.729,304
1031,1686016748.297,-0.977,-116.211,-3.418,-17.09,118512.733,304
1032,1686016748.299,-3.418,-614.746,-47.852,-28.32,118512.72,304
1033,1686016748.303,0.488,-1000.0,6.348,-14.16,118512.724,304
1034,1686016748.307,1.953,-530.762,116.211,3.906,118512.728,307
1035,1686016748.311,14.648,9.766,5.859,-1.953,118512.732,307
1036,1686016748.315,13.184,-455.078,-15.137,-21.973,118512.736,307
1037,1686016748.319,-2.441,-753.906,34.668,-29.297,118512.74,307
1038,1686016748.323,-3.418,-508.301,30.762,-6.348,118512.744,310
1039,1686016748.326,-2.441,-211.426,11.719,2.93,118512.747,310
1040,1686016748.33,-10.742,-448.242,-4.883,-15.625,118512.751,310
1041,1686016748.334,-15.137,-547.852,26.855,-22.949,118512.755,310
1042,1686016748.338,-6.348,-121.582,16.602,-10.742,118512.759,311
1043,1686016748.342,-1.465,-65.43,-19.043,-2.441,118512.763,311
1044,1686016748.344,-2.441,-563.965,13.672,-6.836,118512.779,311
1045,1686016748.348,-6.836,-538.574,56.641,-19.043,118512.783,309
1046,1686016748.352,-9.766,-270.508,13.672,-19.043,118512.787,309
1047,1686016748.356,-7.812,-451.66,7.812,-2.93,118512.791,309
1048,1686016748.36,-6.836,-588.379,-6.348,-5.859,118512.795,309
1049,1686016748.364,-16.113,-684.082,-1.465,-28.809,118512.799,308
1050,1686016748.368,-14.648,-508.301,42.969,-28.32,118512.803,308
1051,1686016748.371,-1.465,-413.086,-5.371,-3.418,118512.807,308
1052,1686016748.375,0.488,-756.348,4.395,0.488,118512.811,308
1053,1686016748.379,-16.113,-400.391,69.824,-22.949,118512.814,309
1054,1686016748.383,-23.438,-29.785,-8.789,-27.344,118512.818,309
1055,1686016748.387,-3.418,-318.359,21.484,-11.23,118512.822,309
1056,1686016748.389,2.441,-303.711,30.762,0.488,118512.81,312
1057,1686016748.393,-7.324,-335.938,-19.043,-14.648,118512.814,312
1058,1686016748.397,-14.648,-387.207,14.16,-30.273,118512.818,312
1059,1686016748.401,-7.324,-597.168,7.812,-6.348,118512.822,312
1060,1686016748.405,-0.488,-726.074,37.598,15.625,118512.826,314
1061,1686016748.409,-8.301,-378.906,21.484,-3.418,118512.83,314
1062,1686016748.413,-15.625,-504.395,8.789,-19.531,118512.834,314
1063,1686016748.416,-10.254,-825.195,19.531,-5.371,118512.837,314
1064,1686016748.42,-4.883,-632.324,61.523,7.812,118512.841,314
1065,1686016748.424,-7.812,-13.672,34.668,5.371,118512.845,314
1066,1686016748.428,-10.742,-91.797,-34.668,-13.184,118512.849,314
1067,1686016748.432,-14.16,-714.844,-7.812,-15.137,118512.853,313
1068,1686016748.449,-3.418,-611.328,78.125,8.789,118512.873,312
1069,1686016748.453,1.953,51.758,33.203,12.695,118512.877,312
1070,1686016748.457,-10.742,-185.547,-31.738,-8.789,118512.881,312
1071,1686016748.461,-13.672,-465.332,5.371,-24.414,118512.885,313
1072,1686016748.465,-6.836,-241.211,20.02,-8.301,118512.889,313
1073,1686016748.469,-5.371,-274.414,-6.836,-4.395,118512.893,313
1074,1686016748.473,-5.859,-548.34,-30.273,-18.555,118512.897,316
1075,1686016748.476,0.977,-894.531,-1.953,-18.066,118512.901,316
1076,1686016748.48,7.324,-610.84,74.219,-3.418,118512.905,316
1077,1686016748.484,11.719,58.105,21.484,13.672,118512.908,316
1078,1686016748.488,5.371,-293.457,-33.691,7.812,118512.912,318
1079,1686016748.492,-4.883,-755.859,-11.719,-6.836,118512.916,318
1080,1686016748.494,-3.906,-262.695,37.109,-1.465,118512.915,318
1081,1686016748.498,3.418,-110.352,7.812,19.043,118512.919,318
1082,1686016748.502,3.906,-661.133,-25.879,16.602,118512.923,318
1083,1686016748.506,0.0,-751.953,14.16,-8.301,118512.927,318
1084,1686016748.51,-6.348,-263.672,5.859,-13.672,118512.931,318
1085,1686016748.514,-0.488,-353.027,-35.156,6.348,118512.935,316
1086,1686016748.518,3.906,-591.309,24.414,12.207,118512.939,316
1087,1686016748.521,-7.812,-434.57,47.852,-13.672,118512.943,316
1088,1686016748.525,-3.906,-177.246,30.273,-13.672,118512.959,316
1089,1686016748.525,-14.648,-140.625,11.23,-24.414,118512.947,316
1090,1686016748.529,-16.113,-83.984,2.93,-1.465,118512.951,315
1091,1686016748.529,6.348,-172.852,-24.902,-0.977,118512.963,315
1092,1686016748.533,-4.883,-645.02,-18.555,18.066,118512.954,315
1093,1686016748.533,18.066,-306.152,7.812,15.625,118512.966,315
1094,1686016748.537,3.418,-811.035,46.387,8.301,118512.958,315
1095,1686016748.537,3.906,-106.445,11.719,2.441,118512.97,315
1096,1686016748.541,-10.742,-25.879,-16.602,-13.672,118512.974,317
1097,1686016748.545,-18.066,-441.406,-15.625,-15.137,118512.978,317
1098,1686016748.549,-4.395,-548.34,18.555,3.418,118512.982,317
1099,1686016748.552,8.789,-176.27,7.812,3.418,118512.986,317
1100,1686016748.556,-3.906,-39.551,8.301,-19.043,118512.99,320
1101,1686016748.56,-7.324,-436.523,-56.641,-9.766,118512.994,320
1102,1686016748.564,0.488,-830.078,3.418,18.555,118512.998,320
1103,1686016748.568,-2.441,-275.391,66.406,20.02,118513.002,321
1104,1686016748.57,-9.766,-97.168,-44.434,6.836,118513.005,321
1105,1686016748.574,-9.277,-696.289,-33.691,4.883,118513.009,321
1106,1686016748.578,1.953,-846.191,46.387,17.578,118513.012,321
1107,1686016748.582,11.23,-165.527,62.988,31.25,118513.016,319
1108,1686016748.586,5.371,1.953,-2.93,20.02,118513.02,319
1109,1686016748.59,-2.93,-694.824,-44.434,-2.441,118513.024,319
1110,1686016748.594,-12.207,-825.684,41.504,0.0,118513.028,319
1111,1686016748.597,-8.789,-108.398,78.613,12.207,118513.032,317
1112,1686016748.601,-7.812,19.043,-26.855,3.906,118513.036,317
1113,1686016748.605,-21.973,-368.652,-28.32,-16.113,118513.04,317
1114,1686016748.609,-20.02,-359.863,24.902,-13.672,118513.044,317
1115,1686016748.613,-8.301,8.301,27.832,0.488,118513.048,317
1116,1686016748.629,-4.883,-36.621,-5.371,3.906,118513.051,319
1117,1686016748.633,-7.324,-319.336,-2.441,-6.348,118513.055,319
1118,1686016748.637,-13.672,-234.375,15.137,-15.137,118513.059,321
1119,1686016748.641,-0.488,-197.266,7.324,4.395,118513.062,321
1120,1686016748.645,6.836,-391.113,-32.227,20.02,118513.066,321
1121,1686016748.649,-11.23,-787.598,-11.719,12.207,118513.07,321
1122,1686016748.653,-25.391,-678.223,40.527,-1.953,118513.074,321
1123,1686016748.656,-18.555,-92.285,22.461,4.883,118513.078,321
1124,1686016748.66,-3.906,-275.879,-34.18,16.602,118513.082,321
1125,1686016748.664,-7.324,-661.133,-40.527,-0.488,118513.086,321
1126,1686016748.668,-14.16,-280.762,42.969,-18.066,118513.09,319
1127,1686016748.672,-9.766,-41.016,-2.93,-6.348,118513.094,319
1128,1686016748.674,-2.93,-260.742,9.766,9.277,118513.096,319
1129,1686016748.678,0.0,-507.812,56.641,10.254,118513.1,319
1130,1686016748.682,-14.648,-411.133,26.855,-6.836,118513.104,317
1131,1686016748.686,-17.09,-129.395,0.0,-12.207,118513.108,317
1132,1686016748.69,2.93,-547.363,-36.133,10.254,118513.112,317
1133,1686016748.694,8.301,-894.531,11.23,17.09,118513.116,318
1134,1686016748.698,1.465,-562.5,13.672,6.836,118513.12,318
1135,1686016748.701,1.465,-488.281,11.719,8.789,118513.123,318
1136,1686016748.705,13.672,-766.113,16.602,33.203,118513.127,318
1137,1686016748.709,20.996,-796.387,33.691,46.387,118513.131,320
1138,1686016748.713,11.719,-152.832,42.969,27.344,118513.135,320
1139,1686016748.717,2.93,-101.562,-7.324,17.09,118513.139,320
1140,1686016748.719,0.0,-297.363,13.672,20.508,118513.14,322
1141,1686016748.723,6.836,-34.18,23.438,33.203,118513.144,322
1142,1686016748.727,6.348,125.488,-10.254,20.996,118513.148,322
1143,1686016748.731,0.0,-204.102,-17.578,10.254,118513.152,321
1144,1686016748.735,2.441,-437.988,-7.812,27.344,118513.156,321
1145,1686016748.739,5.371,-375.977,-20.02,31.25,118513.16,321
1146,1686016748.743,7.812,-350.098,5.371,20.02,118513.164,321
1147,1686016748.746,3.906,-504.883,-54.688,6.836,118513.168,321
1148,1686016748.75,0.977,-904.297,-16.602,8.789,118513.172,319
1149,1686016748.754,6.348,-519.531,92.285,19.043,118513.176,319
1150,1686016748.758,-1.953,177.246,-5.371,4.395,118513.179,319
1151,1686016748.762,-15.625,-266.113,-26.855,-11.719,118513.183,317
1152,1686016748.764,-9.766,-687.988,-4.395,-5.371,118513.185,317
1153,1686016748.768,2.93,-352.539,7.812,14.16,118513.189,317
1154,1686016748.772,0.977,-197.266,6.836,22.461,118513.193,318
1155,1686016748.776,-10.742,-568.359,-9.766,6.836,118513.197,318
1156,1686016748.78,-15.137,-740.723,17.578,-5.371,118513.201,318
1157,1686016748.784,-13.672,-415.039,5.859,-5.371,118513.205,318
1158,1686016748.788,-5.371,-300.293,10.742,3.418,118513.209,318
1159,1686016748.791,-11.23,-606.934,2.441,5.371,118513.213,320
1160,1686016748.795,-25.879,-739.746,38.086,-2.441,118513.217,320
1161,1686016748.799,-22.461,-24.414,42.969,-5.859,118513.22,320
1162,1686016748.803,-17.09,52.246,-1.465,0.977,118513.224,322
1163,1686016748.807,-22.949,-304.199,26.855,0.488,118513.228,322
1164,1686016748.809,-29.297,-219.727,38.086,-11.719,118513.23,322
1165,1686016748.813,-23.926,53.711,13.184,-12.207,118513.234,322
1166,1686016748.817,-16.113,-14.16,0.0,3.906,118513.238,320
1167,1686016748.821,-13.184,-212.402,32.715,2.93,118513.242,320
1168,1686016748.825,-19.043,-145.02,24.414,-20.996,118513.246,320
1169,1686016748.829,-29.785,-333.008,-0.488,-30.273,118513.25,320
1170,1686016748.833,-23.438,-555.664,2.93,-11.23,118513.254,318
1171,1686016748.836,-25.879,-747.559,38.574,0.977,118513.258,318
1172,1686016748.84,-36.133,-415.527,89.844,-19.043,118513.262,318
1173,1686016748.844,-38.574,-0.488,12.695,-34.668,118513.265,317
1174,1686016748.848,-34.668,-298.828,5.859,-30.273,118513.269,317
1175,1686016748.852,-22.949,-309.57,55.664,-15.625,118513.273,317
1176,1686016748.855,-17.09,0.488,17.09,-13.184,118513.279,317
1177,1686016748.859,-24.414,-282.227,-13.672,-31.25,118513.282,319
1178,1686016748.863,-26.367,-813.477,3.906,-34.18,118513.286,319
1179,1686016748.867,-18.066,-818.848,85.938,-20.996,118513.29,319
1180,1686016748.871,-12.207,-193.359,80.078,-18.555,118513.294,321
1181,1686016748.875,-19.043,-239.258,-29.297,-24.902,118513.298,321
1182,1686016748.879,-25.879,-855.957,-5.859,-25.391,118513.302,321
1183,1686016748.882,-20.02,-715.82,65.43,-8.789,118513.306,321
1184,1686016748.886,-18.066,37.109,57.617,3.906,118513.31,321
1185,1686016748.89,-20.996,21.484,-16.602,-12.207,118513.314,321
1186,1686016748.894,-30.273,-342.773,7.812,-25.391,118513.318,321
1187,1686016748.898,-28.32,-207.52,38.086,-8.789,118513.322,321
1188,1686016748.901,-6.348,124.023,13.672,8.301,118513.323,320
1189,1686016748.905,-4.883,-61.035,-12.207,-6.836,118513.327,320
1190,1686016748.909,-10.254,-400.879,11.23,-25.879,118513.331,320
1191,1686016748.913,-4.883,-235.352,45.41,-14.648,118513.335,318
1192,1686016748.917,1.953,-202.148,27.344,4.883,118513.338,318
1193,1686016748.921,-0.488,-476.562,-16.602,-5.859,118513.342,318
1194,1686016748.925,-9.277,-924.805,-13.672,-11.23,118513.346,317
1195,1686016748.928,0.0,-701.172,76.172,-3.418,118513.35,317
1196,1686016748.932,4.395,-47.363,32.227,1.465,118513.354,317
1197,1686016748.936,-2.93,-194.824,-5.859,0.0,118513.358,317
1198,1686016748.94,-7.812,-458.984,-13.184,-15.137,118513.362,317
1199,1686016748.944,-3.906,-336.426,-5.859,-21.484,118513.366,319
1200,1686016748.944,10.742,-123.535,2.441,-6.836,118513.38,319
1201,1686016748.948,6.836,-449.707,13.672,4.883,118513.384,319
1202,1686016748.952,-5.859,-591.797,46.875,-10.254,118513.388,319
1203,1686016748.956,-12.695,-245.605,23.926,-27.344,118513.391,321
1204,1686016748.96,-7.812,-164.062,8.301,-11.23,118513.395,321
1205,1686016748.964,1.465,-591.797,-34.18,12.695,118513.399,321
1206,1686016748.968,-13.184,-1000.0,20.996,5.371,118513.403,321
1207,1686016748.971,-28.32,-685.547,77.637,-28.32,118513.407,321
1208,1686016748.975,-14.648,-289.551,-4.395,-30.762,118513.411,321
1209,1686016748.979,0.488,-532.715,16.602,-6.836,118513.415,321
1210,1686016748.983,-12.207,-449.219,50.293,-19.531,118513.419,319
1211,1686016748.987,-21.973,-104.492,-10.742,-37.598,118513.423,319
1212,1686016749.004,-11.719,-308.105,-16.113,-18.066,118513.426,317
1213,1686016749.008,-5.859,-458.496,25.391,-1.465,118513.429,317
1214,1686016749.012,-8.789,-231.934,34.18,-6.836,118513.433,317
1215,1686016749.016,-14.16,-159.18,-5.859,-25.391,118513.437,317
1216,1686016749.02,-16.602,-468.262,-23.438,-31.738,118513.441,317
1217,1686016749.024,-18.066,-808.105,-0.977,-23.926,118513.445,320
1218,1686016749.028,-11.23,-556.152,40.039,-23.438,118513.449,320
1219,1686016749.031,-15.625,-198.242,16.113,-38.086,118513.453,320
1220,1686016749.035,-29.785,-544.922,-60.547,-45.898,118513.457,321
1221,1686016749.039,-28.32,-979.98,-28.809,-28.32,118513.461,321
1222,1686016749.043,-22.461,-579.59,63.965,-20.996,118513.465,321
1223,1686016749.047,-20.996,-164.062,2.93,-34.18,118513.468,321
1224,1686016749.049,-20.996,-556.152,-35.645,-46.387,118513.47,321
1225,1686016749.053,-26.367,-1000.0,6.348,-42.969,118513.474,321
1226,1686016749.057,-20.02,-684.57,46.387,-25.391,118513.478,321
1227,1686016749.061,-14.648,-211.426,21.973,-20.508,118513.482,321
1228,1686016749.065,-31.25,-583.008,-32.715,-31.738,118513.486,319
1229,1686016749.069,-34.668,-1000.0,23.926,-31.25,118513.49,319
1230,1686016749.073,-22.461,-697.266,72.266,-16.113,118513.494,319
1231,1686016749.076,-14.648,-292.48,-6.348,-8.789,118513.497,317
1232,1686016749.08,-9.766,-684.57,-36.133,-21.973,118513.501,317
1233,1686016749.084,-18.555,-871.582,51.758,-31.25,118513.505,317
1234,1686016749.088,-14.648,-312.988,35.645,-16.113,118513.509,317
1235,1686016749.092,-8.789,-284.668,2.93,-2.441,118513.513,317
1236,1686016749.094,-20.996,-647.949,27.832,-25.879,118513.515,318
1237,1686016749.098,-24.414,-570.801,21.973,-44.434,118513.519,318
1238,1686016749.102,-14.16,-322.266,18.066,-24.414,118513.523,318
1239,1686016749.106,-1.465,-413.086,17.09,-3.906,118513.527,321
1240,1686016749.11,8.789,-648.438,-7.324,7.812,118513.531,321
1241,1686016749.114,-3.906,-801.27,-4.395,-13.672,118513.535,321
1242,1686016749.118,-9.766,-674.316,45.898,-24.414,118513.539,322
1243,1686016749.121,4.883,-577.148,-12.695,10.254,118513.543,322
1244,1686016749.125,1.465,-893.555,-0.977,15.625,118513.547,322
1245,1686016749.129,-13.672,-637.207,66.406,-7.324,118513.551,322
1246,1686016749.133,-13.672,-330.566,-2.93,-19.043,118513.554,320
1247,1686016749.137,-14.648,-538.574,29.785,-15.137,118513.558,320
1248,1686016749.139,-9.766,-504.395,57.617,-7.324,118513.56,320
1249,1686016749.143,-19.043,-522.461,-4.883,-12.695,118513.564,320
1250,1686016749.147,-32.227,-873.047,8.301,-24.902,118513.568,318
1251,1686016749.151,-24.902,-954.102,12.207,-6.836,118513.572,318
1252,1686016749.155,-27.832,-900.391,43.457,11.719,118513.576,318
1253,1686016749.159,-30.762,-712.891,40.039,-13.184,118513.58,318
1254,1686016749.163,-34.18,-746.094,10.742,-36.133,118513.584,317
1255,1686016749.166,-30.762,-970.215,24.414,-15.625,118513.588,317
1256,1686016749.17,-17.09,-763.672,72.754,1.465,118513.592,317
1257,1686016749.174,-18.066,-218.75,40.039,-4.883,118513.596,319
1258,1686016749.178,-29.785,-303.711,-20.02,-19.531,118513.599,319
1259,1686016749.182,-24.902,-648.438,9.766,-23.438,118513.603,319
1260,1686016749.199,-11.23,-481.934,43.457,0.0,118513.62,321
1261,1686016749.203,-15.137,-164.062,24.902,-2.441,118513.624,322
1262,1686016749.207,-25.391,-375.0,-18.066,-26.855,118513.628,322
1263,1686016749.211,-29.785,-636.719,20.996,-34.668,118513.632,322
1264,1686016749.215,-30.762,-486.328,29.785,-22.949,118513.636,320
1265,1686016749.219,-26.855,-555.176,22.461,-12.695,118513.64,320
1266,1686016749.223,-33.691,-784.668,-3.418,-22.461,118513.644,320
1267,1686016749.226,-36.133,-1000.0,3.906,-27.344,118513.648,320
1268,1686016749.23,-24.902,-744.141,120.117,-20.508,118513.652,318
1269,1686016749.23,-17.578,-357.422,24.414,-20.996,118513.65,318
1270,1686016749.234,-20.02,-229.004,50.781,-13.184,118513.656,318
1271,1686016749.234,-12.207,-443.359,8.301,-2.93,118513.654,318
1272,1686016749.238,-19.043,-463.379,0.977,-16.113,118513.659,318
1273,1686016749.238,-15.625,-853.027,0.488,-6.348,118513.658,318
1274,1686016749.242,-30.273,-832.52,44.434,-23.926,118513.662,318
1275,1686016749.242,-20.996,-644.531,35.156,-28.32,118513.663,318
1276,1686016749.246,-41.504,-472.656,34.18,-37.598,118513.666,318
1277,1686016749.25,-34.668,-610.352,-11.23,-17.578,118513.67,318
1278,1686016749.254,-26.855,-762.207,45.41,-11.23,118513.674,318
1279,1686016749.257,-30.273,-702.148,37.109,-37.598,118513.678,320
1280,1686016749.261,-26.855,-669.922,19.531,-47.363,118513.682,320
1281,1686016749.265,-14.648,-465.82,21.973,-31.25,118513.686,320
1282,1686016749.269,-15.137,-726.562,-20.996,-10.742,118513.69,322
1283,1686016749.273,-25.391,-901.367,58.594,-14.648,118513.693,322
1284,1686016749.274,-27.832,-465.82,69.336,-32.715,118513.71,322
1285,1686016749.278,-25.391,-465.82,19.531,-25.879,118513.714,322
1286,1686016749.282,-21.973,-571.777,36.133,-21.484,118513.718,322
1287,1686016749.286,-25.391,-342.285,30.762,-35.645,118513.722,322
1288,1686016749.29,-30.762,-396.973,8.789,-41.992,118513.726,322
1289,1686016749.294,-24.902,-834.961,-42.48,-34.18,118513.73,322
1290,1686016749.298,-16.602,-943.848,56.152,-10.742,118513.734,321
1291,1686016749.301,-24.902,-532.227,116.699,-11.23,118513.738,321
1292,1686016749.305,-31.738,-296.875,16.113,-35.156,118513.742,321
1293,1686016749.309,-18.555,-629.395,-6.348,-29.297,118513.745,319
1294,1686016749.313,-5.371,-899.414,19.043,2.441,118513.749,319
1295,1686016749.317,-1.465,-517.09,62.5,18.066,118513.753,319
