,timestamps,TP9,AF7,AF8,TP10,Secondary Timestamp,emg_signal
0,1685672249.557,73.73,196.777,109.375,94.238,1470.453,319
1,1685672249.561,6.836,167.969,113.77,-5.859,1470.457,318
2,1685672249.565,-30.273,244.629,122.559,-63.477,1470.461,318
3,1685672249.569,26.367,300.293,155.762,19.043,1470.465,318
4,1685672249.573,71.777,193.359,117.188,89.844,1470.469,318
5,1685672249.577,8.789,-156.738,-3.418,17.578,1470.473,317
6,1685672249.58,-48.34,-192.383,-3.906,-58.105,1470.477,317
7,1685672249.584,5.371,87.402,80.078,4.395,1470.481,317
8,1685672249.588,69.824,-402.832,-119.629,97.656,1470.485,318
9,1685672249.592,39.062,-198.242,56.152,54.688,1470.489,318
10,1685672249.596,-25.879,164.062,114.746,-42.48,1470.493,318
11,1685672249.6,-9.766,-243.652,-49.316,-21.484,1470.496,318
12,1685672249.602,57.617,-380.859,0.977,86.914,1470.498,318
13,1685672249.606,62.988,-116.211,96.68,83.984,1470.502,318
14,1685672249.61,1.465,229.004,134.766,-22.949,1470.506,318
15,1685672249.614,-15.625,-47.363,-7.324,-37.598,1470.51,318
16,1685672249.618,44.922,-457.52,-19.531,58.594,1470.514,318
17,1685672249.622,68.359,-117.188,120.605,89.355,1470.518,318
18,1685672249.625,5.371,161.133,113.281,-2.93,1470.522,318
19,1685672249.629,-37.598,-184.082,-69.336,-57.129,1470.526,317
20,1685672249.633,12.695,-550.293,-78.125,21.484,1470.53,317
21,1685672249.637,67.871,319.336,261.23,94.238,1470.534,317
22,1685672249.641,26.855,559.57,211.426,31.738,1470.538,317
23,1685672249.645,-41.992,-49.805,-51.27,-57.129,1470.541,316
24,1685672249.648,-0.977,-0.977,25.879,5.371,1470.55,316
25,1685672249.652,70.312,242.188,171.875,100.098,1470.554,316
26,1685672249.656,49.805,289.062,161.133,65.918,1470.557,316
27,1685672249.66,-19.043,-268.066,-147.461,-35.645,1470.561,316
28,1685672249.664,-13.184,-221.68,-3.906,-30.762,1470.565,316
29,1685672249.668,46.875,141.602,170.41,72.266,1470.569,316
30,1685672249.671,44.434,54.688,67.871,81.543,1470.573,316
31,1685672249.675,-14.648,-518.555,-205.566,-12.207,1470.577,316
32,1685672249.679,-22.949,-397.949,-40.039,-42.969,1470.581,316
33,1685672249.683,42.48,404.785,236.328,52.734,1470.585,316
34,1685672249.687,67.383,410.645,181.641,96.68,1470.589,316
35,1685672249.691,13.184,159.668,147.461,14.16,1470.593,316
36,1685672249.692,-28.809,43.945,78.125,-42.48,1470.588,316
37,1685672249.696,17.578,-25.879,72.266,27.832,1470.592,316
38,1685672249.7,80.078,11.23,100.098,102.539,1470.596,316
39,1685672249.704,40.527,-482.422,-72.266,48.828,1470.6,316
40,1685672249.708,-23.438,-420.41,-62.988,-35.645,1470.604,316
41,1685672249.712,7.324,-6.348,78.613,1.953,1470.608,316
42,1685672249.715,68.848,-122.07,65.918,92.285,1470.612,316
43,1685672249.719,45.41,-780.762,-239.746,70.801,1470.616,316
44,1685672249.723,-23.438,-309.57,-9.277,-32.227,1470.62,316
45,1685672249.727,-15.625,316.406,190.43,-33.691,1470.623,316
46,1685672249.731,49.805,192.383,132.324,70.312,1470.627,315
47,1685672249.735,62.988,407.715,207.031,92.285,1470.631,315
48,1685672249.736,0.488,485.84,164.551,-1.953,1470.646,315
49,1685672249.74,-20.508,211.914,76.66,-37.109,1470.65,316
50,1685672249.744,45.41,51.27,68.359,53.711,1470.654,316
51,1685672249.748,73.73,385.254,202.148,100.098,1470.658,316
52,1685672249.752,20.508,469.727,183.594,14.16,1470.662,316
53,1685672249.756,-28.32,-80.078,-18.066,-53.223,1470.666,317
54,1685672249.759,12.207,-787.598,-296.387,19.531,1470.67,317
55,1685672249.763,76.172,-446.777,-34.668,99.609,1470.674,317
56,1685672249.767,49.805,456.055,270.508,54.199,1470.677,317
57,1685672249.771,-17.09,195.801,63.965,-39.062,1470.681,318
58,1685672249.775,-0.488,-234.863,-5.371,-14.16,1470.685,318
59,1685672249.779,67.871,277.832,194.336,87.402,1470.689,318
60,1685672249.796,56.152,468.75,225.586,69.336,1470.693,318
61,1685672249.8,-18.066,-222.168,-60.547,-51.27,1470.696,318
62,1685672249.804,-29.785,-693.848,-228.516,-69.824,1470.7,318
63,1685672249.808,44.922,41.504,121.094,40.039,1470.704,318
64,1685672249.812,60.547,600.586,266.602,80.078,1470.708,318
65,1685672249.816,-18.555,-17.09,-41.992,-17.578,1470.712,318
66,1685672249.819,-58.105,-510.742,-102.051,-72.754,1470.716,318
67,1685672249.823,7.324,136.23,186.035,10.254,1470.72,319
68,1685672249.827,52.246,568.359,242.188,70.801,1470.724,319
69,1685672249.831,4.395,-71.289,-21.484,3.418,1470.728,319
70,1685672249.835,-35.645,-647.949,-124.512,-64.453,1470.732,319
71,1685672249.839,7.812,52.734,169.434,-16.113,1470.735,320
72,1685672249.841,55.176,473.633,217.285,62.012,1470.738,320
73,1685672249.845,18.555,70.801,29.785,30.273,1470.742,320
74,1685672249.849,-49.316,20.02,64.453,-65.918,1470.746,320
75,1685672249.853,-23.926,268.555,164.551,-48.828,1470.749,320
76,1685672249.857,48.828,383.301,148.438,60.059,1470.753,320
77,1685672249.861,41.992,-80.566,-24.902,66.895,1470.757,320
78,1685672249.864,-18.066,-285.156,-41.016,-29.297,1470.761,320
79,1685672249.868,-40.527,138.672,126.465,-55.664,1470.765,320
80,1685672249.872,21.484,246.094,140.137,35.645,1470.769,320
81,1685672249.876,50.781,-472.656,-165.039,79.59,1470.773,320
82,1685672249.88,-8.789,-338.867,-22.461,-11.719,1470.777,320
83,1685672249.884,-43.945,50.781,103.027,-73.73,1470.781,320
84,1685672249.887,8.301,-269.531,-31.25,4.883,1470.783,320
85,1685672249.891,50.781,-743.164,-170.41,71.777,1470.787,319
86,1685672249.895,12.695,-209.473,73.242,11.719,1470.791,319
87,1685672249.899,-50.293,268.555,128.418,-66.406,1470.795,319
88,1685672249.903,-19.531,7.812,20.508,-21.484,1470.799,320
89,1685672249.907,61.523,-27.344,118.652,82.52,1470.803,320
90,1685672249.91,42.48,86.426,134.277,64.453,1470.806,320
91,1685672249.914,-23.438,277.344,127.93,-40.527,1470.81,320
92,1685672249.918,-20.508,-230.469,-94.238,-36.133,1470.814,320
93,1685672249.922,38.086,-537.598,-55.176,59.082,1470.818,320
94,1685672249.926,46.875,271.973,234.375,68.359,1470.822,320
95,1685672249.93,-13.184,238.77,117.676,-29.785,1470.826,320
96,1685672249.933,-50.781,-155.762,-60.547,-65.918,1470.831,320
97,1685672249.937,2.441,121.582,82.52,24.414,1470.835,320
98,1685672249.941,48.34,280.762,178.711,74.707,1470.839,320
99,1685672249.945,-3.906,232.91,130.859,-11.23,1470.843,320
100,1685672249.949,-55.176,-341.797,-170.898,-73.242,1470.846,320
101,1685672249.953,-1.953,-509.766,-124.512,3.906,1470.85,320
102,1685672249.956,61.523,140.137,198.242,83.008,1470.854,320
103,1685672249.96,25.879,317.383,159.18,30.762,1470.858,319
104,1685672249.964,-41.992,-593.262,-254.395,-55.176,1470.862,319
105,1685672249.968,-11.719,-348.633,-17.09,-25.391,1470.866,319
106,1685672249.972,60.547,540.039,274.414,64.453,1470.87,319
107,1685672249.976,34.668,380.371,129.395,46.387,1470.874,319
108,1685672249.977,-46.387,-101.074,-11.719,-52.734,1470.873,319
109,1685672249.981,-44.922,-270.996,-53.223,-57.617,1470.877,319
110,1685672249.985,30.273,283.691,196.777,42.969,1470.881,319
111,1685672249.989,47.363,269.531,133.301,67.871,1470.885,319
112,1685672249.993,-13.672,-536.621,-96.68,-22.949,1470.889,319
113,1685672249.997,-36.133,-476.074,-67.383,-65.918,1470.893,319
114,1685672250.0,9.766,-47.852,85.449,13.184,1470.897,319
115,1685672250.004,39.062,-50.293,74.219,66.895,1470.901,320
116,1685672250.008,-5.371,-782.227,-263.672,1.465,1470.904,320
117,1685672250.012,-47.363,-341.309,-18.066,-70.801,1470.908,320
118,1685672250.016,5.859,385.254,212.891,-7.324,1470.912,320
119,1685672250.02,66.895,274.902,154.297,86.914,1470.916,320
120,1685672250.024,35.156,343.75,182.617,41.504,1470.921,320
121,1685672250.028,-27.344,367.676,141.113,-61.523,1470.925,320
122,1685672250.032,-10.742,227.539,121.094,-41.992,1470.928,319
123,1685672250.036,53.223,127.93,91.797,56.641,1470.932,319
124,1685672250.04,43.945,340.332,170.898,61.035,1470.936,319
125,1685672250.044,-30.762,89.355,67.871,-40.527,1470.94,318
126,1685672250.047,-34.668,-244.141,-40.039,-55.176,1470.944,318
127,1685672250.051,39.062,-665.039,-214.355,47.363,1470.948,318
128,1685672250.055,58.105,-467.285,-46.387,70.312,1470.952,318
129,1685672250.059,-5.859,376.953,217.285,-23.438,1470.956,318
130,1685672250.063,-41.992,143.555,75.195,-75.684,1470.96,318
131,1685672250.067,8.301,-209.961,28.32,2.93,1470.964,318
132,1685672250.067,48.828,223.633,184.57,66.895,1470.963,318
133,1685672250.071,6.348,151.367,98.145,-0.488,1470.967,319
134,1685672250.075,-51.27,-239.746,-69.336,-75.684,1470.971,319
135,1685672250.079,-18.555,-176.758,16.602,-24.414,1470.975,319
136,1685672250.083,46.875,318.359,195.801,71.289,1470.978,319
137,1685672250.087,23.438,244.141,132.324,32.715,1470.982,319
138,1685672250.09,-42.969,-280.273,-79.102,-66.895,1470.986,319
139,1685672250.094,-41.504,-938.477,-371.582,-50.781,1470.99,319
140,1685672250.098,31.738,-435.547,-31.25,40.039,1470.994,319
141,1685672250.102,39.062,390.625,225.098,40.527,1470.998,319
142,1685672250.106,-31.738,-136.719,-85.449,-41.016,1471.002,319
143,1685672250.11,-48.828,-259.277,-6.836,-62.5,1471.006,319
144,1685672250.112,18.555,447.266,249.512,27.344,1471.022,318
145,1685672250.116,52.734,590.332,207.52,73.73,1471.026,318
146,1685672250.12,-5.371,26.367,-14.16,-13.184,1471.03,318
147,1685672250.124,-56.641,0.977,31.25,-80.078,1471.034,317
148,1685672250.128,-3.418,359.375,201.172,-0.977,1471.038,317
149,1685672250.132,51.758,234.863,139.16,77.148,1471.042,317
150,1685672250.135,4.395,-488.281,-232.422,20.996,1471.045,317
151,1685672250.139,-57.617,-471.68,-131.348,-69.336,1471.049,317
152,1685672250.143,-14.16,260.742,192.871,-31.738,1471.053,317
153,1685672250.147,53.223,413.086,196.777,63.477,1471.057,317
154,1685672250.151,22.949,250.0,180.664,32.715,1471.061,317
155,1685672250.155,-38.086,234.375,107.91,-56.641,1471.065,318
156,1685672250.158,-23.926,144.531,78.125,-45.41,1471.066,318
157,1685672250.162,40.527,-76.172,58.594,53.223,1471.07,318
158,1685672250.166,41.016,-685.059,-185.547,74.219,1471.074,318
159,1685672250.17,-18.555,-269.531,22.949,-27.344,1471.078,318
160,1685672250.174,-31.25,286.133,164.062,-57.129,1471.082,318
161,1685672250.178,25.391,-43.457,18.555,35.645,1471.086,318
162,1685672250.181,45.898,-190.918,9.766,70.312,1471.09,318
163,1685672250.185,-5.371,211.914,162.109,-12.207,1471.093,318
164,1685672250.189,-44.922,320.312,119.141,-78.613,1471.097,318
165,1685672250.193,-1.465,-99.609,18.555,-9.277,1471.101,318
166,1685672250.197,53.711,-2.93,174.805,73.73,1471.105,317
167,1685672250.201,16.113,459.961,236.328,19.531,1471.109,317
168,1685672250.217,-43.457,267.09,98.145,-68.359,1471.113,317
169,1685672250.221,-19.043,-58.594,8.789,-33.691,1471.117,317
170,1685672250.225,44.434,203.125,129.883,59.082,1471.121,317
171,1685672250.229,26.855,254.883,158.203,32.227,1471.125,317
172,1685672250.233,-41.016,151.367,97.168,-71.289,1471.128,317
173,1685672250.237,-38.574,-575.684,-256.348,-56.641,1471.132,317
174,1685672250.24,33.203,-597.656,-92.773,44.922,1471.136,317
175,1685672250.244,43.457,409.668,265.625,56.641,1471.14,317
176,1685672250.248,-22.949,291.992,101.074,-29.785,1471.144,317
177,1685672250.252,-46.875,-212.402,-8.789,-66.895,1471.148,317
178,1685672250.256,11.719,190.918,161.133,18.066,1471.152,317
179,1685672250.26,47.852,605.469,265.137,71.289,1471.156,317
180,1685672250.262,-1.953,217.285,72.754,-2.441,1471.158,317
181,1685672250.266,-55.664,-395.996,-122.07,-67.871,1471.162,317
182,1685672250.27,-9.766,-31.738,104.004,-11.23,1471.166,317
183,1685672250.274,50.293,536.133,257.812,64.453,1471.17,317
184,1685672250.278,15.625,166.504,47.852,26.855,1471.174,316
185,1685672250.282,-44.434,-523.438,-139.648,-50.781,1471.178,316
186,1685672250.285,-29.297,-419.922,-42.969,-27.832,1471.182,316
187,1685672250.289,52.246,166.504,172.363,71.777,1471.185,316
188,1685672250.293,52.734,116.211,60.059,66.895,1471.189,316
189,1685672250.297,-28.809,-821.289,-320.312,-32.715,1471.193,316
190,1685672250.301,-28.32,-286.133,-7.324,-51.758,1471.197,316
191,1685672250.305,42.969,471.191,226.074,39.551,1471.201,316
192,1685672250.307,49.316,248.535,108.398,70.312,1471.203,316
193,1685672250.311,-16.113,186.035,114.258,-19.531,1471.207,316
194,1685672250.315,-45.898,213.379,113.77,-69.824,1471.211,316
195,1685672250.319,10.254,260.254,149.902,17.09,1471.215,316
196,1685672250.323,57.129,157.715,99.609,88.379,1471.219,316
197,1685672250.327,15.137,-104.492,6.348,24.414,1471.223,316
198,1685672250.33,-41.504,-131.836,19.531,-53.711,1471.227,316
199,1685672250.334,-0.488,125.0,109.863,-1.465,1471.23,316
200,1685672250.338,56.152,-561.035,-208.496,84.961,1471.234,316
201,1685672250.342,28.809,-620.117,-83.984,41.016,1471.238,316
202,1685672250.346,-33.203,121.582,125.488,-54.199,1471.242,315
203,1685672250.35,-25.879,-80.566,-14.648,-39.551,1471.246,315
204,1685672250.367,28.809,-28.32,98.145,53.711,1471.264,314
205,1685672250.371,32.715,104.492,110.352,62.5,1471.268,314
206,1685672250.375,-21.484,188.965,118.164,-39.551,1471.272,314
207,1685672250.379,-43.457,5.371,-4.883,-69.824,1471.276,314
208,1685672250.383,8.301,-440.918,-53.711,24.414,1471.279,314
209,1685672250.387,28.32,-110.352,90.332,62.012,1471.283,314
210,1685672250.39,-17.09,97.168,63.477,-3.906,1471.287,314
211,1685672250.394,-52.734,-305.664,-112.305,-58.594,1471.291,314
212,1685672250.398,-4.395,-585.938,-126.953,3.418,1471.295,314
213,1685672250.398,-15.137,-242.676,26.855,-19.043,1471.295,314
214,1685672250.402,57.617,288.574,205.566,79.102,1471.299,314
215,1685672250.402,45.41,511.719,252.441,76.172,1471.299,314
216,1685672250.406,17.09,524.414,173.828,26.367,1471.303,314
217,1685672250.406,26.367,486.816,166.992,52.734,1471.303,314
218,1685672250.41,-45.898,-270.02,-107.91,-60.059,1471.307,314
219,1685672250.41,-38.086,-111.816,-76.66,-49.805,1471.306,314
220,1685672250.414,-29.297,-37.109,26.367,-39.062,1471.31,314
221,1685672250.418,42.48,133.301,155.273,61.523,1471.314,314
222,1685672250.421,47.852,-3.418,54.199,62.988,1471.318,314
223,1685672250.425,-16.113,-371.094,-173.34,-33.203,1471.322,314
224,1685672250.429,-28.809,-171.387,-31.738,-63.477,1471.326,314
225,1685672250.433,34.18,442.383,256.836,24.902,1471.33,314
226,1685672250.437,63.965,415.039,172.852,77.637,1471.334,314
227,1685672250.441,7.812,-530.273,-231.934,4.395,1471.338,314
228,1685672250.443,-37.598,-462.402,-104.004,-56.152,1471.34,314
229,1685672250.447,1.465,35.645,105.957,7.324,1471.344,314
230,1685672250.451,54.199,-68.848,39.551,82.031,1471.348,314
231,1685672250.455,16.602,-675.781,-216.309,25.391,1471.352,314
232,1685672250.459,-47.363,-378.418,-50.781,-68.848,1471.356,315
233,1685672250.463,-18.066,64.453,125.977,-34.668,1471.36,315
234,1685672250.466,48.828,-133.789,20.996,59.082,1471.364,315
235,1685672250.47,29.297,-659.18,-201.172,54.688,1471.368,315
236,1685672250.474,-37.598,-130.859,31.738,-46.875,1471.372,315
237,1685672250.478,-32.227,341.797,155.273,-56.152,1471.375,315
238,1685672250.482,37.109,92.285,80.566,51.27,1471.379,315
239,1685672250.486,56.152,345.703,194.336,67.871,1471.383,315
240,1685672250.502,-5.371,492.676,173.828,-34.668,1471.398,315
241,1685672250.506,-36.133,243.164,87.891,-71.289,1471.402,315
242,1685672250.51,19.531,34.18,36.621,20.02,1471.406,315
243,1685672250.514,57.617,278.809,143.555,82.031,1471.41,315
244,1685672250.518,4.883,127.441,65.43,5.371,1471.414,315
245,1685672250.522,-48.34,-211.426,-95.703,-75.684,1471.418,315
246,1685672250.525,-6.836,-669.922,-277.344,-13.184,1471.421,315
247,1685672250.529,60.547,-569.824,-67.871,81.055,1471.425,314
248,1685672250.532,43.457,599.609,220.703,53.711,1471.442,314
249,1685672250.533,39.551,363.77,206.543,37.598,1471.429,314
250,1685672250.536,-35.156,-150.879,-65.918,-40.039,1471.446,314
251,1685672250.537,-26.855,217.773,52.734,-68.848,1471.433,314
252,1685672250.54,-54.199,-705.566,-238.281,-55.664,1471.45,315
253,1685672250.541,-14.648,-305.176,-23.926,-49.805,1471.437,315
254,1685672250.544,19.531,93.262,128.418,38.574,1471.454,315
255,1685672250.545,54.199,292.48,181.641,54.199,1471.441,315
256,1685672250.548,44.434,660.645,257.324,80.566,1471.458,315
257,1685672250.552,-23.926,52.734,-19.531,-4.395,1471.462,316
258,1685672250.555,-60.059,-479.492,-116.211,-61.035,1471.466,316
259,1685672250.559,0.977,-186.523,55.664,13.184,1471.47,316
260,1685672250.563,46.387,485.84,250.977,75.195,1471.474,316
261,1685672250.567,-7.812,160.156,24.414,1.953,1471.478,316
262,1685672250.571,-64.453,-873.535,-374.512,-80.078,1471.481,316
263,1685672250.575,-19.043,-201.172,27.832,-30.273,1471.485,316
264,1685672250.578,41.016,526.855,242.676,54.199,1471.487,316
265,1685672250.582,22.461,142.09,27.344,24.414,1471.491,315
266,1685672250.586,-29.297,68.359,44.434,-60.059,1471.495,315
267,1685672250.59,-13.184,250.488,115.234,-36.621,1471.499,315
268,1685672250.594,47.363,392.578,166.504,57.617,1471.503,315
269,1685672250.598,35.645,-13.184,-11.719,53.711,1471.507,315
270,1685672250.601,-29.297,-196.289,-30.762,-39.551,1471.511,315
271,1685672250.605,-32.715,168.457,108.887,-51.758,1471.515,315
272,1685672250.609,42.969,266.113,126.465,53.223,1471.519,314
273,1685672250.613,62.988,-479.004,-161.133,93.75,1471.522,314
274,1685672250.617,13.184,-456.543,-96.68,6.348,1471.526,314
275,1685672250.621,-18.555,232.91,133.301,-41.504,1471.53,314
276,1685672250.637,25.879,141.602,75.195,40.527,1471.533,315
277,1685672250.641,79.59,-152.832,7.812,119.141,1471.537,315
278,1685672250.645,45.898,140.137,111.816,64.941,1471.541,315
279,1685672250.649,-11.719,289.551,117.188,-24.414,1471.545,314
280,1685672250.653,14.648,-61.035,1.465,16.602,1471.549,314
281,1685672250.657,82.52,-549.316,-75.684,115.723,1471.553,314
282,1685672250.66,68.359,-190.918,68.359,87.891,1471.557,314
283,1685672250.664,-1.953,273.926,116.211,-9.766,1471.561,313
284,1685672250.668,2.441,-175.293,-89.355,-5.371,1471.565,313
285,1685672250.672,66.895,-354.004,-26.367,90.332,1471.569,313
286,1685672250.676,70.801,365.234,232.422,89.355,1471.572,313
287,1685672250.68,6.348,295.898,58.594,-9.766,1471.576,313
288,1685672250.697,-23.438,-414.551,-204.59,-40.527,1471.593,312
289,1685672250.701,29.297,-165.527,58.594,47.852,1471.597,312
290,1685672250.705,67.383,562.988,289.551,93.262,1471.601,312
291,1685672250.709,14.648,431.641,117.676,3.418,1471.605,312
292,1685672250.713,-39.551,-158.203,-166.504,-65.43,1471.609,312
293,1685672250.717,3.418,-223.633,-74.707,9.277,1471.613,312
294,1685672250.72,61.035,168.945,158.203,90.332,1471.617,312
295,1685672250.724,23.926,347.168,148.438,36.621,1471.621,312
296,1685672250.728,-41.016,-584.961,-330.566,-46.387,1471.625,312
297,1685672250.732,-12.207,-435.547,-162.598,-16.602,1471.629,312
298,1685672250.736,57.617,474.609,268.066,71.289,1471.633,312
299,1685672250.74,41.504,380.371,144.043,64.453,1471.636,312
300,1685672250.742,-25.879,-77.637,-62.012,-31.25,1471.653,312
301,1685672250.746,-36.621,-323.242,-148.438,-41.992,1471.656,310
302,1685672250.75,27.832,-51.758,46.387,56.152,1471.66,310
303,1685672250.754,40.039,85.449,91.797,72.266,1471.664,310
304,1685672250.758,-29.785,-729.492,-307.617,-25.391,1471.668,310
305,1685672250.762,-56.641,-686.523,-201.172,-67.383,1471.672,309
306,1685672250.765,5.371,57.129,114.258,9.766,1471.676,309
307,1685672250.769,53.711,208.984,94.238,69.336,1471.68,309
308,1685672250.772,7.812,-435.547,-40.039,36.133,1471.668,309
309,1685672250.773,12.695,80.078,93.262,8.789,1471.684,309
310,1685672250.776,-47.852,123.535,103.027,-58.594,1471.672,309
311,1685672250.777,-35.645,154.785,98.633,-65.43,1471.688,309
312,1685672250.78,-34.668,228.516,64.453,-40.527,1471.676,309
313,1685672250.781,-4.883,350.098,133.301,-15.625,1471.692,309
314,1685672250.784,29.297,57.129,29.297,54.688,1471.68,309
315,1685672250.785,36.621,-53.223,12.695,75.195,1471.695,309
316,1685672250.788,23.926,194.336,98.145,49.316,1471.684,309
317,1685672250.792,-39.062,26.367,-33.691,-58.594,1471.688,309
318,1685672250.795,-56.152,-285.645,-184.082,-75.195,1471.692,309
319,1685672250.799,6.836,-498.535,-225.586,32.715,1471.696,309
320,1685672250.803,34.668,53.711,51.27,65.918,1471.7,310
321,1685672250.807,-23.926,454.102,186.523,-25.879,1471.703,310
322,1685672250.811,-57.129,60.547,1.953,-82.031,1471.707,310
323,1685672250.815,-2.93,-633.301,-270.02,-6.348,1471.711,310
324,1685672250.817,42.969,-145.02,5.371,68.359,1471.713,310
325,1685672250.821,-0.488,163.574,96.191,2.441,1471.717,310
326,1685672250.825,-64.453,-315.918,-227.051,-85.938,1471.721,310
327,1685672250.829,-33.691,-810.547,-341.309,-36.621,1471.725,310
328,1685672250.833,37.598,-221.191,66.406,59.082,1471.729,310
329,1685672250.837,18.555,299.316,150.391,25.879,1471.733,310
330,1685672250.84,-54.199,-243.164,-155.762,-73.242,1471.737,310
331,1685672250.844,-44.434,-720.215,-280.762,-46.875,1471.74,310
332,1685672250.848,34.668,114.258,106.934,59.082,1471.744,310
333,1685672250.852,39.551,755.371,250.488,60.059,1471.748,310
334,1685672250.856,-31.25,148.926,-30.273,-42.969,1471.752,312
335,1685672250.86,-56.641,-120.117,-49.316,-73.242,1471.756,312
336,1685672250.863,4.883,414.551,205.566,11.23,1471.76,312
337,1685672250.867,41.992,665.039,224.121,55.176,1471.764,312
338,1685672250.871,-2.93,-0.488,-88.867,-11.23,1471.768,314
339,1685672250.875,-39.551,-179.199,-40.039,-70.312,1471.772,314
340,1685672250.879,-1.953,291.016,150.879,-13.184,1471.776,314
341,1685672250.883,46.387,266.113,122.559,57.129,1471.78,315
342,1685672250.886,7.812,-396.484,-216.797,7.324,1471.784,315
343,1685672250.89,-55.664,-427.734,-158.203,-80.078,1471.788,315
344,1685672250.894,-26.855,293.945,168.945,-42.969,1471.791,315
345,1685672250.898,38.086,373.047,135.742,52.246,1471.795,316
346,1685672250.902,13.672,-34.668,39.062,32.715,1471.799,316
347,1685672250.906,-58.594,78.613,38.086,-67.871,1471.803,316
348,1685672250.907,-47.852,224.121,83.984,-65.918,1471.832,316
349,1685672250.911,26.367,-90.82,9.277,43.457,1471.835,317
350,1685672250.915,38.086,-600.586,-211.426,71.777,1471.839,317
351,1685672250.919,-27.832,-103.516,-10.254,-32.227,1471.843,317
352,1685672250.923,-47.363,310.059,141.602,-73.73,1471.847,318
353,1685672250.927,15.625,-54.199,-4.395,30.762,1471.851,318
354,1685672250.93,38.086,-802.734,-255.859,83.984,1471.855,318
355,1685672250.934,-9.766,-379.883,-55.176,-7.812,1471.859,318
356,1685672250.938,-55.664,299.316,118.652,-82.031,1471.863,318
357,1685672250.942,-19.043,93.262,10.254,-16.602,1471.867,320
358,1685672250.946,39.062,345.703,153.32,69.336,1471.871,320
359,1685672250.95,13.672,577.148,183.594,24.902,1471.874,320
360,1685672250.982,-53.711,134.766,-24.414,-74.219,1471.879,325
361,1685672250.986,-34.18,-375.977,-187.012,-46.387,1471.883,325
362,1685672250.99,38.574,0.488,90.332,51.27,1471.887,325
363,1685672250.994,30.762,573.73,234.863,42.969,1471.89,326
364,1685672250.998,-33.691,295.41,10.742,-48.34,1471.894,326
365,1685672251.002,-36.133,-388.672,-247.559,-44.922,1471.898,326
366,1685672251.005,37.598,-287.598,-63.477,57.129,1471.902,327
367,1685672251.009,61.523,390.625,214.844,71.289,1471.906,327
368,1685672251.012,8.789,202.148,13.184,7.324,1471.909,327
369,1685672251.013,-10.254,310.059,64.453,-24.902,1471.91,327
370,1685672251.016,-45.898,-741.699,-345.215,-71.289,1471.912,327
371,1685672251.017,-48.34,-606.934,-301.758,-78.613,1471.914,327
372,1685672251.02,-0.977,-320.312,-55.664,-17.578,1471.916,327
373,1685672251.021,7.812,-225.098,-13.184,-3.906,1471.918,327
374,1685672251.024,65.43,219.727,135.742,80.566,1471.92,328
375,1685672251.025,50.781,570.312,264.16,66.406,1471.922,328
376,1685672251.028,35.645,3.906,-4.883,44.434,1471.924,328
377,1685672251.032,-23.438,-395.996,-172.363,-55.664,1471.928,328
378,1685672251.035,-7.324,-262.695,-81.543,-37.598,1471.932,330
379,1685672251.039,57.129,401.855,172.363,63.477,1471.936,330
380,1685672251.043,48.34,146.973,2.441,62.988,1471.94,330
381,1685672251.047,-41.016,-665.527,-250.0,-39.062,1471.944,331
382,1685672251.051,-58.594,-156.738,5.859,-63.477,1471.948,331
383,1685672251.055,14.648,453.125,176.758,23.926,1471.952,331
384,1685672251.057,35.156,-73.242,-37.598,49.316,1471.966,331
385,1685672251.061,-31.25,-509.277,-102.539,-34.668,1471.97,331
386,1685672251.065,-68.359,74.707,78.125,-87.402,1471.974,331
387,1685672251.069,-10.742,329.59,109.375,-11.23,1471.978,331
388,1685672251.073,43.945,108.398,54.199,62.012,1471.982,331
389,1685672251.077,-5.859,-84.961,-28.809,-3.906,1471.986,331
390,1685672251.08,-61.035,-220.215,-147.461,-83.008,1471.99,331
391,1685672251.084,-24.414,-145.02,-105.957,-31.738,1471.994,331
392,1685672251.088,32.715,-522.949,-213.867,65.918,1471.998,332
393,1685672251.092,14.16,-581.543,-119.141,41.504,1472.002,332
394,1685672251.096,-47.363,129.395,75.684,-61.523,1472.006,332
395,1685672251.1,-41.504,202.637,37.598,-51.27,1472.009,332
396,1685672251.102,23.926,86.914,65.918,48.34,1471.998,332
397,1685672251.106,29.297,113.281,82.031,49.316,1472.002,334
398,1685672251.11,-30.273,299.805,124.023,-54.688,1472.006,334
399,1685672251.114,-54.199,17.09,-67.871,-91.309,1472.01,334
400,1685672251.118,0.488,-443.848,-128.418,-2.93,1472.014,335
401,1685672251.122,30.762,-83.496,81.543,47.852,1472.018,335
402,1685672251.125,-23.926,143.555,62.012,-33.691,1472.022,335
403,1685672251.129,-62.988,-170.41,-143.555,-95.215,1472.026,335
404,1685672251.133,-16.602,-487.793,-144.531,-25.391,1472.03,335
405,1685672251.137,36.133,198.73,180.176,49.316,1472.033,335
406,1685672251.141,-5.859,590.82,194.824,-12.207,1472.037,335
407,1685672251.145,-66.406,-164.551,-168.457,-92.285,1472.041,335
408,1685672251.151,-47.852,-584.961,-156.25,-52.734,1472.046,335
409,1685672251.155,9.277,307.129,208.984,37.598,1472.05,335
410,1685672251.159,7.324,521.973,149.414,21.973,1472.054,335
411,1685672251.163,-60.059,-38.574,-112.305,-81.055,1472.058,335
412,1685672251.167,-62.012,20.996,-29.297,-81.055,1472.061,335
413,1685672251.171,16.113,107.91,90.82,29.785,1472.065,335
414,1685672251.174,24.414,90.82,52.246,55.176,1472.069,336
415,1685672251.178,-42.48,-471.191,-296.387,-34.18,1472.073,336
416,1685672251.182,-69.336,-445.801,-185.547,-78.613,1472.077,336
417,1685672251.186,-16.113,395.02,185.547,-5.371,1472.081,336
418,1685672251.19,23.438,373.047,81.543,54.688,1472.085,336
419,1685672251.192,-65.918,-137.695,-63.477,-94.727,1472.088,336
420,1685672251.194,-17.578,-115.234,-53.223,-10.742,1472.089,336
421,1685672251.196,-44.434,-9.766,-18.555,-51.27,1472.092,336
422,1685672251.2,7.324,-20.996,16.602,38.574,1472.096,336
423,1685672251.204,-12.207,-615.723,-249.512,14.16,1472.1,336
424,1685672251.208,-60.059,-288.574,-91.309,-66.895,1472.104,336
425,1685672251.212,-40.039,94.727,50.781,-48.828,1472.108,336
426,1685672251.215,24.414,-166.504,-43.457,45.41,1472.112,335
427,1685672251.219,20.02,-550.293,-147.461,43.457,1472.116,335
428,1685672251.223,-38.086,-72.266,25.391,-65.918,1472.12,335
429,1685672251.227,-41.016,322.266,102.539,-79.102,1472.123,333
430,1685672251.231,19.531,138.672,67.383,30.273,1472.127,333
431,1685672251.235,29.297,314.941,144.531,55.664,1472.131,333
432,1685672251.238,-41.016,450.195,159.18,-50.293,1472.135,333
433,1685672251.242,-72.266,144.531,-3.418,-100.586,1472.139,331
434,1685672251.246,-14.16,-282.227,-175.781,1.953,1472.142,331
435,1685672251.25,33.203,110.352,108.398,67.871,1472.146,331
436,1685672251.254,-9.766,489.258,172.363,-8.301,1472.15,331
437,1685672251.258,-69.824,-79.102,-186.035,-83.984,1472.154,328
438,1685672251.261,-35.156,-708.984,-330.078,-31.738,1472.158,328
439,1685672251.265,31.25,-210.449,62.988,39.551,1472.162,328
440,1685672251.269,1.953,544.922,227.051,-0.488,1472.166,325
441,1685672251.273,-71.289,212.891,-1.465,-96.68,1472.17,325
442,1685672251.277,-59.57,-151.855,-57.617,-79.59,1472.174,325
443,1685672251.281,21.484,302.246,145.02,23.926,1472.178,325
444,1685672251.282,33.203,511.23,159.668,35.156,1472.193,325
445,1685672251.286,-38.574,-133.301,-150.879,-52.734,1472.196,321
446,1685672251.29,-62.988,-677.734,-280.273,-84.473,1472.2,321
447,1685672251.294,7.324,-40.527,43.457,6.836,1472.204,321
448,1685672251.298,40.039,314.453,160.645,50.293,1472.208,317
449,1685672251.302,-21.973,-161.621,-93.75,-30.273,1472.212,317
450,1685672251.305,-66.406,-834.961,-402.344,-86.426,1472.216,317
451,1685672251.309,-20.02,-224.121,0.977,-18.066,1472.22,312
452,1685672251.313,37.598,540.527,224.121,68.848,1472.224,312
453,1685672251.317,6.348,220.215,-17.578,6.836,1472.228,312
454,1685672251.321,-53.223,30.762,-20.996,-83.008,1472.232,312
455,1685672251.325,-26.367,291.504,117.676,-27.832,1472.236,308
456,1685672251.341,46.875,510.254,176.27,68.359,1472.237,304
457,1685672251.345,26.855,35.645,-63.965,33.691,1472.241,304
458,1685672251.349,-47.363,-143.066,-69.824,-74.219,1472.245,300
459,1685672251.353,-39.062,233.398,104.492,-67.871,1472.249,300
460,1685672251.357,30.762,356.934,120.605,37.109,1472.252,300
461,1685672251.361,35.645,-74.219,-89.355,54.199,1472.256,300
462,1685672251.364,-35.645,-398.438,-208.984,-43.945,1472.26,300
463,1685672251.368,-57.129,-165.527,-64.941,-74.219,1472.264,296
464,1685672251.372,10.742,199.219,89.355,18.555,1472.268,296
465,1685672251.376,44.434,-398.926,-204.59,68.848,1472.272,296
466,1685672251.38,-13.672,-517.578,-170.898,-14.16,1472.276,292
467,1685672251.384,-54.688,130.859,69.336,-83.984,1472.28,292
468,1685672251.387,-7.324,121.582,23.438,-12.695,1472.283,292
469,1685672251.391,40.527,-97.656,-11.719,63.965,1472.287,289
470,1685672251.395,-7.812,189.453,107.91,-6.836,1472.291,289
471,1685672251.399,-80.566,284.668,76.66,-101.074,1472.295,289
472,1685672251.403,-44.922,-57.129,-70.312,-52.734,1472.299,289
473,1685672251.407,29.785,-346.191,-78.613,52.246,1472.302,288
474,1685672251.41,20.508,-158.203,12.695,36.133,1472.306,288
475,1685672251.414,-43.457,200.684,79.59,-73.242,1472.31,288
476,1685672251.418,-52.246,-152.832,-130.859,-81.543,1472.314,288
477,1685672251.422,17.578,-799.805,-321.289,26.855,1472.318,287
478,1685672251.426,33.203,76.172,102.051,44.922,1472.322,287
479,1685672251.43,-39.551,493.652,164.551,-59.57,1472.326,287
480,1685672251.433,-69.824,-133.789,-138.672,-100.098,1472.33,287
481,1685672251.437,-5.859,18.555,16.113,-4.395,1472.334,287
482,1685672251.441,36.133,550.781,227.051,59.082,1472.338,287
483,1685672251.445,-23.926,415.527,113.77,-21.973,1472.342,287
484,1685672251.449,-79.102,-135.254,-200.195,-100.098,1472.346,287
485,1685672251.453,-36.133,-280.762,-178.711,-38.086,1472.35,287
486,1685672251.456,23.438,107.422,102.539,47.363,1472.354,287
487,1685672251.46,-8.301,324.707,84.961,10.742,1472.357,286
488,1685672251.464,-72.754,-532.715,-330.078,-71.289,1472.361,286
489,1685672251.468,-44.434,-408.203,-110.352,-59.082,1472.365,286
490,1685672251.472,35.156,473.145,229.004,40.527,1472.369,286
491,1685672251.476,23.438,348.633,102.051,41.992,1472.373,287
492,1685672251.476,-55.176,-309.57,-149.902,-62.5,1472.372,287
493,1685672251.48,-66.895,-368.652,-173.34,-82.031,1472.376,287
494,1685672251.484,8.301,282.227,120.117,10.254,1472.38,287
495,1685672251.488,38.574,255.859,77.148,47.363,1472.384,289
496,1685672251.492,-29.785,-415.527,-98.633,-42.969,1472.387,289
497,1685672251.496,-66.406,-452.637,-199.707,-92.773,1472.391,289
498,1685672251.499,-8.789,-108.398,-90.332,-7.812,1472.395,289
499,1685672251.503,36.133,46.387,41.992,59.082,1472.399,290
500,1685672251.507,-10.254,-787.598,-383.301,2.441,1472.403,290
501,1685672251.511,-68.359,-496.094,-195.312,-89.844,1472.407,290
502,1685672251.515,-35.645,277.832,124.512,-51.27,1472.411,290
503,1685672251.519,28.809,193.359,52.246,36.133,1472.415,291
504,1685672251.522,3.906,303.223,120.117,-2.441,1472.418,291
505,1685672251.526,-62.988,306.152,69.336,-90.82,1472.422,291
506,1685672251.53,-48.828,8.301,-49.805,-74.219,1472.426,291
507,1685672251.534,20.996,-315.43,-109.863,34.668,1472.43,291
508,1685672251.538,23.438,-111.328,49.805,41.016,1472.434,291
509,1685672251.542,-37.109,-2.93,-22.949,-60.547,1472.438,292
510,1685672251.545,-52.734,-278.809,-208.008,-81.543,1472.442,292
511,1685672251.549,-4.395,-571.289,-239.258,8.301,1472.446,292
512,1685672251.553,20.996,-164.062,61.035,49.316,1472.45,292
513,1685672251.557,-29.297,455.566,202.148,-35.645,1472.454,292
514,1685672251.561,-78.613,140.625,-1.465,-99.609,1472.457,294
515,1685672251.565,-38.574,-27.344,8.301,-25.879,1472.461,294
516,1685672251.566,18.555,326.66,138.672,53.223,1472.462,294
517,1685672251.57,-8.789,204.102,27.832,4.883,1472.466,297
518,1685672251.574,-69.336,-310.059,-230.469,-81.543,1472.47,297
519,1685672251.578,-46.387,-640.137,-267.09,-44.434,1472.474,297
520,1685672251.582,19.043,16.602,57.129,47.363,1472.478,297
521,1685672251.586,5.371,227.051,99.609,25.879,1472.482,299
522,1685672251.589,-62.012,-324.707,-210.938,-66.406,1472.486,299
523,1685672251.593,-59.57,-864.258,-423.828,-60.547,1472.49,299
524,1685672251.597,15.625,-118.652,42.48,27.344,1472.494,299
525,1685672251.601,28.32,568.848,217.773,35.645,1472.498,302
526,1685672251.605,-38.574,89.844,-80.566,-57.617,1472.501,302
527,1685672251.609,-60.547,-114.258,-76.172,-94.727,1472.505,302
528,1685672251.611,2.93,366.699,155.762,-2.441,1472.521,305
529,1685672251.615,34.18,576.172,165.039,55.664,1472.525,305
530,1685672251.619,-25.879,53.223,-79.102,-18.066,1472.529,305
531,1685672251.623,-68.848,-6.836,-43.945,-80.078,1472.533,305
532,1685672251.627,-17.09,291.016,146.973,-9.277,1472.537,305
533,1685672251.631,30.273,140.137,83.984,75.684,1472.541,308
534,1685672251.634,-3.906,-459.473,-220.215,25.391,1472.545,308
535,1685672251.638,-56.641,-645.02,-292.969,-69.824,1472.549,308
536,1685672251.642,-33.691,-14.648,-5.859,-42.48,1472.553,311
537,1685672251.646,26.855,331.055,139.16,59.082,1472.556,311
538,1685672251.65,11.23,-169.922,-84.961,36.133,1472.56,311
539,1685672251.654,-63.965,-13.184,-3.906,-68.848,1472.564,315
540,1685672251.657,-66.895,266.602,129.395,-75.195,1472.566,315
541,1685672251.661,10.742,-75.195,-7.812,27.832,1472.57,315
542,1685672251.665,25.391,-459.473,-112.305,62.012,1472.574,315
543,1685672251.669,-34.18,28.809,85.449,-36.621,1472.578,318
544,1685672251.673,-54.199,287.109,84.961,-79.102,1472.582,318
545,1685672251.677,12.207,-79.102,-46.875,22.461,1472.586,318
546,1685672251.68,45.898,-169.434,-3.418,73.242,1472.59,318
547,1685672251.684,-2.441,241.699,102.051,-11.719,1472.594,321
548,1685672251.688,-42.48,292.48,58.594,-75.195,1472.597,321
549,1685672251.692,-8.301,-82.52,-42.969,-20.508,1472.601,321
550,1685672251.696,42.969,-212.891,-52.246,62.012,1472.605,323
551,1685672251.7,18.066,293.457,122.559,16.602,1472.609,323
552,1685672251.704,-42.48,334.961,77.148,-77.148,1472.61,323
553,1685672251.708,-27.832,-225.586,-121.582,-42.48,1472.614,323
554,1685672251.712,30.762,-103.027,19.531,52.246,1472.618,325
555,1685672251.716,20.508,455.566,204.59,44.922,1472.622,325
556,1685672251.72,-50.293,284.18,41.504,-51.758,1472.626,325
557,1685672251.724,-62.012,-422.852,-285.156,-70.312,1472.63,326
558,1685672251.727,4.883,-281.25,-73.242,18.555,1472.634,326
559,1685672251.731,26.367,397.461,214.844,46.875,1472.638,326
560,1685672251.735,-29.297,244.141,51.758,-32.715,1472.642,328
561,1685672251.739,-59.57,-659.18,-329.102,-72.754,1472.646,328
562,1685672251.743,-5.371,-270.508,-20.996,-4.883,1472.649,328
563,1685672251.747,43.457,526.855,245.605,63.965,1472.653,328
564,1685672251.761,-1.465,205.566,38.086,1.465,1472.657,329
565,1685672251.765,-65.43,-449.219,-191.406,-73.73,1472.661,330
566,1685672251.769,-31.25,-344.238,-128.906,-14.16,1472.664,330
567,1685672251.773,35.156,376.953,187.988,68.359,1472.668,330
568,1685672251.777,9.277,266.602,79.59,30.762,1472.672,330
569,1685672251.781,-57.129,-816.406,-421.875,-54.688,1472.676,330
570,1685672251.784,-41.504,-563.965,-170.898,-51.27,1472.68,330
571,1685672251.788,12.207,402.832,237.305,21.973,1472.684,330
572,1685672251.792,12.207,229.492,13.184,20.508,1472.688,328
573,1685672251.796,-47.852,-208.008,-109.863,-66.406,1472.692,328
574,1685672251.8,-75.684,72.754,68.359,-101.074,1472.696,328
575,1685672251.804,-21.973,355.957,141.602,-22.949,1472.7,328
576,1685672251.806,15.137,159.668,35.156,33.203,1472.702,328
577,1685672251.81,-37.109,99.609,28.32,-48.34,1472.706,328
578,1685672251.814,-77.148,121.582,-6.348,-104.492,1472.71,328
579,1685672251.818,-27.344,-32.715,-38.086,-28.32,1472.714,328
580,1685672251.822,24.414,-268.066,-83.984,45.898,1472.718,328
581,1685672251.826,-12.695,-366.211,-123.047,-4.395,1472.722,328
582,1685672251.829,-78.613,-237.793,-97.656,-90.332,1472.725,328
583,1685672251.833,-42.969,-43.945,-38.086,-50.781,1472.729,327
584,1685672251.837,22.461,-438.477,-182.129,44.922,1472.733,327
585,1685672251.841,4.883,-248.535,0.488,13.184,1472.737,327
586,1685672251.845,-55.176,264.648,94.727,-88.379,1472.741,326
587,1685672251.849,-50.781,87.402,-6.836,-81.055,1472.745,326
588,1685672251.851,15.625,14.648,8.301,24.902,1472.747,326
589,1685672251.855,22.949,61.523,44.434,46.875,1472.751,326
590,1685672251.859,-41.504,194.824,112.305,-40.039,1472.755,326
591,1685672251.863,-61.523,-37.109,-93.75,-75.195,1472.759,323
592,1685672251.867,-6.836,-564.941,-182.617,0.0,1472.762,323
593,1685672251.871,25.879,-187.012,33.691,40.039,1472.766,323
594,1685672251.874,-19.531,61.523,22.461,-27.344,1472.77,321
595,1685672251.878,-67.871,-349.609,-222.168,-89.844,1472.774,321
596,1685672251.882,-31.25,-859.863,-359.863,-28.32,1472.778,321
597,1685672251.886,21.484,-25.391,103.027,48.828,1472.782,320
598,1685672251.89,-17.09,535.645,189.941,0.488,1472.786,320
599,1685672251.894,-74.219,-20.508,-132.812,-91.797,1472.79,320
600,1685672251.896,-44.922,4.395,1.465,-54.199,1472.792,320
601,1685672251.9,25.391,491.699,231.934,54.688,1472.796,320
602,1685672251.904,15.625,511.23,163.086,35.645,1472.8,319
603,1685672251.908,-58.105,-67.383,-106.445,-68.359,1472.804,319
604,1685672251.912,-59.082,-64.941,-22.461,-79.59,1472.808,319
605,1685672251.916,7.812,133.789,91.309,14.16,1472.811,317
606,1685672251.919,22.461,60.059,34.668,45.41,1472.815,317
607,1685672251.923,-36.133,-500.0,-301.27,-52.246,1472.819,317
608,1685672251.927,-59.082,-674.805,-299.316,-102.051,1472.823,314
609,1685672251.931,7.324,172.363,150.879,-1.953,1472.827,314
610,1685672251.935,52.734,404.297,170.41,63.965,1472.831,314
611,1685672251.939,-0.977,-237.793,-99.609,-14.648,1472.835,314
612,1685672251.941,-53.223,-191.406,-73.242,-83.984,1472.85,314
613,1685672251.945,-16.602,2.441,13.672,-33.691,1472.854,312
614,1685672251.949,38.086,-65.918,14.16,42.969,1472.858,312
615,1685672251.953,12.207,-405.762,-91.797,2.93,1472.862,312
616,1685672251.957,-55.664,-140.137,-13.184,-87.402,1472.866,310
617,1685672251.961,-44.922,-47.363,-61.035,-57.617,1472.87,310
618,1685672251.964,24.414,-226.562,-72.754,41.992,1472.873,310
619,1685672251.968,14.16,-521.973,-119.629,40.039,1472.877,310
620,1685672251.972,-59.57,-46.875,42.48,-61.035,1472.881,309
621,1685672251.976,-73.242,329.102,113.77,-90.332,1472.885,309
622,1685672251.98,-10.742,82.52,46.387,6.348,1472.889,309
623,1685672251.984,17.578,44.922,61.523,58.594,1472.893,307
624,1685672251.986,-36.133,291.992,122.07,-29.297,1472.882,307
625,1685672251.99,-79.102,299.805,71.777,-91.797,1472.886,307
626,1685672251.994,-35.645,-173.828,-109.375,-11.23,1472.89,307
627,1685672251.998,21.484,-13.672,53.223,55.176,1472.894,305
628,1685672252.002,-7.812,466.797,194.824,-6.836,1472.898,305
629,1685672252.006,-68.359,-3.906,-117.676,-83.496,1472.902,305
630,1685672252.009,-38.086,-662.109,-330.078,-35.156,1472.906,305
631,1685672252.013,21.973,-172.363,48.34,43.457,1472.91,303
632,1685672252.017,-0.977,483.887,207.52,-0.977,1472.914,303
633,1685672252.021,-75.684,149.414,-3.906,-103.027,1472.918,303
634,1685672252.025,-67.383,-335.449,-64.453,-86.914,1472.922,302
635,1685672252.029,12.207,95.215,147.461,20.02,1472.925,302
636,1685672252.032,3.418,483.887,200.195,14.16,1472.94,302
637,1685672252.036,-84.473,-110.84,-93.262,-102.051,1472.944,302
638,1685672252.04,-110.84,-855.957,-400.879,-125.0,1472.948,301
639,1685672252.044,-36.133,-212.891,4.395,-36.133,1472.952,301
640,1685672252.048,-6.836,572.266,261.719,3.906,1472.956,301
641,1685672252.052,-62.988,-47.363,-134.277,-62.988,1472.96,301
642,1685672252.055,-106.445,-792.48,-352.051,-118.164,1472.964,300
643,1685672252.059,-60.547,-40.039,73.242,-54.688,1472.968,300
644,1685672252.063,-8.301,608.398,235.352,21.484,1472.972,300
645,1685672252.067,-50.293,257.324,40.527,-36.621,1472.976,300
646,1685672252.071,-112.305,-20.02,-10.254,-128.906,1472.979,300
647,1685672252.075,-80.566,219.238,116.699,-92.773,1472.983,300
648,1685672252.078,-6.836,469.727,189.941,1.465,1472.987,298
649,1685672252.082,-10.742,217.773,70.801,-4.883,1472.991,298
650,1685672252.086,-79.102,87.402,35.156,-100.586,1472.994,298
651,1685672252.09,-82.52,119.629,49.316,-106.934,1472.998,298
652,1685672252.094,-17.09,93.75,74.219,-5.371,1473.002,297
653,1685672252.098,-12.207,-426.758,-197.266,19.531,1473.006,297
654,1685672252.101,-78.613,-661.621,-183.594,-82.031,1473.01,297
655,1685672252.105,-100.098,28.32,86.426,-128.418,1473.014,297
656,1685672252.109,-39.551,193.359,61.523,-38.574,1473.018,296
657,1685672252.113,4.883,1.953,26.855,10.254,1473.022,296
658,1685672252.117,-45.41,177.246,51.758,-69.824,1473.026,296
659,1685672252.121,-104.492,246.582,55.176,-136.719,1473.03,296
660,1685672252.136,-68.359,19.043,0.0,-80.566,1473.032,296
661,1685672252.14,-22.949,-237.305,-38.086,1.465,1473.036,296
662,1685672252.144,-63.477,101.074,104.004,-43.945,1473.04,296
663,1685672252.148,-128.418,276.855,92.285,-147.949,1473.044,296
664,1685672252.152,-106.445,-95.215,-68.848,-119.629,1473.048,296
665,1685672252.156,-34.668,-569.336,-135.254,-7.324,1473.052,296
666,1685672252.159,-40.527,-308.105,14.16,-25.391,1473.056,296
667,1685672252.163,-110.352,6.348,8.301,-137.207,1473.059,296
668,1685672252.167,-121.582,-252.93,-135.254,-147.461,1473.063,296
669,1685672252.171,-57.617,-763.672,-279.785,-49.805,1473.067,296
670,1685672252.175,-36.133,38.574,85.938,-28.32,1473.071,296
671,1685672252.179,-98.145,403.809,145.02,-115.723,1473.075,295
672,1685672252.181,-141.602,-158.691,-125.488,-166.016,1473.078,295
673,1685672252.185,-85.449,55.176,45.41,-92.285,1473.081,295
674,1685672252.189,-39.551,528.809,222.168,-25.391,1473.085,296
675,1685672252.193,-92.773,367.188,102.539,-95.703,1473.089,296
676,1685672252.197,-145.996,-217.285,-208.496,-173.828,1473.093,296
677,1685672252.201,-107.422,-334.961,-184.57,-113.77,1473.097,296
678,1685672252.204,-47.363,76.66,99.609,-30.762,1473.101,296
679,1685672252.208,-74.707,332.031,145.996,-69.824,1473.105,297
680,1685672252.212,-140.625,-532.715,-345.215,-157.227,1473.109,297
681,1685672252.216,-126.465,-720.703,-287.598,-145.508,1473.113,297
682,1685672252.22,-61.035,200.195,191.406,-54.688,1473.117,299
683,1685672252.224,-64.941,332.52,120.605,-52.734,1473.12,299
684,1685672252.227,-138.184,-510.254,-252.441,-152.344,1473.124,299
685,1685672252.231,-146.484,-600.586,-237.305,-179.199,1473.128,299
686,1685672252.235,-73.73,202.637,148.926,-80.078,1473.132,299
687,1685672252.239,-42.969,316.895,126.465,-34.668,1473.136,299
688,1685672252.243,-112.305,-451.66,-206.055,-123.047,1473.14,299
689,1685672252.247,-154.785,-504.883,-223.633,-175.781,1473.143,299
690,1685672252.25,-89.355,-121.094,3.906,-102.051,1473.147,299
691,1685672252.254,-39.062,-83.984,24.414,-35.156,1473.151,299
692,1685672252.258,-93.75,-572.754,-170.41,-95.703,1473.155,300
693,1685672252.262,-161.621,-94.727,38.574,-194.336,1473.159,300
694,1685672252.266,-118.164,377.93,153.809,-147.461,1473.163,300
695,1685672252.27,-51.758,85.938,67.871,-45.898,1473.167,300
696,1685672252.272,-82.031,-8.301,44.434,-77.637,1473.168,301
697,1685672252.276,-146.484,189.941,86.914,-174.805,1473.172,301
698,1685672252.28,-136.23,211.426,72.754,-162.598,1473.176,301
699,1685672252.284,-74.219,-122.07,-50.293,-59.082,1473.18,301
700,1685672252.288,-68.848,-20.996,63.477,-57.617,1473.184,303
701,1685672252.292,-133.789,-26.367,-8.789,-153.809,1473.188,303
702,1685672252.295,-151.855,-275.391,-187.012,-178.711,1473.191,303
703,1685672252.299,-81.543,-594.238,-273.438,-87.891,1473.195,305
704,1685672252.303,-50.293,-432.617,-59.57,-37.109,1473.199,305
705,1685672252.307,-108.887,315.918,182.617,-122.07,1473.203,305
706,1685672252.311,-156.738,143.066,31.25,-183.594,1473.207,305
707,1685672252.315,-111.816,-20.02,28.32,-114.258,1473.211,305
708,1685672252.317,-60.059,322.266,157.227,-38.574,1473.213,306
709,1685672252.321,-94.727,148.926,81.055,-92.285,1473.217,306
710,1685672252.325,-157.227,-297.852,-161.621,-184.082,1473.221,306
711,1685672252.329,-140.625,-796.875,-336.426,-158.691,1473.225,306
712,1685672252.333,-74.219,-139.16,70.312,-74.707,1473.229,306
713,1685672252.337,-89.355,302.246,157.715,-90.332,1473.232,306
714,1685672252.34,-158.203,-303.711,-168.945,-186.035,1473.236,307
715,1685672252.344,-167.969,-711.914,-282.227,-184.082,1473.24,307
716,1685672252.348,-105.957,113.281,127.441,-93.75,1473.244,307
717,1685672252.352,-82.52,661.133,250.977,-67.383,1473.248,307
718,1685672252.356,-141.113,165.039,-6.836,-149.902,1473.252,307
719,1685672252.36,-165.527,-30.273,3.418,-185.059,1473.256,308
720,1685672252.362,-98.633,360.84,171.387,-101.074,1473.273,308
721,1685672252.366,-58.105,545.898,200.684,-43.945,1473.276,308
722,1685672252.37,-111.816,84.473,-44.434,-116.699,1473.28,308
723,1685672252.374,-166.992,-41.504,-43.945,-203.613,1473.284,308
724,1685672252.378,-128.906,197.754,106.445,-144.531,1473.288,308
725,1685672252.382,-69.336,180.664,105.957,-54.688,1473.292,309
726,1685672252.385,-100.586,-475.586,-215.332,-102.051,1473.296,309
727,1685672252.389,-165.039,-680.664,-185.059,-205.078,1473.3,309
728,1685672252.393,-141.602,124.512,161.133,-180.176,1473.304,309
729,1685672252.397,-69.336,275.391,116.211,-71.289,1473.308,309
730,1685672252.401,-85.449,0.0,49.316,-78.125,1473.312,309
731,1685672252.405,-159.668,155.273,98.633,-180.664,1473.315,309
732,1685672252.407,-169.922,166.992,76.172,-186.523,1473.317,309
733,1685672252.411,-101.562,-170.41,-13.184,-83.008,1473.321,309
734,1685672252.415,-72.266,-551.758,-121.582,-49.316,1473.325,309
735,1685672252.419,-131.348,-79.59,43.945,-145.996,1473.329,309
736,1685672252.423,-164.551,253.906,80.566,-195.312,1473.333,308
737,1685672252.427,-109.375,-196.289,-55.664,-114.258,1473.337,308
738,1685672252.43,-68.848,-531.25,-69.824,-61.523,1473.341,308
739,1685672252.434,-111.816,-152.832,23.438,-138.672,1473.345,308
740,1685672252.438,-159.668,63.477,45.41,-216.309,1473.349,309
741,1685672252.442,-116.699,-155.273,-46.875,-144.531,1473.353,309
742,1685672252.446,-61.523,-708.008,-184.57,-48.34,1473.356,309
743,1685672252.45,-101.562,-75.684,94.727,-105.957,1473.36,309
744,1685672252.482,-173.828,285.645,118.652,-207.52,1473.382,308
745,1685672252.486,-165.039,-112.305,-78.125,-181.641,1473.385,308
746,1685672252.49,-98.145,173.828,98.145,-73.73,1473.389,308
747,1685672252.494,-104.492,523.438,219.727,-77.148,1473.393,308
748,1685672252.498,-161.133,295.41,57.129,-167.969,1473.397,308
749,1685672252.502,-158.203,-382.324,-232.91,-167.48,1473.401,308
750,1685672252.505,-89.844,-297.852,-70.312,-85.938,1473.405,308
751,1685672252.509,-64.453,417.969,221.191,-61.523,1473.409,308
752,1685672252.512,-106.934,263.184,98.145,-118.164,1473.408,308
753,1685672252.513,-122.07,303.711,86.914,-137.207,1473.413,308
754,1685672252.516,-161.133,-770.996,-387.207,-182.617,1473.412,308
755,1685672252.517,-162.598,-670.41,-334.961,-185.547,1473.417,308
756,1685672252.52,-124.512,-429.688,-174.316,-128.906,1473.416,308
757,1685672252.521,-108.887,-584.961,-149.414,-110.84,1473.421,309
758,1685672252.524,-55.176,474.609,233.398,-47.852,1473.42,309
759,1685672252.525,-62.988,355.469,235.84,-49.805,1473.425,309
760,1685672252.528,-77.637,354.492,97.168,-75.684,1473.424,309
761,1685672252.532,-153.809,-240.234,-166.504,-168.945,1473.428,309
762,1685672252.535,-145.996,-220.703,-69.336,-171.875,1473.432,309
763,1685672252.539,-75.684,342.285,170.41,-75.684,1473.436,309
764,1685672252.543,-77.637,274.414,59.57,-64.941,1473.44,309
765,1685672252.547,-141.113,-47.852,-51.27,-164.062,1473.444,309
766,1685672252.551,-155.273,92.285,48.828,-188.477,1473.448,309
767,1685672252.555,-95.215,363.77,179.688,-93.75,1473.451,309
768,1685672252.556,-64.453,-35.645,-1.953,-41.016,1473.453,309
769,1685672252.56,-121.582,-854.98,-344.238,-117.188,1473.457,309
770,1685672252.564,-174.316,-251.953,-33.203,-193.359,1473.461,309
771,1685672252.568,-121.094,290.527,148.926,-128.418,1473.465,309
772,1685672252.572,-68.848,77.148,50.781,-46.875,1473.468,309
773,1685672252.576,-121.582,-117.188,-13.672,-110.352,1473.472,309
774,1685672252.579,-175.293,-142.578,-37.598,-193.359,1473.476,309
775,1685672252.583,-140.625,83.984,47.852,-153.32,1473.48,309
776,1685672252.587,-78.613,-369.629,-146.973,-53.711,1473.484,309
777,1685672252.591,-87.891,-269.531,24.414,-70.312,1473.488,309
778,1685672252.595,-143.555,222.656,123.535,-168.945,1473.492,309
779,1685672252.599,-145.02,95.215,20.02,-168.457,1473.496,309
780,1685672252.602,-78.125,2.93,87.891,-70.312,1473.499,310
781,1685672252.606,-65.43,60.547,94.727,-47.363,1473.503,310
782,1685672252.61,-144.043,134.277,72.754,-150.391,1473.506,310
783,1685672252.614,-174.805,-202.637,-152.832,-188.965,1473.51,310
784,1685672252.618,-109.375,-836.426,-341.309,-95.215,1473.514,310
785,1685672252.622,-67.383,-486.328,-8.789,-34.668,1473.518,310
786,1685672252.625,-115.234,189.453,173.828,-112.793,1473.522,310
787,1685672252.629,-166.992,-114.258,-84.961,-189.453,1473.526,310
788,1685672252.633,-122.559,-644.531,-187.5,-128.418,1473.53,310
789,1685672252.637,-63.965,226.074,186.035,-51.758,1473.534,310
790,1685672252.641,-100.586,635.254,215.82,-89.844,1473.538,310
791,1685672252.645,-170.898,15.625,-96.191,-185.059,1473.542,309
792,1685672252.647,-150.879,-45.898,-11.23,-174.805,1473.543,309
793,1685672252.651,-77.637,457.52,228.516,-62.012,1473.547,309
794,1685672252.655,-77.637,508.789,147.949,-58.105,1473.551,309
795,1685672252.659,-139.16,-13.672,-75.684,-161.621,1473.554,309
796,1685672252.663,-148.926,-48.828,3.906,-161.621,1473.558,309
797,1685672252.667,-84.473,33.691,101.562,-57.617,1473.562,309
798,1685672252.67,-66.406,32.227,97.656,-37.598,1473.566,309
799,1685672252.674,-136.719,-580.566,-288.574,-137.207,1473.57,311
800,1685672252.678,-178.223,-747.559,-227.539,-198.73,1473.574,311
801,1685672252.682,-113.77,216.309,204.59,-115.234,1473.578,311
802,1685672252.686,-57.617,409.18,169.434,-41.504,1473.582,313
803,1685672252.69,-96.68,125.0,99.121,-104.98,1473.586,313
804,1685672252.692,-151.855,-4.395,4.883,-187.5,1473.588,313
805,1685672252.696,-116.699,-93.75,16.602,-139.16,1473.592,313
806,1685672252.7,-57.129,-80.078,64.453,-40.039,1473.596,315
807,1685672252.704,-88.867,-485.84,-138.672,-74.219,1473.6,315
808,1685672252.708,-157.715,-175.293,-17.09,-181.152,1473.604,315
809,1685672252.712,-144.043,48.34,68.359,-162.598,1473.608,315
810,1685672252.715,-81.543,-225.586,-7.812,-68.359,1473.612,317
811,1685672252.719,-83.984,-583.984,-138.184,-73.73,1473.616,317
812,1685672252.723,-152.344,-272.461,-34.668,-172.852,1473.619,317
813,1685672252.727,-159.18,30.762,12.695,-192.383,1473.623,319
814,1685672252.731,-80.078,-22.949,30.762,-84.961,1473.627,319
815,1685672252.735,-69.824,86.426,156.738,-43.457,1473.631,319
816,1685672252.736,-132.324,340.332,164.062,-133.789,1473.645,319
817,1685672252.74,-160.645,199.707,93.262,-187.012,1473.649,319
818,1685672252.744,-103.027,-40.039,26.367,-106.445,1473.653,321
819,1685672252.748,-51.758,288.574,162.598,-36.621,1473.657,321
820,1685672252.752,-98.633,454.102,194.336,-101.562,1473.661,321
821,1685672252.756,-159.18,-125.488,-133.789,-189.941,1473.665,322
822,1685672252.759,-130.371,-737.305,-341.309,-154.785,1473.669,322
823,1685672252.763,-65.918,-307.129,27.344,-72.754,1473.672,322
824,1685672252.767,-94.727,441.895,222.168,-108.887,1473.676,323
825,1685672252.771,-170.41,223.633,55.664,-206.543,1473.68,323
826,1685672252.775,-166.992,-238.281,-44.922,-206.055,1473.684,323
827,1685672252.779,-101.562,-56.641,72.754,-109.375,1473.688,323
828,1685672252.782,-93.262,282.715,191.406,-85.938,1473.69,321
829,1685672252.786,-154.785,-122.07,-62.012,-181.152,1473.694,321
830,1685672252.79,-180.664,-857.422,-365.234,-214.844,1473.698,321
831,1685672252.794,-129.883,-285.645,16.602,-126.953,1473.702,321
832,1685672252.798,-90.82,573.73,288.574,-87.891,1473.706,320
833,1685672252.802,-147.461,14.16,-41.016,-166.504,1473.71,320
834,1685672252.805,-206.055,-630.371,-168.457,-231.934,1473.714,320
835,1685672252.809,-152.832,-17.578,120.605,-173.34,1473.718,320
836,1685672252.813,-95.703,473.633,208.008,-95.215,1473.721,318
837,1685672252.817,-132.324,191.895,65.918,-154.785,1473.725,318
838,1685672252.821,-191.406,-73.242,21.973,-239.258,1473.729,318
839,1685672252.825,-167.969,161.133,112.793,-195.312,1473.733,315
840,1685672252.829,-100.098,437.012,204.59,-100.098,1473.738,315
841,1685672252.833,-111.328,70.312,4.395,-111.328,1473.742,315
842,1685672252.837,-187.5,-204.102,-80.078,-211.914,1473.746,313
843,1685672252.841,-195.801,107.422,114.258,-229.004,1473.75,313
844,1685672252.845,-125.488,392.09,189.453,-128.906,1473.754,313
845,1685672252.849,-107.91,-274.902,-123.535,-94.727,1473.757,313
846,1685672252.852,-173.34,-696.777,-173.34,-194.824,1473.761,313
847,1685672252.856,-202.637,62.5,125.488,-243.164,1473.765,313
848,1685672252.86,-141.602,257.324,120.117,-156.25,1473.769,313
849,1685672252.864,-104.98,25.391,47.363,-96.191,1473.773,313
850,1685672252.868,-157.227,57.129,41.992,-166.992,1473.777,312
851,1685672252.872,-213.379,-24.902,4.883,-243.652,1473.781,312
852,1685672252.887,-178.223,-83.984,38.574,-187.988,1473.784,311
853,1685672252.891,-123.047,-228.516,29.297,-104.492,1473.788,311
854,1685672252.895,-151.855,64.941,101.074,-152.832,1473.791,310
855,1685672252.899,-216.797,172.363,51.758,-247.07,1473.795,310
856,1685672252.903,-203.613,-212.891,-105.469,-229.98,1473.799,310
857,1685672252.907,-136.23,-828.613,-310.059,-132.812,1473.803,310
858,1685672252.91,-140.137,-484.375,-44.922,-142.578,1473.807,310
859,1685672252.914,-206.543,174.316,142.09,-235.84,1473.811,310
860,1685672252.918,-214.355,-237.793,-123.535,-237.793,1473.815,310
861,1685672252.922,-149.902,-488.281,-46.387,-150.391,1473.819,310
862,1685672252.926,-131.348,290.527,220.703,-122.559,1473.823,310
863,1685672252.93,-195.801,411.621,122.559,-208.008,1473.827,310
864,1685672252.932,-237.305,-135.254,-68.359,-268.555,1473.828,310
865,1685672252.936,-190.918,-20.996,62.988,-196.289,1473.832,309
866,1685672252.94,-149.414,471.191,235.352,-125.0,1473.836,309
867,1685672252.944,-186.523,376.465,144.531,-185.547,1473.84,309
868,1685672252.948,-240.234,-243.652,-162.598,-261.719,1473.843,308
869,1685672252.952,-205.078,-401.855,-165.527,-216.797,1473.847,308
870,1685672252.955,-149.414,-82.031,102.051,-131.836,1473.851,308
871,1685672252.959,-172.363,8.301,87.891,-163.086,1473.855,308
872,1685672252.963,-237.793,-690.43,-336.426,-264.16,1473.859,307
873,1685672252.967,-229.004,-715.82,-193.848,-259.766,1473.863,307
874,1685672252.971,-142.09,280.762,236.816,-159.668,1473.867,307
875,1685672252.975,-140.137,402.344,166.504,-153.809,1473.871,307
876,1685672252.977,-223.145,-107.422,18.066,-255.371,1473.887,307
877,1685672252.981,-237.305,-287.598,-47.363,-280.762,1473.891,307
878,1685672252.985,-163.086,273.438,169.922,-182.129,1473.895,307
879,1685672252.989,-130.859,301.27,124.023,-128.906,1473.899,307
880,1685672252.993,-187.988,-535.645,-131.348,-205.078,1473.903,307
881,1685672252.997,-227.051,-523.926,-137.695,-260.742,1473.907,307
882,1685672253.0,-169.922,-77.148,-7.812,-185.547,1473.91,307
883,1685672253.004,-114.258,81.055,86.426,-103.027,1473.914,309
884,1685672253.008,-166.504,-509.766,-143.555,-169.434,1473.918,309
885,1685672253.012,-220.703,-451.172,-96.68,-263.672,1473.922,309
886,1685672253.016,-183.594,69.824,107.422,-216.309,1473.926,311
887,1685672253.02,-117.188,115.234,139.648,-120.117,1473.93,311
888,1685672253.025,-125.0,35.156,144.531,-143.066,1473.923,311
889,1685672253.029,-194.824,230.957,138.184,-244.141,1473.926,312
890,1685672253.033,-208.496,187.5,93.75,-238.281,1473.93,312
891,1685672253.037,-141.113,73.73,100.586,-132.812,1473.934,312
892,1685672253.041,-118.164,297.363,182.617,-103.516,1473.938,312
893,1685672253.045,-188.477,55.176,66.895,-195.801,1473.942,313
894,1685672253.048,-215.332,-342.285,-112.793,-236.816,1473.946,313
895,1685672253.052,-144.531,-494.141,-159.18,-153.809,1473.95,313
896,1685672253.056,-110.84,4.395,108.398,-104.492,1473.954,313
897,1685672253.06,-166.016,451.66,218.262,-175.781,1473.958,314
898,1685672253.064,-212.402,42.48,43.945,-242.676,1473.962,314
899,1685672253.068,-166.992,-513.672,-118.164,-175.781,1473.965,314
900,1685672253.068,-117.676,-152.832,80.078,-105.957,1473.965,314
901,1685672253.072,-151.367,104.98,124.023,-155.273,1473.969,314
902,1685672253.076,-204.102,-259.766,-54.688,-241.211,1473.973,314
903,1685672253.08,-176.27,-330.566,4.395,-208.496,1473.977,314
904,1685672253.084,-108.398,233.887,206.543,-105.957,1473.981,314
905,1685672253.088,-122.559,251.465,153.32,-114.258,1473.985,314
906,1685672253.091,-192.871,-210.449,-28.32,-208.984,1473.989,314
907,1685672253.095,-201.66,-925.781,-337.402,-209.961,1473.993,314
908,1685672253.099,-142.09,-680.664,-89.355,-121.582,1473.997,312
909,1685672253.103,-122.559,355.469,258.301,-107.91,1474.0,312
910,1685672253.107,-184.57,216.309,74.707,-201.66,1474.004,312
911,1685672253.111,-220.703,-4.395,85.938,-253.906,1474.008,311
912,1685672253.112,-157.715,393.066,218.75,-161.133,1474.021,311
913,1685672253.116,-106.445,589.355,238.77,-87.891,1474.025,311
914,1685672253.12,-158.203,58.594,25.391,-163.086,1474.029,311
915,1685672253.124,-215.82,-148.438,43.945,-250.977,1474.033,311
916,1685672253.128,-170.41,195.312,196.777,-195.801,1474.037,310
917,1685672253.132,-106.934,185.059,154.297,-109.863,1474.04,310
918,1685672253.135,-147.461,-459.473,-153.32,-140.625,1474.044,310
919,1685672253.139,-218.75,-772.461,-193.359,-229.98,1474.048,311
920,1685672253.143,-186.035,79.59,168.945,-215.332,1474.052,311
921,1685672253.147,-101.074,409.18,210.449,-93.75,1474.056,311
922,1685672253.151,-95.215,162.598,137.207,-79.59,1474.06,311
923,1685672253.155,-151.367,175.293,120.605,-179.199,1474.064,313
924,1685672253.157,-159.18,112.793,107.91,-188.477,1474.067,313
925,1685672253.161,-93.262,-123.535,76.66,-91.309,1474.071,313
926,1685672253.165,-72.754,-449.707,-9.277,-59.57,1474.075,313
927,1685672253.169,-128.906,-24.414,142.578,-145.508,1474.079,315
928,1685672253.173,-160.156,231.934,152.344,-199.219,1474.083,315
929,1685672253.177,-99.121,-155.273,39.551,-114.258,1474.087,315
930,1685672253.18,-50.781,-511.23,14.648,-33.203,1474.09,317
931,1685672253.184,-98.633,-77.637,150.879,-102.539,1474.094,317
932,1685672253.188,-156.25,318.848,176.27,-194.824,1474.098,317
933,1685672253.192,-126.953,-101.074,22.461,-144.531,1474.102,317
934,1685672253.196,-57.129,-304.688,65.918,-45.41,1474.106,319
935,1685672253.2,-67.871,350.098,258.789,-79.102,1474.11,319
936,1685672253.218,-146.484,377.93,171.875,-180.664,1474.114,321
937,1685672253.222,-138.672,-73.242,57.129,-158.691,1474.118,322
938,1685672253.226,-66.895,133.301,191.895,-54.199,1474.122,322
939,1685672253.23,-72.266,512.695,292.48,-53.223,1474.126,322
940,1685672253.234,-140.137,322.266,146.973,-155.762,1474.13,322
941,1685672253.238,-160.645,-388.672,-127.93,-182.129,1474.134,324
942,1685672253.241,-89.844,-234.375,64.941,-91.797,1474.137,324
943,1685672253.245,-53.711,289.062,259.277,-49.805,1474.141,324
944,1685672253.249,-119.141,-13.184,70.312,-132.324,1474.145,324
945,1685672253.253,-168.945,-760.254,-253.906,-199.707,1474.149,326
946,1685672253.257,-115.723,-516.602,-54.199,-121.582,1474.153,326
947,1685672253.261,-56.641,384.766,293.945,-42.48,1474.157,326
948,1685672253.261,-98.633,215.332,137.695,-101.074,1474.158,326
949,1685672253.265,-162.109,-442.383,-59.57,-184.57,1474.162,326
950,1685672253.269,-130.371,-86.914,145.02,-146.973,1474.165,326
951,1685672253.273,-65.918,519.531,312.988,-56.152,1474.169,326
952,1685672253.277,-103.516,174.316,99.121,-103.027,1474.173,326
953,1685672253.281,-170.41,-450.195,-100.098,-192.871,1474.177,326
954,1685672253.284,-154.297,-362.793,20.02,-177.734,1474.181,326
955,1685672253.288,-88.379,331.055,286.621,-89.355,1474.185,326
956,1685672253.292,-80.078,239.746,147.461,-61.523,1474.189,325
957,1685672253.296,-150.879,-762.695,-277.344,-153.32,1474.193,325
958,1685672253.3,-177.734,-591.309,-58.105,-205.078,1474.197,325
959,1685672253.304,-119.629,3.418,181.641,-119.629,1474.201,325
960,1685672253.322,-86.914,9.766,166.504,-60.059,1474.218,325
961,1685672253.326,-132.324,-4.395,173.828,-129.883,1474.222,325
962,1685672253.33,-173.828,187.012,160.156,-197.754,1474.226,325
963,1685672253.334,-129.395,256.836,191.406,-130.859,1474.23,325
964,1685672253.338,-74.219,148.438,188.965,-47.363,1474.234,325
965,1685672253.342,-99.609,-54.199,110.84,-92.285,1474.238,325
966,1685672253.345,-161.133,-74.707,104.492,-188.965,1474.242,325
967,1685672253.349,-137.207,108.398,140.625,-166.992,1474.246,324
968,1685672253.353,-69.824,-359.375,-29.297,-59.57,1474.25,324
969,1685672253.353,-62.988,-23.438,187.012,-64.453,1474.249,324
970,1685672253.357,-76.172,-221.68,156.738,-64.941,1474.254,324
971,1685672253.357,-39.551,14.648,143.066,-27.344,1474.253,324
972,1685672253.361,-137.695,323.242,238.77,-161.621,1474.258,323
973,1685672253.361,-110.352,-56.152,133.301,-114.746,1474.257,323
974,1685672253.365,-151.367,-271.973,48.828,-167.48,1474.261,323
975,1685672253.365,-141.602,120.117,156.25,-168.945,1474.261,323
976,1685672253.369,-91.309,-798.828,-148.926,-83.496,1474.265,323
977,1685672253.373,-45.41,-388.184,96.68,-30.273,1474.269,322
978,1685672253.376,-88.867,157.227,215.332,-105.957,1474.273,322
979,1685672253.38,-142.578,-64.941,95.215,-180.664,1474.277,322
980,1685672253.384,-101.074,-63.477,197.754,-122.559,1474.28,322
981,1685672253.388,-40.527,412.109,331.543,-26.367,1474.284,322
982,1685672253.392,-67.383,560.059,288.574,-62.988,1474.288,322
983,1685672253.396,-135.254,-122.559,21.973,-156.738,1474.292,322
984,1685672253.397,-131.836,-567.383,-2.93,-138.184,1474.293,322
985,1685672253.401,-53.223,312.5,335.449,-37.598,1474.297,322
986,1685672253.405,-44.434,555.664,316.895,-33.691,1474.301,323
987,1685672253.409,-120.117,-170.898,23.926,-130.371,1474.305,323
988,1685672253.413,-131.348,-206.543,111.328,-148.438,1474.309,323
989,1685672253.417,-59.57,39.062,233.887,-52.734,1474.313,322
990,1685672253.42,-38.086,121.094,206.055,-20.996,1474.317,322
991,1685672253.424,-103.516,-440.918,-87.402,-111.816,1474.321,322
992,1685672253.428,-147.461,-677.734,-54.688,-172.852,1474.324,322
993,1685672253.432,-89.844,230.469,310.547,-99.121,1474.328,321
994,1685672253.436,-36.133,449.219,311.035,-19.043,1474.332,321
995,1685672253.44,-85.938,118.164,197.266,-91.797,1474.336,321
996,1685672253.442,-138.672,-21.484,148.926,-173.34,1474.338,320
997,1685672253.446,-105.469,-34.668,194.336,-129.883,1474.342,320
998,1685672253.45,-40.527,-34.18,191.895,-45.898,1474.346,320
999,1685672253.454,-64.941,-417.969,50.781,-76.66,1474.35,320
1000,1685672253.458,-128.418,-129.883,167.48,-173.34,1474.354,320
1001,1685672253.462,-124.023,5.371,207.031,-150.391,1474.358,319
1002,1685672253.465,-64.941,-219.238,159.668,-38.574,1474.362,319
1003,1685672253.469,-56.152,-657.715,34.668,-25.879,1474.366,319
1004,1685672253.473,-109.863,-145.996,208.984,-124.023,1474.37,319
1005,1685672253.477,-130.859,340.332,272.461,-154.785,1474.373,319
1006,1685672253.481,-74.219,13.672,188.965,-59.082,1474.377,319
1007,1685672253.485,-29.297,72.266,295.41,-2.441,1474.381,319
1008,1685672253.487,-74.707,415.527,348.633,-83.984,1474.396,319
1009,1685672253.491,-128.906,281.25,237.305,-153.809,1474.4,319
1010,1685672253.495,-87.402,-43.457,190.918,-83.984,1474.404,319
1011,1685672253.499,-27.344,215.82,293.945,-12.695,1474.408,317
1012,1685672253.503,-57.129,432.617,317.871,-73.242,1474.412,317
1013,1685672253.507,-125.488,-72.754,138.672,-153.32,1474.416,317
1014,1685672253.51,-103.516,-703.613,-37.109,-111.328,1474.42,317
1015,1685672253.514,-36.133,-296.387,224.121,-18.066,1474.424,316
1016,1685672253.518,-51.27,332.52,340.332,-37.598,1474.427,316
1017,1685672253.522,-114.258,-133.301,109.375,-133.789,1474.431,316
1018,1685672253.526,-114.258,-603.027,-6.836,-136.23,1474.435,315
1019,1685672253.53,-45.41,84.473,283.203,-32.227,1474.439,315
1020,1685672253.532,-36.133,505.371,360.84,-10.742,1474.442,315
1021,1685672253.536,-91.309,-103.027,139.16,-90.332,1474.446,315
1022,1685672253.54,-115.723,-733.398,-27.344,-123.047,1474.45,315
1023,1685672253.544,-56.641,-67.871,250.977,-49.805,1474.454,315
1024,1685672253.548,-21.484,638.672,419.434,-9.277,1474.458,315
1025,1685672253.552,-75.684,24.414,165.039,-82.52,1474.462,315
1026,1685672253.555,-124.023,-614.258,19.043,-145.508,1474.466,315
1027,1685672253.559,-87.891,24.902,297.852,-95.703,1474.469,315
1028,1685672253.563,-24.414,557.617,400.391,-13.184,1474.473,315
1029,1685672253.567,-57.617,274.902,248.047,-47.363,1474.477,315
1030,1685672253.571,-129.395,-99.121,180.176,-145.02,1474.481,315
1031,1685672253.575,-104.004,-123.047,220.215,-124.023,1474.485,315
1032,1685672253.579,-23.438,311.523,355.469,-16.602,1474.486,315
1033,1685672253.583,-24.902,151.855,287.598,-21.484,1474.49,315
1034,1685672253.587,-94.727,-161.621,229.492,-125.0,1474.494,315
1035,1685672253.591,-106.445,134.766,283.691,-138.672,1474.498,315
1036,1685672253.595,-43.945,374.023,331.543,-37.598,1474.502,314
1037,1685672253.599,-23.438,25.879,236.816,-1.465,1474.506,314
1038,1685672253.602,-84.473,-179.688,202.148,-89.844,1474.51,314
1039,1685672253.606,-118.164,171.875,313.965,-139.648,1474.514,314
1040,1685672253.61,-61.523,218.262,272.461,-62.012,1474.518,314
1041,1685672253.614,-16.113,-321.777,119.141,15.625,1474.522,314
1042,1685672253.618,-54.688,-134.277,263.672,-47.852,1474.526,314
1043,1685672253.622,-101.562,286.133,325.684,-130.371,1474.529,314
1044,1685672253.637,-68.359,113.77,300.781,-73.242,1474.534,315
1045,1685672253.641,-9.277,-130.859,282.227,17.578,1474.538,315
1046,1685672253.645,-29.785,-100.586,246.582,-14.16,1474.542,315
1047,1685672253.649,-92.285,145.02,298.34,-107.91,1474.545,315
1048,1685672253.653,-67.383,73.73,266.602,-68.359,1474.549,314
1049,1685672253.657,3.906,-818.848,81.543,42.48,1474.553,314
1050,1685672253.66,3.418,-562.988,274.902,34.668,1474.557,314
1051,1685672253.664,-60.547,282.227,347.656,-76.172,1474.561,313
1052,1685672253.668,-75.684,-2.441,211.426,-111.328,1474.565,313
1053,1685672253.672,1.465,52.734,335.938,-4.883,1474.569,313
1054,1685672253.676,31.738,522.461,428.223,38.574,1474.573,313
1055,1685672253.68,-28.809,385.254,315.43,-58.594,1474.577,313
1056,1685672253.681,-64.453,-107.91,222.656,-108.887,1474.578,313
1057,1685672253.685,-16.602,32.227,330.566,-29.785,1474.582,313
1058,1685672253.689,27.832,520.996,422.852,42.48,1474.586,313
1059,1685672253.693,-16.602,412.598,338.379,-20.996,1474.59,312
1060,1685672253.697,-74.219,-320.312,134.766,-105.469,1474.594,312
1061,1685672253.701,-41.992,-468.75,182.617,-56.152,1474.598,312
1062,1685672253.704,26.367,25.391,365.234,37.598,1474.602,312
1063,1685672253.708,6.836,326.172,355.469,4.395,1474.605,312
1064,1685672253.712,-76.172,-528.809,-34.668,-86.426,1474.609,312
1065,1685672253.716,-71.289,-645.02,122.559,-75.684,1474.613,312
1066,1685672253.72,3.418,304.199,434.082,10.254,1474.617,312
1067,1685672253.724,2.93,231.934,335.938,17.578,1474.621,312
1068,1685672253.727,-67.871,-130.859,254.395,-77.148,1474.623,312
1069,1685672253.731,-84.961,-314.453,200.195,-107.422,1474.627,312
1070,1685672253.735,-18.555,179.688,384.277,-19.043,1474.631,311
1071,1685672253.739,18.066,393.066,394.043,34.668,1474.634,311
1072,1685672253.743,-39.062,-411.621,153.32,-38.574,1474.638,311
1073,1685672253.747,-79.102,-480.957,181.152,-107.91,1474.642,310
1074,1685672253.75,-23.926,-37.598,316.406,-42.48,1474.646,310
1075,1685672253.754,23.926,38.086,313.965,38.574,1474.65,310
1076,1685672253.758,-17.578,-729.004,89.844,-8.301,1474.654,309
1077,1685672253.762,-69.336,-335.938,254.883,-93.262,1474.658,309
1078,1685672253.766,-38.574,378.906,407.227,-58.105,1474.662,309
1079,1685672253.77,25.879,216.309,347.168,31.25,1474.666,309
1080,1685672253.786,10.254,300.781,381.836,12.695,1474.683,308
1081,1685672253.79,-47.363,380.859,372.07,-77.637,1474.687,308
1082,1685672253.794,-49.316,270.02,339.844,-74.219,1474.691,308
1083,1685672253.798,9.277,124.023,345.703,21.973,1474.695,308
1084,1685672253.802,23.438,309.082,384.766,40.527,1474.699,308
1085,1685672253.806,-35.645,148.926,302.246,-56.641,1474.703,308
1086,1685672253.809,-66.895,-215.82,230.469,-93.75,1474.706,308
1087,1685672253.813,-14.648,-505.859,198.242,-5.371,1474.71,308
1088,1685672253.817,14.16,-151.367,335.449,33.691,1474.714,308
1089,1685672253.817,28.32,149.902,371.094,42.48,1474.713,308
1090,1685672253.821,-31.25,279.785,385.742,-37.598,1474.718,308
1091,1685672253.821,-5.371,253.906,366.211,-3.418,1474.717,308
1092,1685672253.825,-79.59,-192.871,219.727,-94.727,1474.722,308
1093,1685672253.825,-69.336,-256.348,206.055,-102.051,1474.72,308
1094,1685672253.829,-43.457,-640.137,142.09,-64.453,1474.724,306
1095,1685672253.829,-37.109,-445.312,163.086,-36.133,1474.726,306
1096,1685672253.833,21.973,101.562,403.32,42.48,1474.728,306
1097,1685672253.837,12.695,338.379,393.555,24.902,1474.732,306
1098,1685672253.84,-53.711,-249.512,240.723,-67.871,1474.736,306
1099,1685672253.844,-65.918,-255.371,330.078,-80.078,1474.74,305
1100,1685672253.848,-2.441,312.012,441.406,9.277,1474.744,305
1101,1685672253.852,22.461,681.641,474.121,45.898,1474.748,305
1102,1685672253.856,-44.434,106.445,282.715,-36.621,1474.752,306
1103,1685672253.86,-91.309,-668.457,128.418,-88.379,1474.756,306
1104,1685672253.863,-23.926,-216.797,345.703,-19.043,1474.76,306
1105,1685672253.867,26.367,469.727,450.684,40.039,1474.764,306
1106,1685672253.871,-30.762,102.051,323.73,-25.879,1474.768,306
1107,1685672253.875,-83.496,-173.34,321.777,-103.027,1474.772,306
1108,1685672253.879,-44.434,212.402,400.391,-46.387,1474.776,306
1109,1685672253.883,14.16,243.652,366.211,51.27,1474.78,306
1110,1685672253.886,-11.23,-303.223,235.352,19.531,1474.784,306
1111,1685672253.89,-77.148,-418.945,308.105,-89.844,1474.787,306
1112,1685672253.894,-72.266,253.418,435.059,-80.078,1474.791,306
1113,1685672253.898,0.488,407.715,401.367,31.25,1474.795,306
1114,1685672253.902,6.348,209.473,358.398,38.574,1474.799,306
1115,1685672253.906,-61.523,235.352,380.859,-67.871,1474.803,306
1116,1685672253.907,-71.289,260.254,385.254,-94.238,1474.817,306
1117,1685672253.911,-7.324,-2.93,341.797,8.789,1474.821,305
1118,1685672253.915,16.113,-519.043,253.418,58.594,1474.825,305
1119,1685672253.919,-37.598,-169.434,361.816,-32.227,1474.829,305
1120,1685672253.923,-70.312,312.012,416.992,-102.539,1474.833,305
1121,1685672253.927,-15.137,-39.551,330.078,-20.02,1474.837,305
1122,1685672253.93,27.344,-760.742,203.125,64.941,1474.841,305
1123,1685672253.934,-17.09,-240.234,357.422,-8.789,1474.844,305
1124,1685672253.938,-68.359,375.977,409.668,-91.797,1474.848,307
1125,1685672253.942,-44.922,120.605,329.102,-43.945,1474.852,307
1126,1685672253.946,17.578,327.637,442.383,37.598,1474.856,307
1127,1685672253.95,2.93,560.547,458.008,4.395,1474.86,308
1128,1685672253.952,-68.359,321.777,375.0,-91.797,1474.861,308
1129,1685672253.956,-64.453,-18.066,337.402,-91.797,1474.865,308
1130,1685672253.96,1.465,242.188,432.129,0.977,1474.869,308
1131,1685672253.964,8.789,625.488,497.07,17.09,1474.873,308
1132,1685672253.968,-53.711,351.074,376.953,-70.312,1474.877,308
1133,1685672253.972,-84.961,-331.543,224.121,-102.539,1474.881,308
1134,1685672253.975,-23.438,-354.98,305.664,-6.836,1474.885,308
1135,1685672253.979,12.207,193.359,457.031,35.645,1474.889,308
1136,1685672253.983,-40.039,312.988,380.371,-49.805,1474.893,308
1137,1685672253.987,-99.609,-651.367,70.312,-112.305,1474.897,308
1138,1685672253.991,-62.012,-589.355,293.945,-51.758,1474.9,308
1139,1685672253.995,6.348,489.258,518.555,18.066,1474.904,308
1140,1685672254.011,-31.25,370.117,388.184,-35.645,1474.907,309
1141,1685672254.015,-101.074,-342.773,250.0,-123.047,1474.911,309
1142,1685672254.019,-66.406,-136.23,348.145,-85.449,1474.915,310
1143,1685672254.023,3.418,517.578,497.559,12.207,1474.919,310
1144,1685672254.027,-20.996,356.934,396.484,-14.16,1474.923,310
1145,1685672254.031,-92.285,-645.508,141.602,-112.793,1474.927,310
1146,1685672254.034,-82.031,-425.781,291.504,-106.445,1474.931,310
1147,1685672254.038,-7.324,375.977,473.633,-3.906,1474.935,311
1148,1685672254.042,2.93,93.75,343.262,19.043,1474.939,311
1149,1685672254.046,-62.5,-774.902,155.273,-73.242,1474.943,311
1150,1685672254.05,-92.285,-265.625,351.074,-117.188,1474.947,311
1151,1685672254.054,-28.32,410.645,459.961,-27.832,1474.95,311
1152,1685672254.056,13.672,211.914,404.297,34.18,1474.952,311
1153,1685672254.06,-39.551,195.312,411.621,-49.316,1474.956,311
1154,1685672254.064,-82.031,251.465,398.438,-117.188,1474.96,311
1155,1685672254.068,-34.668,268.555,415.527,-46.875,1474.964,311
1156,1685672254.072,5.371,166.992,418.457,21.484,1474.968,311
1157,1685672254.076,-34.668,-48.828,360.352,-31.738,1474.972,311
1158,1685672254.079,-94.727,-208.008,315.918,-125.0,1474.976,311
1159,1685672254.083,-77.637,-0.977,347.656,-104.004,1474.98,311
1160,1685672254.087,-13.672,-334.473,262.695,3.906,1474.984,311
1161,1685672254.091,-29.297,-257.324,326.172,-18.066,1474.987,311
1162,1685672254.095,-102.539,58.105,351.074,-114.746,1474.991,311
1163,1685672254.099,-116.699,-279.785,266.113,-118.652,1474.995,311
1164,1685672254.101,-42.969,-469.727,243.652,-31.738,1474.997,312
1165,1685672254.105,-10.742,-143.555,361.328,7.324,1475.001,312
1166,1685672254.109,-65.918,298.34,419.434,-74.707,1475.005,312
1167,1685672254.113,-102.539,52.734,335.449,-120.605,1475.009,312
1168,1685672254.117,-54.199,-511.23,253.906,-38.086,1475.013,312
1169,1685672254.121,-6.348,-137.695,374.512,19.043,1475.017,312
1170,1685672254.124,-51.758,284.18,423.828,-61.523,1475.02,312
1171,1685672254.128,-110.84,-97.656,286.133,-144.043,1475.024,312
1172,1685672254.132,-70.312,-677.246,214.844,-83.496,1475.028,312
1173,1685672254.136,6.836,194.824,488.281,6.348,1475.032,312
1174,1685672254.14,-11.23,632.812,498.047,-27.832,1475.036,312
1175,1685672254.144,-80.566,17.09,327.637,-122.559,1475.04,312
1176,1685672254.148,-69.336,-26.855,360.352,-98.633,1475.046,311
1177,1685672254.152,-12.695,247.07,448.242,-4.883,1475.05,311
1178,1685672254.156,-25.391,470.703,457.52,-12.207,1475.054,311
1179,1685672254.16,-80.078,-15.137,313.965,-99.121,1475.058,311
1180,1685672254.164,-86.914,-221.68,326.172,-125.0,1475.062,311
1181,1685672254.168,-30.273,40.039,404.785,-32.227,1475.066,311
1182,1685672254.171,5.371,109.863,387.695,11.719,1475.069,311
1183,1685672254.175,-50.781,-379.883,240.234,-78.125,1475.073,311
1184,1685672254.179,-96.68,-451.172,321.289,-136.23,1475.077,311
1185,1685672254.183,-39.062,334.473,479.004,-58.105,1475.081,311
1186,1685672254.187,10.742,449.219,435.059,20.996,1475.085,312
1187,1685672254.191,-38.574,185.059,382.812,-44.922,1475.089,312
1188,1685672254.192,-112.305,62.5,353.027,-140.137,1475.088,312
1189,1685672254.196,-84.473,-30.762,357.91,-92.285,1475.092,312
1190,1685672254.2,-12.695,0.488,362.305,4.395,1475.096,312
1191,1685672254.204,-34.668,-532.715,235.352,-19.043,1475.1,312
1192,1685672254.208,-106.934,-369.629,334.961,-123.047,1475.104,312
1193,1685672254.212,-103.027,5.371,387.695,-123.535,1475.108,311
1194,1685672254.215,-39.062,-80.078,353.027,-19.043,1475.112,311
1195,1685672254.219,-33.203,-642.578,234.863,-6.836,1475.116,311
1196,1685672254.223,-98.145,-268.066,354.98,-113.281,1475.12,311
1197,1685672254.227,-123.535,360.352,431.152,-148.926,1475.124,311
1198,1685672254.231,-71.289,203.125,370.605,-58.105,1475.127,311
1199,1685672254.235,-35.645,378.906,448.242,-11.719,1475.131,311
1200,1685672254.237,-81.055,489.746,458.984,-85.449,1475.133,311
1201,1685672254.241,-122.559,292.969,386.23,-147.461,1475.137,310
1202,1685672254.245,-79.102,-6.348,363.77,-83.008,1475.141,310
1203,1685672254.249,-24.902,261.719,457.031,-8.301,1475.145,310
1204,1685672254.253,-60.547,470.703,447.266,-64.453,1475.149,311
1205,1685672254.257,-136.23,-27.832,303.711,-163.574,1475.153,311
1206,1685672254.26,-116.699,-690.918,194.824,-127.93,1475.157,311
1207,1685672254.264,-44.922,-527.832,351.074,-30.762,1475.161,311
1208,1685672254.268,-48.828,405.762,494.629,-47.852,1475.165,311
1209,1685672254.272,-119.141,243.652,333.496,-147.461,1475.169,311
1210,1685672254.276,-130.371,-303.711,235.352,-157.227,1475.172,311
1211,1685672254.28,-62.5,225.098,441.406,-54.688,1475.176,311
1212,1685672254.282,-44.434,587.402,494.629,-35.645,1475.207,311
1213,1685672254.286,-114.258,-39.062,302.246,-138.672,1475.211,311
1214,1685672254.29,-159.18,-759.277,144.531,-181.641,1475.215,311
1215,1685672254.294,-101.074,-152.344,367.676,-93.262,1475.219,311
1216,1685672254.298,-52.734,595.703,502.93,-28.32,1475.223,311
1217,1685672254.302,-109.375,41.016,317.383,-101.074,1475.227,311
1218,1685672254.305,-160.645,-789.551,121.582,-171.875,1475.231,311
1219,1685672254.309,-120.117,-109.375,379.395,-125.488,1475.235,311
1220,1685672254.313,-56.152,490.234,479.004,-47.363,1475.239,311
1221,1685672254.317,-81.543,13.672,332.031,-84.961,1475.243,311
1222,1685672254.321,-151.367,-227.539,338.379,-183.105,1475.246,311
1223,1685672254.325,-132.324,178.711,416.504,-163.574,1475.25,311
1224,1685672254.342,-62.988,454.102,445.801,-64.941,1475.239,311
1225,1685672254.346,-74.219,176.758,395.02,-73.242,1475.243,311
1226,1685672254.35,-140.137,50.293,363.77,-170.41,1475.247,311
1227,1685672254.354,-160.156,229.492,414.551,-191.895,1475.251,312
1228,1685672254.358,-105.957,392.09,444.824,-103.027,1475.255,312
1229,1685672254.362,-75.684,-4.883,333.496,-54.199,1475.258,312
1230,1685672254.365,-139.16,-303.223,291.504,-139.648,1475.262,312
1231,1685672254.369,-176.758,43.457,385.254,-195.312,1475.266,312
1232,1685672254.373,-114.746,233.887,374.512,-117.188,1475.27,312
1233,1685672254.377,-76.66,-234.863,262.207,-49.805,1475.274,312
1234,1685672254.381,-133.301,-118.652,339.355,-125.488,1475.278,312
1235,1685672254.385,-184.082,-13.672,306.152,-207.52,1475.282,312
1236,1685672254.387,-147.949,-208.496,313.477,-155.273,1475.283,312
1237,1685672254.391,-88.867,-724.609,180.176,-56.641,1475.287,312
1238,1685672254.395,-110.84,-869.141,158.203,-88.867,1475.291,312
1239,1685672254.399,-173.828,-31.738,362.305,-194.336,1475.295,312
1240,1685672254.403,-161.133,125.0,369.629,-176.758,1475.299,312
1241,1685672254.407,-97.168,-88.867,361.816,-76.172,1475.302,312
1242,1685672254.41,-96.191,147.461,413.574,-70.801,1475.306,312
1243,1685672254.414,-157.227,435.059,423.34,-171.875,1475.31,312
1244,1685672254.418,-179.688,-46.875,271.973,-203.125,1475.314,312
1245,1685672254.422,-111.816,-607.422,209.961,-107.422,1475.318,313
1246,1685672254.426,-62.5,254.883,454.59,-58.105,1475.322,313
1247,1685672254.43,-117.188,585.449,431.152,-133.301,1475.326,313
1248,1685672254.448,-166.504,34.18,298.828,-192.871,1475.347,314
1249,1685672254.452,-115.723,23.926,362.305,-117.188,1475.351,314
1250,1685672254.456,-65.918,266.602,429.199,-46.387,1475.355,314
1251,1685672254.46,-101.074,423.828,432.617,-109.375,1475.359,314
1252,1685672254.464,-155.762,-154.785,276.367,-187.988,1475.362,313
1253,1685672254.468,-126.465,-517.09,272.949,-138.672,1475.366,313
1254,1685672254.471,-59.082,96.68,454.102,-46.875,1475.37,313
1255,1685672254.475,-75.684,490.723,444.336,-75.684,1475.374,313
1256,1685672254.477,-130.859,4.883,330.566,-140.137,1475.373,313
1257,1685672254.479,-148.926,-344.238,164.551,-167.48,1475.378,313
1258,1685672254.481,-157.227,-264.648,282.715,-187.988,1475.377,313
1259,1685672254.483,-146.973,-412.598,291.992,-156.738,1475.382,313
1260,1685672254.485,-87.891,273.438,448.242,-104.004,1475.381,313
1261,1685672254.487,-75.684,457.031,500.488,-60.547,1475.386,313
1262,1685672254.489,-52.246,416.992,448.73,-37.109,1475.385,313
1263,1685672254.491,-63.477,494.629,442.871,-45.898,1475.39,314
1264,1685672254.493,-115.234,-510.254,173.828,-113.77,1475.389,314
1265,1685672254.497,-164.062,-498.047,240.234,-188.477,1475.393,314
1266,1685672254.5,-113.77,-55.664,363.281,-124.512,1475.397,314
1267,1685672254.504,-51.758,51.758,391.602,-39.551,1475.401,314
1268,1685672254.508,-85.938,62.988,400.879,-85.449,1475.404,314
1269,1685672254.512,-151.367,142.09,375.977,-183.105,1475.408,314
1270,1685672254.516,-129.883,392.578,443.848,-148.926,1475.412,314
1271,1685672254.52,-65.918,168.457,362.793,-38.086,1475.416,314
1272,1685672254.522,-91.797,-763.672,174.805,-54.688,1475.432,314
1273,1685672254.526,-161.621,-270.996,337.402,-165.039,1475.436,314
1274,1685672254.53,-148.926,293.457,406.25,-166.992,1475.44,314
1275,1685672254.534,-77.148,89.844,381.836,-68.359,1475.444,314
1276,1685672254.538,-59.082,354.004,444.336,-43.457,1475.448,314
1277,1685672254.542,-121.094,114.258,338.379,-135.742,1475.452,314
1278,1685672254.545,-154.297,-214.844,247.559,-175.781,1475.456,313
1279,1685672254.549,-104.98,-579.59,206.055,-84.961,1475.46,313
1280,1685672254.553,-74.219,-640.625,276.855,-41.992,1475.464,313
1281,1685672254.557,-114.746,313.965,441.406,-124.023,1475.468,313
1282,1685672254.561,-166.992,263.184,333.984,-194.824,1475.472,313
1283,1685672254.565,-133.301,-85.449,303.223,-134.766,1475.475,313
1284,1685672254.567,-63.477,272.461,417.969,-46.875,1475.463,313
1285,1685672254.571,-88.867,258.789,389.16,-94.727,1475.467,313
1286,1685672254.575,-156.738,-30.762,295.41,-187.988,1475.471,313
1287,1685672254.579,-145.02,-573.73,160.156,-170.41,1475.474,313
1288,1685672254.583,-78.125,-27.832,373.535,-78.125,1475.478,313
1289,1685672254.587,-79.102,338.867,418.457,-69.824,1475.482,314
1290,1685672254.59,-148.926,-191.406,231.934,-170.898,1475.486,314
1291,1685672254.594,-168.945,-611.816,161.621,-192.871,1475.49,314
1292,1685672254.598,-99.609,115.723,392.09,-86.426,1475.494,314
1293,1685672254.602,-62.988,584.473,475.586,-50.293,1475.498,314
1294,1685672254.606,-129.883,-72.266,258.789,-146.973,1475.502,314
1295,1685672254.61,-179.199,-795.41,80.566,-204.102,1475.506,314
