,timestamps,TP9,AF7,AF8,TP10,Secondary Timestamp,emg_signal
0,1686274501.24,35.645,220.703,98.633,40.039,1207.148,340.9224244904344
1,1686274501.24,-8.301,-718.262,-341.309,-15.137,1207.152,335.7437743291328
2,1686274501.25,-76.66,-747.559,-221.68,-71.289,1207.156,345.6340379009025
3,1686274501.25,-45.41,271.484,218.75,-30.762,1207.16,345.05157723456296
4,1686274501.25,31.25,239.258,77.148,22.949,1207.164,348.6832784702914
5,1686274501.26,15.625,-125.488,-30.762,-27.344,1207.168,329.8564434024581
6,1686274501.26,-58.105,-33.203,98.145,-95.703,1207.171,342.71990902680704
7,1686274501.26,-62.012,348.145,205.566,-68.848,1207.175,349.02681960469675
8,1686274501.27,0.977,-137.207,-54.199,28.809,1207.179,339.1916812379764
9,1686274501.27,20.996,-573.73,-161.621,18.066,1207.183,345.4486158071493
10,1686274501.28,-30.273,173.34,148.926,-81.055,1207.187,330.2244721554949
11,1686274501.28,-60.059,339.844,127.441,-67.383,1207.191,332.67501125612665
12,1686274501.28,-5.371,25.391,55.176,15.625,1207.18,341.9426031741022
13,1686274501.29,51.27,-44.922,70.312,23.926,1207.184,337.5854307259437
14,1686274501.29,2.93,207.031,144.043,-65.43,1207.188,350.42282125222135
15,1686274501.3,-55.176,248.535,119.141,-86.426,1207.192,337.49889727563215
16,1686274501.3,-8.301,-187.012,-54.688,3.906,1207.196,337.1860193611669
17,1686274501.3,55.664,-290.527,-21.484,36.133,1207.199,336.95540326255735
18,1686274501.31,20.02,-78.613,66.895,-36.133,1207.203,350.7327241421019
19,1686274501.31,-47.363,-135.254,-26.367,-91.309,1207.207,337.2235862956102
20,1686274501.31,-40.527,-476.074,-99.121,-27.832,1207.211,331.71337983782655
21,1686274501.32,39.062,-132.324,68.359,33.203,1207.215,335.65622264886554
22,1686274501.32,49.316,470.215,203.125,-14.16,1207.219,328.1810840703475
23,1686274501.33,-42.48,193.848,22.461,-79.102,1207.223,343.1676494788032
24,1686274501.33,-62.5,-604.98,-196.289,-38.574,1207.224,339.54232646178014
25,1686274501.33,26.855,-199.707,73.242,30.273,1207.228,344.7854527507033
26,1686274501.34,48.828,530.762,205.078,2.441,1207.232,350.8863538442273
27,1686274501.34,-34.668,10.254,-43.457,-72.266,1207.236,336.8222615343811
28,1686274501.34,-87.891,-134.277,-38.574,-73.242,1207.24,343.97836466370944
29,1686274501.35,-41.016,97.168,96.68,4.883,1207.244,340.0073107290685
30,1686274501.35,29.785,72.266,114.258,25.879,1207.248,338.4740552999791
31,1686274501.36,-5.371,-361.328,-126.953,-34.668,1207.252,359.94534413642884
32,1686274501.36,-73.242,-758.301,-265.137,-61.035,1207.256,344.371866112387
33,1686274501.36,-28.32,35.645,121.094,-13.672,1207.26,353.8938759009722
34,1686274501.37,44.434,415.039,162.598,36.133,1207.264,341.58394170376425
35,1686274501.37,16.113,175.293,113.77,-26.367,1207.267,342.08531821099496
36,1686274501.37,-41.504,127.93,110.84,-89.844,1207.269,347.67735611060715
37,1686274501.38,-30.762,325.195,146.973,-40.527,1207.273,341.80468875257776
38,1686274501.38,37.109,388.184,146.973,29.297,1207.277,337.3129095700336
39,1686274501.38,31.738,207.52,111.816,-1.953,1207.281,342.30310537488106
40,1686274501.39,-43.457,175.781,105.957,-71.289,1207.285,331.3529674638036
41,1686274501.39,-69.824,-66.895,2.93,-41.504,1207.289,337.3280792215824
42,1686274501.4,-4.883,-96.191,70.312,30.762,1207.293,341.6418718909329
43,1686274501.4,31.25,-514.16,-170.898,33.691,1207.297,348.73314885835816
44,1686274501.4,-27.344,-1000.0,-344.238,-46.387,1207.301,351.7135078106254
45,1686274501.41,-67.871,-135.742,80.566,-87.891,1207.304,335.7403803461885
46,1686274501.41,-15.625,260.254,129.883,-7.324,1207.308,332.6269989083924
47,1686274501.42,47.363,98.633,91.309,21.484,1207.312,339.4906419184044
48,1686274501.42,7.324,333.496,155.273,-73.242,1207.314,348.9243908874766
49,1686274501.42,-66.895,409.668,149.414,-113.281,1207.318,350.48126269514245
50,1686274501.43,-51.27,145.02,36.133,-27.344,1207.322,325.13392482464633
51,1686274501.43,20.02,90.82,67.383,21.973,1207.326,346.1313301161956
52,1686274501.43,26.367,401.855,168.945,-32.227,1207.33,340.34234348619486
53,1686274501.44,-45.898,198.73,83.008,-79.102,1207.333,353.8143245311116
54,1686274501.44,-76.66,-431.641,-128.418,-32.227,1207.337,354.31613175212595
55,1686274501.44,-7.324,-559.082,-133.789,41.504,1207.341,352.6253837656897
56,1686274501.45,19.043,50.293,104.492,1.465,1207.345,351.2956820762226
57,1686274501.45,-43.945,74.707,37.598,-81.055,1207.349,349.84684116886814
58,1686274501.46,-73.242,-319.336,-35.645,-58.594,1207.353,345.21197777509303
59,1686274501.46,-11.23,-152.344,46.387,10.254,1207.357,344.83426885254823
60,1686274501.46,39.062,381.348,155.762,-1.465,1207.372,340.4371159883073
61,1686274501.47,-11.23,286.133,76.172,-82.031,1207.376,348.6491678444393
62,1686274501.47,-73.242,47.363,50.781,-104.492,1207.38,347.75258049213875
63,1686274501.47,-37.109,185.547,143.555,-26.367,1207.384,340.26820703965666
64,1686274501.48,33.691,374.512,148.926,12.207,1207.388,343.90935642449176
65,1686274501.48,5.371,89.844,55.176,-49.316,1207.391,350.11849230145367
66,1686274501.49,-71.777,-669.922,-230.469,-74.707,1207.395,353.62161744893837
67,1686274501.49,-62.012,-742.676,-204.59,-16.602,1207.399,356.1083342101562
68,1686274501.49,16.113,210.938,187.012,10.254,1207.403,345.9276849976724
69,1686274501.5,14.648,318.848,97.656,-34.18,1207.407,344.13209551798957
70,1686274501.5,-62.5,-175.293,-20.996,-88.379,1207.411,349.4685044020894
71,1686274501.5,-75.195,-117.676,54.199,-55.664,1207.415,344.92963213466146
72,1686274501.51,11.23,333.496,172.852,19.531,1207.417,329.03036140574227
73,1686274501.51,35.156,186.523,36.133,3.906,1207.421,337.2536214444854
74,1686274501.52,-45.898,-269.043,-88.379,-65.918,1207.425,345.61060579072046
75,1686274501.52,-83.984,114.746,119.141,-67.383,1207.429,345.6208562144285
76,1686274501.52,-12.695,442.383,194.824,6.836,1207.433,341.3827007395021
77,1686274501.53,37.109,-92.285,-60.059,38.086,1207.437,340.63570278990204
78,1686274501.53,-13.184,-528.809,-172.363,-34.18,1207.441,346.44374880097706
79,1686274501.54,-69.824,144.531,157.227,-83.008,1207.445,356.22226571138003
80,1686274501.54,-42.48,383.301,156.25,-3.906,1207.448,351.5105913975018
81,1686274501.54,27.832,69.336,53.711,56.152,1207.452,354.06160128478547
82,1686274501.55,18.555,49.805,65.918,-8.301,1207.456,343.901061048619
83,1686274501.55,-53.711,304.688,147.461,-77.637,1207.46,347.9982178110389
84,1686274501.57,-49.316,270.02,138.672,-22.461,1207.475,339.6419619465845
85,1686274501.57,24.902,-43.457,55.176,46.387,1207.479,336.27195459196105
86,1686274501.58,21.973,-105.957,40.039,-2.441,1207.483,349.9103132427455
87,1686274501.58,-58.105,182.129,129.883,-91.309,1207.487,344.75540598789894
88,1686274501.58,-75.195,243.164,112.793,-57.129,1207.491,349.3539598111335
89,1686274501.59,-8.789,-426.27,-159.18,41.992,1207.495,356.1335293414225
90,1686274501.59,14.16,-725.586,-185.547,23.438,1207.499,350.71360982576766
91,1686274501.59,-31.25,-126.465,110.352,-59.57,1207.503,345.3904627658978
92,1686274501.6,-70.801,125.0,84.473,-61.035,1207.507,347.2419579983884
93,1686274501.6,-27.344,-416.016,-100.098,38.574,1207.51,346.4997552499551
94,1686274501.61,40.527,-210.938,53.711,39.551,1207.514,352.9131931758036
95,1686274501.61,7.324,398.926,168.457,-58.105,1207.518,350.715256582099
96,1686274501.61,-65.43,93.75,23.926,-72.266,1207.507,351.2806313835644
97,1686274501.62,-46.387,-6.836,22.949,6.348,1207.511,359.2181481224854
98,1686274501.62,25.879,342.773,159.18,46.387,1207.515,345.297210510282
99,1686274501.62,15.625,411.621,150.391,-21.484,1207.519,348.6301192499
100,1686274501.63,-62.012,-56.641,-39.062,-72.266,1207.523,339.21517707539056
101,1686274501.63,-70.801,-392.09,-105.957,-19.531,1207.527,371.1575280738446
102,1686274501.64,6.836,-122.559,90.332,40.527,1207.53,355.93409389158387
103,1686274501.64,22.949,339.355,206.543,-5.859,1207.534,345.4433756030696
104,1686274501.64,-42.48,-211.426,-109.863,-67.871,1207.538,348.29822015749284
105,1686274501.65,-67.871,-792.969,-240.723,-46.875,1207.542,342.7875906857966
106,1686274501.65,-2.93,120.117,176.758,5.859,1207.546,347.4125816426086
107,1686274501.66,35.645,439.941,163.086,10.254,1207.55,346.8054196185037
108,1686274501.66,-23.438,53.223,5.859,-53.223,1207.553,349.22965076487975
109,1686274501.66,-68.848,32.227,38.086,-72.754,1207.557,339.8442091645338
110,1686274501.67,-16.113,319.336,175.293,2.441,1207.561,344.70988751397743
111,1686274501.67,34.668,294.922,112.793,34.668,1207.565,344.0017820987382
112,1686274501.67,-6.348,18.555,13.672,-43.945,1207.569,358.9397228686634
113,1686274501.68,-62.988,-157.715,15.137,-77.637,1207.573,340.65860419214795
114,1686274501.68,-31.25,-168.945,16.113,-13.672,1207.577,342.06311850638554
115,1686274501.68,43.945,-17.09,86.426,27.832,1207.581,353.4264351679875
116,1686274501.69,22.949,-575.684,-188.477,1.953,1207.585,352.69498902608245
117,1686274501.69,-51.27,-985.84,-309.57,-46.875,1207.588,347.7313941172442
118,1686274501.7,-44.434,-25.391,115.234,-39.062,1207.592,356.54788849854367
119,1686274501.7,30.273,233.887,92.773,20.02,1207.596,352.13095811892873
120,1686274501.7,57.617,24.902,22.949,-0.977,1207.598,357.35321879204724
121,1686274501.71,2.93,305.664,124.023,-83.496,1207.602,350.4697737641002
122,1686274501.71,-45.41,403.809,149.902,-77.148,1207.606,335.43781489187387
123,1686274501.72,1.953,191.895,82.031,12.207,1207.61,353.9270100784123
124,1686274501.72,42.48,72.266,23.926,22.461,1207.614,358.31629811436454
125,1686274501.72,-8.789,25.879,32.227,-61.035,1207.618,363.752853178092
126,1686274501.73,-66.406,-22.949,56.152,-74.219,1207.622,349.04658518745504
127,1686274501.73,-33.691,-284.18,-106.445,11.719,1207.625,347.23125665822954
128,1686274501.73,27.344,-571.777,-151.855,54.199,1207.629,345.3184106374332
129,1686274501.74,-1.465,-41.016,104.004,-24.414,1207.633,357.20625875826727
130,1686274501.74,-69.824,53.711,22.461,-84.961,1207.637,357.07007683980083
131,1686274501.75,-55.176,-279.297,-38.574,-18.066,1207.641,353.1820462952282
132,1686274501.75,24.902,-18.555,99.121,45.41,1207.644,347.94486622711855
133,1686274501.75,21.484,473.145,188.477,-17.09,1207.648,351.4665315307456
134,1686274501.76,-46.387,267.578,49.805,-90.82,1207.652,358.51774879036816
135,1686274501.76,-54.688,100.098,76.66,-57.129,1207.656,364.4497863035341
136,1686274501.76,5.859,238.77,154.785,20.508,1207.66,355.61226555539264
137,1686274501.77,23.926,71.289,31.738,2.93,1207.664,354.8650693735412
138,1686274501.77,-40.527,-96.68,28.32,-70.312,1207.667,362.87146286545607
139,1686274501.78,-85.449,-671.875,-222.168,-45.41,1207.671,343.66056177685005
140,1686274501.78,-24.902,-708.496,-191.895,38.086,1207.675,356.5723134294121
141,1686274501.78,41.016,322.754,224.121,19.043,1207.679,361.3926564319473
142,1686274501.79,-2.93,285.645,75.195,-58.594,1207.683,348.95017250741125
143,1686274501.79,-62.012,7.324,-2.93,-83.496,1207.687,356.802901834634
144,1686274501.79,-26.855,73.242,88.867,-9.766,1207.692,357.58872170347763
145,1686274501.8,58.105,344.238,186.523,38.086,1207.696,361.78796079140653
146,1686274501.8,19.043,103.516,-22.461,-28.32,1207.7,368.49636772716826
147,1686274501.81,-88.867,-327.637,-158.203,-93.75,1207.704,351.29841347559653
148,1686274501.81,-69.824,135.254,131.348,-46.875,1207.708,356.43667573732614
149,1686274501.81,13.184,220.215,149.902,34.668,1207.712,354.15108038741215
150,1686274501.82,16.113,-316.406,-110.84,12.695,1207.715,353.54867505992183
151,1686274501.82,-51.27,-588.867,-178.711,-59.082,1207.719,358.21703360796624
152,1686274501.82,-72.266,152.832,170.41,-47.852,1207.723,356.2326259536666
153,1686274501.83,-5.859,445.312,174.805,35.645,1207.727,355.7782086639646
154,1686274501.83,33.203,180.664,126.953,37.598,1207.731,358.3008265739571
155,1686274501.84,-20.508,147.949,139.648,-40.527,1207.735,362.07038074959223
156,1686274501.85,-62.5,325.684,144.531,-54.199,1207.749,359.05826192721804
157,1686274501.86,-8.301,363.281,139.16,34.668,1207.753,368.32943406997344
158,1686274501.86,47.852,10.742,53.711,81.055,1207.757,359.6144545524551
159,1686274501.86,12.207,-69.824,42.48,9.766,1207.761,364.1633597401404
160,1686274501.87,-36.621,206.055,94.727,-22.461,1207.765,359.6316119542396
161,1686274501.87,-3.418,125.977,101.074,50.781,1207.769,356.6336435776186
162,1686274501.88,56.641,-584.473,-208.496,116.211,1207.772,354.3614042614127
163,1686274501.88,36.133,-890.137,-318.359,68.848,1207.776,361.46044901389064
164,1686274501.88,-5.859,380.859,166.504,-37.109,1207.809,356.85500016298846
165,1686274501.88,-25.391,20.02,110.352,-20.02,1207.78,363.3015370765616
166,1686274501.89,-32.715,133.301,51.27,-10.742,1207.813,366.7622268709665
167,1686274501.89,-23.438,236.328,82.031,18.066,1207.784,358.55654737439437
168,1686274501.89,28.809,43.457,18.555,74.707,1207.817,354.2503743717043
169,1686274501.89,41.992,19.043,25.391,82.52,1207.788,360.2209247680208
170,1686274501.9,72.754,388.672,174.805,61.035,1207.821,349.2716762059927
171,1686274501.9,52.246,269.531,145.508,39.062,1207.792,360.96557095686296
172,1686274501.9,14.16,313.477,100.098,-28.809,1207.825,359.79775278923375
173,1686274501.9,-44.922,-157.715,-45.898,-32.227,1207.829,348.0175721809953
174,1686274501.91,-7.812,-312.988,-44.434,53.223,1207.833,363.3253851533337
175,1686274501.91,47.363,-92.773,73.242,71.777,1207.836,355.4259846309058
176,1686274501.91,8.301,271.973,166.016,-19.531,1207.84,364.0478961401959
177,1686274501.92,-58.594,-275.391,-156.25,-46.875,1207.844,353.58723956399086
178,1686274501.92,-47.852,-896.484,-333.984,36.133,1207.848,357.9200561664619
179,1686274501.93,37.109,26.855,111.328,71.777,1207.852,350.1432285666917
180,1686274501.94,39.551,424.805,158.691,3.418,1207.839,361.6653088943974
181,1686274501.95,-39.551,76.172,46.387,-62.988,1207.843,362.3147905265192
182,1686274501.95,-43.945,104.004,89.355,-20.02,1207.847,365.5896107468173
183,1686274501.96,26.855,354.004,174.316,57.129,1207.851,354.69988623236094
184,1686274501.96,46.875,289.551,95.215,37.598,1207.855,354.9211538239029
185,1686274501.96,-29.297,-208.984,-86.426,-45.898,1207.859,356.3141835856374
186,1686274501.97,-55.664,-341.797,-40.527,-34.668,1207.863,365.05045766585096
187,1686274501.97,19.043,-162.109,56.152,49.316,1207.867,365.6046171432758
188,1686274501.97,49.805,-185.547,-13.672,48.828,1207.871,364.0511471270307
189,1686274501.98,-6.348,-215.332,-36.133,-32.227,1207.874,354.1881289688675
190,1686274501.98,-54.199,76.66,93.75,-62.5,1207.878,357.79270076719695
191,1686274501.99,-7.812,353.027,138.672,15.625,1207.882,359.68122805852454
192,1686274501.99,56.641,203.613,46.875,54.199,1207.885,361.1557679141577
193,1686274501.99,19.531,-731.934,-351.562,1.465,1207.889,365.3888177568416
194,1686274502.0,-54.688,-730.469,-215.332,-55.176,1207.893,366.29415083458747
195,1686274502.0,-32.227,286.133,203.125,-19.043,1207.897,355.38189060931296
196,1686274502.0,44.434,200.195,32.715,46.387,1207.9,365.34101099714206
197,1686274502.01,33.691,-193.848,-64.941,2.441,1207.904,354.1755150552824
198,1686274502.01,-43.457,-39.062,46.875,-73.242,1207.908,360.04089229192545
199,1686274502.02,-56.641,384.277,203.125,-59.082,1207.912,366.89374976152965
200,1686274502.02,0.488,-77.637,-38.574,34.18,1207.916,365.6920156485769
201,1686274502.02,19.043,-549.316,-182.617,27.344,1207.92,356.8968283571383
202,1686274502.03,-35.156,-21.973,72.754,-77.637,1207.924,345.4159364885193
203,1686274502.03,-79.102,-0.977,17.09,-74.219,1207.928,370.1418914789954
204,1686274502.03,-25.879,-283.691,-18.555,15.625,1207.929,366.8013740375995
205,1686274502.04,36.133,-31.738,84.961,30.273,1207.933,366.5833859968771
206,1686274502.04,-2.93,401.855,141.113,-47.852,1207.937,368.42617122833127
207,1686274502.04,-55.664,257.812,63.477,-69.824,1207.941,358.3875691735069
208,1686274502.05,-29.785,82.031,44.434,-2.93,1207.945,354.7021558313152
209,1686274502.05,21.973,-5.371,69.336,39.062,1207.949,364.07219098263835
210,1686274502.06,-7.812,-102.051,26.367,-29.297,1207.952,360.6550395033173
211,1686274502.06,-83.984,-41.504,51.758,-91.797,1207.956,347.48103684362576
212,1686274502.06,-80.566,-624.512,-195.312,-15.137,1207.96,357.02778695633685
213,1686274502.07,-4.395,-667.969,-138.184,49.805,1207.964,353.11633539915266
214,1686274502.07,13.672,372.559,222.656,-14.16,1207.968,357.87450221167893
215,1686274502.08,-54.688,283.691,61.523,-73.242,1207.972,357.2883297735821
216,1686274502.08,-74.707,10.742,7.812,-50.293,1207.978,355.88710125145127
217,1686274502.08,-6.348,122.07,96.191,22.461,1207.982,362.80919519513765
218,1686274502.09,34.18,392.09,208.008,12.207,1207.986,359.554501756639
219,1686274502.09,-17.09,129.395,-10.254,-65.43,1207.99,352.99896097647957
220,1686274502.1,-73.242,-359.863,-167.969,-67.383,1207.993,361.3360471770654
221,1686274502.1,-24.414,-98.633,69.336,10.254,1207.997,365.1013743868389
222,1686274502.1,43.457,151.367,114.258,27.832,1208.001,365.9155880469175
223,1686274502.11,-5.859,-270.02,-123.535,-45.41,1208.005,357.764051292052
224,1686274502.11,-69.336,-611.328,-169.922,-68.359,1208.009,357.44152869067545
225,1686274502.11,-36.133,156.25,164.551,-18.555,1208.013,364.97211430703305
226,1686274502.12,31.738,432.617,161.133,20.508,1208.017,355.12976656562387
227,1686274502.12,22.949,112.793,43.457,-31.25,1208.021,364.232337433345
228,1686274502.12,-44.434,38.574,52.246,-87.402,1208.019,365.0122678248422
229,1686274502.13,-46.387,362.305,166.016,-42.969,1208.023,360.5299367519209
230,1686274502.13,22.461,379.395,117.676,33.691,1208.027,355.6481621093342
231,1686274502.14,29.297,-10.254,13.672,8.789,1208.031,360.48129124658374
232,1686274502.14,-39.062,-60.059,32.227,-79.102,1208.035,352.5874332640321
233,1686274502.14,-62.988,-10.254,35.156,-64.941,1208.039,367.4748806293075
234,1686274502.15,0.977,-10.742,62.5,15.137,1208.043,370.39970435190196
235,1686274502.15,31.738,-563.477,-195.312,23.926,1208.047,363.1300206086753
236,1686274502.15,-23.438,-812.988,-259.277,-51.27,1208.051,373.63935745432065
237,1686274502.16,-63.965,164.062,171.387,-83.008,1208.055,364.1752868389339
238,1686274502.16,-14.648,332.52,101.074,0.488,1208.058,371.4200706526036
239,1686274502.17,43.457,-176.27,-65.43,42.48,1208.062,359.75098828663477
240,1686274502.17,11.23,67.871,66.406,-42.48,1208.064,360.21390883099855
241,1686274502.17,-51.27,410.156,147.461,-90.82,1208.068,367.8070073309734
242,1686274502.18,-33.691,141.602,41.992,-11.719,1208.072,368.4785128274107
243,1686274502.18,36.621,111.328,58.105,43.457,1208.076,368.5990298173813
244,1686274502.18,34.668,313.477,113.281,-19.043,1208.08,355.0918691681949
245,1686274502.19,-43.945,72.754,57.617,-81.543,1208.084,372.09323834963845
246,1686274502.19,-62.5,-420.41,-154.297,-32.715,1208.088,361.55623769957145
247,1686274502.2,6.348,-863.281,-291.992,43.945,1208.091,356.2872981037518
248,1686274502.2,29.297,-123.047,91.797,-5.859,1208.095,364.29460067638246
249,1686274502.2,-24.902,385.742,123.047,-91.309,1208.099,369.51027593906156
250,1686274502.21,-60.059,25.391,-13.672,-73.73,1208.103,375.3423237847204
251,1686274502.21,-0.977,166.992,102.051,8.789,1208.107,364.5287129964215
252,1686274502.21,57.617,485.352,180.176,24.902,1208.122,370.1451069025849
253,1686274502.22,2.93,333.008,75.195,-53.223,1208.126,360.23110234015024
254,1686274502.22,-59.082,68.848,64.453,-71.777,1208.13,365.2091374654215
255,1686274502.22,-19.043,196.777,148.926,3.418,1208.134,360.23241352367694
256,1686274502.23,36.621,364.258,129.395,32.715,1208.138,355.4619254192631
257,1686274502.23,10.254,150.391,70.801,-31.25,1208.142,360.0955475969268
258,1686274502.24,-65.918,-639.648,-250.488,-55.176,1208.146,361.5801059097169
259,1686274502.24,-61.035,-644.531,-194.824,-5.859,1208.15,372.60933085101044
260,1686274502.24,21.484,186.523,142.578,23.438,1208.153,359.21399920794363
261,1686274502.25,17.09,80.078,-0.977,-19.043,1208.157,358.6933832367758
262,1686274502.25,-62.012,-521.484,-153.32,-76.172,1208.161,370.7410635631557
263,1686274502.26,-75.195,-217.285,41.504,-51.27,1208.165,370.52130281371495
264,1686274502.26,8.301,468.262,197.266,19.043,1208.183,360.9671736545539
265,1686274502.26,31.738,195.312,27.832,6.348,1208.187,371.276812983595
266,1686274502.27,-41.992,16.113,10.742,-77.637,1208.191,369.0845874316055
267,1686274502.27,-84.473,264.648,125.488,-71.777,1208.195,361.05352047690644
268,1686274502.27,-21.484,387.207,143.555,12.695,1208.198,369.87137848147006
269,1686274502.28,41.504,-253.906,-154.297,49.316,1208.202,363.78731689977076
270,1686274502.28,-8.301,-624.023,-229.004,-30.273,1208.206,362.8651954308975
271,1686274502.28,-62.012,98.145,131.836,-83.496,1208.21,370.148542976999
272,1686274502.29,-25.391,337.891,123.047,-7.324,1208.214,358.7814569049014
273,1686274502.29,38.574,25.391,37.598,40.527,1208.218,366.1454095997518
274,1686274502.3,20.02,13.184,62.988,-27.344,1208.222,352.95435814330375
275,1686274502.3,-47.363,97.168,66.406,-84.961,1208.226,359.07123663523333
276,1686274502.32,-47.363,52.734,63.965,-34.668,1208.214,374.7498914103126
277,1686274502.32,28.32,-162.598,25.391,30.273,1208.218,369.33417212374815
278,1686274502.33,40.527,-105.957,59.57,-4.395,1208.222,371.9020493814906
279,1686274502.33,-38.574,284.668,135.254,-89.355,1208.226,361.64286220845327
280,1686274502.33,-70.312,189.453,40.527,-58.105,1208.23,372.85997226924127
281,1686274502.34,-2.93,-125.0,-62.988,41.016,1208.234,362.96484704292965
282,1686274502.34,39.062,-248.047,-39.062,31.738,1208.238,362.9456007665257
283,1686274502.34,-19.043,-155.762,-7.324,-64.453,1208.241,360.92306431629294
284,1686274502.35,-62.988,-139.16,-22.461,-71.777,1208.245,368.80382970857227
285,1686274502.35,-17.578,-558.594,-104.004,22.949,1208.249,364.35105979922895
286,1686274502.36,25.879,-286.621,11.23,32.715,1208.253,369.96687432944344
287,1686274502.36,-14.16,462.402,201.172,-58.105,1208.257,372.0877927713766
288,1686274502.36,-75.195,180.664,20.508,-87.891,1208.263,374.08459794068614
289,1686274502.37,-65.918,-563.477,-208.008,-14.16,1208.266,367.5414323477248
290,1686274502.37,-1.465,-321.777,31.738,29.297,1208.27,363.83472963109165
291,1686274502.38,0.977,424.805,237.305,-38.574,1208.274,360.68111479729083
292,1686274502.38,-72.754,81.543,-63.965,-95.215,1208.278,374.16564071075294
293,1686274502.38,-79.102,-463.379,-208.496,-42.48,1208.282,384.59326673236757
294,1686274502.39,6.836,-51.758,101.562,18.555,1208.286,365.9842212122263
295,1686274502.39,33.691,489.258,220.703,-20.996,1208.29,364.6879503355096
296,1686274502.4,-33.203,-95.215,-92.285,-84.473,1208.294,381.81926435374703
297,1686274502.4,-69.336,-597.168,-202.148,-61.523,1208.298,373.01332015945195
298,1686274502.4,-2.93,233.398,164.551,7.812,1208.302,367.78905815833696
299,1686274502.41,42.48,422.363,124.512,13.184,1208.305,363.3839527906349
300,1686274502.41,-13.184,94.727,20.02,-69.336,1208.304,373.9837926789472
301,1686274502.41,-66.895,113.281,82.031,-89.844,1208.308,373.64132333500595
302,1686274502.42,-30.273,398.926,193.848,-8.301,1208.312,380.50368444626935
303,1686274502.42,30.762,348.633,112.793,20.996,1208.316,370.3867249673621
304,1686274502.42,2.441,-103.027,-83.008,-41.016,1208.32,385.2542858731888
305,1686274502.43,-63.965,-254.395,-71.777,-74.219,1208.324,382.17462695838435
306,1686274502.43,-41.504,-157.715,0.977,-10.742,1208.328,386.01024051104343
307,1686274502.44,38.574,-37.109,61.523,44.922,1208.332,394.15823625972826
308,1686274502.44,24.414,-555.176,-216.797,1.953,1208.336,395.28496200356017
309,1686274502.44,-63.965,-994.629,-342.773,-60.547,1208.34,395.0181472697592
310,1686274502.45,-68.359,-71.289,95.215,-37.109,1208.343,390.10462363099947
311,1686274502.45,11.23,289.062,90.82,34.668,1208.347,399.3887276440367
312,1686274502.45,30.762,134.766,34.18,14.16,1208.349,413.7476415302209
313,1686274502.46,-26.367,337.891,127.441,-54.688,1208.353,405.4769266318982
314,1686274502.46,-63.477,383.301,141.602,-47.852,1208.357,401.2208494635144
315,1686274502.46,-7.812,191.406,59.57,19.531,1208.361,418.14493866923976
316,1686274502.47,40.527,116.211,49.805,22.949,1208.365,407.6894431600967
317,1686274502.47,-13.184,63.965,38.086,-59.082,1208.369,413.25799010252723
318,1686274502.48,-62.988,-93.262,-5.371,-80.078,1208.373,427.9106092262564
319,1686274502.48,-23.926,-407.227,-125.488,19.531,1208.377,428.86745156894534
320,1686274502.48,31.738,-864.746,-267.578,62.012,1208.381,434.5177969198993
321,1686274502.49,15.137,-150.391,67.871,-39.551,1208.384,427.0858074056909
322,1686274502.49,-46.387,354.004,141.602,-92.773,1208.388,439.5310312926809
323,1686274502.5,-35.156,72.266,54.688,-31.738,1208.392,444.9774836983246
324,1686274502.5,37.109,194.336,111.816,25.879,1208.394,444.475132282169
325,1686274502.5,36.621,477.539,173.34,-11.23,1208.398,432.74153354840826
326,1686274502.51,-33.203,308.594,92.285,-84.961,1208.402,450.27459258761235
327,1686274502.51,-51.758,62.988,58.594,-63.477,1208.406,438.2071706638288
328,1686274502.51,12.207,147.461,106.445,20.996,1208.41,454.65053170634
329,1686274502.52,39.551,35.645,32.715,14.16,1208.414,455.50901017896877
330,1686274502.52,-20.508,-39.551,47.852,-69.824,1208.418,453.61441928837075
331,1686274502.52,-69.336,-613.281,-222.168,-51.27,1208.422,449.42756512430924
332,1686274502.53,-18.555,-712.402,-196.777,37.109,1208.425,461.3406364743716
333,1686274502.53,41.992,152.832,159.668,26.855,1208.429,457.73187424165445
334,1686274502.54,0.0,63.477,8.301,-51.758,1208.433,460.72050047650714
335,1686274502.54,-59.57,-236.816,-41.504,-81.543,1208.437,465.69074588537995
336,1686274502.54,-26.367,97.656,115.723,-22.461,1208.439,459.9920827185612
337,1686274502.55,45.41,505.371,176.758,22.461,1208.443,476.011626946731
338,1686274502.55,21.973,211.914,45.898,-31.25,1208.447,473.6245893521655
339,1686274502.56,-57.129,64.941,48.828,-88.379,1208.451,473.4095576196125
340,1686274502.56,-53.223,311.523,138.184,-41.992,1208.455,465.89507970411086
341,1686274502.56,22.949,245.117,120.117,33.691,1208.458,463.04384053211396
342,1686274502.57,20.508,-329.102,-125.488,2.441,1208.462,474.1493663831031
343,1686274502.57,-60.059,-645.02,-201.172,-81.543,1208.466,468.7612534622093
344,1686274502.57,-74.707,101.074,156.738,-74.707,1208.47,481.8932962962381
345,1686274502.58,-2.93,455.078,186.035,6.836,1208.474,481.41215907608046
346,1686274502.58,21.973,227.539,84.961,0.977,1208.478,475.58196161165665
347,1686274502.59,-41.016,177.246,61.523,-81.055,1208.482,466.68808782190644
348,1686274502.6,-78.125,88.867,57.617,-82.031,1208.503,489.32832491743795
349,1686274502.61,-15.625,137.207,70.312,4.395,1208.507,480.0624785590494
350,1686274502.61,35.156,-61.035,-9.277,28.32,1208.51,470.30027393168433
351,1686274502.62,-9.277,-58.594,55.664,-59.57,1208.514,468.4486433087635
352,1686274502.62,-64.453,219.727,99.609,-97.656,1208.518,467.07998540327475
353,1686274502.62,-43.945,45.41,37.598,-22.949,1208.522,471.65371534893046
354,1686274502.63,28.32,-576.172,-199.707,49.805,1208.526,475.47977530336743
355,1686274502.63,0.0,-716.797,-216.309,-16.113,1208.53,477.5441061273756
356,1686274502.63,-33.691,440.43,153.32,-86.426,1208.544,475.2922797359219
357,1686274502.64,-68.848,209.961,147.949,-115.234,1208.534,466.83983722712424
358,1686274502.64,-73.73,151.367,43.457,-73.242,1208.548,466.6356436860262
359,1686274502.64,-62.5,223.145,53.223,-68.359,1208.538,462.61998325560404
360,1686274502.64,-17.09,-60.059,-11.719,14.648,1208.551,461.2588337513045
361,1686274502.64,5.371,-119.629,39.551,25.391,1208.542,459.597911757415
362,1686274502.64,25.391,117.676,114.258,19.531,1208.555,472.705408954727
363,1686274502.65,30.273,218.262,150.879,1.465,1208.546,469.8261923849809
364,1686274502.65,-27.344,316.895,135.742,-66.895,1208.559,456.5723387481175
365,1686274502.65,-83.008,-205.078,-99.121,-80.078,1208.563,470.34489473369916
366,1686274502.66,-40.527,-399.902,-108.398,4.883,1208.567,446.9736124774238
367,1686274502.66,33.691,225.586,146.973,36.621,1208.571,463.86038526075754
368,1686274502.66,-1.953,474.121,185.059,-43.945,1208.575,463.7008772090871
369,1686274502.67,-76.66,-202.637,-136.719,-72.754,1208.579,455.96973001784585
370,1686274502.67,-56.152,-880.859,-308.105,12.695,1208.583,456.30150168027865
371,1686274502.68,21.484,-70.312,97.168,43.945,1208.587,444.8641583572761
372,1686274502.69,10.742,346.191,113.281,-24.902,1208.589,442.56469383099267
373,1686274502.7,-63.965,32.227,-1.953,-89.844,1208.593,436.75105290143205
374,1686274502.7,-59.57,70.312,86.426,-42.969,1208.597,438.68157407993726
375,1686274502.7,35.156,375.488,195.312,42.969,1208.601,437.51937611991724
376,1686274502.71,43.457,289.551,98.633,2.93,1208.605,433.9852809594279
377,1686274502.71,-45.41,-213.379,-61.523,-87.402,1208.609,430.05521331861553
378,1686274502.72,-72.266,-286.133,-31.25,-68.848,1208.612,423.98038610565857
379,1686274502.72,-10.254,-143.066,17.09,22.461,1208.616,423.0922574226372
380,1686274502.72,43.457,-52.734,52.246,35.645,1208.62,415.14147360514943
381,1686274502.73,-5.859,-622.07,-266.602,-23.438,1208.624,425.3674112279354
382,1686274502.73,-65.918,-826.172,-319.824,-48.828,1208.628,420.48795495729814
383,1686274502.74,-22.461,177.734,163.086,-5.371,1208.632,413.45274286727846
384,1686274502.74,44.922,295.41,87.402,32.227,1208.634,424.5465505523893
385,1686274502.74,26.367,68.359,9.277,-27.344,1208.638,410.5423197895796
386,1686274502.75,-45.898,259.766,128.418,-83.984,1208.642,430.0860532674304
387,1686274502.75,-40.527,381.836,154.785,-24.902,1208.646,423.9669286261878
388,1686274502.75,36.133,204.102,64.941,54.688,1208.65,409.06468188978965
389,1686274502.76,36.621,-178.711,-50.781,9.277,1208.654,414.76625527112213
390,1686274502.76,-41.504,-197.754,0.977,-77.637,1208.658,421.06625626444935
391,1686274502.76,-55.176,158.691,121.582,-47.363,1208.662,395.4918655045352
392,1686274502.77,17.09,-188.477,-84.473,54.688,1208.665,406.8236099696602
393,1686274502.77,34.668,-871.094,-277.344,41.504,1208.669,393.82664184839524
394,1686274502.78,-25.879,-140.625,69.336,-65.918,1208.673,398.87431111372666
395,1686274502.78,-59.57,360.84,143.555,-72.266,1208.677,401.610714766132
396,1686274502.78,-3.906,115.234,117.188,13.672,1208.679,400.850447678031
397,1686274502.79,38.574,248.535,171.875,20.508,1208.683,395.1983609583726
398,1686274502.79,-2.93,441.895,163.574,-67.383,1208.687,397.3984189369109
399,1686274502.8,-55.664,310.059,101.562,-88.867,1208.691,394.2604975603983
400,1686274502.8,-26.855,54.199,53.711,-6.836,1208.695,384.73159617276013
401,1686274502.8,41.504,-48.828,51.758,44.922,1208.698,387.51184499822347
402,1686274502.81,16.113,-64.453,8.789,-13.672,1208.702,384.30107538555416
403,1686274502.81,-70.312,-27.344,38.574,-83.008,1208.706,373.7519938632365
404,1686274502.81,-74.219,-617.188,-215.332,-15.137,1208.71,377.8170265230386
405,1686274502.82,15.137,-696.289,-189.941,64.941,1208.714,369.6460653015706
406,1686274502.82,37.109,141.602,135.742,0.977,1208.718,369.27563147820945
407,1686274502.83,-43.945,-98.633,-51.27,-74.219,1208.722,367.583949571294
408,1686274502.83,-77.637,-215.332,-22.949,-53.223,1208.724,369.112891633279
409,1686274502.83,-3.906,307.617,187.012,15.625,1208.728,359.18570493526283
410,1686274502.84,42.48,554.199,210.938,1.953,1208.732,358.0109587677456
411,1686274502.84,-21.973,73.242,-39.062,-73.242,1208.736,361.9636623247586
412,1686274502.84,-68.848,-294.434,-147.461,-68.359,1208.74,368.29438497169554
413,1686274502.85,-12.695,-61.035,47.363,11.23,1208.744,353.9117463791197
414,1686274502.85,51.27,228.027,161.133,31.25,1208.748,350.37749004297166
415,1686274502.86,7.324,-138.184,-55.176,-35.156,1208.752,354.66737202656543
416,1686274502.86,-65.918,-621.094,-181.152,-75.684,1208.755,335.7542756859645
417,1686274502.86,-34.668,173.828,182.617,-29.297,1208.759,336.93724831216497
418,1686274502.87,40.039,473.633,177.246,36.621,1208.763,345.17145766550686
419,1686274502.87,20.508,164.551,42.48,-10.254,1208.767,346.95803326853525
420,1686274502.88,-57.617,113.77,51.758,-78.125,1208.798,333.4040773444624
421,1686274502.88,-59.082,151.367,111.328,-37.598,1208.802,343.6942746483511
422,1686274502.88,25.391,211.426,95.215,26.367,1208.806,344.1378270180202
423,1686274502.89,44.434,-57.617,0.488,-0.488,1208.81,338.19444349891444
424,1686274502.89,-29.785,-62.988,32.715,-73.73,1208.813,329.4788830612992
425,1686274502.9,-61.035,37.598,64.453,-58.594,1208.817,335.54074345861767
426,1686274502.9,5.371,16.113,86.426,27.832,1208.821,328.2551842658576
427,1686274502.9,36.621,-524.414,-176.758,50.781,1208.825,312.11962941435473
428,1686274502.91,-26.367,-745.117,-193.848,-31.738,1208.829,322.8911485800616
429,1686274502.91,-70.801,236.816,182.129,-74.219,1208.833,334.44478322552084
430,1686274502.91,-30.273,258.789,78.125,7.812,1208.837,324.53592047474694
431,1686274502.92,34.18,107.422,56.641,35.645,1208.841,321.32292493016075
432,1686274502.92,9.766,373.047,148.438,-50.781,1208.814,308.00527606079515
433,1686274502.92,-55.664,417.48,154.785,-98.633,1208.818,317.04556749164567
434,1686274502.93,-36.133,174.805,44.434,-25.879,1208.822,307.48551441023
435,1686274502.93,38.086,-50.293,-28.32,47.852,1208.826,312.0746535607825
436,1686274502.93,29.785,29.297,24.414,-4.883,1208.83,308.55554061608314
437,1686274502.94,-51.758,-15.625,49.805,-87.891,1208.834,304.65445964978153
438,1686274502.94,-68.359,-322.266,-93.75,-51.27,1208.837,314.89635167687817
439,1686274502.94,-2.441,-914.551,-354.98,41.992,1208.841,304.50661641847614
440,1686274502.95,20.996,-346.68,-28.32,5.859,1208.845,301.0248655919189
441,1686274502.95,-38.574,413.574,168.945,-89.355,1208.849,314.9429558960531
442,1686274502.96,-78.613,53.711,3.418,-79.102,1208.853,299.3395681097284
443,1686274502.96,-20.02,80.566,81.543,0.977,1208.857,309.3900791714924
444,1686274502.96,30.762,335.449,135.742,15.137,1208.875,309.8602533991075
445,1686274502.97,-19.043,265.137,82.52,-68.359,1208.879,304.3828102337848
446,1686274502.97,-73.242,25.879,21.973,-87.891,1208.883,299.9818659891036
447,1686274502.98,-30.273,145.996,122.07,-8.301,1208.887,289.6211848207556
448,1686274502.98,36.133,428.223,196.289,22.949,1208.891,305.8385329863499
449,1686274502.98,7.324,143.066,68.359,-37.109,1208.895,300.64466913335957
450,1686274502.99,-67.871,-575.195,-202.637,-71.289,1208.899,290.25062309005284
451,1686274502.99,-55.664,-628.418,-159.668,-26.367,1208.903,296.61097871586975
452,1686274502.99,25.391,13.672,145.02,17.09,1208.906,302.0573762688551
453,1686274503.0,33.203,148.438,59.57,-21.484,1208.91,299.70564888341437
454,1686274503.0,-45.41,-130.859,-41.504,-91.797,1208.914,296.00860768376333
455,1686274503.01,-76.66,97.656,119.629,-60.547,1208.918,297.6816129057106
456,1686274503.01,-2.93,522.949,231.934,24.902,1208.919,294.8073725133419
457,1686274503.01,28.32,259.277,45.41,24.414,1208.923,289.4552677246203
458,1686274503.02,-45.898,-482.422,-199.219,-48.828,1208.927,287.3686477739806
459,1686274503.02,-83.496,-192.383,19.531,-60.547,1208.931,287.22176413076653
460,1686274503.02,-20.508,362.793,160.156,14.16,1208.935,280.91574596272324
461,1686274503.03,28.809,-171.875,-109.375,43.945,1208.939,280.1060385076394
462,1686274503.03,-20.02,-531.25,-184.082,-33.203,1208.943,284.7860449085314
463,1686274503.04,-71.777,133.789,126.953,-85.938,1208.946,285.9781584363089
464,1686274503.04,-34.18,430.176,158.203,-17.09,1208.95,284.49609934812486
465,1686274503.04,29.785,-240.234,-107.422,53.223,1208.954,290.71729586817753
466,1686274503.05,17.09,-461.914,-148.926,-1.953,1208.958,287.51912520717866
467,1686274503.05,-51.758,265.137,156.738,-95.215,1208.962,300.56490182538874
468,1686274503.07,-62.5,320.312,106.445,-45.41,1208.964,296.37154228109637
469,1686274503.07,17.09,99.609,106.934,45.898,1208.968,293.8040016801235
470,1686274503.08,37.109,179.688,131.836,14.16,1208.972,297.81917511076006
471,1686274503.08,-35.645,328.125,128.418,-79.102,1208.976,291.1856662198895
472,1686274503.08,-62.012,229.004,86.914,-61.523,1208.98,297.05023414439233
473,1686274503.09,1.953,-181.641,-62.988,19.043,1208.984,293.6392721900854
474,1686274503.09,35.156,-296.387,-38.574,8.301,1208.988,306.10007808379356
475,1686274503.1,-22.949,-125.488,28.32,-63.965,1208.991,302.83768845152343
476,1686274503.1,-69.336,61.523,57.617,-79.59,1208.995,308.4408081626746
477,1686274503.1,-36.133,-582.52,-249.512,12.207,1208.999,300.4245438660148
478,1686274503.11,17.578,-653.809,-197.266,47.852,1209.003,300.421438837311
479,1686274503.11,-3.906,149.414,131.836,-45.898,1209.007,307.19953440823315
480,1686274503.11,-67.383,-122.07,-56.641,-81.543,1209.009,319.24530442044903
481,1686274503.12,-46.387,-230.957,-30.762,-13.184,1209.013,316.71821821021007
482,1686274503.12,23.438,285.156,178.711,29.785,1209.017,311.476609023315
483,1686274503.12,11.23,490.723,167.969,-22.949,1209.021,323.2016281911607
484,1686274503.13,-62.988,111.816,-16.113,-79.102,1209.025,316.6044969117659
485,1686274503.13,-64.941,-231.445,-93.262,-38.086,1209.029,316.67760865398833
486,1686274503.14,15.137,3.906,78.125,31.25,1209.032,322.49161065170574
487,1686274503.14,41.016,453.125,212.402,-6.348,1209.036,329.33002436275916
488,1686274503.14,-32.227,-179.688,-95.215,-73.242,1209.04,331.26034594158585
489,1686274503.15,-70.801,-666.992,-203.125,-40.527,1209.044,330.63101749245794
490,1686274503.15,-0.488,231.934,179.199,25.879,1209.048,345.98194184345607
491,1686274503.16,42.969,443.359,137.695,21.973,1209.052,319.1599666709591
492,1686274503.16,-24.902,103.516,32.715,-58.594,1209.057,340.0134462420663
493,1686274503.16,-83.008,69.824,52.734,-83.008,1209.061,352.11389519035635
494,1686274503.17,-34.668,72.266,86.914,-6.836,1209.065,346.5671361360203
495,1686274503.17,37.109,201.66,109.863,32.227,1209.069,349.09083836332445
496,1686274503.18,1.953,-87.891,-45.41,-28.809,1209.073,355.66529739498503
497,1686274503.18,-67.871,-352.539,-40.039,-78.125,1209.077,359.2426429559421
498,1686274503.18,-44.922,-125.0,52.734,-21.973,1209.081,368.33390439412335
499,1686274503.19,31.25,75.684,113.77,33.691,1209.084,357.47452360915565
500,1686274503.19,24.414,-548.34,-173.828,-7.324,1209.088,355.53022165391667
501,1686274503.19,-51.27,-742.676,-208.008,-78.613,1209.092,375.96685154677124
502,1686274503.2,-53.223,260.254,200.195,-60.059,1209.096,362.19113156685427
503,1686274503.2,20.996,273.926,85.938,25.879,1209.1,357.49598937360685
504,1686274503.2,47.852,118.652,66.895,11.719,1209.099,367.71993241181855
505,1686274503.21,-12.695,354.98,146.973,-76.66,1209.103,376.3182837998407
506,1686274503.21,-60.059,408.691,148.926,-71.777,1209.107,373.6329094350725
507,1686274503.22,-5.371,174.316,48.828,20.508,1209.111,370.0201297555215
508,1686274503.22,43.945,-75.195,-26.367,28.809,1209.115,363.05977363492093
509,1686274503.22,-8.789,-109.375,8.789,-54.199,1209.119,393.475880017073
510,1686274503.23,-67.871,-134.766,-6.836,-78.613,1209.123,380.26318346299416
511,1686274503.23,-32.227,-358.887,-132.812,9.277,1209.126,379.98654385836795
512,1686274503.23,30.273,-829.59,-271.484,64.453,1209.13,387.39823434685206
513,1686274503.24,9.277,-174.316,66.895,-20.996,1209.134,372.80023987060775
514,1686274503.24,-56.152,390.625,152.832,-81.543,1209.138,375.44376156638555
515,1686274503.25,-42.969,122.559,24.902,-11.23,1209.142,379.7334071747496
516,1686274503.25,33.203,264.648,121.094,40.039,1209.144,379.86840752785804
517,1686274503.25,39.551,450.684,150.879,-10.742,1209.148,387.1684212597048
518,1686274503.26,-30.762,239.746,40.527,-78.125,1209.152,378.0766673473703
519,1686274503.26,-54.688,79.59,68.359,-45.898,1209.156,376.1289277775053
520,1686274503.26,11.23,245.605,152.344,41.504,1209.16,385.62121305558793
521,1686274503.27,38.574,135.254,72.754,28.32,1209.164,375.30553662264145
522,1686274503.27,-30.762,-82.031,36.133,-64.453,1209.168,375.20991755555735
523,1686274503.28,-80.078,-590.82,-242.188,-43.457,1209.172,386.51204881464923
524,1686274503.28,-27.832,-979.492,-348.633,51.27,1209.176,366.79192067817786
525,1686274503.28,31.738,-61.035,132.812,27.344,1209.18,383.8469575437111
526,1686274503.29,-0.488,293.945,71.289,-62.012,1209.184,381.9842167043802
527,1686274503.29,-59.082,-2.93,-53.223,-81.543,1209.187,370.2661103247377
528,1686274503.29,-33.691,273.926,140.625,-9.766,1209.189,377.8513139966697
529,1686274503.3,45.898,548.828,184.57,36.621,1209.193,384.30894830041586
530,1686274503.3,32.715,256.348,49.805,-20.02,1209.197,375.93409651017555
531,1686274503.3,-54.199,46.875,21.973,-82.52,1209.201,374.07264114916825
532,1686274503.31,-63.965,243.164,119.141,-48.828,1209.205,371.26051314540763
533,1686274503.31,10.742,183.105,122.07,22.949,1209.209,368.78208899052345
534,1686274503.32,25.879,-280.273,-124.023,4.883,1209.213,373.95041912181756
535,1686274503.32,-45.41,-588.867,-195.312,-65.43,1209.216,370.41399749495724
536,1686274503.32,-61.035,98.633,172.852,-56.641,1209.22,380.6054059327871
537,1686274503.33,9.766,417.969,148.438,22.461,1209.224,385.5565855877265
538,1686274503.33,41.016,-86.426,-18.555,21.484,1209.228,375.26037485952463
539,1686274503.34,-18.555,-86.426,48.34,-65.918,1209.232,374.44823329797265
540,1686274503.34,-62.012,333.008,178.711,-73.73,1209.248,367.66236700723033
541,1686274503.34,-10.742,339.355,138.184,8.301,1209.252,381.9365696552247
542,1686274503.35,44.434,-110.84,7.812,47.363,1209.256,369.1769695294352
543,1686274503.35,2.441,-54.199,69.336,-29.297,1209.26,379.30577730732796
544,1686274503.35,-60.547,309.082,122.07,-81.543,1209.263,366.40988494873085
545,1686274503.36,-43.945,130.371,75.195,-11.23,1209.267,368.8071175166179
546,1686274503.36,18.066,-576.172,-231.934,58.105,1209.271,357.1782695030197
547,1686274503.36,9.277,-691.406,-220.215,-7.812,1209.275,356.01980408901636
548,1686274503.37,-45.41,245.117,189.941,-97.168,1209.279,362.5568916412202
549,1686274503.37,-39.062,270.02,75.195,-33.691,1209.283,362.08825219431196
550,1686274503.38,20.508,56.641,43.457,36.621,1209.287,363.09713643788314
551,1686274503.38,33.691,272.949,125.488,0.488,1209.291,353.6265721654664
552,1686274503.38,-19.043,162.598,45.41,-53.711,1209.297,346.1466382666496
553,1686274503.39,-69.824,-219.238,-89.844,-55.664,1209.301,371.69798519468395
554,1686274503.39,-33.691,-269.531,-37.598,11.23,1209.305,353.777575710203
555,1686274503.4,12.207,250.0,159.18,10.254,1209.309,353.5182771649043
556,1686274503.4,-38.574,458.984,166.016,-90.332,1209.313,351.4756523543033
557,1686274503.4,-95.703,-153.809,-99.121,-92.773,1209.316,351.74933045582384
558,1686274503.41,-65.918,-454.59,-149.414,-10.254,1209.32,357.6723791226907
559,1686274503.41,4.395,241.211,184.57,0.0,1209.324,362.5548190181874
560,1686274503.42,-16.602,514.648,171.875,-70.312,1209.328,344.7299557672733
561,1686274503.42,-101.074,-191.406,-66.895,-109.863,1209.332,356.56471675914656
562,1686274503.42,-83.008,-331.055,-20.02,-50.293,1209.336,351.1384389488419
563,1686274503.43,-2.441,384.277,205.566,1.953,1209.34,338.1797672171336
564,1686274503.46,-4.395,362.305,130.859,-43.457,1209.355,341.85626878659684
565,1686274503.46,-75.195,38.574,9.277,-111.328,1209.359,345.43405671565165
566,1686274503.47,-81.543,18.555,31.738,-66.406,1209.362,332.94910445148975
567,1686274503.47,1.465,80.566,105.469,24.902,1209.366,315.78451596468
568,1686274503.47,29.297,220.215,104.004,-2.441,1209.37,331.79670045538455
569,1686274503.48,-43.457,-422.363,-223.145,-62.012,1209.374,335.1898383921074
570,1686274503.48,-91.797,-870.117,-298.828,-52.246,1209.378,325.8312075798664
571,1686274503.48,-22.461,-115.723,104.98,5.371,1209.382,325.53000906584475
572,1686274503.49,51.27,252.441,49.805,31.738,1209.384,318.7192170184007
573,1686274503.49,39.062,288.574,137.207,13.184,1209.386,320.883203750333
574,1686274503.49,20.508,37.598,7.812,-38.574,1209.388,319.4105043155767
575,1686274503.49,-11.23,-347.168,-83.984,-59.57,1209.39,326.6808766268489
576,1686274503.5,-50.293,284.668,123.535,-91.309,1209.392,309.26476964141443
577,1686274503.5,-61.035,-259.277,39.551,-91.797,1209.394,312.3012191485599
578,1686274503.5,-33.691,432.617,155.762,-32.227,1209.396,299.9047583073144
579,1686274503.5,-15.625,493.164,202.637,-19.043,1209.398,305.735234632899
580,1686274503.5,39.062,153.32,28.32,31.738,1209.4,301.67274647348296
581,1686274503.51,33.691,-223.145,-120.605,-11.23,1209.404,299.085211609675
582,1686274503.51,-43.457,-240.234,-74.219,-83.008,1209.408,307.25393509705054
583,1686274503.52,-69.824,-17.578,42.969,-53.711,1209.412,292.98131817481016
584,1686274503.52,-6.836,-111.328,26.367,34.18,1209.416,292.63249916174885
585,1686274503.52,38.574,-153.32,-1.953,23.438,1209.419,287.7064412949219
586,1686274503.53,-14.648,229.98,119.141,-70.801,1209.423,288.62667375188005
587,1686274503.53,-59.57,385.742,163.086,-71.289,1209.427,291.0199357607381
588,1686274503.53,-14.16,-273.926,-110.84,27.344,1209.429,288.6122610700167
589,1686274503.54,24.902,-802.734,-258.301,48.828,1209.433,273.85175729252245
590,1686274503.54,-15.137,-19.043,60.059,-51.27,1209.437,285.4050164914048
591,1686274503.54,-69.824,261.719,79.59,-91.309,1209.441,279.3358312372306
592,1686274503.55,-37.598,43.945,36.621,-18.066,1209.445,281.1419585577934
593,1686274503.55,31.25,-87.402,20.508,28.32,1209.449,282.2105618335174
594,1686274503.56,11.719,-121.582,-2.93,-26.855,1209.453,272.16678655446
595,1686274503.56,-57.129,-85.449,22.461,-83.008,1209.457,272.0739971620914
596,1686274503.56,-59.57,-616.211,-218.75,-24.414,1209.46,266.4758432977572
597,1686274503.57,9.766,-970.215,-268.066,48.34,1209.464,263.11193181676185
598,1686274503.57,30.762,-41.992,116.211,-11.23,1209.468,261.93729830408324
599,1686274503.58,-33.691,259.766,67.383,-93.262,1209.472,258.0658976377436
600,1686274503.58,-62.5,34.18,-6.348,-64.941,1209.475,252.8344073694931
601,1686274503.58,4.883,366.699,168.945,9.766,1209.479,258.6595465047642
602,1686274503.59,44.922,533.203,187.012,3.906,1209.482,249.22814250495955
603,1686274503.59,-12.207,204.102,40.527,-75.195,1209.486,256.202179282551
604,1686274503.6,-71.777,10.742,-8.301,-88.867,1209.49,254.39960008198167
605,1686274503.6,-30.273,50.781,66.895,1.465,1209.494,251.31931018833515
606,1686274503.6,35.645,78.613,97.168,28.32,1209.498,247.44078933573905
607,1686274503.61,-5.859,-289.551,-129.883,-38.086,1209.502,241.01724459307292
608,1686274503.61,-83.984,-581.543,-168.945,-76.66,1209.506,242.98370888423642
609,1686274503.61,-53.711,163.574,162.109,-30.762,1209.51,241.29261999274004
610,1686274503.62,36.621,367.676,101.562,24.902,1209.514,235.93087335671396
611,1686274503.62,27.832,-269.531,-101.562,-23.926,1209.518,235.91487154105428
612,1686274503.62,-44.922,-221.191,-2.441,-89.844,1209.523,237.58574709172106
613,1686274503.63,-46.387,397.461,184.082,-44.434,1209.527,247.3683996715919
614,1686274503.63,16.602,374.023,110.84,39.551,1209.531,232.5071173422449
615,1686274503.64,21.973,135.742,79.102,10.742,1209.535,221.8633953739307
616,1686274503.64,-45.898,152.832,90.82,-73.73,1209.539,224.7536350133231
617,1686274503.64,-71.777,4.883,26.855,-65.43,1209.543,228.62116469134364
618,1686274503.65,0.488,-58.105,56.152,15.137,1209.547,218.4163459730855
619,1686274503.65,46.875,-567.383,-199.707,39.062,1209.551,227.71028750670067
620,1686274503.66,-4.395,-861.328,-306.152,-33.691,1209.555,230.05238103845156
621,1686274503.66,-52.246,83.984,125.488,-76.66,1209.558,226.28095787160547
622,1686274503.66,-17.578,305.176,125.0,-3.418,1209.562,220.81095970686346
623,1686274503.67,43.457,126.953,41.016,39.551,1209.566,221.09764416800638
624,1686274503.67,19.531,341.797,129.883,-33.691,1209.568,219.2265001626822
625,1686274503.67,-54.688,167.969,66.406,-87.891,1209.572,234.91786368810958
626,1686274503.68,-36.133,-153.809,-25.391,-20.02,1209.576,224.8771317590214
627,1686274503.68,38.574,61.523,59.082,42.969,1209.58,225.41512216769692
628,1686274503.68,35.645,347.656,104.98,-9.277,1209.584,227.13024451207437
629,1686274503.69,-41.992,64.941,9.766,-77.148,1209.588,238.74505271466361
630,1686274503.69,-60.059,-385.254,-181.152,-34.18,1209.591,238.96359346294
631,1686274503.7,3.906,-797.363,-274.902,50.293,1209.595,238.84683606292862
632,1686274503.7,22.461,-135.254,73.73,11.719,1209.599,224.0044465902701
633,1686274503.7,-33.691,419.434,161.133,-82.52,1209.603,233.01972997123698
634,1686274503.71,-80.078,52.246,25.879,-71.777,1209.607,229.14967873113304
635,1686274503.71,-21.973,151.367,83.496,10.254,1209.611,234.51571199823343
636,1686274503.71,31.738,472.168,188.965,20.996,1209.623,234.2808421102142
637,1686274503.72,-29.785,361.816,120.117,-60.547,1209.627,242.87687134802513
638,1686274503.72,-79.59,96.191,68.359,-76.172,1209.631,234.6603870214987
639,1686274503.72,-22.461,50.293,38.574,3.906,1209.635,233.61920291459893
640,1686274503.73,37.109,49.805,27.344,41.016,1209.638,227.86118414813814
641,1686274503.73,8.789,15.137,75.195,-27.344,1209.642,238.86309367958512
642,1686274503.74,-62.5,-541.016,-233.887,-62.5,1209.646,241.117469991542
643,1686274503.74,-54.688,-1000.0,-352.051,19.043,1209.65,235.81677837430965
644,1686274503.74,30.762,-129.395,91.797,51.758,1209.654,245.53575482338695
645,1686274503.75,37.598,310.059,103.516,-16.113,1209.658,241.44383340409752
646,1686274503.75,-40.527,56.641,0.488,-83.984,1209.662,234.70967720399491
647,1686274503.76,-54.199,254.883,113.281,-52.734,1209.666,249.731667191605
648,1686274503.77,19.531,466.309,162.109,31.25,1209.684,255.97813288075304
649,1686274503.78,45.41,180.176,22.461,22.461,1209.688,241.29804599906458
650,1686274503.78,-22.461,-9.766,-10.742,-68.359,1209.692,245.69246198343257
651,1686274503.78,-67.871,253.906,143.555,-79.102,1209.696,261.94454278455646
652,1686274503.79,-16.113,383.301,161.133,9.277,1209.7,250.41144582745795
653,1686274503.79,41.504,-159.668,-105.469,44.434,1209.704,255.70489547730944
654,1686274503.8,1.465,-725.586,-267.09,-31.25,1209.708,261.9634595437179
655,1686274503.8,-56.641,-204.59,33.203,-80.078,1209.711,258.0238210849286
656,1686274503.8,-23.926,372.07,195.312,-9.277,1209.715,267.7983105540119
657,1686274503.81,33.691,-153.809,-80.566,45.898,1209.719,257.8374922833999
658,1686274503.81,4.395,-502.93,-178.711,-22.949,1209.723,261.01809037578965
659,1686274503.82,-54.199,93.262,93.75,-90.332,1209.727,275.7608060605544
660,1686274503.82,-45.41,123.535,55.176,-34.18,1209.714,259.41227206263096
661,1686274503.82,28.32,64.453,86.914,35.645,1209.718,277.76408303524414
662,1686274503.83,39.551,179.688,127.441,4.395,1209.722,267.66258956794627
663,1686274503.83,-36.621,282.227,117.676,-82.031,1209.726,277.5835920543904
664,1686274503.83,-65.43,178.711,45.898,-58.105,1209.73,279.3268024623506
665,1686274503.84,-8.301,-79.59,-8.301,40.039,1209.734,284.62504486997693
666,1686274503.84,25.391,-178.223,3.906,39.062,1209.738,279.34572352035735
667,1686274503.84,-27.344,-69.824,46.387,-54.199,1209.741,284.7728414401058
668,1686274503.85,-73.73,-15.625,27.344,-72.266,1209.745,276.1205061008721
669,1686274503.85,-28.32,-193.848,8.301,22.461,1209.749,296.4432925586756
670,1686274503.86,28.809,60.059,114.746,44.922,1209.753,285.9574824763313
671,1686274503.86,-9.766,346.191,142.09,-41.504,1209.757,280.8175641291381
672,1686274503.88,-77.148,181.152,67.383,-78.125,1209.774,298.7178392170235
673,1686274503.88,-57.617,-715.332,-314.941,11.719,1209.778,295.3794792834803
674,1686274503.89,20.02,-740.723,-203.125,59.57,1209.782,293.01178736282856
675,1686274503.89,21.973,244.141,198.73,-21.973,1209.786,305.2582036208279
676,1686274503.89,-61.523,128.418,0.977,-87.891,1209.79,296.31993326399623
677,1686274503.9,-74.219,-304.199,-157.227,-42.969,1209.794,313.1400322953064
678,1686274503.9,13.184,-70.801,42.48,32.715,1209.798,310.5259980335174
679,1686274503.9,41.016,442.383,223.145,-5.859,1209.802,307.7138074137287
680,1686274503.91,-2.441,-321.289,-96.191,-53.711,1209.804,309.16309628177896
681,1686274503.91,-34.668,-92.285,-73.73,-70.801,1209.806,303.4300381085047
682,1686274503.91,-60.547,-226.074,21.973,-83.008,1209.808,313.31521933193306
683,1686274503.91,-76.172,-615.723,-193.359,-52.734,1209.809,306.40153790368754
684,1686274503.92,-16.113,407.227,187.988,-15.625,1209.812,313.09417576128453
685,1686274503.92,-10.742,200.195,176.27,3.418,1209.813,309.34165143050666
686,1686274503.92,47.852,371.582,113.281,34.668,1209.816,303.2481421511244
687,1686274503.92,41.504,354.492,90.82,6.348,1209.817,312.5279502567397
688,1686274503.92,11.23,50.293,20.02,-42.969,1209.82,305.7887839495349
689,1686274503.93,-55.664,-145.508,8.789,-97.168,1209.824,318.37782489860234
690,1686274503.93,-46.387,-110.352,23.438,-32.715,1209.828,315.5204460033206
691,1686274503.94,22.949,-48.34,18.555,32.715,1209.832,307.98023285268994
692,1686274503.94,27.832,-142.09,23.926,-5.371,1209.835,308.27305702514667
693,1686274503.94,-40.039,61.523,85.938,-74.219,1209.839,304.36185677326887
694,1686274503.95,-61.035,343.75,149.414,-52.246,1209.843,309.0105702546928
695,1686274503.95,9.277,324.219,118.652,24.414,1209.847,323.88119325678673
696,1686274503.96,27.832,-587.891,-277.344,22.949,1209.858,314.5810255689344
697,1686274503.96,-44.922,-745.117,-214.355,-73.242,1209.862,318.1532742791864
698,1686274503.97,-73.73,28.809,118.164,-88.867,1209.866,315.74834143773353
699,1686274503.97,-20.02,-144.043,-68.848,5.859,1209.87,319.43917456058824
700,1686274503.97,24.414,-225.586,-73.242,22.949,1209.874,328.8358600713476
701,1686274503.98,-21.484,-59.082,41.016,-64.941,1209.877,332.1270613391617
702,1686274503.98,-74.219,97.656,93.262,-92.773,1209.881,332.2824848656356
703,1686274503.98,-43.457,-126.465,-57.617,-8.789,1209.885,323.9941497301409
704,1686274503.99,13.672,-486.328,-147.461,29.785,1209.889,317.3901473098084
705,1686274503.99,-3.418,212.891,169.922,-48.828,1209.893,336.0206493494127
706,1686274504.0,-62.5,436.035,156.738,-91.309,1209.897,320.6794965963766
707,1686274504.0,19.043,189.941,84.473,23.438,1209.895,336.0370394059142
708,1686274504.0,-59.57,91.797,43.457,-35.645,1209.901,318.3887082284421
709,1686274504.0,41.016,469.238,184.57,-11.23,1209.899,338.4897321698209
710,1686274504.01,-47.852,320.312,104.98,-100.098,1209.903,335.08038153991157
711,1686274504.01,-74.219,101.562,78.613,-73.242,1209.906,340.75761724352
712,1686274504.01,14.648,121.094,85.938,28.809,1209.91,324.42849575868655
713,1686274504.02,45.41,40.039,25.391,29.297,1209.914,333.9861963239248
714,1686274504.02,-20.996,-17.09,64.453,-60.059,1209.918,345.7998206754965
715,1686274504.02,-68.848,-545.41,-224.609,-53.223,1209.922,346.41455508127797
716,1686274504.03,-25.391,-999.512,-353.027,50.293,1209.926,341.950797047203
717,1686274504.03,43.945,-81.543,106.445,47.852,1209.93,351.7873631054097
718,1686274504.04,18.555,329.59,89.844,-30.273,1209.934,338.0045352787186
719,1686274504.04,-54.688,88.379,-1.465,-62.988,1209.938,354.301062243257
720,1686274504.06,-28.809,362.305,150.879,0.488,1209.954,352.5497032196072
721,1686274504.06,46.387,536.621,181.152,47.363,1209.958,356.84029496822365
722,1686274504.07,24.414,179.688,36.621,-14.648,1209.962,337.06869806342246
723,1686274504.07,-52.734,13.184,2.441,-73.73,1209.966,342.5620181482859
724,1686274504.07,-42.969,277.832,112.793,-30.273,1209.97,344.909593178838
725,1686274504.08,34.18,196.777,109.375,43.945,1209.974,351.1884940483322
726,1686274504.08,38.574,-281.738,-130.859,12.695,1209.978,352.2500665157632
727,1686274504.08,-41.504,-744.629,-308.594,-65.43,1209.982,376.13467665213835
728,1686274504.09,-69.336,281.738,142.09,-81.543,1209.998,364.2690967256922
729,1686274504.09,-58.594,-105.957,58.594,-69.336,1209.985,355.7085684238837
730,1686274504.09,-15.625,357.91,117.188,1.465,1210.001,345.8900520831243
731,1686274504.09,6.348,481.934,193.359,4.883,1209.989,357.5777557135933
732,1686274504.1,40.527,195.801,117.676,33.691,1210.005,353.92543095879626
733,1686274504.1,36.133,-58.105,-35.156,20.996,1209.993,351.27469789606744
734,1686274504.1,1.953,211.914,117.676,-49.316,1210.009,348.4506397355587
735,1686274504.1,-19.043,-244.141,-34.668,-54.688,1209.997,356.68112502858446
736,1686274504.1,-57.617,264.16,104.004,-95.703,1210.013,358.501334568084
737,1686274504.11,-44.922,14.16,66.406,-22.949,1210.017,353.63128203093976
738,1686274504.11,21.484,-203.613,-0.488,47.363,1210.021,356.32400829177317
739,1686274504.12,21.973,-156.738,23.926,-3.906,1210.025,351.66433077557787
740,1686274504.12,-48.828,146.484,93.262,-76.172,1210.029,352.21458900652516
741,1686274504.12,-53.711,264.648,114.746,-36.133,1210.033,353.36063256581025
742,1686274504.13,13.184,-540.527,-201.66,62.012,1210.037,344.04157358605477
743,1686274504.13,28.32,-975.586,-304.199,41.992,1210.041,350.8389280804538
744,1686274504.13,-25.879,-60.059,105.469,-61.523,1210.043,361.6152386554568
745,1686274504.14,-50.293,171.387,69.824,-53.711,1210.047,363.33338207652054
746,1686274504.14,9.277,10.742,20.02,33.691,1210.051,351.67585106255245
747,1686274504.14,48.34,342.285,160.156,25.879,1210.055,368.3003756574504
748,1686274504.15,-5.859,422.852,169.434,-61.523,1210.059,360.42612132179016
749,1686274504.15,-51.758,-187.012,-103.516,-59.57,1210.063,358.0301454125485
750,1686274504.16,-17.09,-526.367,-171.875,21.484,1210.067,362.0725436848405
751,1686274504.16,44.922,175.781,175.293,24.902,1210.071,361.272574450688
752,1686274504.16,24.414,430.664,162.109,-52.246,1210.075,369.7040248464977
753,1686274504.17,-51.27,-32.715,-8.789,-86.914,1210.079,353.86814617443304
754,1686274504.17,-43.457,-49.805,60.059,-29.785,1210.082,368.1220502412623
755,1686274504.18,35.645,374.023,175.293,25.391,1210.086,356.0353181591683
756,1686274504.18,32.715,228.516,73.73,-12.207,1210.104,364.97429072988865
757,1686274504.18,-56.152,-362.305,-71.777,-72.754,1210.108,352.9326130747986
758,1686274504.19,-72.754,-239.258,44.922,-46.387,1210.112,360.2712698197333
759,1686274504.19,10.254,395.02,199.219,19.043,1210.115,353.7224550641934
760,1686274504.2,34.668,280.762,93.75,-3.418,1210.119,374.8848052490436
761,1686274504.2,-39.062,-240.234,-107.422,-80.566,1210.123,350.4092051426818
762,1686274504.2,-78.125,-340.332,-97.168,-72.754,1210.127,367.0413094355979
763,1686274504.21,-21.973,-120.605,35.156,2.441,1210.131,352.73705756013527
764,1686274504.21,27.832,190.918,106.445,4.883,1210.135,375.9729598526192
765,1686274504.21,-28.809,-510.742,-233.398,-52.246,1210.139,351.20617277599916
766,1686274504.22,-95.215,-707.031,-230.469,-77.148,1210.143,358.1270483139723
767,1686274504.22,-52.246,247.07,182.617,-27.832,1210.147,356.3241366402481
768,1686274504.24,18.066,92.285,26.367,18.066,1210.135,369.4320181813806
769,1686274504.24,-4.395,-24.902,-20.508,-55.176,1210.139,362.9223354817514
770,1686274504.25,-74.707,173.828,72.266,-111.816,1210.143,365.1621479561265
771,1686274504.25,-65.918,90.82,70.312,-45.41,1210.147,362.7861457159925
772,1686274504.25,13.672,-180.664,-71.289,41.016,1210.15,359.764129448259
773,1686274504.26,17.578,-580.566,-201.172,12.207,1210.154,355.56032930882003
774,1686274504.26,-51.27,-194.824,49.805,-83.984,1210.158,357.42301172933566
775,1686274504.26,-63.477,309.57,151.855,-67.871,1210.162,359.29292634209963
776,1686274504.27,-1.465,-48.828,-7.324,25.879,1210.166,354.42968058780355
777,1686274504.27,24.902,-139.16,-4.883,19.531,1210.17,356.6084858721604
778,1686274504.28,-31.25,267.09,128.906,-72.266,1210.174,344.1645312789289
779,1686274504.28,-70.801,388.672,135.254,-79.102,1210.178,344.2746271573123
780,1686274504.28,-24.414,-261.23,-97.656,17.09,1210.189,343.7296895647765
781,1686274504.29,29.297,-438.477,-101.074,38.574,1210.193,350.53106856001904
782,1686274504.29,3.906,287.598,164.062,-57.617,1210.197,350.70590218361343
783,1686274504.3,-50.781,206.543,62.5,-85.449,1210.201,339.3428269553627
784,1686274504.3,-25.879,-61.523,13.672,-3.418,1210.205,345.8591499918435
785,1686274504.3,25.391,-101.074,80.078,39.551,1210.209,347.36363660016906
786,1686274504.31,0.488,-122.559,39.062,-34.18,1210.213,342.5958929866468
787,1686274504.31,-64.453,-158.203,8.789,-102.539,1210.217,346.63365889957674
788,1686274504.31,-63.965,-630.371,-214.355,-32.715,1210.22,346.80977335536454
789,1686274504.32,3.418,-988.77,-308.105,43.457,1210.224,345.20443596720867
790,1686274504.32,22.461,-73.242,102.539,-20.996,1210.228,331.04922629002317
791,1686274504.33,-35.645,276.855,80.566,-94.238,1210.232,333.66190644572265
792,1686274504.33,-70.312,35.645,-4.395,-76.172,1210.224,353.59495702753924
793,1686274504.33,3.418,354.492,177.734,6.348,1210.228,329.2756699676166
794,1686274504.34,50.781,492.676,175.293,13.184,1210.232,336.23363293833125
795,1686274504.34,-12.207,173.34,35.645,-64.941,1210.236,326.6260566030609
796,1686274504.34,-66.406,8.301,-3.906,-71.777,1210.24,328.4432061284604
797,1686274504.35,-27.344,-23.438,25.879,19.043,1210.244,336.8557925023022
798,1686274504.35,34.668,127.93,119.141,36.621,1210.248,326.16160324655436
799,1686274504.36,4.883,-95.215,-63.477,-37.109,1210.251,331.51031565539176
800,1686274504.36,-67.871,-747.559,-319.336,-65.43,1210.255,330.96624338307583
801,1686274504.36,-45.41,-95.703,65.918,-20.02,1210.259,338.8943464446265
802,1686274504.37,38.574,508.789,209.961,23.438,1210.263,336.83578069421355
803,1686274504.37,24.902,-35.156,-27.832,-22.461,1210.267,328.6229243476881
804,1686274504.37,-54.688,-238.281,-13.184,-95.703,1210.27,332.91947581264617
805,1686274504.38,-57.617,317.383,170.898,-62.5,1210.274,334.8875654215389
806,1686274504.38,16.602,368.164,116.699,22.949,1210.278,341.7600988168175
807,1686274504.38,42.969,137.695,85.449,-1.953,1210.282,323.6931665881981
808,1686274504.39,-32.227,131.836,92.285,-89.844,1210.286,331.3410794554304
809,1686274504.39,-71.777,9.766,52.246,-72.266,1210.29,332.53542271990796
810,1686274504.4,-8.789,5.859,101.562,19.043,1210.294,335.65330964633534
811,1686274504.4,32.715,-526.367,-205.566,39.062,1210.297,319.9784670126437
812,1686274504.4,-20.996,-785.156,-241.699,-45.898,1210.301,334.92959315855614
813,1686274504.41,-73.242,152.344,173.34,-99.609,1210.305,320.83007916622313
814,1686274504.41,-34.18,243.652,102.539,-18.555,1210.309,342.2509846595145
815,1686274504.42,23.438,2.93,48.34,23.926,1210.313,345.1160064649972
816,1686274504.42,-1.953,264.648,120.117,-50.293,1210.316,320.0017444676942
817,1686274504.42,-61.523,427.246,168.945,-99.121,1210.32,341.44313212608984
818,1686274504.43,-49.316,59.57,-3.906,-27.832,1210.323,333.55806565886553
819,1686274504.43,26.367,-159.18,-67.871,35.645,1210.327,342.89295431046236
820,1686274504.43,23.438,212.402,105.957,-27.344,1210.331,334.90884408087567
821,1686274504.44,-56.641,129.395,71.289,-93.262,1210.335,350.2601394846413
822,1686274504.44,-75.195,-292.969,-113.77,-38.086,1210.339,340.11466224356536
823,1686274504.44,-4.883,-736.328,-259.277,51.27,1210.343,351.8401623600026
824,1686274504.45,34.668,-79.102,90.332,9.766,1210.347,359.3357245445189
825,1686274504.45,-25.391,428.223,172.852,-76.66,1210.351,346.08279178484213
826,1686274504.46,-76.66,79.59,19.043,-73.242,1210.355,355.0498868508508
827,1686274504.46,-15.625,139.16,83.496,5.859,1210.359,355.21875423296495
828,1686274504.46,50.781,435.547,173.828,23.926,1210.363,372.1319819544873
829,1686274504.47,-6.348,200.195,55.176,-59.57,1210.366,354.82833312378926
830,1686274504.47,-75.684,-279.297,-62.988,-93.262,1210.37,346.9891450497605
831,1686274504.48,-32.715,-20.996,90.82,-19.531,1210.374,373.8370149806831
832,1686274504.48,41.016,351.074,153.32,28.32,1210.378,357.7625830623765
833,1686274504.48,14.648,92.285,65.918,-38.574,1210.382,356.6370084341207
834,1686274504.49,-59.57,-637.207,-228.027,-61.035,1210.386,365.2606764785752
835,1686274504.49,-51.27,-805.176,-283.203,4.883,1210.39,367.99344063099113
836,1686274504.5,29.297,191.406,157.715,34.668,1210.394,360.4882113091143
837,1686274504.5,52.734,375.0,112.793,1.953,1210.398,368.65860797068325
838,1686274504.5,-20.996,-39.551,-1.953,-71.777,1210.402,375.3898201444122
839,1686274504.51,-62.012,158.691,140.625,-69.824,1210.406,360.2966013890186
840,1686274504.51,-1.953,429.199,188.965,14.16,1210.419,364.67810595053464
841,1686274504.51,29.297,213.379,61.523,15.137,1210.423,364.71113665592304
842,1686274504.52,-32.715,30.273,16.602,-72.754,1210.427,385.6583289788462
843,1686274504.52,-74.219,203.613,111.328,-80.566,1210.431,374.6584008767064
844,1686274504.52,-21.484,128.906,103.516,7.324,1210.435,378.5413936104441
845,1686274504.53,30.273,-233.398,-102.539,41.016,1210.439,393.2679847488083
846,1686274504.53,-17.09,-805.664,-321.289,-24.902,1210.443,384.15518400547654
847,1686274504.54,-83.496,-312.5,13.672,-84.961,1210.446,388.0586070091963
848,1686274504.54,-52.734,340.82,189.453,-20.996,1210.45,375.8682906829833
849,1686274504.54,23.926,127.441,96.68,48.828,1210.454,383.0767975401651
850,1686274504.55,17.578,123.047,97.656,-10.254,1210.458,383.66304557483636
851,1686274504.55,-59.082,337.891,149.414,-85.449,1210.462,381.8984020030857
852,1686274504.57,-61.035,278.809,107.422,-35.156,1210.478,388.55932152677264
853,1686274504.57,14.648,87.402,105.957,39.062,1210.482,382.05458104030316
854,1686274504.58,24.902,172.852,150.879,-0.488,1210.486,385.5941932245449
855,1686274504.58,-40.527,325.195,131.348,-79.59,1210.49,376.59006488983226
856,1686274504.58,-69.824,273.926,113.77,-61.035,1210.494,387.40908747027436
857,1686274504.59,-6.348,-120.605,-13.672,23.438,1210.498,381.65915630407846
858,1686274504.59,45.41,-291.016,-48.34,16.113,1210.502,380.5523950419926
859,1686274504.6,-7.324,-181.152,11.719,-67.383,1210.506,392.7203408360068
860,1686274504.6,-62.012,-123.535,21.484,-90.82,1210.51,395.975985429824
861,1686274504.6,-23.926,-610.84,-217.773,13.672,1210.514,380.31592447891353
862,1686274504.61,36.133,-870.117,-274.902,59.57,1210.518,380.9227012467944
863,1686274504.61,5.859,48.34,128.906,-53.223,1210.521,374.0045257188585
864,1686274504.61,-62.988,212.402,93.262,-93.75,1210.524,384.9081451758974
865,1686274504.62,-43.457,45.41,52.246,-20.02,1210.528,370.9281810952784
866,1686274504.62,32.715,405.762,190.43,34.668,1210.532,376.7818644813139
867,1686274504.62,26.855,458.984,145.508,-20.996,1210.536,379.73718084213414
868,1686274504.63,-43.945,83.984,5.859,-78.125,1210.54,375.8130670088975
869,1686274504.63,-57.617,-253.906,-61.523,-31.738,1210.544,372.0594969803585
870,1686274504.64,1.953,-7.812,72.266,32.715,1210.548,382.39750971395955
871,1686274504.64,24.902,451.172,225.586,-3.418,1210.551,375.0784471424449
872,1686274504.64,-39.062,-83.496,-56.152,-77.148,1210.555,371.0845158933785
873,1686274504.65,-80.566,-703.613,-270.996,-49.805,1210.559,372.104907221939
874,1686274504.65,-6.836,45.898,126.953,25.879,1210.563,382.49927494742826
875,1686274504.66,45.41,492.676,198.73,19.043,1210.567,382.2799024619118
876,1686274504.66,-19.531,-329.102,-153.809,-58.105,1210.555,380.94412205388977
877,1686274504.66,-72.266,-582.031,-141.602,-73.242,1210.559,376.75977923391713
878,1686274504.67,-26.855,241.211,178.223,-10.254,1210.562,372.3612938364479
879,1686274504.67,43.945,363.281,129.883,30.273,1210.566,374.49257085970976
880,1686274504.67,17.578,78.613,56.641,-28.32,1210.57,370.7901149056092
881,1686274504.68,-45.41,-162.598,-1.953,-71.777,1210.574,367.3374940855616
882,1686274504.68,-31.738,-187.012,11.719,-4.883,1210.578,375.15589015482334
883,1686274504.68,32.715,-97.168,45.898,48.34,1210.582,369.5970875315957
884,1686274504.69,31.738,-298.34,-54.199,-8.301,1210.586,373.2613168331479
885,1686274504.69,-36.621,-91.797,42.969,-81.055,1210.59,374.26019748206625
886,1686274504.7,-51.27,343.262,166.992,-58.594,1210.594,366.90073464961506
887,1686274504.7,16.602,290.039,112.305,21.484,1210.598,370.18092092703085
888,1686274504.7,43.457,-611.328,-282.227,47.363,1210.599,365.9431519511998
889,1686274504.71,-23.438,-791.992,-228.027,-37.598,1210.603,365.4168559269732
890,1686274504.71,-57.129,156.25,175.781,-83.984,1210.607,370.68452101671187
891,1686274504.72,-0.488,142.09,20.996,9.766,1210.611,362.4827635004553
892,1686274504.72,52.246,37.109,8.301,36.621,1210.615,359.00854746103715
893,1686274504.72,7.812,81.055,63.477,-49.316,1210.619,355.01387398695005
894,1686274504.73,-59.082,1.953,58.105,-79.59,1210.623,343.95312985626805
895,1686274504.73,-28.809,-203.613,-89.355,2.441,1210.627,358.8012548030363
896,1686274504.73,32.227,-608.887,-231.445,52.246,1210.631,357.57679544735
897,1686274504.74,12.695,11.23,91.309,-36.621,1210.634,344.53878173070484
898,1686274504.74,-56.152,432.617,172.852,-95.215,1210.638,346.2368588629926
899,1686274504.75,-55.176,137.207,87.402,-30.273,1210.642,340.086429022856
900,1686274504.75,16.602,234.375,129.883,36.133,1210.648,337.6006281098414
901,1686274504.75,19.043,446.289,153.32,-5.859,1210.652,334.76790872491273
902,1686274504.76,-58.594,131.348,31.738,-80.566,1210.656,335.16809856693936
903,1686274504.76,-89.355,-323.73,-62.012,-53.711,1210.66,325.54102303985906
904,1686274504.76,-14.16,-91.309,73.242,18.555,1210.663,337.3408334504345
905,1686274504.77,24.414,113.77,64.941,18.555,1210.667,328.60331889741155
906,1686274504.77,-31.738,-26.367,32.715,-54.688,1210.671,334.6489099640778
907,1686274504.78,-78.613,-586.426,-220.215,-58.105,1210.675,334.0238612472817
908,1686274504.78,-31.25,-763.672,-200.684,22.461,1210.679,333.3409326900772
909,1686274504.78,38.086,253.418,218.262,29.297,1210.683,326.48419077585123
910,1686274504.79,2.441,358.398,73.73,-44.922,1210.687,329.9430118774174
911,1686274504.79,-63.965,20.508,6.348,-83.008,1210.691,317.9685458351426
912,1686274504.79,-30.273,265.625,134.766,-15.625,1210.689,323.0131906882311
913,1686274504.8,42.48,499.512,176.758,36.621,1210.693,327.98812294766014
914,1686274504.8,15.137,207.52,40.039,-23.926,1210.697,322.45298111808825
915,1686274504.8,-52.246,-14.648,-23.438,-78.125,1210.701,318.77724660319825
916,1686274504.81,-53.711,170.41,54.688,-31.25,1210.705,334.5711049026211
917,1686274504.81,3.906,146.973,90.332,23.438,1210.708,327.34087542662814
918,1686274504.82,14.648,-200.684,-96.191,8.301,1210.712,328.53301863956005
919,1686274504.82,-61.035,-804.688,-312.5,-54.688,1210.716,320.3287558756178
920,1686274504.82,-85.938,-229.98,61.035,-60.059,1210.72,322.7267053447483
921,1686274504.83,-12.207,418.945,199.219,13.184,1210.724,334.5639475573332
922,1686274504.83,29.297,170.898,101.562,10.742,1210.728,320.39588071250245
923,1686274504.84,-29.297,123.047,90.332,-79.102,1210.732,325.2511854893296
924,1686274504.84,-88.379,322.754,136.23,-101.074,1210.765,336.13380703303835
925,1686274504.84,-44.922,344.727,126.465,-16.113,1210.769,321.25937606706066
926,1686274504.85,25.391,-21.484,7.324,25.879,1210.773,327.6845443218198
927,1686274504.85,-0.488,27.832,86.426,-43.457,1210.777,324.60473607585277
928,1686274504.85,-79.102,255.371,123.047,-101.562,1210.781,320.92680356552563
929,1686274504.86,-63.965,68.359,70.312,-37.109,1210.785,336.1439621698984
930,1686274504.86,13.672,-539.062,-207.031,49.805,1210.788,325.674264690626
931,1686274504.86,-2.441,-783.691,-294.922,-4.395,1210.792,327.6746309842527
932,1686274504.87,-70.312,-114.258,55.664,-101.074,1210.796,323.95808331839845
933,1686274504.87,-74.219,141.602,79.102,-71.289,1210.8,329.62594625852495
934,1686274504.88,0.0,-168.945,-3.906,18.555,1210.804,327.5905189664777
935,1686274504.88,21.973,-11.23,59.082,-0.977,1210.808,331.10963080212605
936,1686274504.88,-42.969,428.711,160.156,-90.332,1210.794,319.69373737070265
937,1686274504.89,-80.078,190.43,30.762,-76.172,1210.798,332.3557030863294
938,1686274504.89,-27.344,59.082,6.348,13.184,1210.802,321.9215227580757
939,1686274504.9,27.832,356.445,166.016,15.137,1210.805,342.1754189672234
940,1686274504.9,-11.23,353.027,128.906,-63.477,1210.809,328.57055175993844
941,1686274504.9,-73.242,-260.254,-165.039,-79.59,1210.813,342.48129865002403
942,1686274504.91,-41.992,-505.371,-153.32,-5.859,1210.817,341.45524225450754
943,1686274504.91,31.738,188.965,178.711,19.043,1210.821,340.610300977492
944,1686274504.91,16.602,456.055,158.203,-44.434,1210.825,326.017158522419
945,1686274504.92,-54.199,-127.441,-58.105,-78.125,1210.829,351.1494703162063
946,1686274504.92,-49.316,-368.164,-69.824,-19.531,1210.833,343.1682875081897
947,1686274504.93,31.738,229.004,166.992,38.086,1210.837,329.36929663266176
948,1686274504.94,34.668,480.957,188.965,-5.859,1210.839,338.6068203171928
949,1686274504.95,-50.293,-270.02,-128.418,-71.289,1210.843,332.940018907928
950,1686274504.95,-74.219,-516.113,-136.719,-47.363,1210.847,339.9904818081263
951,1686274504.96,2.93,301.758,194.824,16.602,1210.851,340.9283946850546
952,1686274504.96,37.598,353.027,106.445,5.859,1210.855,346.47239563092563
953,1686274504.96,-29.297,-125.0,-83.008,-65.918,1210.858,341.99270103062565
954,1686274504.97,-78.125,-342.773,-98.145,-57.617,1210.862,348.8304943876075
955,1686274504.97,-17.578,-139.16,40.039,24.902,1210.866,343.46515418607515
956,1686274504.98,40.039,219.727,138.672,26.855,1210.87,344.2402015654879
957,1686274504.98,-16.113,-464.844,-194.824,-37.598,1210.874,340.39232045671656
958,1686274504.98,-88.379,-749.023,-229.004,-72.266,1210.878,349.72713595885443
959,1686274504.99,-48.34,258.301,174.805,-26.855,1210.882,344.74985696803583
960,1686274504.99,19.043,228.516,66.406,33.203,1210.884,341.4201172974209
961,1686274504.99,-3.418,-59.57,-7.812,-20.996,1210.888,353.6956539440473
962,1686274505.0,-62.5,194.824,101.074,-78.613,1210.892,342.84372248651084
963,1686274505.0,-56.152,392.09,145.508,-38.086,1210.896,342.75400806299666
964,1686274505.0,14.16,115.234,7.324,24.902,1210.9,340.8568574014416
965,1686274505.01,21.484,-351.562,-167.969,-2.93,1210.904,338.8262653636844
966,1686274505.01,-41.504,-174.805,-3.906,-77.637,1210.908,339.0064331798789
967,1686274505.02,-59.57,266.113,184.082,-65.43,1210.912,348.1209806802373
968,1686274505.02,13.672,-95.215,-47.852,28.32,1210.916,343.66652988544115
969,1686274505.02,43.945,-618.652,-220.215,31.25,1210.92,340.04186047428465
970,1686274505.03,-22.949,3.418,93.262,-73.73,1210.923,347.3790225685689
971,1686274505.03,-64.453,288.574,120.605,-80.078,1210.927,343.85247353512284
972,1686274505.03,-13.184,35.645,34.668,9.766,1210.93,346.37757924216606
973,1686274505.04,45.41,151.367,102.051,25.391,1210.934,345.1611152157465
974,1686274505.04,7.812,318.359,141.113,-54.688,1210.938,348.4596600898474
975,1686274505.04,-56.152,51.27,36.621,-89.355,1210.942,348.2232286443823
976,1686274505.05,-43.457,-340.332,-64.941,-22.461,1210.945,344.7800493130442
977,1686274505.05,30.762,-320.801,14.648,36.621,1210.949,346.303396494224
978,1686274505.06,28.32,-141.602,46.875,-17.578,1210.953,347.23494533608863
979,1686274505.06,-45.41,-123.047,7.812,-88.379,1210.957,351.9361531237244
980,1686274505.06,-54.199,-637.695,-251.465,-25.879,1210.961,344.0743032549974
981,1686274505.07,16.602,-740.723,-191.406,45.898,1210.965,351.07258992903564
982,1686274505.07,40.039,247.07,211.426,-12.695,1210.969,342.43596766097215
983,1686274505.08,-29.297,229.98,39.062,-86.914,1210.973,346.25330832564765
984,1686274505.09,-74.707,-74.707,-20.996,-75.195,1210.989,342.0943909977377
985,1686274505.1,-15.625,301.758,173.828,-4.395,1210.993,346.535712757256
986,1686274505.1,36.133,519.043,191.895,3.906,1210.997,358.720882017299
987,1686274505.1,-19.043,202.637,35.645,-62.988,1211.001,342.88302821160744
988,1686274505.11,-63.965,-68.848,-29.297,-61.523,1211.005,353.86268547072046
989,1686274505.11,-18.555,-72.266,21.484,19.043,1211.009,349.9593970136562
990,1686274505.12,34.668,-44.922,47.363,42.48,1211.013,350.3129495551986
991,1686274505.12,2.93,-267.09,-122.559,-23.438,1211.017,356.3934808902881
992,1686274505.12,-41.016,143.555,72.266,-76.172,1211.019,356.4060111159075
993,1686274505.12,-74.707,-874.512,-357.91,-56.641,1211.021,346.99317341434386
994,1686274505.13,-47.363,374.023,152.832,-48.828,1211.023,359.3899479372451
995,1686274505.13,-52.246,-297.363,-9.277,-9.277,1211.025,351.74448888772724
996,1686274505.13,23.438,339.355,126.465,31.25,1211.027,345.708041303631
997,1686274505.13,33.203,423.34,163.574,29.297,1211.028,351.0307937180816
998,1686274505.14,45.898,116.211,70.801,4.883,1211.031,352.0182265557458
999,1686274505.14,26.367,180.176,73.73,-10.742,1211.032,341.76772634606795
1000,1686274505.14,-22.949,125.488,78.613,-88.867,1211.035,360.32644721357957
1001,1686274505.14,-62.012,21.973,34.18,-80.078,1211.038,343.4433150294812
1002,1686274505.15,-4.883,-150.391,17.578,14.16,1211.042,361.4001019251624
1003,1686274505.15,39.551,-244.141,-35.645,21.973,1211.046,354.7608720590625
1004,1686274505.15,-6.348,-193.359,-17.578,-62.5,1211.05,352.42163454469187
1005,1686274505.16,-58.594,106.445,63.477,-87.891,1211.054,346.8993783326045
1006,1686274505.16,-25.391,332.031,108.398,-18.555,1211.058,357.85053702992855
1007,1686274505.17,32.715,-471.68,-227.539,45.41,1211.062,362.76643881131605
1008,1686274505.17,-4.883,-990.234,-327.637,-8.789,1211.069,356.30774089537215
1009,1686274505.17,-64.941,-19.043,114.746,-82.52,1211.073,359.4735969894739
1010,1686274505.18,-49.316,197.266,57.617,-22.461,1211.077,350.1808060471161
1011,1686274505.18,22.949,12.695,-40.527,44.434,1211.08,359.00730723407946
1012,1686274505.18,40.527,314.453,106.445,-6.836,1211.084,349.1177312445454
1013,1686274505.19,-37.109,106.445,57.617,-80.566,1211.088,330.7014837315314
1014,1686274505.19,-70.801,-308.594,-135.254,-48.34,1211.092,362.50507883534175
1015,1686274505.2,-0.977,-481.445,-115.723,34.18,1211.096,353.1014085854781
1016,1686274505.2,35.156,169.922,169.922,6.836,1211.1,356.97686450551413
1017,1686274505.2,-30.273,485.352,143.555,-80.566,1211.104,360.04062335757953
1018,1686274505.21,-74.707,20.02,8.301,-75.195,1211.108,350.1913312521016
1019,1686274505.21,-22.949,-107.422,34.18,9.766,1211.112,353.2731755503904
1020,1686274505.21,32.715,320.801,184.57,19.043,1211.11,355.5807334473432
1021,1686274505.22,-1.953,413.574,129.883,-54.688,1211.114,358.53412525921175
1022,1686274505.22,-59.082,-31.25,-19.531,-74.219,1211.118,362.3066470697859
1023,1686274505.22,-36.133,15.137,46.387,-11.23,1211.122,348.19014741336514
1024,1686274505.23,24.414,364.258,126.953,19.531,1211.126,352.0937249225461
1025,1686274505.23,2.93,169.922,69.824,-41.992,1211.13,357.52615593161045
1026,1686274505.24,-78.125,-507.324,-221.191,-80.566,1211.134,355.180944900349
1027,1686274505.24,-78.613,-1000.0,-366.699,-32.227,1211.138,354.4738671048849
1028,1686274505.24,14.16,-118.652,101.562,10.254,1211.142,357.60717177897
1029,1686274505.25,35.645,403.32,148.438,-19.531,1211.146,351.7972134002163
1030,1686274505.25,-35.156,85.938,2.93,-83.008,1211.149,346.7548429272156
1031,1686274505.26,-55.176,229.98,107.422,-65.918,1211.153,346.0875880447402
1032,1686274505.26,7.324,454.59,188.965,6.836,1211.168,351.6150499947298
1033,1686274505.26,39.551,149.902,8.789,8.301,1211.172,360.0099087782771
1034,1686274505.27,-17.09,-125.0,-62.012,-66.406,1211.176,353.5469837191431
1035,1686274505.27,-65.918,218.262,139.16,-89.355,1211.18,362.4480429495164
1036,1686274505.28,-18.555,432.129,175.293,-5.859,1211.184,344.9492017869965
1037,1686274505.28,38.574,-54.199,-79.59,36.621,1211.188,360.88695349241357
1038,1686274505.28,-0.488,-792.48,-291.504,-22.461,1211.192,359.6355972303282
1039,1686274505.29,-59.082,-196.289,58.105,-82.52,1211.196,355.5571492351064
1040,1686274505.29,-33.691,445.312,195.312,-28.809,1211.2,352.8467857764524
1041,1686274505.29,25.879,185.547,79.102,34.18,1211.204,349.9946442872291
1042,1686274505.3,16.113,107.422,55.176,-23.438,1211.207,363.3334852144227
1043,1686274505.3,-45.898,308.105,101.562,-92.773,1211.211,357.8593103803303
1044,1686274505.32,-54.199,332.031,120.117,-52.734,1211.214,357.69875233241464
1045,1686274505.32,6.348,160.156,83.008,16.602,1211.218,353.0816676367271
1046,1686274505.33,23.438,207.031,110.352,-19.043,1211.222,361.0214625230389
1047,1686274505.33,-39.062,259.277,93.262,-90.82,1211.226,355.7741412148454
1048,1686274505.33,-75.195,53.223,19.043,-69.336,1211.23,355.31727296438555
1049,1686274505.34,-20.508,-536.133,-186.035,27.344,1211.234,344.99122856788995
1050,1686274505.34,20.02,-820.801,-229.492,46.875,1211.238,365.7652849414798
1051,1686274505.34,-22.461,-100.586,83.984,-46.387,1211.242,356.54299245750417
1052,1686274505.35,-73.242,275.391,128.418,-76.66,1211.246,349.46818323303415
1053,1686274505.35,-41.504,-504.883,-183.105,14.648,1211.25,367.1306741607904
1054,1686274505.36,30.273,-524.902,-126.953,46.875,1211.253,351.13677928191953
1055,1686274505.36,20.02,378.418,181.152,-48.34,1211.257,351.56891245508376
1056,1686274505.36,-49.316,166.016,18.555,-90.332,1211.26,352.95092260674545
1057,1686274505.37,-43.457,-39.062,-20.508,-16.113,1211.263,343.6842186390966
1058,1686274505.37,29.785,307.129,130.859,38.086,1211.267,349.9279490287625
1059,1686274505.38,24.902,455.566,148.438,-22.461,1211.271,362.15791857807307
1060,1686274505.38,-53.711,99.121,-3.418,-85.938,1211.275,346.7777515376262
1061,1686274505.38,-72.266,-289.062,-119.629,-44.434,1211.279,359.40505942810694
1062,1686274505.39,-2.93,-215.82,-22.949,30.273,1211.283,339.12383009521363
1063,1686274505.39,22.949,161.133,123.047,-1.465,1211.287,349.4421603652882
1064,1686274505.39,-42.969,-91.309,-74.219,-70.312,1211.291,353.0290414834831
1065,1686274505.4,-86.914,-834.473,-318.848,-60.547,1211.295,359.30928973936165
1066,1686274505.4,-25.391,-136.719,71.777,0.488,1211.299,356.71980214071505
1067,1686274505.41,33.203,441.895,166.992,12.207,1211.302,367.5181244055693
1068,1686274505.41,-13.672,118.164,17.578,-60.547,1211.304,346.3583383642387
1069,1686274505.41,-72.266,92.285,24.414,-83.984,1211.308,347.1585071742388
1070,1686274505.42,-34.18,354.004,142.578,-10.254,1211.312,360.2801337705262
1071,1686274505.42,33.203,311.035,106.445,33.691,1211.316,347.4336034520155
1072,1686274505.42,9.766,-0.977,-31.738,-22.949,1211.32,346.85969308353543
1073,1686274505.43,-66.406,-191.406,-95.703,-75.684,1211.324,363.0164035394576
1074,1686274505.43,-65.43,-216.309,-41.016,-29.297,1211.327,356.35337858064656
1075,1686274505.44,8.789,-35.645,77.148,35.156,1211.331,351.3698908587693
1076,1686274505.44,7.812,-513.672,-231.934,6.348,1211.335,356.9590505633021
1077,1686274505.44,-65.918,-957.52,-364.258,-62.5,1211.339,352.3951445364376
1078,1686274505.45,-71.777,-36.133,107.422,-58.105,1211.343,342.64594192688367
1079,1686274505.45,10.254,335.938,103.027,20.508,1211.347,353.3477200092463
1080,1686274505.45,43.457,66.895,13.672,19.531,1211.349,359.75082083071976
1081,1686274505.46,-15.625,229.004,120.117,-73.73,1211.353,353.44595456550604
1082,1686274505.46,-54.199,367.676,138.672,-83.496,1211.357,349.63100428824123
1083,1686274505.46,-13.672,140.137,36.133,13.672,1211.361,353.60016304753736
1084,1686274505.47,32.715,38.086,30.273,40.039,1211.365,352.2548110416184
1085,1686274505.47,-13.672,38.574,52.734,-44.434,1211.369,357.5428190282906
1086,1686274505.48,-76.172,-78.125,34.18,-77.637,1211.373,342.47778093376684
1087,1686274505.48,-44.434,-328.613,-141.113,-3.418,1211.377,353.3914538580968
1088,1686274505.48,21.484,-568.359,-204.59,45.41,1211.381,363.71213525455397
1089,1686274505.49,9.766,85.449,126.953,-33.691,1211.384,351.86851211417337
1090,1686274505.49,-50.781,373.047,123.047,-89.844,1211.388,350.9338515848983
1091,1686274505.5,-55.176,9.766,-2.93,-26.367,1211.392,354.4394872368676
1092,1686274505.5,14.16,-106.445,24.902,44.922,1211.395,351.5175649012677
1093,1686274505.5,36.621,241.699,144.531,3.906,1211.399,349.9596155249783
1094,1686274505.51,-40.039,321.777,106.445,-83.984,1211.403,347.04700697435584
1095,1686274505.51,-77.637,-197.754,-34.18,-55.176,1211.406,362.9357317657111
1096,1686274505.51,-6.348,-182.129,11.23,22.949,1211.41,364.12197931295685
1097,1686274505.52,30.273,33.691,44.434,3.418,1211.414,344.64952343282704
1098,1686274505.52,-25.879,-28.32,17.578,-75.684,1211.418,351.07351363001624
1099,1686274505.52,-76.172,-563.965,-240.234,-67.383,1211.422,349.4678952683071
1100,1686274505.53,-42.969,-799.805,-235.84,9.277,1211.426,351.13801210771686
1101,1686274505.53,27.344,169.922,171.387,16.602,1211.43,360.6295764035269
1102,1686274505.54,-1.465,322.754,65.918,-59.57,1211.434,352.0346371255047
1103,1686274505.54,-77.637,27.344,-5.371,-109.863,1211.438,350.48422156707386
1104,1686274505.54,-57.617,285.645,154.785,-21.484,1211.452,354.850976634066
1105,1686274505.55,19.043,525.391,191.895,42.48,1211.456,358.63692120337834
1106,1686274505.55,5.859,140.625,-17.09,-16.602,1211.46,360.02800856419424
1107,1686274505.56,-64.941,-129.883,-90.332,-77.148,1211.464,357.4607888950828
1108,1686274505.56,-57.129,254.395,123.047,-44.922,1211.468,354.11290778223514
1109,1686274505.56,22.461,240.234,131.836,31.25,1211.472,358.6631168732334
1110,1686274505.57,34.18,-266.602,-135.742,12.695,1211.476,365.1324262107746
1111,1686274505.57,-41.016,-772.949,-304.199,-67.871,1211.48,356.03633142024654
1112,1686274505.58,-75.195,-121.094,52.246,-82.52,1211.484,355.22093111347345
1113,1686274505.58,-15.137,469.238,176.758,-6.348,1211.488,357.863998880906
1114,1686274505.58,27.832,186.035,94.727,5.859,1211.492,366.7958654192695
1115,1686274505.59,-21.484,87.891,65.43,-81.055,1211.495,352.5141004815824
1116,1686274505.59,-80.078,295.41,120.117,-102.539,1211.503,350.83593200993505
1117,1686274505.59,-41.504,333.008,119.629,-23.926,1211.507,358.4561791136294
1118,1686274505.6,20.508,125.977,83.984,9.766,1211.511,355.7185511180706
1119,1686274505.6,-7.812,173.34,119.629,-60.547,1211.514,352.9263004477234
1120,1686274505.6,-72.266,201.66,54.688,-97.656,1211.518,353.17454003534846
1121,1686274505.61,-59.57,-0.977,24.902,-28.32,1211.522,353.1971138094156
1122,1686274505.61,4.883,-556.152,-210.938,35.156,1211.526,348.45597536837926
1123,1686274505.62,7.324,-847.656,-328.613,-13.184,1211.53,349.6157469040562
1124,1686274505.62,-56.641,-163.574,18.066,-95.703,1211.534,362.9118919398685
1125,1686274505.62,-67.871,147.461,46.875,-64.941,1211.538,358.8865174774899
1126,1686274505.63,1.465,-429.688,-118.164,31.738,1211.542,355.6074846347536
1127,1686274505.63,23.926,-248.047,21.973,5.371,1211.546,348.3250117434874
1128,1686274505.63,-43.457,439.453,165.527,-87.891,1211.544,346.0420442403288
1129,1686274505.64,-79.102,166.992,19.531,-79.59,1211.548,358.2553640536325
1130,1686274505.64,-18.555,12.695,-19.531,-4.395,1211.551,359.16938622142663
1131,1686274505.64,33.203,357.422,123.535,8.301,1211.555,344.3966392905654
1132,1686274505.65,-7.324,422.852,153.809,-70.801,1211.559,359.0250187458493
1133,1686274505.65,-75.684,-220.215,-148.438,-81.543,1211.563,347.70095059213185
1134,1686274505.66,-50.781,-529.785,-208.496,-0.977,1211.567,351.05895550880604
1135,1686274505.66,18.066,-38.574,81.055,24.902,1211.571,354.26106207002636
1136,1686274505.66,3.906,209.473,98.633,-41.992,1211.575,359.61772339005853
1137,1686274505.67,-62.5,-207.031,-118.652,-89.844,1211.579,355.51858324442577
1138,1686274505.67,-62.012,-537.109,-190.43,-42.969,1211.583,347.484993592673
1139,1686274505.68,15.625,189.941,126.953,4.395,1211.587,345.8362694571511
1140,1686274505.73,20.02,357.91,90.332,-32.715,1211.627,353.46535341114736
1141,1686274505.73,21.973,264.648,66.895,32.227,1211.633,357.7633510429717
1142,1686274505.73,0.977,-82.52,-75.195,-24.414,1211.637,354.0530525886728
1143,1686274505.73,-55.176,52.734,-4.883,-99.121,1211.631,354.3850678023651
1144,1686274505.74,-70.312,63.965,39.551,-76.172,1211.635,352.74917291298067
1145,1686274505.74,-68.848,138.184,75.195,-93.262,1211.641,350.7819126531595
1146,1686274505.74,-1.953,381.836,157.715,8.789,1211.639,364.60750908847825
1147,1686274505.74,-61.523,420.41,171.875,-45.898,1211.645,357.37609446116835
1148,1686274505.74,29.297,328.125,84.473,9.277,1211.643,345.86095475219065
1149,1686274505.74,15.137,139.16,-3.906,27.344,1211.648,350.83959285980706
1150,1686274505.75,23.438,-412.109,-216.797,12.207,1211.652,352.48531559217906
1151,1686274505.75,-34.18,-179.199,-121.582,-66.895,1211.647,349.2792015202777
1152,1686274505.75,-87.891,-347.656,-133.789,-79.102,1211.651,356.8795461277741
1153,1686274505.75,-44.434,-122.07,15.625,-75.684,1211.656,349.16889490985596
1154,1686274505.76,-35.645,-165.039,-9.277,2.441,1211.655,361.9827155914308
1155,1686274505.76,-69.824,351.074,171.387,-71.289,1211.66,354.0645030948513
1156,1686274505.76,25.391,25.879,75.195,23.438,1211.659,356.9441951184504
1157,1686274505.76,-7.324,7.324,-20.508,14.648,1211.664,355.8340223940706
1158,1686274505.76,36.133,-126.953,-13.672,11.719,1211.668,356.1328135423961
1159,1686274505.76,-19.043,-536.621,-212.891,-46.387,1211.663,349.3232180104232
1160,1686274505.77,-83.496,-836.426,-312.012,-76.172,1211.666,359.79107681818965
1161,1686274505.77,-15.625,300.293,142.578,-73.242,1211.672,348.7526140098806
1162,1686274505.77,-61.035,321.777,94.727,-85.449,1211.676,354.39851891928885
1163,1686274505.77,-47.363,112.305,119.141,-26.367,1211.67,360.71005949666915
1164,1686274505.78,-14.16,-162.598,-29.785,4.883,1211.679,362.0711665831047
1165,1686274505.79,47.363,-202.637,25.879,37.109,1211.683,352.70212538989716
1166,1686274505.79,20.508,275.879,123.047,-30.762,1211.687,355.1610974093197
1167,1686274505.8,-44.922,366.699,136.23,-69.336,1211.691,349.68571080835227
1168,1686274505.8,-31.738,-318.848,-167.48,13.184,1211.695,349.3465864323099
1169,1686274505.8,29.785,-992.188,-381.836,83.496,1211.699,359.4230200192994
1170,1686274505.81,20.996,-438.965,-27.832,-0.488,1211.702,358.5861103707081
1171,1686274505.81,-51.27,20.996,71.777,-89.355,1211.706,351.1118191665698
1172,1686274505.81,-71.289,-554.688,-214.355,-42.48,1211.71,350.84421992174356
1173,1686274505.82,6.348,-574.219,-180.176,30.762,1211.714,353.4232817124908
1174,1686274505.82,40.039,394.043,177.734,-14.16,1211.718,358.242135484817
1175,1686274505.83,-22.949,302.734,45.41,-83.008,1211.722,346.78301557446184
1176,1686274505.83,-60.547,34.668,-19.531,-61.035,1211.725,349.324420254102
1177,1686274505.83,-5.859,319.824,144.043,13.184,1211.728,363.0300171161764
1178,1686274505.84,43.945,502.93,182.617,20.02,1211.732,343.08220556911726
1179,1686274505.84,-13.672,26.855,-59.57,-38.086,1211.736,354.39653328596887
1180,1686274505.84,-79.59,-362.793,-141.113,-53.223,1211.74,360.63933176133247
1181,1686274505.85,-37.598,-123.047,38.086,16.113,1211.744,351.6590328508717
1182,1686274505.85,29.785,210.938,139.648,45.41,1211.748,359.6668248056137
1183,1686274505.86,8.789,-41.992,-84.961,-11.719,1211.752,357.6184163629656
1184,1686274505.86,-57.129,-581.543,-223.633,-52.246,1211.756,353.554239854098
1185,1686274505.86,-42.48,109.863,150.879,-18.066,1211.76,348.8032019341966
1186,1686274505.87,36.133,515.137,184.082,38.086,1211.764,346.57107601114035
1187,1686274505.87,32.715,186.523,43.945,-11.23,1211.767,351.15565559533843
1188,1686274505.87,-45.41,52.246,29.297,-83.008,1211.769,352.64920222797565
1189,1686274505.88,-55.176,322.754,134.766,-50.293,1211.773,353.0778499681783
1190,1686274505.88,22.949,390.625,126.953,35.156,1211.777,353.44013995944636
1191,1686274505.88,44.922,209.961,126.953,24.902,1211.781,362.26655673811626
1192,1686274505.89,-19.043,131.836,70.801,-47.363,1211.785,347.18008858845724
1193,1686274505.89,-61.523,-68.848,-28.32,-40.039,1211.789,347.76304458144557
1194,1686274505.9,-6.836,-49.316,39.062,22.461,1211.793,351.7040815531246
1195,1686274505.9,54.688,-477.539,-220.703,56.641,1211.797,353.1468521432004
1196,1686274505.9,-6.348,-1000.0,-386.719,-7.812,1211.8,355.46488451077136
1197,1686274505.91,-73.73,-176.758,30.273,-73.242,1211.804,350.8620656323779
1198,1686274505.91,-35.645,278.809,101.074,-9.277,1211.808,349.84238357074673
1199,1686274505.92,36.133,86.914,43.457,44.922,1211.812,351.79320607830795
1200,1686274505.92,24.414,203.125,90.82,-15.137,1211.814,347.1548463051711
1201,1686274505.92,-35.645,424.316,148.438,-71.289,1211.818,356.86711810422304
1202,1686274505.93,-34.668,188.965,26.855,-9.277,1211.822,348.29274590540257
1203,1686274505.93,34.668,47.852,18.066,59.57,1211.826,344.02125036965214
1204,1686274505.93,48.828,310.547,103.027,10.742,1211.83,350.49805657632504
1205,1686274505.94,-28.809,121.094,-10.254,-65.918,1211.833,347.26951501731565
1206,1686274505.94,-55.664,-337.891,-175.293,-26.855,1211.837,355.4502608893082
1207,1686274505.94,7.812,-556.152,-227.051,55.176,1211.841,354.9589304634462
1208,1686274505.95,43.457,-138.184,7.324,26.855,1211.845,358.37695834161207
1209,1686274505.95,-14.16,215.332,96.68,-62.988,1211.849,348.85462508001257
1210,1686274505.96,-68.848,-148.926,-102.051,-62.012,1211.853,360.9702596258529
1211,1686274505.96,-8.301,-229.004,-107.422,16.113,1211.857,345.71497052858587
1212,1686274505.96,60.547,379.883,130.859,30.762,1211.873,362.7657021373377
1213,1686274505.97,21.484,338.867,84.473,-41.016,1211.877,348.9097081993131
1214,1686274505.97,-51.758,49.805,-6.348,-77.148,1211.881,345.7104197942788
1215,1686274505.98,-36.621,129.883,44.434,-10.254,1211.885,353.0333640993549
1216,1686274505.98,41.992,366.211,146.973,39.062,1211.888,360.42433353364197
1217,1686274505.98,25.391,177.734,38.086,-12.695,1211.892,356.0866352350361
1218,1686274505.99,-60.547,-576.172,-298.828,-49.805,1211.896,349.855253352698
1219,1686274505.99,-62.5,-772.461,-245.605,-4.883,1211.9,357.8219902738634
1220,1686274505.99,20.508,164.551,145.996,33.691,1211.904,345.7530977850243
1221,1686274506.0,37.109,382.324,84.961,1.953,1211.908,353.2245447955204
1222,1686274506.0,-39.551,-168.945,-115.234,-70.801,1211.912,349.02193772397607
1223,1686274506.01,-62.5,-230.469,-30.762,-55.176,1211.916,355.7727160134668
1224,1686274506.01,9.766,296.387,163.086,25.391,1211.948,353.56928125963725
1225,1686274506.01,48.828,233.887,16.602,29.297,1211.952,336.7056417234129
1226,1686274506.02,-11.719,-233.887,-100.586,-45.41,1211.956,358.0391384050006
1227,1686274506.02,-65.918,46.875,99.121,-72.266,1211.96,353.9603302156443
1228,1686274506.02,-27.344,391.113,170.898,-2.93,1211.964,354.0916003245807
1229,1686274506.03,30.273,-71.289,-91.797,46.387,1211.968,363.0900868862033
1230,1686274506.03,-4.883,-502.93,-199.219,-24.902,1211.971,353.8756401049817
1231,1686274506.04,-72.754,54.199,81.543,-88.867,1211.975,356.0674206533625
1232,1686274506.04,-49.805,374.023,115.723,-27.832,1211.979,358.3062965493924
1233,1686274506.04,20.996,45.898,25.879,29.785,1211.983,351.2204859137798
1234,1686274506.05,3.906,-38.574,24.902,-23.438,1211.987,354.6650461185559
1235,1686274506.05,-71.777,276.367,131.348,-88.379,1211.991,351.047277185301
1236,1686274506.06,-72.266,301.27,93.75,-46.875,1211.957,357.96056622395395
1237,1686274506.06,6.348,-46.387,-38.574,27.344,1211.961,357.2534290484883
1238,1686274506.06,34.668,-97.168,7.812,8.789,1211.965,354.4290493084621
1239,1686274506.07,-24.902,208.984,97.656,-65.918,1211.969,349.8222472851171
1240,1686274506.07,-69.336,263.184,62.012,-74.219,1211.973,349.370620568051
1241,1686274506.08,-22.949,-436.035,-236.328,23.926,1211.977,344.8789100292716
1242,1686274506.08,24.414,-808.105,-284.668,45.41,1211.981,358.5717267459067
1243,1686274506.08,-14.16,-148.926,44.922,-68.359,1211.985,365.400844463931
1244,1686274506.09,-64.453,69.336,1.953,-100.586,1211.989,352.88587924993124
1245,1686274506.09,-30.273,-85.938,6.836,-22.461,1211.993,357.3995717398273
1246,1686274506.1,42.969,89.355,81.543,20.996,1211.996,356.798413954148
1247,1686274506.1,23.438,360.352,118.164,-42.969,1212.0,351.52224870125605
1248,1686274506.13,-58.594,81.543,3.418,-85.938,1212.024,353.9121231213462
1249,1686274506.13,-57.129,-233.887,-85.938,-30.762,1212.028,362.0898266509372
1250,1686274506.14,15.625,140.625,87.891,20.996,1212.032,362.5388857651565
1251,1686274506.14,22.949,322.754,86.426,-21.484,1212.036,356.9436840624428
1252,1686274506.14,-49.316,-69.824,-97.168,-83.984,1212.04,350.7957431539411
1253,1686274506.15,-80.078,-864.258,-491.699,-30.273,1212.044,352.5382804589192
1254,1686274506.15,-5.371,-884.277,-352.051,53.223,1212.048,345.8092943567357
1255,1686274506.16,38.086,45.41,98.633,12.207,1212.052,355.2449228739458
1256,1686274506.16,-12.695,133.301,-11.23,-53.711,1212.054,358.7282972689897
1257,1686274506.16,-30.273,73.73,18.555,-83.008,1212.055,358.96114129237026
1258,1686274506.16,-67.871,63.477,23.438,-75.684,1212.058,350.8336734406726
1259,1686274506.16,-79.59,-15.625,-7.324,-97.656,1212.059,345.1501850386457
1260,1686274506.17,-32.715,339.355,132.812,-10.254,1212.062,357.9195620478412
1261,1686274506.17,-18.555,415.039,146.973,-16.602,1212.063,347.6063702360307
1262,1686274506.17,35.156,373.535,117.188,37.109,1212.066,346.9255995880846
1263,1686274506.17,37.109,457.52,129.395,10.254,1212.067,352.14144058885756
1264,1686274506.17,17.09,113.281,-4.395,-22.461,1212.07,346.8834820236377
1265,1686274506.18,-61.523,-177.734,-169.434,-82.52,1212.074,351.98922617697554
1266,1686274506.18,-65.43,-192.871,-104.98,-38.086,1212.078,349.4438151218223
1267,1686274506.18,14.16,-107.91,-3.418,37.598,1212.082,358.2875085087163
1268,1686274506.19,29.297,-163.574,-45.41,-0.977,1212.086,354.20489128828154
1269,1686274506.19,-47.852,68.848,25.391,-96.68,1212.089,351.41350235695865
1270,1686274506.2,-61.035,291.016,99.121,-69.336,1212.093,363.5314026459983
1271,1686274506.2,23.438,255.371,50.781,21.484,1212.097,357.029559583596
1272,1686274506.2,51.758,-531.738,-299.316,35.645,1212.099,357.6104229694159
1273,1686274506.21,-18.555,-973.633,-377.93,-45.41,1212.103,357.93987840547106
1274,1686274506.21,-59.57,-34.668,76.172,-78.613,1212.107,353.2614484275142
1275,1686274506.22,-9.766,200.684,63.965,4.883,1212.111,362.0588489821033
1276,1686274506.22,52.734,25.391,-37.109,29.297,1212.115,354.77546534914256
1277,1686274506.22,12.207,-3.906,-29.785,-39.551,1212.119,348.8294903327851
1278,1686274506.23,-57.617,58.594,42.969,-75.684,1212.123,360.49407677836257
1279,1686274506.23,-35.645,-60.059,-72.266,-8.789,1212.127,340.4864024409664
1280,1686274506.23,15.625,-532.227,-275.879,44.922,1212.131,343.24492446962256
1281,1686274506.24,1.465,-169.434,-23.438,-30.273,1212.134,340.391990768693
1282,1686274506.24,-62.988,229.004,107.422,-97.656,1212.138,364.18612918963345
1283,1686274506.25,-72.266,-139.648,-83.984,-48.34,1212.142,361.90972567678875
1284,1686274506.25,-1.953,-196.289,-80.078,24.414,1212.144,358.0509176079254
1285,1686274506.25,26.855,380.859,141.602,-6.836,1212.148,354.7483549417737
1286,1686274506.26,-34.18,289.062,47.363,-78.613,1212.152,355.364201384871
1287,1686274506.26,-65.918,87.402,0.0,-60.547,1212.156,342.3190902445016
1288,1686274506.26,-5.859,211.426,50.781,26.367,1212.16,350.7566520421924
1289,1686274506.27,29.297,145.508,28.809,20.02,1212.164,345.05970891647485
1290,1686274506.27,-16.602,-74.219,-38.086,-62.988,1212.168,358.4380248861808
1291,1686274506.28,-63.477,-623.535,-297.363,-49.316,1212.171,361.09650310089876
1292,1686274506.28,-38.086,-774.902,-284.18,23.926,1212.175,355.4997263154574
1293,1686274506.28,27.344,206.543,132.324,26.367,1212.179,367.3043792115184
1294,1686274506.29,-11.23,367.188,62.5,-51.27,1212.183,358.2259976100678
1295,1686274506.29,-92.773,-39.551,-93.262,-103.516,1212.187,350.04839839141306
