,timestamps,TP9,AF7,AF8,TP10,Secondary Timestamp,emg_signal
0,1686621291.39,-55.664,-921.875,-61.523,-49.805,669.287,377.33493383929107
1,1686621291.4,20.508,-230.469,44.922,24.414,669.291,369.189897139264
2,1686621291.4,3.906,482.91,-33.203,20.996,669.295,366.2582336213339
3,1686621291.4,-67.871,-328.125,-78.125,-38.086,669.299,379.1553623453184
4,1686621291.41,-84.473,-512.207,-39.062,-55.176,669.303,387.2519698679647
5,1686621291.41,-28.32,92.285,-7.812,-0.977,669.307,379.39174070182827
6,1686621291.41,-0.488,284.668,-20.508,28.32,669.31,372.3027993350807
7,1686621291.42,-72.754,-280.762,-76.172,-30.762,669.314,377.0615130162818
8,1686621291.42,-127.93,-671.875,-26.367,-79.59,669.318,388.45834476501597
9,1686621291.43,-58.105,296.387,33.691,-24.902,669.322,378.9534069926131
10,1686621291.43,7.812,690.918,-36.133,40.039,669.326,376.853258304578
11,1686621291.43,-26.367,249.023,-50.293,23.438,669.33,382.8109681152328
12,1686621291.44,-66.895,125.977,-16.113,-24.414,669.34,395.2906043879459
13,1686621291.44,-35.645,314.941,-17.578,-9.766,669.344,385.5574405599888
14,1686621291.45,12.695,217.773,-41.016,40.039,669.348,395.2962041308207
15,1686621291.45,-0.488,-125.488,-22.461,19.043,669.351,401.5517310658982
16,1686621291.46,-58.105,-61.035,-27.344,-40.527,669.355,384.6324489045994
17,1686621291.46,-59.082,-21.484,-32.227,-38.086,669.359,393.30808766878374
18,1686621291.46,1.465,-14.16,-25.879,25.391,669.363,395.88889381530595
19,1686621291.47,2.441,-298.828,-2.441,41.016,669.367,393.4116440757679
20,1686621291.47,-61.035,-137.207,28.32,-28.809,669.371,393.4496266410318
21,1686621291.47,-87.891,436.523,-33.203,-65.918,669.375,389.1795197330813
22,1686621291.48,-27.344,283.203,-54.688,1.465,669.379,398.63117096448923
23,1686621291.48,-57.129,315.918,-46.875,-24.902,669.377,389.4530546603718
24,1686621291.48,0.977,207.031,-52.246,39.551,669.383,367.0834762238538
25,1686621291.48,-97.656,250.977,-48.828,-60.059,669.381,394.4352724784373
26,1686621291.49,-41.504,-63.965,-37.598,0.488,669.385,381.8719484255563
27,1686621291.49,25.391,-45.41,-24.414,57.129,669.389,390.0031225939231
28,1686621291.5,5.859,232.91,-53.223,24.902,669.393,404.3981443001395
29,1686621291.5,-40.527,-88.379,-64.941,-33.691,669.397,391.99648477587897
30,1686621291.5,1.953,-425.293,-42.48,0.0,669.401,390.75641576304935
31,1686621291.51,52.246,-982.422,-39.551,62.012,669.405,404.99801770834137
32,1686621291.51,24.414,-403.809,-26.855,36.621,669.409,395.0509021840023
33,1686621291.52,-26.855,433.594,-56.152,-23.926,669.413,400.3193630776014
34,1686621291.52,-14.648,187.5,-48.34,-24.414,669.417,389.7859453443982
35,1686621291.52,68.359,385.742,-0.488,44.434,669.42,401.97911491341176
36,1686621291.53,75.684,630.371,-25.879,69.336,669.425,391.5933465568379
37,1686621291.53,-6.836,233.398,-77.637,14.648,669.429,403.1935098906292
38,1686621291.54,-42.48,-152.344,-50.293,-13.184,669.433,416.7636950143334
39,1686621291.54,12.207,191.406,-9.766,37.109,669.437,400.0286080240552
40,1686621291.54,48.828,456.055,-47.363,82.52,669.441,394.33548563903094
41,1686621291.55,0.0,39.062,-83.984,27.344,669.445,397.4502174225556
42,1686621291.55,-67.383,-610.352,-17.09,-30.762,669.448,393.16986663426223
43,1686621291.56,-37.109,-343.262,38.086,14.648,669.452,403.34628853845123
44,1686621291.56,16.113,492.676,-10.254,71.289,669.456,391.15999687939916
45,1686621291.56,-35.156,338.867,-68.848,44.434,669.46,390.372964109654
46,1686621291.57,-96.191,-242.188,-66.895,-5.859,669.464,396.7657831328972
47,1686621291.57,-49.805,71.777,-7.812,19.043,669.468,400.17178379424416
48,1686621291.57,19.043,496.582,-20.508,77.637,669.481,391.2881020736745
49,1686621291.58,-7.812,257.812,-69.336,64.453,669.485,391.8396874108016
50,1686621291.58,-78.613,-289.062,-68.359,-1.465,669.489,403.9572666701714
51,1686621291.58,-68.359,-96.68,-15.625,-8.789,669.493,419.4197084622368
52,1686621291.59,-1.465,363.281,-31.738,51.758,669.497,405.1895268352285
53,1686621291.59,9.766,-116.699,-82.031,77.148,669.501,406.7762247983326
54,1686621291.6,-49.805,-900.391,-35.645,27.344,669.504,401.743912568749
55,1686621291.6,-72.754,-169.922,25.391,-8.789,669.508,411.49485714685443
56,1686621291.6,-4.395,658.691,-33.691,43.457,669.512,419.73513415036496
57,1686621291.61,37.109,408.203,-54.688,89.844,669.516,412.1545183998561
58,1686621291.61,-16.602,71.777,-52.734,52.246,669.52,394.75841718573537
59,1686621291.62,-74.707,138.672,-34.668,-1.953,669.524,414.07919169709743
60,1686621291.63,-28.809,339.355,-44.922,31.25,669.541,396.8698352513188
61,1686621291.64,45.41,189.941,-49.316,94.727,669.545,407.77586572351294
62,1686621291.64,20.508,233.887,-42.48,63.477,669.549,403.96443413561536
63,1686621291.64,-50.781,279.297,-51.27,-10.742,669.552,413.23044505515526
64,1686621291.65,-38.086,226.562,-53.711,-2.93,669.556,418.9040779067669
65,1686621291.65,31.738,-487.793,-55.664,68.359,669.56,410.4995521355033
66,1686621291.66,35.645,-457.52,-19.531,69.336,669.564,419.5781079694504
67,1686621291.66,-28.32,412.598,-33.203,3.418,669.568,401.1765899948587
68,1686621291.66,-29.297,144.531,-59.082,-2.93,669.572,394.1095753650607
69,1686621291.67,56.152,58.594,-45.41,67.383,669.576,410.569152172584
70,1686621291.67,82.52,466.309,-27.832,99.121,669.58,411.091642854192
71,1686621291.68,31.25,418.945,-57.129,46.875,669.584,404.62936721501836
72,1686621291.68,-1.953,-183.594,-68.848,11.23,669.574,421.53029634895336
73,1686621291.68,42.48,-173.828,-44.434,63.477,669.577,405.58646695497464
74,1686621291.68,86.426,162.109,-33.691,105.469,669.581,408.4850559751514
75,1686621291.69,52.246,174.805,-40.527,61.035,669.585,414.7564780724399
76,1686621291.69,2.441,-189.453,-62.988,6.348,669.589,425.2828187269874
77,1686621291.7,23.438,-528.32,-39.062,29.785,669.593,418.9313839880578
78,1686621291.7,80.078,178.711,-0.977,93.262,669.597,428.46344726361855
79,1686621291.7,65.918,636.23,-34.18,73.73,669.601,418.3355672104783
80,1686621291.71,1.953,-145.508,-91.797,11.23,669.605,413.55925480422843
81,1686621291.71,2.441,-740.234,-10.254,22.949,669.609,418.0076710247378
82,1686621291.72,78.125,370.605,37.109,92.285,669.613,393.0354997070381
83,1686621291.72,77.148,727.539,-65.918,101.562,669.617,407.80041446907995
84,1686621291.72,-13.184,127.93,-66.895,25.391,669.618,413.5239991030139
85,1686621291.72,-29.297,122.07,-15.625,2.93,669.622,432.23461890795267
86,1686621291.73,53.223,424.316,-23.438,68.848,669.625,420.6237835972777
87,1686621291.73,96.68,271.973,-46.875,107.91,669.629,395.4966727617117
88,1686621291.74,36.621,-188.965,-52.246,57.129,669.633,411.7048825573677
89,1686621291.74,-21.484,-381.348,-28.32,13.672,669.637,405.32738757302246
90,1686621291.74,15.137,78.125,7.812,62.5,669.641,411.45965792930554
91,1686621291.75,53.223,434.57,-49.805,113.77,669.645,410.50652389613117
92,1686621291.75,15.625,-430.176,-70.801,80.566,669.649,401.7805416717912
93,1686621291.76,-31.25,-414.062,11.23,18.555,669.653,421.75268486610145
94,1686621291.76,1.465,525.391,-3.418,30.273,669.657,420.61180109293264
95,1686621291.76,85.938,399.414,-57.617,97.168,669.661,418.70601032024484
96,1686621291.77,103.027,228.027,-59.57,94.727,669.664,411.40463315490393
97,1686621291.77,37.109,291.016,-54.688,29.297,669.668,418.0038585723854
98,1686621291.77,22.949,76.172,-60.547,22.461,669.672,419.6514177046071
99,1686621291.78,85.449,-211.426,-52.734,94.238,669.676,410.77766815623437
100,1686621291.78,79.102,-219.727,-58.105,119.629,669.68,417.21042153416477
101,1686621291.79,-5.371,13.184,-57.617,52.734,669.684,425.147244476373
102,1686621291.79,-29.297,77.148,-54.688,18.066,669.688,417.1059232467762
103,1686621291.79,42.969,-189.453,-64.453,77.148,669.692,405.11314903079483
104,1686621291.8,83.496,-430.176,-1.953,121.582,669.696,405.35218799508834
105,1686621291.8,33.691,316.406,5.371,72.754,669.699,422.72413487265305
106,1686621291.8,-19.043,476.562,-66.895,20.508,669.703,426.6306953955836
107,1686621291.81,9.766,226.074,-27.344,65.918,669.707,409.21478154035526
108,1686621291.81,60.547,438.965,-17.578,126.465,669.708,414.94407268277604
109,1686621291.82,32.715,506.836,-47.852,96.191,669.712,417.7651176332411
110,1686621291.82,-24.902,78.125,-54.199,39.062,669.716,406.6671076725763
111,1686621291.82,0.488,-164.551,-23.926,44.434,669.72,439.5967418268052
112,1686621291.83,66.406,179.199,-37.598,103.516,669.724,411.82250612693474
113,1686621291.83,44.922,71.289,-66.406,114.746,669.728,427.57010800737254
114,1686621291.83,-43.945,-254.395,-61.523,59.57,669.732,401.790820160765
115,1686621291.84,-62.5,-583.008,-16.113,49.805,669.736,407.97715644774223
116,1686621291.84,12.207,-259.277,49.805,106.445,669.74,415.30584933547294
117,1686621291.85,57.617,496.094,-11.23,126.953,669.744,422.3087873395556
118,1686621291.85,15.137,152.832,-92.285,66.406,669.747,417.0333171653279
119,1686621291.85,-0.488,-373.535,-50.781,34.668,669.751,407.67840394713176
120,1686621291.87,64.941,135.742,7.812,85.938,669.767,412.34077847883344
121,1686621291.88,90.332,520.996,-46.387,120.117,669.771,408.6949733265419
122,1686621291.88,38.086,-129.395,-114.746,81.543,669.775,405.6248146975909
123,1686621291.88,-7.324,-504.883,-76.66,23.438,669.779,402.6180927598763
124,1686621291.89,32.227,134.766,-22.949,51.758,669.783,405.498342924375
125,1686621291.89,87.402,251.953,-46.387,132.812,669.787,399.46879256732666
126,1686621291.89,54.688,-297.363,-69.336,115.723,669.791,414.36144476310056
127,1686621291.9,-29.785,-651.367,-29.785,41.992,669.794,402.9538127618054
128,1686621291.9,-17.578,163.574,12.207,48.34,669.798,399.0781386823612
129,1686621291.9,-9.277,103.027,-20.02,39.062,669.801,418.3083848333787
130,1686621291.91,62.5,625.0,-44.922,114.746,669.802,392.0875997345751
131,1686621291.91,67.383,339.844,-44.434,95.703,669.805,399.94566262564473
132,1686621291.91,73.73,249.512,-64.941,131.836,669.806,417.80883222284365
133,1686621291.91,99.121,-78.125,-52.246,137.695,669.809,413.0532525113522
134,1686621291.91,8.789,-112.305,-45.41,72.266,669.81,421.433478240055
135,1686621291.92,44.434,-154.785,-22.461,86.914,669.813,413.6049948831631
136,1686621291.92,13.672,60.059,-49.316,39.551,669.817,400.57210189850025
137,1686621291.92,64.941,-172.363,-63.965,93.75,669.821,401.3677699253438
138,1686621291.93,122.559,-156.25,-11.719,151.367,669.825,413.77078976918807
139,1686621291.93,125.977,119.629,-38.086,116.211,669.828,394.8674621015718
140,1686621291.93,82.031,121.094,-54.199,67.871,669.832,400.1711222217635
141,1686621291.94,58.594,-59.57,-47.852,77.148,669.836,401.3648529298574
142,1686621291.94,81.055,-481.934,-33.203,117.188,669.84,404.1825672572237
143,1686621291.95,65.918,-97.656,9.277,101.562,669.844,412.7631352378668
144,1686621291.95,2.441,301.27,-44.434,47.363,669.856,390.13727309715847
145,1686621291.95,2.441,-184.57,-62.012,69.824,669.86,405.1308196381539
146,1686621291.96,62.5,-365.723,-59.57,142.578,669.864,410.6101595381268
147,1686621291.96,68.848,71.777,-29.297,160.645,669.868,404.1056171988478
148,1686621291.96,-1.953,200.684,-54.688,96.68,669.872,394.14094337218876
149,1686621291.97,-32.715,-428.223,-80.566,72.266,669.876,396.8733892379888
150,1686621291.97,51.758,-1000.0,-35.645,155.762,669.88,410.1605399141343
151,1686621291.97,121.582,-237.793,27.344,212.402,669.884,407.7650563588846
152,1686621291.98,85.449,603.516,-29.297,169.434,669.888,399.7287681214188
153,1686621291.98,62.012,137.695,-50.781,129.883,669.892,410.83305076961403
154,1686621291.99,128.906,166.504,-0.977,177.734,669.895,410.71881948680465
155,1686621291.99,180.664,505.371,-18.555,225.586,669.899,404.4347646675624
156,1686621291.99,122.07,318.359,-63.477,181.152,669.902,409.2605740853228
157,1686621292.0,49.316,-153.32,-61.035,124.512,669.906,412.7842449653244
158,1686621292.0,81.543,-59.082,-6.348,150.391,669.91,414.53083008251934
159,1686621292.0,145.02,242.188,-12.695,215.332,669.914,395.9098608392167
160,1686621292.01,140.137,66.895,-49.316,209.473,669.918,408.1420319483179
161,1686621292.01,84.473,-710.449,-65.918,139.648,669.922,402.7876183892864
162,1686621292.02,104.004,-632.324,8.301,128.418,669.926,414.13117632900816
163,1686621292.02,187.012,403.809,20.508,190.43,669.93,400.42307004839915
164,1686621292.02,188.477,267.578,-53.711,208.496,669.934,404.8016307248858
165,1686621292.03,124.512,-162.109,-44.922,145.996,669.938,386.45494063530447
166,1686621292.03,99.609,-61.035,-29.785,113.77,669.941,397.99135790051855
167,1686621292.04,139.16,117.188,-36.621,161.621,669.945,395.1584841445642
168,1686621292.05,169.434,71.289,-44.922,195.801,669.948,404.00529621818106
169,1686621292.06,114.258,-149.414,-62.5,150.391,669.952,401.7208786231561
170,1686621292.06,55.664,-289.551,-47.363,101.074,669.956,388.51501008635887
171,1686621292.06,92.773,-127.441,-18.555,137.695,669.959,389.50154632154727
172,1686621292.07,131.348,-134.766,-56.641,200.195,669.963,403.10181398440335
173,1686621292.07,91.797,-658.691,-69.336,176.27,669.967,411.62205011991705
174,1686621292.07,29.297,-400.391,-23.438,107.422,669.971,409.32227510739824
175,1686621292.08,53.223,108.887,-39.062,126.465,669.975,378.9959060290573
176,1686621292.08,132.324,-147.949,-84.961,204.102,669.979,391.83510339973907
177,1686621292.09,138.672,-502.441,-58.105,193.359,669.983,411.44966521311744
178,1686621292.09,75.684,187.988,-33.691,113.77,669.987,398.3979404843948
179,1686621292.09,58.594,273.926,-68.359,104.492,669.991,410.0472455854582
180,1686621292.1,122.07,167.969,-40.527,176.27,669.994,406.9519578975773
181,1686621292.1,143.555,360.84,-35.156,198.73,669.998,393.6175190927006
182,1686621292.1,80.078,333.496,-64.941,125.977,670.002,393.2149404003252
183,1686621292.11,41.016,-12.207,-67.871,81.543,670.006,413.38124536632347
184,1686621292.11,83.984,-153.809,-40.527,135.254,670.01,404.15514706525204
185,1686621292.12,119.141,-101.074,-45.41,186.523,670.014,399.1550078434605
186,1686621292.12,77.148,-48.828,-45.41,136.23,670.018,419.9577495683797
187,1686621292.12,24.414,-72.266,-65.918,71.289,670.022,419.8288038456393
188,1686621292.13,56.152,-559.082,-28.32,108.887,670.026,433.74878968463656
189,1686621292.13,123.047,-262.695,28.809,168.457,670.029,429.90362121574196
190,1686621292.14,98.145,428.223,-36.133,147.949,670.033,413.118712642889
191,1686621292.14,15.137,35.645,-98.145,84.473,670.037,436.340866259106
192,1686621292.14,8.301,-334.473,-61.523,84.961,670.038,419.5426143984586
193,1686621292.15,51.758,260.742,-14.648,155.273,670.042,442.7969826669837
194,1686621292.15,26.855,284.18,-66.406,168.457,670.045,439.82158835852937
195,1686621292.15,-44.922,-300.293,-75.195,101.562,670.049,435.48909980044186
196,1686621292.16,-46.875,-300.781,-62.5,75.684,670.053,435.68274331318116
197,1686621292.16,25.879,78.125,-48.34,135.742,670.057,448.9786569843671
198,1686621292.16,63.477,346.191,-44.434,166.016,670.061,443.2323229275052
199,1686621292.17,21.973,-62.988,-106.445,105.957,670.065,435.4488491105646
200,1686621292.17,-9.766,-774.902,-34.668,61.035,670.069,473.21822649922467
201,1686621292.18,58.594,190.43,26.855,110.84,670.073,455.1652505163783
202,1686621292.18,125.488,761.719,-58.105,158.203,670.077,456.52804705991076
203,1686621292.18,89.844,164.551,-75.195,118.164,670.081,479.333333994953
204,1686621292.19,23.926,-71.289,-52.734,65.918,670.089,465.45043708601133
205,1686621292.19,41.992,327.148,-41.504,96.68,670.093,458.1984168509158
206,1686621292.2,96.191,467.773,-59.57,149.414,670.097,464.243852920725
207,1686621292.2,79.102,-9.277,-59.082,129.395,670.1,480.94302614237665
208,1686621292.2,15.137,-112.305,-54.688,63.477,670.104,483.981467524161
209,1686621292.21,15.137,-9.766,-60.547,54.688,670.108,484.6455944562535
210,1686621292.21,74.707,36.133,-73.242,123.535,670.112,483.71400586621405
211,1686621292.22,85.938,-222.168,-32.227,145.02,670.116,491.24975727492847
212,1686621292.22,31.25,-97.168,-8.789,78.125,670.12,500.26033748387334
213,1686621292.22,14.648,433.594,-54.688,47.852,670.124,480.88613706170486
214,1686621292.23,70.312,324.219,-52.734,111.328,670.128,505.3910083658436
215,1686621292.23,36.621,410.645,-42.969,104.492,670.128,503.5052996547224
216,1686621292.23,90.82,295.41,-63.965,147.949,670.132,491.0477463576009
217,1686621292.24,-11.719,290.527,-59.57,61.035,670.132,487.4160503864026
218,1686621292.24,18.555,-70.312,-77.148,105.469,670.136,486.8823256141417
219,1686621292.24,60.547,-155.762,-52.734,160.156,670.14,501.3865367787232
220,1686621292.25,43.457,143.555,-57.129,124.512,670.143,501.9615569909267
221,1686621292.25,-1.953,61.523,-68.359,62.5,670.147,504.70611507147606
222,1686621292.25,10.742,-280.273,-57.617,76.66,670.151,496.314261638508
223,1686621292.26,64.941,-802.246,-40.527,152.344,670.155,497.79220361691534
224,1686621292.26,66.406,-27.832,-19.531,157.227,670.159,507.01666100547305
225,1686621292.27,23.926,722.656,-69.824,83.496,670.163,503.1699914123963
226,1686621292.27,26.855,338.867,-55.664,71.777,670.167,497.04676908097605
227,1686621292.27,96.191,489.746,-16.113,143.066,670.171,488.63130080358246
228,1686621292.28,107.91,740.723,-40.039,160.156,670.175,499.12122826328175
229,1686621292.28,37.109,430.664,-74.219,87.402,670.179,510.26141809891845
230,1686621292.29,19.043,23.926,-61.523,45.41,670.183,503.4106229374668
231,1686621292.29,88.867,298.34,-24.902,107.91,670.187,498.3387337883302
232,1686621292.29,126.465,521.484,-52.734,156.738,670.191,497.00835785217413
233,1686621292.3,76.172,197.266,-80.566,107.422,670.194,495.4569637611335
234,1686621292.3,32.227,-657.715,-63.965,67.871,670.198,494.4873545343224
235,1686621292.3,99.121,-421.875,7.812,120.605,670.202,501.03841918832507
236,1686621292.31,166.992,769.043,-7.324,186.523,670.206,487.87512529200706
237,1686621292.31,125.488,476.074,-76.172,169.922,670.21,500.83444492019856
238,1686621292.32,54.199,14.648,-70.801,112.305,670.214,519.9532104879272
239,1686621292.32,45.898,341.309,-30.762,120.605,670.218,494.3972240640357
240,1686621292.34,97.656,620.117,-23.926,177.734,670.233,497.3132236034752
241,1686621292.34,107.91,335.449,-69.824,183.594,670.237,484.39299532037927
242,1686621292.34,39.551,-199.219,-82.52,118.164,670.241,485.8436504870867
243,1686621292.35,22.949,-18.555,-18.555,92.773,670.244,493.3240266510168
244,1686621292.35,84.473,547.363,-6.836,168.457,670.248,482.1790201685071
245,1686621292.36,108.887,133.789,-87.891,207.52,670.252,507.75797322495464
246,1686621292.36,51.27,-854.492,-69.824,136.23,670.256,485.1605131512849
247,1686621292.36,19.531,-395.996,18.555,84.961,670.26,489.94166482960605
248,1686621292.37,89.355,478.516,-20.508,147.949,670.264,476.15716321422616
249,1686621292.37,60.547,226.562,-49.805,105.469,670.277,478.5016711585496
250,1686621292.37,126.953,241.699,-30.273,187.988,670.268,487.7363994529888
251,1686621292.37,122.07,209.961,-26.855,182.617,670.281,486.9467326674541
252,1686621292.38,57.617,98.633,-6.348,127.93,670.272,472.16320966618
253,1686621292.38,94.727,265.137,-30.273,168.945,670.285,457.71038247471796
254,1686621292.38,7.812,362.793,-32.715,68.359,670.276,474.7429888064541
255,1686621292.38,32.227,187.988,-48.828,91.309,670.289,475.7924841997366
256,1686621292.38,51.758,-20.508,-39.551,85.449,670.293,476.2959329241494
257,1686621292.39,128.418,-210.938,-29.297,157.227,670.297,504.5171323784541
258,1686621292.39,145.996,-30.762,-26.855,168.945,670.301,480.8245636812795
259,1686621292.4,74.219,155.762,-44.434,97.168,670.305,484.36971678215883
260,1686621292.4,54.199,-89.844,-66.895,70.312,670.308,484.7602980119885
261,1686621292.4,121.582,-576.66,-25.391,140.137,670.312,473.0190920782304
262,1686621292.41,137.207,-289.062,28.809,165.527,670.316,489.00295598612786
263,1686621292.41,71.289,266.602,-17.09,99.609,670.32,470.0079053136911
264,1686621292.43,10.742,-124.023,-79.102,61.035,670.323,458.2949630777255
265,1686621292.43,41.504,-383.789,-47.852,113.77,670.327,463.110910131352
266,1686621292.43,88.379,-57.129,-6.836,166.016,670.331,476.23499399328534
267,1686621292.44,63.965,99.121,-24.902,133.789,670.335,459.7391438959181
268,1686621292.44,31.25,-282.715,-56.641,84.473,670.338,472.1394287351997
269,1686621292.45,63.965,-775.391,-27.344,113.281,670.342,462.9025173020731
270,1686621292.45,132.812,-33.203,12.207,177.734,670.346,458.8274885379449
271,1686621292.45,129.883,461.426,-54.199,162.109,670.35,463.5917783938535
272,1686621292.46,52.734,-375.977,-76.66,97.656,670.354,472.6806878263286
273,1686621292.46,48.34,-624.512,1.953,94.727,670.358,465.5324170867354
274,1686621292.46,129.883,288.574,4.883,160.645,670.362,468.174927712049
275,1686621292.47,134.766,192.871,-50.781,186.035,670.366,471.6048016217674
276,1686621292.47,56.152,-331.543,-32.715,125.0,670.368,466.17779046418974
277,1686621292.48,33.203,-297.852,-16.602,89.355,670.372,468.8170761317164
278,1686621292.48,101.074,169.922,-13.184,140.625,670.376,456.0594145831216
279,1686621292.48,129.883,250.977,-35.645,181.641,670.38,455.52988454139336
280,1686621292.49,54.688,-336.914,-46.387,133.789,670.383,459.60021602754006
281,1686621292.49,-3.418,-599.609,-35.645,83.984,670.387,459.5920116463243
282,1686621292.49,41.992,-94.727,-1.953,134.277,670.391,443.16157899463377
283,1686621292.5,91.309,229.004,-38.086,198.242,670.395,449.49122960061965
284,1686621292.5,52.734,-374.023,-34.668,172.363,670.399,459.13764017758245
285,1686621292.51,-10.254,-379.395,17.578,114.258,670.403,458.8967719352364
286,1686621292.51,14.16,206.543,-24.414,124.023,670.407,440.6565873432626
287,1686621292.51,88.867,96.68,-40.527,189.453,670.411,436.53537872235233
288,1686621292.52,71.289,-3.418,-52.734,178.223,670.413,449.98308574533866
289,1686621292.52,-8.301,66.895,-49.805,97.656,670.417,440.04418471948173
290,1686621292.52,-10.254,-222.168,-43.945,90.82,670.421,440.0517436389708
291,1686621292.53,56.641,-528.809,-72.754,164.062,670.425,431.2999044915524
292,1686621292.53,66.406,-694.336,-59.082,186.523,670.429,440.69716056242305
293,1686621292.54,3.418,-364.258,-19.043,115.723,670.432,440.10716726697706
294,1686621292.54,-17.09,-1.953,-50.293,76.172,670.436,446.7349807760652
295,1686621292.54,53.711,-314.941,-49.316,139.648,670.44,444.4533984735916
296,1686621292.55,104.98,-347.656,-13.184,184.082,670.444,436.122256123718
297,1686621292.55,79.59,384.277,-22.949,141.113,670.448,421.02175368062933
298,1686621292.56,45.898,272.461,-62.012,79.102,670.452,429.84538805986824
299,1686621292.56,67.871,7.324,-33.691,91.797,670.456,413.73518428325264
300,1686621292.56,103.516,228.516,-22.949,159.668,670.458,410.5277034585841
301,1686621292.56,69.336,381.348,-47.363,158.203,670.462,432.880773664537
302,1686621292.57,6.348,45.41,-76.172,102.051,670.466,434.5012580203129
303,1686621292.57,11.719,-151.367,-53.711,100.586,670.47,420.1186995147116
304,1686621292.58,63.477,110.352,-46.387,151.367,670.473,414.0498863827067
305,1686621292.58,50.781,-22.461,-83.008,151.367,670.477,409.12583815752856
306,1686621292.58,-8.789,-169.434,-72.266,85.449,670.481,428.4830248526598
307,1686621292.59,-13.184,-746.094,-71.289,59.57,670.485,414.7625010285239
308,1686621292.59,75.195,-494.629,-20.508,129.883,670.489,409.760664463444
309,1686621292.6,121.582,626.953,-42.969,168.945,670.493,408.6980208127891
310,1686621292.6,61.035,291.016,-97.168,118.164,670.497,401.7205309566386
311,1686621292.6,18.555,-35.156,-59.082,71.289,670.501,398.2552422657755
312,1686621292.61,52.246,337.402,-29.297,117.188,670.503,406.2988654318764
313,1686621292.61,83.984,536.133,-45.41,171.875,670.507,403.8202725969051
314,1686621292.61,49.316,-148.438,-116.699,139.16,670.511,397.8180875869692
315,1686621292.62,-7.324,-585.449,-70.801,80.566,670.515,384.5900467355406
316,1686621292.62,22.949,123.047,-9.277,97.656,670.518,410.20219066993326
317,1686621292.63,85.449,362.305,-59.082,169.922,670.522,382.75959987675253
318,1686621292.63,74.707,-171.387,-80.078,170.41,670.526,388.5149749045155
319,1686621292.63,10.254,-483.398,-53.711,104.004,670.53,374.9985285235559
320,1686621292.64,-6.836,94.238,-19.043,95.703,670.534,391.32075968780714
321,1686621292.64,56.641,476.562,-54.688,153.809,670.538,387.42514388319785
322,1686621292.64,79.102,179.688,-37.598,160.645,670.542,375.6111816633273
323,1686621292.65,7.324,19.531,-10.254,87.891,670.546,389.3708679112593
324,1686621292.65,-10.742,351.074,-45.898,62.012,670.549,384.0282523552683
325,1686621292.66,76.66,349.121,-53.711,142.09,670.553,379.0428145888961
326,1686621292.66,117.188,291.504,-62.5,180.176,670.557,367.33419295112185
327,1686621292.66,50.293,269.531,-53.711,114.258,670.561,371.1233565336095
328,1686621292.67,-0.977,188.477,-54.199,67.383,670.565,366.1055029606616
329,1686621292.67,43.457,14.16,-65.43,124.512,670.569,366.0164814623345
330,1686621292.68,92.285,-463.379,-17.578,191.406,670.573,359.4942125569236
331,1686621292.68,65.918,-188.477,13.672,160.156,670.577,360.99235057816014
332,1686621292.68,18.555,406.738,-38.086,100.098,670.581,350.7715851470179
333,1686621292.69,59.082,170.41,-46.387,121.094,670.585,387.07895780096396
334,1686621292.69,138.672,125.977,-68.848,189.453,670.588,372.28666208156744
335,1686621292.7,124.023,190.43,-65.43,174.805,670.592,361.8313710890282
336,1686621292.71,55.664,253.418,-37.598,100.586,670.611,366.12919733460933
337,1686621292.72,62.988,-12.695,-83.496,101.562,670.615,355.69398634578704
338,1686621292.72,124.023,-391.113,-85.449,166.504,670.619,359.2034193448644
339,1686621292.72,148.438,140.137,-33.203,187.988,670.623,363.6345823871896
340,1686621292.73,111.328,376.465,-67.383,129.395,670.627,361.2919649504808
341,1686621292.73,82.031,-296.875,-103.516,100.586,670.631,364.13481762903797
342,1686621292.74,123.047,-932.129,-34.668,166.992,670.635,358.6240687623407
343,1686621292.74,135.742,-49.805,11.23,198.242,670.639,367.07409010015135
344,1686621292.74,55.176,602.051,-82.52,138.184,670.643,364.7610778315955
345,1686621292.74,126.953,308.105,-73.73,153.809,670.651,349.7539817646004
346,1686621292.75,-1.465,69.824,-75.684,81.543,670.646,343.8182658607926
347,1686621292.75,63.965,-313.477,-83.008,83.496,670.655,368.5464355874195
348,1686621292.75,72.754,123.535,-23.926,129.883,670.65,355.59728304211524
349,1686621292.75,96.68,-252.93,-27.344,97.168,670.658,363.3313114551897
350,1686621292.76,159.18,495.605,-30.762,192.383,670.654,373.15706265421227
351,1686621292.76,167.48,363.281,-32.227,168.457,670.662,348.595153079397
352,1686621292.76,155.273,331.055,-82.031,175.781,670.666,346.64785830135094
353,1686621292.76,63.477,-346.191,-71.289,113.281,670.67,355.17185092731006
354,1686621292.77,23.438,-330.566,-28.809,93.75,670.674,372.97622761869457
355,1686621292.77,89.355,307.129,-38.574,152.832,670.678,367.7194260750656
356,1686621292.78,128.906,316.406,-84.961,175.781,670.682,344.3139019808985
357,1686621292.78,75.684,-629.883,-104.98,112.793,670.686,348.37434424904995
358,1686621292.78,51.27,-654.785,-28.32,77.637,670.69,376.4641750035383
359,1686621292.79,111.328,382.812,-19.043,126.465,670.694,345.25740212025653
360,1686621292.8,145.508,314.453,-74.219,185.059,670.698,354.6068455298722
361,1686621292.8,95.703,44.434,-87.891,145.02,670.702,351.43234621983095
362,1686621292.81,47.363,-95.703,-62.988,83.984,670.705,353.2782368862957
363,1686621292.81,94.238,-86.914,-12.695,114.746,670.709,338.6506195757444
364,1686621292.82,154.297,-56.641,-60.059,183.594,670.713,345.1247166359332
365,1686621292.82,110.352,-925.781,-103.516,179.199,670.717,339.43134149149796
366,1686621292.82,32.715,-580.566,-27.344,97.168,670.721,344.2450972826322
367,1686621292.83,46.387,460.938,-55.176,76.172,670.725,339.17003142568433
368,1686621292.83,107.422,232.91,-49.316,149.414,670.729,356.20415800979805
369,1686621292.84,97.168,215.82,-8.789,160.645,670.733,341.4088512708548
370,1686621292.84,32.715,401.855,-60.547,97.656,670.737,349.45973070332064
371,1686621292.84,6.348,134.766,-81.543,80.078,670.741,355.6468460190959
372,1686621292.85,58.105,30.273,-62.012,125.488,670.743,356.05695832568927
373,1686621292.85,90.82,223.633,-42.48,147.461,670.747,361.9537867188449
374,1686621292.85,31.738,254.395,-66.895,100.098,670.75,337.64500230010555
375,1686621292.86,-25.879,-24.414,-68.848,64.941,670.754,370.86432888927976
376,1686621292.86,5.859,-150.879,-59.082,117.676,670.758,378.4468115410448
377,1686621292.87,45.898,-91.309,-61.523,177.246,670.762,379.17604984524417
378,1686621292.87,-2.441,-187.5,-61.035,143.066,670.766,375.1557232907068
379,1686621292.87,-52.734,-209.961,-70.312,78.125,670.77,405.8854861962078
380,1686621292.88,-3.906,-754.883,-59.57,106.445,670.774,405.48500044500616
381,1686621292.88,94.238,-454.102,-3.906,182.617,670.778,394.8474338475592
382,1686621292.88,114.746,486.328,-53.711,166.016,670.782,399.73694491680453
383,1686621292.89,51.758,-54.199,-107.91,98.633,670.786,411.4133869882534
384,1686621292.89,48.828,-129.883,-55.176,96.191,670.786,423.4649473617878
385,1686621292.89,104.98,373.535,-50.293,153.809,670.79,414.33384929588294
386,1686621292.9,85.938,238.77,-70.312,170.41,670.794,430.34952710659735
387,1686621292.9,4.395,-450.195,-98.633,113.281,670.798,429.6841016574904
388,1686621292.91,-8.301,-657.715,-78.125,81.543,670.802,434.2424174122093
389,1686621292.91,72.266,-137.695,-35.645,141.113,670.806,438.4174672818288
390,1686621292.91,126.953,287.109,-53.223,189.453,670.809,446.07458469217084
391,1686621292.92,79.102,-229.98,-84.473,136.719,670.813,466.8569112344758
392,1686621292.92,29.785,-684.082,-52.246,82.031,670.817,459.83866181107265
393,1686621292.92,82.52,-24.414,0.977,114.258,670.821,460.47485889358177
394,1686621292.93,123.047,314.453,-47.852,173.34,670.825,463.19625495377824
395,1686621292.93,60.059,-121.094,-44.434,154.297,670.829,478.899389720619
396,1686621292.94,-5.371,-325.195,-1.465,86.426,670.832,468.2770215298806
397,1686621292.94,26.855,153.809,-41.992,91.309,670.836,468.64319308799884
398,1686621292.94,104.492,187.5,-56.641,164.551,670.84,475.6124270120027
399,1686621292.95,91.309,-80.566,-54.688,167.48,670.844,474.0481595904875
400,1686621292.95,16.602,-180.176,-62.988,95.215,670.848,470.1376069934851
401,1686621292.96,7.324,-305.664,-74.707,89.844,670.852,486.2998690412093
402,1686621292.96,72.266,-280.273,-56.152,161.133,670.856,488.3636562602207
403,1686621292.96,98.633,-502.441,-22.461,183.594,670.86,492.80348518307864
404,1686621292.97,42.969,-312.5,4.883,115.234,670.863,496.95757816897463
405,1686621292.97,20.508,241.699,-53.711,70.801,670.867,493.54350838135593
406,1686621292.98,81.055,39.551,-53.711,131.348,670.871,489.1389573267893
407,1686621292.98,123.535,-73.242,-62.5,183.594,670.875,500.8565443824972
408,1686621292.98,72.754,-88.379,-63.477,128.906,670.881,492.72390519422424
409,1686621292.99,29.785,2.441,-29.297,74.707,670.885,501.10937934703634
410,1686621292.99,74.707,-249.512,-88.867,124.023,670.889,502.7636495403741
411,1686621292.99,133.789,-724.609,-48.34,192.383,670.893,503.5727664567253
412,1686621293.0,122.559,-102.539,-9.277,162.109,670.897,497.31549549904804
413,1686621293.0,77.637,97.168,-82.52,86.426,670.9,494.070877674621
414,1686621293.0,87.891,-532.715,-72.266,96.68,670.904,483.6810950414486
415,1686621293.01,145.02,-499.023,-17.578,183.594,670.908,475.5477920943825
416,1686621293.01,141.602,291.992,-20.508,204.59,670.912,495.5612597106155
417,1686621293.02,57.129,250.977,-83.008,124.023,670.916,492.2193717446745
418,1686621293.02,17.578,-153.809,-55.176,78.125,670.92,486.23104221163
419,1686621293.02,79.102,69.824,-31.738,146.973,670.924,481.5836121659802
420,1686621293.03,101.074,362.793,-54.199,187.988,670.925,478.4110796765488
421,1686621293.03,38.574,80.078,-85.938,123.047,670.929,488.0087042653074
422,1686621293.04,2.441,-476.074,-78.613,75.684,670.933,488.66128076942215
423,1686621293.04,54.688,-267.578,-41.992,117.188,670.937,480.96237094762125
424,1686621293.04,105.957,189.941,-71.289,175.781,670.941,465.14270829396014
425,1686621293.05,76.172,-102.539,-92.773,158.691,670.945,461.39454832199965
426,1686621293.05,6.836,-829.59,-83.496,92.285,670.949,490.6333198155259
427,1686621293.06,14.16,-596.68,-32.227,98.633,670.953,456.1673970814689
428,1686621293.06,83.008,467.285,-20.508,167.48,670.957,448.4503043819305
429,1686621293.06,54.199,274.902,-81.543,150.391,670.961,444.2853889467558
430,1686621293.07,-17.09,-158.203,-79.59,67.383,670.964,436.1715744072919
431,1686621293.07,0.0,30.762,-34.668,76.172,670.968,454.0457295693092
432,1686621293.07,51.758,312.988,-35.645,142.09,670.982,451.5403727158542
433,1686621293.08,42.969,123.047,-84.961,154.785,670.986,438.19861567703936
434,1686621293.08,-5.859,-437.5,-84.473,97.656,670.99,431.3145618880513
435,1686621293.08,5.859,-270.508,-42.969,64.453,670.994,421.17354527003585
436,1686621293.09,90.332,233.887,-34.18,131.348,670.998,420.1826144255704
437,1686621293.09,129.395,-130.859,-78.613,180.176,671.002,428.8438851746675
438,1686621293.09,58.105,-964.844,-63.477,122.07,671.006,414.5255980856857
439,1686621293.1,9.766,-527.344,14.16,61.035,671.01,399.5637040941593
440,1686621293.1,77.148,400.879,-29.297,101.562,671.014,402.15742332101513
441,1686621293.11,135.254,59.082,-49.805,158.203,671.018,409.1534190393306
442,1686621293.11,96.68,-113.281,-29.785,128.906,671.022,382.29051941216676
443,1686621293.11,21.973,268.066,-66.406,69.336,671.025,382.1500540959219
444,1686621293.12,32.227,173.34,-58.105,94.727,671.027,396.16231342762165
445,1686621293.12,90.332,95.215,-51.27,167.969,671.031,380.39167748992645
446,1686621293.13,78.613,152.832,-54.688,151.855,671.035,355.5460026352954
447,1686621293.13,9.277,149.414,-54.199,83.496,671.039,353.2034064718338
448,1686621293.13,-10.254,-12.695,-47.363,71.289,671.043,358.9266171388334
449,1686621293.14,46.875,-246.094,-27.344,139.648,671.047,335.7267574911911
450,1686621293.14,59.57,-90.82,-33.203,155.762,671.05,326.79608505069984
451,1686621293.14,-6.348,-5.859,-67.871,80.566,671.054,341.6440567706947
452,1686621293.15,-23.438,-221.191,-77.637,67.871,671.058,326.87606473155563
453,1686621293.15,40.039,-676.27,-40.039,132.812,671.062,289.4647429927307
454,1686621293.16,72.266,-248.047,11.719,166.016,671.066,291.4843244219222
455,1686621293.16,41.504,502.93,-51.27,123.535,671.07,304.6090671548108
456,1686621293.18,20.996,27.344,-70.801,77.637,671.076,265.03186002681065
457,1686621293.18,74.707,-5.371,-47.852,113.77,671.08,260.11604070690964
458,1686621293.19,124.512,173.34,-46.387,184.082,671.084,251.31147317705108
459,1686621293.19,88.379,245.117,-42.969,155.762,671.088,227.54624014688687
460,1686621293.2,29.785,-125.0,-92.773,84.961,671.092,215.8489921353036
461,1686621293.2,30.762,-746.094,-65.918,106.445,671.096,231.09343022332948
462,1686621293.2,92.285,15.137,-6.836,166.504,671.1,235.66878482197984
463,1686621293.21,87.402,633.789,-51.758,155.273,671.103,197.26664194375195
464,1686621293.21,-0.977,-199.219,-93.262,74.707,671.107,211.38650236311958
465,1686621293.22,-22.461,-504.883,-57.617,64.453,671.111,212.40627372347777
466,1686621293.22,51.27,202.148,-19.531,137.695,671.115,180.60970734256765
467,1686621293.22,30.762,-99.609,-47.363,100.586,671.119,174.11693254249877
468,1686621293.22,85.938,358.887,-63.477,158.203,671.119,186.25328972717585
469,1686621293.23,2.93,-204.59,4.883,77.148,671.123,183.98236855212403
470,1686621293.23,77.637,320.801,-28.32,134.766,671.127,182.6128693267477
471,1686621293.23,130.371,307.129,-46.875,183.105,671.131,175.1300975486476
472,1686621293.24,98.145,-1.953,-79.102,144.043,671.135,169.7527991652163
473,1686621293.24,58.105,-293.945,-75.684,83.008,671.139,177.80843097818055
474,1686621293.24,95.703,-42.969,-25.391,117.188,671.143,166.2234842844554
475,1686621293.25,159.668,297.363,-63.477,174.805,671.147,162.19896493727902
476,1686621293.25,116.699,-353.516,-44.434,148.438,671.151,160.90699276449106
477,1686621293.26,32.715,-308.105,11.719,82.52,671.155,163.1159086763496
478,1686621293.26,49.316,303.223,-42.48,87.402,671.158,174.0078116405104
479,1686621293.26,113.77,196.777,-57.129,150.391,671.162,154.87126542057135
480,1686621293.27,115.234,-29.785,-68.848,155.762,671.167,161.55974257672264
481,1686621293.27,69.824,-105.469,-71.289,94.238,671.171,149.62956303636818
482,1686621293.28,69.336,-139.648,-57.617,81.543,671.175,152.4523729921965
483,1686621293.28,126.953,-294.434,-64.941,149.902,671.179,164.50164774492526
484,1686621293.28,134.766,-375.0,-77.148,173.34,671.183,143.4948967391397
485,1686621293.29,80.566,-125.488,-62.012,115.234,671.187,157.5479173275135
486,1686621293.29,58.105,30.273,-54.199,80.078,671.191,168.87230823789056
487,1686621293.29,100.586,-206.543,-61.523,136.23,671.195,158.7136736107919
488,1686621293.3,133.301,-516.113,-5.859,200.684,671.198,150.7767094494987
489,1686621293.3,94.238,214.844,3.418,166.504,671.202,179.28141702935758
490,1686621293.31,46.387,423.34,-72.266,104.492,671.206,153.05730063868154
491,1686621293.31,84.961,102.051,-36.621,124.512,671.21,167.09380483156895
492,1686621293.33,146.973,353.516,-24.414,184.57,671.223,177.26840843728007
493,1686621293.33,106.445,492.676,-49.316,162.109,671.227,184.89227619064008
494,1686621293.33,23.926,63.965,-81.055,100.098,671.231,174.65295061211464
495,1686621293.34,10.742,-394.043,-62.988,99.609,671.235,167.1326681894371
496,1686621293.34,73.242,-16.113,-29.297,168.945,671.239,176.00817443016194
497,1686621293.35,82.031,130.859,-66.406,186.035,671.243,188.22132031910235
498,1686621293.35,7.324,-136.23,-64.453,115.723,671.247,187.4444982236799
499,1686621293.35,-22.461,-732.91,-61.523,97.656,671.251,179.83225382746141
500,1686621293.36,24.414,225.586,-25.391,136.719,671.253,201.5983426136438
501,1686621293.36,49.316,-534.668,1.465,154.297,671.255,190.2340390069707
502,1686621293.36,51.758,491.211,-34.18,182.129,671.257,201.08446270263929
503,1686621293.36,100.098,624.512,-10.742,179.199,671.258,204.11118932087425
504,1686621293.36,-33.691,-116.211,-118.164,115.234,671.261,205.04225093159198
505,1686621293.36,31.25,341.309,-85.449,129.395,671.262,197.41449952110602
506,1686621293.37,-77.637,-599.609,-82.031,58.105,671.265,185.21604295281776
507,1686621293.37,-26.855,-92.773,-66.406,80.566,671.266,195.79476277856293
508,1686621293.37,-0.488,51.27,-17.09,92.285,671.269,200.88856270844155
509,1686621293.38,70.801,169.922,-71.777,159.668,671.272,211.23582120293588
510,1686621293.38,39.062,-328.125,-44.434,156.25,671.276,208.14319212302178
511,1686621293.38,-30.273,-352.539,-13.672,85.449,671.28,203.31974214333786
512,1686621293.39,-26.855,134.277,-36.621,77.148,671.284,212.7990213420827
513,1686621293.39,47.852,393.066,-47.852,145.02,671.288,213.7253098080135
514,1686621293.4,86.426,-264.16,-93.262,175.293,671.292,226.38142287442534
515,1686621293.4,38.574,-855.469,-57.129,118.164,671.296,216.0009035008336
516,1686621293.4,14.16,-44.434,-12.695,72.754,671.3,239.42357567152553
517,1686621293.41,74.219,300.293,-55.664,134.277,671.304,218.50112735837538
518,1686621293.41,107.91,87.891,-69.336,183.105,671.308,249.07727198782743
519,1686621293.42,69.336,68.848,-56.641,133.301,671.312,237.7643497820568
520,1686621293.42,50.781,-2.93,-64.453,79.59,671.316,244.1122680411221
521,1686621293.42,115.234,-215.82,-85.449,122.07,671.32,249.15828511268654
522,1686621293.43,155.762,-626.465,-34.18,185.059,671.324,259.2872680567971
523,1686621293.43,128.418,-335.449,-13.672,155.273,671.328,246.7608417040593
524,1686621293.43,88.379,23.438,-59.082,87.891,671.331,257.4024305123985
525,1686621293.44,105.469,-312.012,-57.129,100.098,671.335,251.64154653977553
526,1686621293.44,164.551,-245.605,-41.504,170.898,671.339,252.23122324790072
527,1686621293.45,153.32,142.09,-28.809,174.316,671.343,252.3804845845262
528,1686621293.45,79.102,114.258,-69.824,103.027,671.357,266.3333406259719
529,1686621293.45,62.012,-302.246,-72.754,86.914,671.361,266.8012809458419
530,1686621293.45,116.211,-455.078,-49.805,157.227,671.365,271.8714557645908
531,1686621293.46,121.582,-133.789,-51.758,181.641,671.369,264.2720320851596
532,1686621293.46,51.27,17.578,-72.266,106.445,671.373,277.41860301198966
533,1686621293.47,30.762,-555.664,-88.379,76.172,671.377,259.8741929145383
534,1686621293.47,95.215,-1000.0,-34.18,145.02,671.381,271.1515271648481
535,1686621293.47,142.578,-205.566,18.555,187.5,671.384,281.7277041336604
536,1686621293.48,95.703,387.695,-71.777,143.066,671.388,280.95035543666967
537,1686621293.48,31.25,-155.762,-73.242,90.82,671.392,278.3331288167867
538,1686621293.48,76.66,-162.109,-26.855,125.977,671.396,284.23106042371643
539,1686621293.49,150.391,-3.906,-26.367,191.895,671.4,278.16010952385017
540,1686621293.49,128.418,-80.566,-72.266,163.086,671.4,293.7034845830406
541,1686621293.5,64.453,-475.586,-66.406,90.82,671.404,294.8557583011137
542,1686621293.5,77.148,-460.938,0.977,93.262,671.408,301.37847039841915
543,1686621293.51,136.719,50.781,-34.18,158.691,671.412,300.0021483418907
544,1686621293.51,111.328,-0.488,-57.617,164.062,671.416,305.7577494937511
545,1686621293.51,16.602,-520.508,-70.801,94.238,671.42,305.7679633552325
546,1686621293.52,-14.16,-650.391,-27.344,68.848,671.424,309.1610346708348
547,1686621293.52,51.27,-57.617,-5.859,145.996,671.428,311.13929266534814
548,1686621293.52,72.754,44.922,-73.242,187.5,671.432,300.1467990454205
549,1686621293.53,1.953,-581.543,-62.988,124.512,671.436,300.1748630619438
550,1686621293.53,-16.113,-440.918,-15.625,75.684,671.439,319.3746531762393
551,1686621293.54,60.547,79.102,-31.25,133.789,671.443,316.0182631871762
552,1686621293.55,115.234,-53.711,-64.941,191.406,671.461,326.6877134151902
553,1686621293.56,73.242,-369.141,-82.52,143.555,671.465,318.01584520723793
554,1686621293.56,16.602,-520.02,-58.105,74.219,671.469,322.5709037984055
555,1686621293.56,51.758,-452.148,-31.738,97.656,671.473,341.46246829084595
556,1686621293.57,117.676,-332.52,-68.848,163.086,671.477,339.92151463255306
557,1686621293.57,93.262,-942.383,-89.355,156.738,671.481,330.47313401807236
558,1686621293.58,19.043,-655.762,-15.137,83.008,671.485,351.0068303574051
559,1686621293.58,20.508,284.668,-41.992,71.289,671.489,349.57326365667944
560,1686621293.58,83.984,108.887,-27.832,143.555,671.492,340.39522446098437
561,1686621293.59,84.961,87.402,-4.883,160.645,671.496,341.5136235192764
562,1686621293.59,17.578,199.707,-67.383,98.145,671.5,353.7303912790351
563,1686621293.6,16.602,-62.012,-71.777,67.383,671.504,341.19200204231845
564,1686621293.6,113.77,-123.047,-47.363,122.07,671.493,340.683466632805
565,1686621293.6,149.902,68.848,-35.645,152.832,671.497,342.62219985830427
566,1686621293.6,86.426,108.887,-67.383,100.098,671.5,345.8963659414392
567,1686621293.61,21.484,-212.402,-77.637,57.617,671.504,344.7786027576633
568,1686621293.61,63.965,-450.684,-53.223,106.934,671.508,355.2591972052469
569,1686621293.62,131.348,-315.43,-35.156,170.898,671.512,353.89533623271734
570,1686621293.62,110.352,-173.828,-44.434,132.812,671.516,350.3623936400581
571,1686621293.62,50.781,-105.957,-70.312,57.617,671.52,345.913500760313
572,1686621293.63,57.129,-731.445,-53.711,87.402,671.524,332.7580237600728
573,1686621293.63,133.301,-504.883,0.488,161.621,671.528,348.61534845468253
574,1686621293.64,128.906,479.98,-40.527,148.926,671.532,348.21070073482076
575,1686621293.64,61.523,27.832,-101.074,81.055,671.536,351.76109456713885
576,1686621293.64,68.359,-319.336,-78.613,76.172,671.538,336.2870735507187
577,1686621293.65,134.277,131.348,-46.875,142.09,671.542,349.87363338848115
578,1686621293.65,144.531,116.699,-74.707,163.086,671.546,346.71242053543335
579,1686621293.65,63.965,-427.734,-100.098,99.121,671.549,346.58197691473634
580,1686621293.66,13.672,-582.031,-69.336,67.871,671.553,337.7600115770384
581,1686621293.66,78.125,-92.285,-23.926,132.324,671.557,343.17645789015546
582,1686621293.66,132.812,119.629,-49.805,181.641,671.561,348.27728171614115
583,1686621293.67,92.285,-314.453,-83.008,138.672,671.565,335.85036342154757
584,1686621293.67,44.434,-830.078,-12.695,86.426,671.569,353.5324626432961
585,1686621293.68,88.867,71.289,42.48,109.863,671.573,343.7360551613096
586,1686621293.68,153.809,686.523,-53.223,174.316,671.577,340.20914364904854
587,1686621293.68,126.953,259.766,-63.965,158.691,671.581,340.25271510647764
588,1686621293.69,52.734,125.977,-42.969,85.449,671.585,350.36180841807965
589,1686621293.69,58.594,269.043,-38.574,90.82,671.589,335.80647676824657
590,1686621293.7,117.676,280.762,-50.293,153.32,671.593,331.25818193833
591,1686621293.7,109.863,93.262,-52.246,158.691,671.596,330.4325587988777
592,1686621293.7,31.25,-41.504,-60.059,87.891,671.6,340.8068588215318
593,1686621293.71,8.301,-211.426,-53.711,63.965,671.604,328.6080578130073
594,1686621293.71,77.637,-93.75,-41.504,133.301,671.608,333.7794979394351
595,1686621293.71,114.746,-359.375,-28.32,167.48,671.612,333.1979783429422
596,1686621293.72,58.594,-255.859,3.418,106.934,671.616,340.76465789491834
597,1686621293.72,21.484,192.871,-35.156,76.66,671.62,336.98592786252004
598,1686621293.73,82.52,-53.711,-50.293,133.301,671.624,364.5155329062317
599,1686621293.73,103.027,-44.922,-37.109,174.805,671.628,353.4999840615769
600,1686621293.75,30.762,273.926,-23.438,137.695,671.643,340.7650642892552
601,1686621293.75,-20.996,288.086,-51.758,79.59,671.647,349.16804994476297
602,1686621293.75,5.859,-249.023,-79.102,107.422,671.651,351.04162545416676
603,1686621293.76,54.688,-276.855,-33.691,172.363,671.655,371.3397047960407
604,1686621293.76,50.293,322.266,-26.367,151.367,671.658,352.8880841067956
605,1686621293.77,-6.836,103.516,-73.242,82.52,671.662,357.82705569877913
606,1686621293.77,0.0,-483.887,-44.434,87.891,671.666,356.34230661146944
607,1686621293.77,80.078,-516.113,12.695,159.668,671.67,376.3557484363512
608,1686621293.78,103.516,368.652,23.438,169.434,671.674,368.8515190676472
609,1686621293.78,106.934,318.848,-19.043,159.668,671.679,360.63086416992695
610,1686621293.78,44.434,475.586,-49.316,99.121,671.678,357.39923264205373
611,1686621293.78,47.363,219.727,-54.199,103.516,671.683,395.9551526026408
612,1686621293.78,20.996,-3.906,-27.344,68.848,671.682,379.32524184499965
613,1686621293.79,-11.23,-245.605,-41.992,54.688,671.687,386.8816814921489
614,1686621293.79,83.496,146.973,-5.859,127.93,671.686,368.66578990905623
615,1686621293.79,15.137,-43.457,35.156,99.121,671.691,377.1878663092883
616,1686621293.8,65.918,520.02,-17.578,157.715,671.695,386.6752464155364
617,1686621293.8,38.574,108.398,-57.129,125.0,671.699,407.56453709677913
618,1686621293.8,8.789,-275.879,-11.719,69.824,671.703,404.47289901136287
619,1686621293.81,58.105,67.871,22.949,87.402,671.706,402.3816091929075
620,1686621293.81,106.445,469.727,12.207,130.859,671.71,382.0059352560444
621,1686621293.81,76.172,258.789,-51.27,125.0,671.714,418.3166921728149
622,1686621293.82,8.301,-487.793,-40.527,66.895,671.718,423.1320846951424
623,1686621293.82,12.695,-187.988,27.832,53.223,671.722,409.993983776132
624,1686621293.84,96.191,593.262,-1.465,126.953,671.733,418.0698902971072
625,1686621293.84,112.305,353.027,-45.41,145.508,671.737,433.8185594009378
626,1686621293.84,26.367,-132.324,-57.129,71.289,671.741,417.75969343111564
627,1686621293.85,-17.09,-147.461,-19.043,41.504,671.745,416.99411502357765
628,1686621293.85,53.711,240.723,-7.812,100.586,671.749,444.90029553135776
629,1686621293.86,99.609,202.148,-51.27,144.043,671.752,447.33639702348586
630,1686621293.86,39.551,-869.141,-75.195,110.84,671.756,433.02973112700926
631,1686621293.86,-9.766,-557.617,23.926,61.523,671.76,438.155228857865
632,1686621293.87,61.523,654.785,42.969,93.262,671.764,448.42272854348624
633,1686621293.87,143.555,622.07,-11.23,155.273,671.768,447.0173678662576
634,1686621293.88,113.77,514.16,-14.648,129.883,671.772,460.17865072417715
635,1686621293.88,28.809,474.121,-31.25,64.941,671.776,444.3146223522112
636,1686621293.88,23.438,305.176,-27.832,85.938,671.78,455.01083817076153
637,1686621293.89,100.098,290.527,-1.465,153.32,671.784,450.1129100110677
638,1686621293.89,98.145,374.023,-5.859,147.949,671.788,443.5860327818673
639,1686621293.9,31.738,332.52,-39.551,76.66,671.792,451.97312159137516
640,1686621293.9,23.438,76.172,-32.227,62.5,671.796,462.3093986581273
641,1686621293.9,76.66,-133.301,-0.977,127.93,671.8,446.4711610579617
642,1686621293.91,105.469,-37.109,-0.977,150.391,671.804,464.83450273819227
643,1686621293.91,53.223,116.211,-20.996,92.773,671.807,460.05290303473515
644,1686621293.91,15.625,198.73,-42.969,54.199,671.811,447.6472970012984
645,1686621293.92,75.684,-608.398,-54.688,120.117,671.815,460.4870940266557
646,1686621293.92,121.582,-443.848,24.414,161.133,671.819,458.1130138261791
647,1686621293.93,9.277,155.273,-58.594,47.363,671.823,466.12002336684634
648,1686621293.93,71.777,576.172,-2.93,99.609,671.823,458.22077611113843
649,1686621293.93,55.176,-6.348,-30.273,91.797,671.827,458.61308562490956
650,1686621293.93,133.789,176.27,-14.648,164.551,671.831,457.94971102630535
651,1686621293.94,110.352,267.578,-20.02,143.555,671.835,458.9576097246646
652,1686621293.94,51.758,-26.855,-61.523,71.777,671.838,470.27298336581003
653,1686621293.95,60.547,-427.246,-38.086,68.848,671.842,456.7665152892096
654,1686621293.95,116.211,83.984,8.789,129.395,671.846,459.8493864195028
655,1686621293.95,119.141,429.199,-28.32,132.324,671.85,464.6146514891994
656,1686621293.96,56.641,-130.371,-74.707,61.035,671.854,451.3040593860834
657,1686621293.96,28.809,-1000.0,-44.922,46.875,671.858,462.9181900968709
658,1686621293.96,91.797,-283.691,46.875,116.699,671.862,464.61913569852936
659,1686621293.97,119.141,769.531,-11.23,145.996,671.866,448.47175241957393
660,1686621293.97,37.598,365.723,-55.664,81.543,671.867,450.4534849791126
661,1686621293.98,-8.789,250.0,-19.043,28.32,671.871,443.3961934200395
662,1686621293.98,64.941,530.273,-20.996,91.797,671.875,447.4869199444533
663,1686621293.98,122.559,499.023,-35.645,167.48,671.879,440.49050751688054
664,1686621293.99,60.547,158.203,-69.824,121.582,671.883,438.11047878114465
665,1686621293.99,-18.555,-178.711,-63.965,51.27,671.887,441.4442570061774
666,1686621293.99,15.625,-103.027,-5.371,79.59,671.891,435.8202071439417
667,1686621294.0,78.125,262.695,-31.738,141.602,671.895,429.6167136551761
668,1686621294.0,48.828,-298.828,-34.18,135.254,671.899,441.3315365128818
669,1686621294.01,-15.625,-279.785,15.625,67.383,671.903,441.24560143189774
670,1686621294.01,-11.23,221.191,-35.156,60.059,671.907,437.62768114384875
671,1686621294.01,54.199,30.762,-62.988,131.836,671.91,422.0607120851947
672,1686621294.02,63.477,46.387,-28.809,152.344,671.915,419.9110011484946
673,1686621294.02,6.348,311.523,-29.297,83.984,671.919,423.4539115683053
674,1686621294.02,-0.488,133.301,-58.594,52.246,671.923,424.5685627035964
675,1686621294.03,75.195,-170.41,-53.711,112.305,671.927,428.0354544314704
676,1686621294.03,115.723,-121.094,-59.082,149.902,671.931,419.8544134243498
677,1686621294.04,62.5,64.453,-36.133,100.098,671.935,419.4135006753935
678,1686621294.04,24.414,272.949,-37.109,56.152,671.939,425.38036967897415
679,1686621294.04,70.312,-41.504,-52.734,101.074,671.943,407.4165095129738
680,1686621294.05,116.211,-288.086,-22.949,159.18,671.947,429.6520997752692
681,1686621294.05,88.867,486.816,-19.531,120.117,671.951,411.33858828983284
682,1686621294.06,21.484,431.641,-70.801,47.852,671.955,426.87221922002004
683,1686621294.06,32.227,94.727,-40.039,67.871,671.958,409.5509388653281
684,1686621294.06,105.957,259.277,-41.016,135.742,671.961,406.7569443703466
685,1686621294.07,111.816,254.883,-62.012,140.625,671.965,403.2666667480649
686,1686621294.07,46.875,74.707,-61.523,76.172,671.969,402.91472904913826
687,1686621294.07,37.109,-149.902,-40.039,62.5,671.973,398.6056201295123
688,1686621294.08,107.422,57.129,-32.715,130.371,671.977,414.5002375822572
689,1686621294.08,127.441,143.066,-67.383,144.531,671.981,404.2298297803326
690,1686621294.08,51.27,-50.781,-41.992,74.219,671.985,403.9535130462153
691,1686621294.09,3.418,-697.266,-63.965,40.527,671.988,396.3813122210476
692,1686621294.09,54.199,-528.32,-1.465,106.445,671.992,396.2803908847245
693,1686621294.1,88.867,633.301,-6.836,154.785,671.996,395.0008380329322
694,1686621294.1,30.762,349.609,-89.355,111.328,672.0,380.67491357629785
695,1686621294.1,-10.742,-38.086,-62.5,61.035,672.004,382.9072488832722
696,1686621294.11,52.734,250.488,-23.438,94.727,672.002,392.3487390989018
697,1686621294.11,116.211,535.645,-34.18,149.414,672.006,397.95147610042545
698,1686621294.11,78.613,8.789,-98.633,129.883,672.01,378.68396262240054
699,1686621294.12,-1.953,-638.672,-84.473,61.523,672.014,397.85207869636577
700,1686621294.12,5.371,-165.039,-43.945,67.383,672.018,395.8791404509793
701,1686621294.13,66.895,185.059,-62.012,136.719,672.022,386.11008995702434
702,1686621294.13,59.57,-150.391,-90.332,140.137,672.026,387.3171683005482
703,1686621294.13,-20.02,-878.418,-63.965,80.078,672.03,368.81354408698417
704,1686621294.14,-32.227,-242.188,16.602,60.547,672.033,381.2583267944253
705,1686621294.14,48.34,691.406,-32.227,126.953,672.037,365.98502253114566
706,1686621294.14,65.918,356.934,-60.547,157.715,672.041,371.9694846113627
707,1686621294.15,6.348,127.93,-54.199,96.68,672.045,365.4361542780115
708,1686621294.15,-24.902,265.625,-42.969,61.523,672.048,374.31514938444144
709,1686621294.16,32.227,243.652,-42.969,119.141,672.052,355.4372316130479
710,1686621294.16,92.773,147.949,-48.34,173.34,672.056,353.439276539274
711,1686621294.16,59.082,156.25,-50.781,126.465,672.06,364.739931833219
712,1686621294.17,17.578,20.508,-72.754,64.453,672.063,340.7932473117184
713,1686621294.17,60.547,-202.148,-59.57,93.75,672.067,359.31345481848126
714,1686621294.18,111.816,-697.754,-39.551,165.039,672.071,340.4286586934735
715,1686621294.18,79.59,-545.41,-21.484,148.926,672.075,350.27093366111694
716,1686621294.18,19.531,269.043,-41.504,66.895,672.079,347.89562895031247
717,1686621294.19,23.438,71.289,-63.965,70.312,672.083,359.73504329253115
718,1686621294.19,92.773,-38.574,-37.598,133.789,672.087,320.48056196641915
719,1686621294.2,99.121,293.457,-38.086,137.695,672.091,336.55373891379645
720,1686621294.2,13.184,245.605,-51.27,72.754,672.106,331.0943917767612
721,1686621294.2,-18.066,-123.047,-52.246,49.316,672.11,328.82281786384675
722,1686621294.2,50.781,-330.078,-46.875,117.676,672.114,322.9118765205418
723,1686621294.21,89.844,5.371,-30.762,157.227,672.118,310.34977128170493
724,1686621294.21,23.926,195.312,-59.57,94.238,672.122,317.7095425266376
725,1686621294.22,-23.438,-427.734,-101.074,48.828,672.126,323.72244853655843
726,1686621294.22,30.273,-1000.0,-38.086,107.422,672.13,325.9857508080012
727,1686621294.22,86.426,-163.574,27.832,155.273,672.134,317.3054029622824
728,1686621294.23,43.457,473.633,-62.012,113.77,672.138,308.77516864685475
729,1686621294.23,-7.812,-342.285,-52.246,65.918,672.141,309.5567565526426
730,1686621294.24,51.27,-262.695,16.113,95.215,672.145,305.0063051301853
731,1686621294.24,135.742,515.137,-15.137,167.48,672.149,308.48369135645567
732,1686621294.24,116.211,383.789,-62.988,155.762,672.152,285.3177277229697
733,1686621294.25,28.809,-101.074,-76.172,67.871,672.156,288.7491641277379
734,1686621294.25,18.066,-49.805,-39.062,47.852,672.16,288.5412294234051
735,1686621294.26,102.539,325.195,-23.926,113.77,672.164,285.3779012000083
736,1686621294.26,121.094,298.34,-71.289,135.254,672.168,265.5993328467937
737,1686621294.26,40.039,-335.449,-73.242,75.195,672.172,296.93888310829925
738,1686621294.27,9.766,-382.812,-31.25,46.875,672.176,264.55069614831194
739,1686621294.27,77.148,230.469,-23.926,107.91,672.179,287.26053641184023
740,1686621294.27,98.145,229.98,-61.523,152.832,672.183,281.4015011457535
741,1686621294.28,7.812,-410.156,-54.688,96.191,672.187,265.3842636071048
742,1686621294.28,-60.059,-315.918,-20.02,45.41,672.191,286.5203586764347
743,1686621294.29,-6.348,15.625,-38.574,83.984,672.195,272.4396805388975
744,1686621294.3,63.965,-166.992,-65.918,137.207,672.21,280.97715157158825
745,1686621294.3,33.691,-234.863,-75.684,105.469,672.214,279.90086170328004
746,1686621294.31,-40.039,-248.047,-50.781,32.715,672.218,286.5919451775049
747,1686621294.31,-26.855,-60.547,-19.531,49.316,672.222,264.87386361127744
748,1686621294.32,53.223,-11.23,-54.688,125.0,672.226,267.73640513191833
749,1686621294.32,49.805,-586.426,-76.172,127.93,672.23,272.1247305438246
750,1686621294.32,-15.137,-258.789,-20.508,56.641,672.234,280.86611007870033
751,1686621294.33,-10.742,335.449,-36.133,43.945,672.238,274.4314131511583
752,1686621294.33,69.336,-176.27,-55.176,121.582,672.242,273.0093469966345
753,1686621294.34,86.914,-361.328,-29.785,145.02,672.246,273.57133382153506
754,1686621294.34,27.344,269.043,-46.875,81.055,672.249,270.5415901301241
755,1686621294.34,4.395,87.402,-65.43,45.41,672.253,268.9428507053533
756,1686621294.35,63.965,-60.547,-41.016,84.961,672.245,279.06187786951403
757,1686621294.35,106.934,47.363,-50.293,132.812,672.249,291.6646255748518
758,1686621294.36,55.664,9.277,-58.105,94.238,672.253,287.14216025319195
759,1686621294.36,0.488,-40.527,-68.359,34.18,672.257,295.3915165347757
760,1686621294.36,37.109,-323.242,-51.27,70.312,672.26,274.6599296724723
761,1686621294.37,84.961,-289.062,-27.832,126.953,672.264,274.3456009362391
762,1686621294.37,65.918,-25.391,-46.387,102.539,672.268,289.2953949593867
763,1686621294.37,12.695,-11.719,-62.5,32.715,672.272,289.4259882584428
764,1686621294.38,24.414,-459.961,-27.832,43.457,672.276,297.011366753858
765,1686621294.38,101.074,-81.055,25.879,117.188,672.28,280.7228023658402
766,1686621294.39,115.723,558.594,-39.062,124.512,672.284,302.3259331577902
767,1686621294.39,55.176,-19.043,-96.68,62.5,672.288,295.95886571864526
768,1686621294.39,29.297,-322.754,-68.359,33.691,672.288,291.14513990319426
769,1686621294.4,88.379,137.695,-42.48,92.773,672.292,299.4814879020448
770,1686621294.4,114.258,99.121,-62.012,123.535,672.296,300.44166382094306
771,1686621294.4,40.527,-495.117,-93.262,72.266,672.3,306.8681660324537
772,1686621294.41,-8.789,-754.883,-83.984,35.645,672.304,288.72315867726314
773,1686621294.41,48.34,-270.508,-21.484,80.566,672.307,299.93257735788677
774,1686621294.41,97.168,146.484,-39.062,128.418,672.311,308.1212845338369
775,1686621294.42,59.57,-235.84,-85.449,89.844,672.315,305.3460019595599
776,1686621294.42,2.441,-864.258,-49.316,25.391,672.319,298.8537936338875
777,1686621294.43,23.926,-63.965,3.418,38.086,672.323,299.812428196516
778,1686621294.43,78.125,574.219,-63.477,98.633,672.327,307.9682773554422
779,1686621294.43,49.805,175.293,-68.359,93.262,672.331,303.26079339056975
780,1686621294.44,-15.137,-17.578,-49.316,41.016,672.347,312.3778156758501
781,1686621294.44,-14.648,87.891,-40.039,37.598,672.351,299.7476633541948
782,1686621294.44,50.781,124.023,-59.57,88.867,672.354,318.48936755700043
783,1686621294.45,67.383,-9.766,-77.637,103.027,672.358,320.9364178890301
784,1686621294.45,7.324,-123.535,-71.289,42.48,672.362,313.8223664253455
785,1686621294.46,-5.859,-353.027,-77.637,14.648,672.366,319.13306706289643
786,1686621294.46,66.895,-220.215,-50.293,78.125,672.37,317.10479460057815
787,1686621294.46,102.539,-593.75,-80.078,126.953,672.374,315.38376517408534
788,1686621294.47,39.062,-689.941,-59.082,73.242,672.378,313.65649468452176
789,1686621294.47,2.93,206.543,-32.715,26.367,672.382,305.35096379908697
790,1686621294.48,60.547,159.18,-65.43,82.031,672.386,324.5608779087067
791,1686621294.48,119.629,39.062,-66.406,143.066,672.39,325.405126004106
792,1686621294.48,87.891,224.609,-61.523,106.445,672.377,326.7845870008233
793,1686621294.48,23.926,104.492,-74.707,29.297,672.381,338.8397261772288
794,1686621294.49,39.551,-415.527,-104.492,60.059,672.385,330.4871809191835
795,1686621294.49,94.238,-557.129,-69.336,144.043,672.389,340.9172844654118
796,1686621294.5,69.824,30.762,-55.664,121.582,672.393,329.1134795204797
797,1686621294.5,-6.348,-101.562,-94.238,50.781,672.397,325.00211422935456
798,1686621294.5,-15.137,-666.504,-80.566,49.805,672.401,339.96768324495355
799,1686621294.51,49.805,-421.387,-43.945,122.07,672.405,336.7828521775988
800,1686621294.51,62.988,343.75,-40.039,146.973,672.409,338.0104252365271
801,1686621294.52,-14.648,192.871,-81.055,68.848,672.413,360.30729734168233
802,1686621294.52,-54.688,-629.883,-84.473,34.668,672.416,346.59333965912896
803,1686621294.52,-2.441,-660.645,-15.625,95.703,672.42,336.6719794325951
804,1686621294.53,23.438,380.859,-17.578,120.605,672.424,355.51521317799774
805,1686621294.53,-31.25,323.73,-94.238,59.57,672.428,350.17189189234955
806,1686621294.54,-76.66,-203.613,-65.43,10.254,672.432,351.996768572035
807,1686621294.54,-24.414,33.203,-31.738,49.316,672.436,351.19789831072785
808,1686621294.54,41.016,299.316,-59.57,114.746,672.44,355.8392629674122
809,1686621294.55,10.742,-20.02,-98.633,88.867,672.444,353.9631024864011
810,1686621294.55,-39.062,-699.707,-62.988,20.996,672.448,359.09538660575953
811,1686621294.55,2.441,-385.254,-5.371,37.598,672.452,353.3945822199922
812,1686621294.56,80.078,474.121,-55.176,100.586,672.456,344.80980299831623
813,1686621294.56,80.566,277.832,-99.121,99.609,672.459,357.6524675675648
814,1686621294.57,15.625,-183.594,-98.633,30.762,672.463,345.44142607749944
815,1686621294.57,-1.953,-147.949,-65.43,15.625,672.467,332.8363644315844
816,1686621294.58,62.012,31.738,-36.133,83.008,672.481,337.5108349518611
817,1686621294.58,89.844,-140.137,-86.426,115.723,672.485,348.7403699955814
818,1686621294.58,35.645,-497.559,-98.633,57.617,672.489,363.6279125284747
819,1686621294.59,2.441,-140.137,-33.691,9.277,672.493,357.0076564594261
820,1686621294.59,49.316,341.309,-42.48,55.664,672.497,332.47441715107533
821,1686621294.6,85.449,-70.801,-96.68,118.164,672.501,355.2551054116208
822,1686621294.6,17.09,-930.176,-84.473,75.684,672.505,370.0900392472208
823,1686621294.6,-79.102,-393.066,-43.945,-32.715,672.509,359.92013936607844
824,1686621294.61,-61.035,480.469,-113.77,-30.273,672.512,352.1901424308776
825,1686621294.61,-0.488,61.523,-86.426,39.062,672.516,361.8277213448777
826,1686621294.61,-26.855,-27.344,-54.199,24.902,672.52,350.06339183862775
827,1686621294.62,-99.609,222.168,-124.512,-43.945,672.524,369.9006116246418
828,1686621294.62,-81.543,55.176,-121.582,-42.48,672.527,361.5174581878387
829,1686621294.62,-15.137,-5.859,-120.605,16.602,672.531,348.6836452118821
830,1686621294.63,-7.324,-63.965,-132.812,26.855,672.535,360.48030120773603
831,1686621294.63,-68.848,-172.363,-121.582,-38.574,672.538,359.27023634803027
832,1686621294.63,-87.402,-61.035,-135.742,-65.43,672.542,364.43224955938035
833,1686621294.64,-25.391,-570.801,-113.281,-0.977,672.546,370.52555879181097
834,1686621294.64,-2.441,-506.836,-79.59,34.18,672.55,366.8163425242084
835,1686621294.64,-59.57,249.512,-121.582,-26.367,672.554,375.19498714346645
836,1686621294.65,-105.469,34.668,-125.0,-77.148,672.558,362.4025865955358
837,1686621294.65,-55.176,-255.859,-83.008,-22.949,672.562,352.3867411745884
838,1686621294.66,0.977,127.441,-79.59,27.832,672.566,360.16320871607604
839,1686621294.66,-18.555,285.645,-129.883,-1.953,672.57,368.23236292271196
840,1686621294.68,-59.082,-205.566,-129.883,-58.105,672.573,369.256006705214
841,1686621294.68,-30.762,-274.414,-112.793,-32.715,672.577,367.81815872399767
842,1686621294.68,26.855,-81.543,-103.027,44.434,672.581,368.00225375632914
843,1686621294.69,2.441,87.891,-86.914,35.645,672.585,367.771658617443
844,1686621294.69,-70.312,-264.16,-127.441,-27.832,672.589,363.7615001069808
845,1686621294.7,-65.918,-777.344,-103.027,-18.555,672.592,370.74301251925334
846,1686621294.7,11.719,-195.312,-45.898,54.688,672.596,373.51296486313544
847,1686621294.7,39.062,369.141,-74.707,77.637,672.6,364.02304073128164
848,1686621294.71,-28.32,-148.926,-114.258,14.648,672.604,371.05388387561885
849,1686621294.71,-51.27,-741.211,-57.129,-19.043,672.608,356.3217197465246
850,1686621294.72,36.133,213.867,-21.484,39.062,672.612,357.21406237520995
851,1686621294.72,87.891,577.148,-89.355,82.52,672.616,364.76273900345313
852,1686621294.72,27.344,69.336,-92.285,32.227,672.618,369.42228271806425
853,1686621294.72,-30.273,-31.738,-71.289,-20.996,672.622,352.34715755777944
854,1686621294.73,17.09,190.918,-54.688,22.461,672.626,378.7294828375481
855,1686621294.73,69.824,210.449,-71.777,84.473,672.63,388.4595768681465
856,1686621294.74,19.531,-26.367,-104.492,56.152,672.633,376.5819283752248
857,1686621294.74,-73.242,-354.004,-99.609,-14.16,672.637,373.2930387344294
858,1686621294.74,-67.383,-265.137,-64.941,-4.883,672.641,362.770524299588
859,1686621294.75,-7.324,184.57,-58.105,63.965,672.645,362.3000228703992
860,1686621294.75,-26.367,-524.902,-81.543,83.008,672.649,373.68480958537015
861,1686621294.76,-82.52,-697.754,-49.316,31.738,672.653,383.0718455731936
862,1686621294.76,-75.684,321.777,-28.809,14.648,672.657,348.2857464495111
863,1686621294.76,-12.695,265.137,-86.426,80.078,672.661,377.83723446869016
864,1686621294.77,11.23,-55.176,-98.633,96.191,672.663,372.53545701748374
865,1686621294.77,-50.781,152.832,-60.547,25.879,672.667,382.51210989708136
866,1686621294.77,-79.102,-21.973,-63.477,-4.883,672.67,360.90398677795275
867,1686621294.78,-5.859,-370.117,-82.031,55.176,672.674,373.0655340021096
868,1686621294.78,54.199,-381.836,-98.633,104.004,672.678,366.75621444360644
869,1686621294.79,10.742,-138.672,-68.359,54.688,672.682,370.9968445617901
870,1686621294.79,-38.086,-63.965,-56.641,10.742,672.686,379.63478342574024
871,1686621294.79,12.207,-337.891,-55.664,60.547,672.69,375.54335650977544
872,1686621294.8,97.168,-352.539,-27.344,126.953,672.694,369.70524167939044
873,1686621294.8,84.473,353.027,-28.809,97.168,672.698,388.5916390128103
874,1686621294.8,-1.953,233.887,-88.379,26.855,672.702,375.2159654572625
875,1686621294.81,-3.418,-410.156,-28.32,40.527,672.706,367.30089709018324
876,1686621294.81,62.988,-74.219,17.09,104.98,672.708,372.4205074838624
877,1686621294.82,66.895,512.695,-36.133,104.004,672.712,368.9674335812562
878,1686621294.82,4.395,145.02,-72.266,34.18,672.716,369.31623210438784
879,1686621294.82,-14.16,-195.312,-46.387,21.973,672.719,368.48844399422734
880,1686621294.83,56.152,98.633,-23.438,99.121,672.723,386.2746631839436
881,1686621294.83,86.426,103.027,-63.477,134.277,672.727,370.7775359086784
882,1686621294.83,21.484,-175.781,-76.172,73.73,672.731,371.9617781687947
883,1686621294.84,-26.855,-637.207,-32.227,38.574,672.735,384.14558565312655
884,1686621294.84,37.598,-261.23,37.598,102.051,672.739,359.54352696752545
885,1686621294.85,104.492,601.562,-15.137,153.32,672.743,369.5854957581387
886,1686621294.85,41.016,256.836,-76.172,100.098,672.747,370.70551262830804
887,1686621294.85,-15.625,-131.348,-57.617,31.738,672.751,380.2443862681157
888,1686621294.86,33.691,56.152,-34.18,65.918,672.757,367.14015794267243
889,1686621294.86,88.379,113.77,-35.645,134.766,672.761,359.2361507310542
890,1686621294.87,71.777,-179.199,-89.355,118.164,672.765,369.98618057307993
891,1686621294.87,6.348,-711.426,-65.918,42.969,672.768,366.758155803188
892,1686621294.87,12.695,-204.59,7.812,50.293,672.772,368.8909995667763
893,1686621294.88,86.426,313.965,-42.48,132.812,672.776,375.66746951155807
894,1686621294.88,88.379,-123.535,-68.848,150.879,672.78,376.96478601612125
895,1686621294.88,28.32,-432.129,-42.48,82.031,672.784,371.27345094895907
896,1686621294.89,11.23,176.758,-2.93,44.434,672.788,385.8801730536965
897,1686621294.89,72.754,483.398,-43.945,107.91,672.792,381.5385402471806
898,1686621294.9,93.262,244.141,-33.203,142.578,672.796,380.7638630314063
899,1686621294.9,20.996,194.336,-35.645,82.52,672.8,374.7229993228746
900,1686621294.9,-23.438,260.742,-44.922,33.691,672.8,377.6232254317194
901,1686621294.91,25.879,221.68,-33.691,74.219,672.804,365.26189187309086
902,1686621294.91,85.449,166.016,-42.969,131.836,672.808,374.221899002958
903,1686621294.92,58.594,22.949,-50.293,97.656,672.812,378.2545972541843
904,1686621294.92,15.625,-155.762,-62.988,31.25,672.816,380.58646698120003
905,1686621294.92,54.688,-59.082,-42.969,61.035,672.819,371.08481957557547
906,1686621294.93,116.211,-506.836,-41.992,134.766,672.823,362.78185424962885
907,1686621294.93,105.957,-542.969,-37.598,119.141,672.827,371.1472149322318
908,1686621294.93,42.969,333.496,-31.738,39.062,672.831,361.323204413665
909,1686621294.94,24.902,262.695,-61.035,33.691,672.835,370.04448035869996
910,1686621294.94,97.168,178.711,-44.922,106.445,672.839,372.4664109125611
911,1686621294.95,52.734,280.762,-48.34,56.152,672.857,364.0037323622053
912,1686621294.95,126.953,422.852,-33.691,127.93,672.843,369.7447593192883
913,1686621294.95,21.484,-120.117,-61.035,15.137,672.861,375.37964403620674
914,1686621294.95,93.262,-297.363,-44.922,91.309,672.865,377.1209078801918
915,1686621294.96,126.953,69.824,-23.926,145.02,672.869,372.7559527230818
916,1686621294.96,55.176,284.668,-50.293,76.66,672.873,370.91598408348494
917,1686621294.97,-1.953,-309.082,-96.191,25.879,672.877,382.72749551739344
918,1686621294.97,38.574,-1000.0,-69.824,79.59,672.881,386.63831397112983
919,1686621294.97,111.816,-383.789,20.996,132.812,672.885,374.954134223962
920,1686621294.98,102.051,615.234,-39.551,94.727,672.888,379.2904005189169
921,1686621294.98,31.25,89.844,-46.387,16.113,672.892,381.8697892237732
922,1686621294.98,42.969,-66.895,16.602,28.32,672.896,384.75763331891767
923,1686621294.99,109.375,364.258,-27.344,98.633,672.9,372.9253566161515
924,1686621294.99,86.426,396.484,-53.711,99.609,672.901,365.8830182841385
925,1686621295.0,-1.953,-6.348,-59.57,38.086,672.905,375.30915107578556
926,1686621295.0,-10.742,-26.367,-30.273,22.949,672.909,372.15431681508795
927,1686621295.0,71.289,277.344,-28.32,82.031,672.913,377.1733899968711
928,1686621295.01,100.586,260.254,-54.199,112.305,672.916,381.16229548343694
929,1686621295.01,26.367,-286.621,-72.266,54.199,672.92,393.91186419205417
930,1686621295.02,-13.184,-399.414,-28.32,4.883,672.924,372.67393874566653
931,1686621295.02,50.781,166.504,-19.531,66.406,672.928,383.19776187953613
932,1686621295.02,103.027,264.648,-64.941,128.418,672.932,373.4272536159246
933,1686621295.03,62.012,-584.961,-55.664,95.215,672.936,363.5751745406773
934,1686621295.03,18.066,-524.414,0.488,35.645,672.94,388.8970823437015
935,1686621295.04,64.453,390.625,-21.484,62.988,672.944,378.4774071392126
936,1686621295.06,119.629,249.023,-49.805,134.277,672.961,388.76966284080476
937,1686621295.07,86.426,24.414,-62.012,112.793,672.965,385.6470222526215
938,1686621295.07,20.996,-137.695,-58.105,37.109,672.969,372.439649416973
939,1686621295.08,46.875,-41.504,-20.02,44.434,672.973,357.5141463969904
940,1686621295.08,125.488,81.543,-66.895,121.094,672.977,363.30183133908156
941,1686621295.08,116.211,-550.781,-92.773,118.652,672.98,381.3467516421824
942,1686621295.09,36.621,-244.141,-19.043,39.062,672.984,385.0730715937215
943,1686621295.09,17.578,371.094,-36.133,21.973,672.988,364.6674920594841
944,1686621295.1,51.27,-329.59,-6.836,80.078,672.991,369.01523408511406
945,1686621295.1,82.031,-110.352,-50.293,99.609,672.992,374.4117893635865
946,1686621295.1,95.703,41.992,23.926,127.441,672.995,371.866387935523
947,1686621295.1,101.562,-270.996,-18.066,130.371,672.996,386.6996178502091
948,1686621295.1,59.57,430.664,-48.828,80.078,672.999,368.2804088323529
949,1686621295.1,53.711,313.965,-31.738,69.336,673.0,368.7787215384327
950,1686621295.11,5.371,92.285,-62.988,18.555,673.003,382.2573950696662
951,1686621295.11,19.531,70.312,-62.012,38.086,673.004,359.23960516228186
952,1686621295.11,43.457,-131.348,-45.898,57.129,673.007,384.502074518792
953,1686621295.12,93.75,-76.172,-37.109,114.258,673.011,373.6503926969948
954,1686621295.12,72.754,99.609,-42.48,84.473,673.015,374.2523168711851
955,1686621295.12,5.371,48.828,-62.988,16.602,673.018,390.93179517491376
956,1686621295.13,4.395,-258.789,-19.531,33.691,673.022,362.3836929572298
957,1686621295.13,89.844,112.305,13.184,111.328,673.026,378.7506610245862
958,1686621295.13,99.121,451.66,-28.32,119.629,673.03,378.4350228065722
959,1686621295.14,20.996,-0.488,-83.008,61.035,673.034,376.2153390352959
960,1686621295.14,-13.184,-647.461,-28.32,36.133,673.037,375.1271783833731
961,1686621295.15,40.039,-132.812,26.367,81.055,673.041,389.99708745392985
962,1686621295.15,51.758,302.734,-50.781,119.141,673.045,372.94470138479375
963,1686621295.15,-9.277,-199.219,-87.891,76.172,673.049,364.9444291824468
964,1686621295.16,-50.781,-734.375,-62.988,31.25,673.053,378.0997089288889
965,1686621295.16,-9.277,-325.684,16.113,69.824,673.057,375.4933771442163
966,1686621295.16,46.875,472.656,-9.277,123.047,673.061,372.8951433115371
967,1686621295.17,12.207,122.559,-68.359,95.703,673.065,383.6405405692928
968,1686621295.17,-48.34,-465.332,-42.969,28.32,673.069,374.31657187637074
969,1686621295.18,-8.789,252.441,16.602,45.41,673.073,357.91935391065533
970,1686621295.18,70.801,625.488,-38.086,120.117,673.076,375.14416809798
971,1686621295.18,63.965,274.902,-52.246,106.445,673.08,372.1149070444959
972,1686621295.19,10.742,119.141,-29.297,33.203,673.082,371.82219425494986
973,1686621295.19,12.207,251.465,-23.926,21.973,673.086,386.778183562208
974,1686621295.19,81.055,286.133,-37.109,86.914,673.09,373.76716608436993
975,1686621295.2,99.609,139.648,-42.969,118.164,673.094,367.291368324753
976,1686621295.2,30.762,-59.57,-38.574,70.312,673.098,371.4218783707613
977,1686621295.21,-7.812,-260.254,-34.18,41.504,673.101,378.1409375337006
978,1686621295.21,45.898,-63.965,-14.648,90.332,673.105,380.03248249409637
979,1686621295.21,64.941,-490.234,-46.387,130.371,673.109,373.5211397082496
980,1686621295.22,5.371,-612.305,-34.18,83.984,673.113,365.3602802658937
981,1686621295.22,-34.18,338.379,-13.672,31.25,673.117,379.5824817920455
982,1686621295.22,10.254,318.848,-35.645,79.59,673.121,376.1989629204734
983,1686621295.23,79.59,213.379,-35.645,133.789,673.125,385.3315765372985
984,1686621295.23,53.223,394.043,-36.133,102.539,673.126,396.77992428817316
985,1686621295.23,-9.277,227.051,-42.48,44.434,673.13,366.5572789238879
986,1686621295.24,17.09,-297.852,-73.73,54.199,673.134,366.78537799323243
987,1686621295.24,98.145,-265.137,-34.18,116.211,673.138,371.2233921562405
988,1686621295.25,103.516,287.598,-28.809,118.652,673.141,380.68484259755996
989,1686621295.25,28.809,2.93,-66.406,58.105,673.145,374.7570616880696
990,1686621295.25,10.742,-484.863,-50.781,45.898,673.149,370.6572483849605
991,1686621295.26,67.871,-928.711,-7.324,113.281,673.153,364.915024418668
992,1686621295.26,96.68,-113.77,51.758,134.766,673.157,370.97686465293714
993,1686621295.26,45.41,588.867,-41.016,62.012,673.161,371.97797288318236
994,1686621295.27,5.859,75.684,-45.41,11.719,673.165,378.87904184456306
995,1686621295.27,50.293,117.188,4.395,54.688,673.169,364.06249865622516
996,1686621295.28,79.59,487.793,-24.902,101.074,673.175,369.75387939511603
997,1686621295.28,27.344,313.965,-70.801,65.918,673.179,369.52064865927423
998,1686621295.29,-24.414,-116.211,-36.133,11.23,673.183,380.78023663678795
999,1686621295.29,13.184,9.277,-2.93,40.039,673.187,378.3751057846555
1000,1686621295.29,77.148,297.363,-34.668,103.027,673.191,386.4485518023127
1001,1686621295.3,64.941,75.195,-65.918,95.703,673.195,361.43121080158477
1002,1686621295.3,-5.859,-654.297,-41.016,41.016,673.199,373.17749330533263
1003,1686621295.3,0.488,-416.504,36.621,45.41,673.203,360.6198616558938
1004,1686621295.31,82.52,459.473,-1.953,114.258,673.207,376.5464924357973
1005,1686621295.31,84.961,202.637,-60.059,125.977,673.21,362.21607701258836
1006,1686621295.32,8.301,-225.586,-42.48,55.664,673.214,375.85847298546327
1007,1686621295.32,-3.906,20.02,-18.066,34.668,673.218,367.94684588584255
1008,1686621295.32,74.707,350.098,-17.09,106.934,673.232,369.73906078753504
1009,1686621295.32,120.117,130.371,-51.758,141.113,673.236,381.71208632083244
1010,1686621295.33,59.082,-440.43,-73.73,83.008,673.24,390.0918846492996
1011,1686621295.33,1.953,-297.852,-7.812,33.691,673.244,369.61787480687025
1012,1686621295.34,46.875,177.246,-7.812,77.148,673.248,375.2442014899447
1013,1686621295.34,80.078,-80.566,-76.66,126.465,673.252,374.5688714211553
1014,1686621295.34,29.297,-925.781,-61.035,83.984,673.255,380.1611398653203
1015,1686621295.35,-23.438,-417.969,25.879,12.207,673.259,386.75281072969193
1016,1686621295.35,9.277,442.871,-23.926,36.133,673.263,377.55528754009464
1017,1686621295.36,80.078,235.352,-30.762,110.352,673.267,367.80511968796594
1018,1686621295.36,69.824,202.148,-12.695,89.355,673.271,368.6042385450222
1019,1686621295.36,-6.348,249.512,-48.828,25.391,673.275,373.2340243319837
1020,1686621295.37,-7.324,-31.738,-44.922,28.809,673.275,379.31684721344936
1021,1686621295.37,79.102,-298.828,14.16,98.633,673.279,380.274258803056
1022,1686621295.38,93.262,-11.719,29.297,117.676,673.283,371.12638346570105
1023,1686621295.38,20.02,288.574,-47.363,59.57,673.287,380.1075613135699
1024,1686621295.38,-19.531,70.312,-48.828,30.762,673.291,382.8896070859089
1025,1686621295.39,34.668,-239.258,-28.32,88.867,673.295,355.259028372139
1026,1686621295.39,76.66,-56.641,-20.996,133.789,673.299,391.20113100923743
1027,1686621295.4,28.32,302.734,-33.691,83.008,673.302,363.2684992155917
1028,1686621295.4,-21.973,9.766,-64.941,24.902,673.306,391.57508423943534
1029,1686621295.4,16.113,-472.656,-0.488,64.453,673.31,368.6365040854151
1030,1686621295.41,64.453,-54.688,27.832,114.258,673.314,371.9962039257515
1031,1686621295.41,19.043,313.477,-55.176,69.336,673.318,384.9892365240692
1032,1686621295.43,-50.781,-62.012,-59.082,8.301,673.323,377.1526943010631
1033,1686621295.43,-38.086,-154.297,-39.062,32.227,673.326,373.1246297250476
1034,1686621295.43,29.297,20.02,-32.715,108.887,673.33,366.83212843776886
1035,1686621295.44,28.32,-63.477,-21.973,106.934,673.334,376.22011348298776
1036,1686621295.44,-42.48,-332.031,-69.824,34.668,673.338,360.22047599678154
1037,1686621295.45,-50.781,-1000.0,-81.055,18.066,673.342,372.65686951643784
1038,1686621295.45,29.785,-507.324,30.762,81.543,673.346,379.4333183478019
1039,1686621295.45,64.453,561.523,-5.859,107.422,673.35,367.75641971390183
1040,1686621295.46,9.766,132.812,-22.461,51.27,673.354,383.5526544758969
1041,1686621295.46,-11.719,-95.215,19.043,20.02,673.358,381.79900471856956
1042,1686621295.46,59.57,366.211,-9.766,78.125,673.362,373.0020576640763
1043,1686621295.47,125.488,413.086,-39.062,133.301,673.366,373.2379938447069
1044,1686621295.47,96.191,20.02,-53.223,97.168,673.369,378.0838257963294
1045,1686621295.48,35.156,-91.797,-21.484,44.434,673.372,374.45233975287374
1046,1686621295.48,66.895,163.086,-2.93,87.402,673.376,381.2945439299543
1047,1686621295.48,125.977,252.441,-26.855,148.438,673.38,371.8022944442997
1048,1686621295.49,91.797,-55.664,-57.617,112.305,673.384,379.8067406110007
1049,1686621295.49,28.809,-322.266,-50.781,56.152,673.388,366.64953817423395
1050,1686621295.49,36.621,-277.344,-24.414,77.637,673.392,381.04272192962753
1051,1686621295.5,100.098,51.758,-26.367,143.066,673.396,376.28234278226404
1052,1686621295.5,101.562,-460.449,-54.199,149.414,673.4,362.6514755574155
1053,1686621295.51,41.992,-687.012,-12.695,76.66,673.404,373.7857882012989
1054,1686621295.51,36.133,339.844,2.441,56.641,673.408,378.64134220005866
1055,1686621295.51,84.961,387.207,-38.574,127.93,673.412,374.1106571561386
1056,1686621295.52,96.191,221.68,-46.875,148.926,673.413,384.4839714251672
1057,1686621295.52,36.621,351.562,-53.223,79.59,673.417,368.4173141687306
1058,1686621295.52,0.488,39.551,-43.457,32.227,673.421,376.4237004946191
1059,1686621295.53,67.383,-281.738,-32.227,89.844,673.425,368.3527767694076
1060,1686621295.53,114.746,-193.848,-50.293,145.02,673.429,372.48571678104867
1061,1686621295.54,62.012,38.086,-37.109,106.934,673.432,369.12650663713305
1062,1686621295.54,14.16,204.59,-32.715,51.27,673.436,372.5739073722317
1063,1686621295.54,47.852,-75.195,-60.059,83.496,673.44,370.87558710609085
1064,1686621295.55,105.469,-507.324,-15.137,150.879,673.444,385.7678558720574
1065,1686621295.55,96.191,303.711,16.602,136.23,673.448,376.7708412697866
1066,1686621295.56,32.227,603.027,-82.52,63.965,673.452,374.2444956219784
1067,1686621295.56,28.809,-101.562,-54.688,52.246,673.456,381.1895275890643
1068,1686621295.56,102.539,54.688,19.531,118.164,673.458,360.7179012398737
1069,1686621295.56,119.629,677.246,-32.227,137.207,673.462,377.4955162454278
1070,1686621295.57,55.176,333.496,-65.43,66.406,673.466,375.21980853135466
1071,1686621295.57,39.062,-0.977,-20.996,42.969,673.47,363.3683856406745
1072,1686621295.58,105.469,187.012,-22.461,109.375,673.474,383.9323296045515
1073,1686621295.58,147.461,131.348,-57.129,147.461,673.478,370.8291032548535
1074,1686621295.58,99.121,2.441,-70.312,95.703,673.482,381.80561293213816
1075,1686621295.59,43.945,-516.113,-23.438,58.594,673.486,373.13091223657693
1076,1686621295.59,101.074,-230.469,57.129,114.258,673.489,363.2746226552865
1077,1686621295.6,160.156,687.5,-8.789,169.922,673.493,371.90977806982045
1078,1686621295.6,123.535,316.406,-63.477,136.23,673.497,370.8035027946119
1079,1686621295.6,58.105,-118.164,-45.41,73.242,673.501,381.22653787180025
1080,1686621295.61,71.777,190.43,-15.625,95.215,673.503,359.73522353413233
1081,1686621295.61,135.254,527.832,-22.461,154.297,673.506,350.7274052441363
1082,1686621295.61,111.816,41.504,-103.027,141.113,673.51,383.51428072234825
1083,1686621295.62,34.668,-642.09,-52.734,87.891,673.514,375.0852435175459
1084,1686621295.62,43.945,-77.148,15.137,83.496,673.518,369.60037634858196
1085,1686621295.63,123.535,350.098,-33.691,146.973,673.522,368.76406615241604
1086,1686621295.63,135.742,-104.004,-49.316,167.969,673.526,376.71661075366194
1087,1686621295.63,71.777,-489.746,-47.363,108.887,673.53,376.8664094456839
1088,1686621295.64,42.969,132.812,5.371,83.496,673.534,379.91732141963297
1089,1686621295.64,102.539,548.828,-17.578,131.836,673.538,359.7390206624668
1090,1686621295.64,152.344,238.77,-35.645,169.434,673.542,377.3756035234172
1091,1686621295.65,114.258,105.957,-25.391,130.859,673.546,364.3844327336505
1092,1686621295.65,81.055,127.441,-36.621,94.727,673.561,377.1499921170675
1093,1686621295.66,131.348,-63.965,-46.387,141.602,673.565,383.9307134057392
1094,1686621295.66,176.758,-318.848,-15.137,201.172,673.569,365.4990871094729
1095,1686621295.67,147.461,-75.684,8.789,177.734,673.573,377.3792393675692
1096,1686621295.67,97.168,99.121,-53.223,124.023,673.577,375.80605486710976
1097,1686621295.67,118.652,-203.125,-62.988,138.184,673.581,378.0015544124542
1098,1686621295.68,182.129,-611.328,-18.066,194.824,673.585,368.70503451703587
1099,1686621295.68,180.176,-319.824,0.977,201.172,673.589,377.9927429755941
1100,1686621295.68,125.0,290.527,-45.41,147.461,673.593,380.7771384459956
1101,1686621295.69,104.492,-29.785,-53.223,127.93,673.597,383.54610021447786
1102,1686621295.69,154.785,-133.789,-21.484,191.406,673.6,369.02810506313307
1103,1686621295.7,110.84,161.621,-48.34,135.254,673.607,379.2026088547558
1104,1686621295.7,178.711,182.129,-26.855,207.52,673.604,372.8463892114363
1105,1686621295.7,59.082,-261.23,-62.012,99.609,673.611,371.22787560457124
1106,1686621295.7,107.91,-485.352,-62.988,154.297,673.615,359.66716554409487
1107,1686621295.71,159.668,-234.863,-33.203,201.172,673.619,380.49618773638963
1108,1686621295.71,118.652,-109.375,-46.875,150.391,673.623,368.3002685179976
1109,1686621295.72,72.266,-448.242,-95.703,89.844,673.627,371.9836522772888
1110,1686621295.72,117.188,-1000.0,-62.5,130.371,673.63,392.1105997612183
1111,1686621295.72,183.594,-617.188,24.414,184.57,673.634,372.56071275716334
1112,1686621295.73,170.898,422.852,-20.508,160.645,673.638,371.8272882043175
1113,1686621295.73,109.863,-108.887,-52.734,98.145,673.642,383.3710857813581
1114,1686621295.74,108.398,-354.004,1.953,90.82,673.646,375.49889750760997
1115,1686621295.74,163.574,372.07,-22.949,143.555,673.65,372.9770480402408
1116,1686621295.74,159.18,261.23,-63.965,152.344,673.651,365.4257300645193
1117,1686621295.75,83.496,-259.766,-63.477,93.75,673.655,373.1973211549122
1118,1686621295.75,62.988,-275.879,-24.902,68.848,673.659,366.52418718442374
1119,1686621295.76,123.535,52.246,-24.414,133.301,673.663,378.2115609561597
1120,1686621295.76,145.02,27.344,-59.082,159.18,673.667,383.349224593261
1121,1686621295.76,79.59,-492.676,-68.359,99.121,673.671,373.3622109437665
1122,1686621295.77,40.527,-699.219,-37.598,66.895,673.675,383.63802149137314
1123,1686621295.77,94.238,-246.094,-20.508,112.305,673.679,375.35457884055444
1124,1686621295.77,142.578,90.82,-39.062,162.598,673.683,376.8745258406892
1125,1686621295.78,105.469,-596.68,-54.688,127.441,673.687,377.82396904865186
1126,1686621295.78,40.527,-687.988,11.719,50.781,673.69,367.9175707960711
1127,1686621295.79,73.242,103.027,8.301,66.895,673.694,371.2951691399816
1128,1686621295.8,135.254,44.922,-43.945,143.555,673.698,385.26141472084424
1129,1686621295.8,111.328,-142.578,-65.43,139.16,673.702,381.97431063168415
1130,1686621295.81,59.082,-351.074,-65.43,81.055,673.706,381.0384349177831
1131,1686621295.81,65.918,-309.082,-15.625,79.102,673.71,374.7522472212046
1132,1686621295.82,125.977,-211.914,-57.617,139.648,673.713,375.4247794474142
1133,1686621295.82,125.488,-787.598,-64.941,166.992,673.717,378.44131511890936
1134,1686621295.82,58.105,-411.621,5.859,108.398,673.721,377.2927985278427
1135,1686621295.83,41.992,202.637,-39.551,72.266,673.725,375.6930270028812
1136,1686621295.83,110.352,-270.508,-44.434,140.137,673.729,369.022462717584
1137,1686621295.84,149.414,-385.742,0.488,187.012,673.733,355.18958408087053
1138,1686621295.84,80.566,77.637,-40.527,121.094,673.737,377.06510289648537
1139,1686621295.84,29.785,-95.215,-81.543,59.57,673.741,374.493350494393
1140,1686621295.86,85.449,-467.285,-15.625,97.168,673.758,374.8907466313573
1141,1686621295.86,134.766,-267.578,25.391,155.273,673.762,369.3004106338509
1142,1686621295.87,94.727,177.734,-38.574,117.188,673.766,384.6622336363863
1143,1686621295.87,23.926,-126.953,-69.824,52.734,673.77,361.6766683523239
1144,1686621295.88,33.203,-337.402,-37.109,73.242,673.773,373.3359122988015
1145,1686621295.88,102.539,-307.129,-30.762,136.23,673.777,366.12607290901303
1146,1686621295.88,104.492,-211.914,-38.086,139.648,673.781,380.94115113401955
1147,1686621295.89,39.551,-141.602,-58.105,77.148,673.785,372.58281127783266
1148,1686621295.89,27.344,-497.559,-49.316,37.109,673.788,358.7904366658567
1149,1686621295.89,21.484,-663.086,-27.832,60.059,673.789,371.9594591685722
1150,1686621295.9,92.285,0.977,-1.953,82.52,673.792,387.27589350576403
1151,1686621295.9,93.262,-328.613,46.875,126.953,673.793,393.48099775520944
1152,1686621295.9,129.883,79.102,-25.391,139.648,673.796,367.49005754224413
1153,1686621295.9,125.0,378.418,-19.531,150.879,673.797,370.7797010550455
1154,1686621295.9,62.988,-489.258,-98.145,95.703,673.8,378.92271299608046
1155,1686621295.9,54.688,-146.973,-80.566,81.543,673.801,378.14406161316356
1156,1686621295.91,5.859,-830.566,-70.801,41.992,673.804,374.55747215612706
1157,1686621295.91,59.082,-424.316,11.719,92.773,673.807,389.17180276571776
1158,1686621295.91,107.91,171.387,-10.254,147.949,673.811,366.8122381882311
1159,1686621295.92,67.383,-127.93,-62.5,112.793,673.815,368.4412700185666
1160,1686621295.92,13.184,-582.031,-46.387,46.387,673.819,366.66857599758316
1161,1686621295.93,38.574,-25.879,-1.953,66.406,673.823,362.1740223565577
1162,1686621295.93,120.117,325.684,-24.902,133.301,673.827,393.1502562002003
1163,1686621295.93,118.652,-359.375,-78.125,126.465,673.831,375.362516124703
1164,1686621295.94,38.086,-729.492,-27.832,67.383,673.839,386.64506417434245
1165,1686621295.94,29.785,-30.273,4.395,42.48,673.843,375.65026667240346
1166,1686621295.95,89.844,-6.836,-47.363,105.469,673.847,380.6177814119199
1167,1686621295.95,97.168,-266.113,-11.23,138.184,673.85,372.4384609711574
1168,1686621295.95,25.391,-141.602,-5.371,68.848,673.854,360.38970884878296
1169,1686621295.96,-19.531,-153.32,-45.41,20.996,673.858,372.00765489101116
1170,1686621295.96,34.18,-179.688,-20.02,69.824,673.862,378.6838565778362
1171,1686621295.96,85.449,-457.031,-6.348,122.07,673.866,368.64304564770197
1172,1686621295.97,39.062,-355.469,7.812,68.848,673.87,387.1363936929878
1173,1686621295.97,-10.254,235.84,-19.531,0.488,673.874,370.9988429833544
1174,1686621295.98,26.367,6.348,-29.785,35.645,673.878,372.15379623393017
1175,1686621295.98,89.844,-57.617,-20.508,102.051,673.882,385.1381874287013
1176,1686621295.98,74.219,121.094,-27.344,83.496,673.882,373.63986968961024
1177,1686621295.98,1.953,41.504,-36.621,9.277,673.885,371.4556819177414
1178,1686621295.99,1.953,-437.5,-48.34,10.742,673.889,367.278013273708
1179,1686621295.99,64.453,-500.977,-26.367,90.332,673.893,367.64382110848544
1180,1686621296.0,62.5,-44.922,5.859,94.727,673.897,369.4856190522132
1181,1686621296.0,-20.02,-250.977,-19.531,17.578,673.901,361.85235381863805
1182,1686621296.0,-41.992,-609.863,-38.086,2.441,673.905,380.6153893765953
1183,1686621296.01,3.906,-994.629,-9.277,62.012,673.909,373.614995114203
1184,1686621296.01,19.043,-262.695,51.27,84.961,673.913,377.0392255441187
1185,1686621296.02,-29.785,391.113,-24.902,21.484,673.917,379.6491592719744
1186,1686621296.02,-84.961,-64.941,-25.391,-38.574,673.921,367.3789982035714
1187,1686621296.02,-40.039,-20.996,23.438,0.977,673.925,393.28521680312616
1188,1686621296.03,23.438,336.426,-1.953,58.105,673.925,381.20404349962564
1189,1686621296.03,-12.695,99.609,-28.32,28.32,673.929,370.85885591533213
1190,1686621296.04,-89.355,-336.426,-10.254,-47.852,673.933,373.3519557049675
1191,1686621296.04,-77.637,-140.137,17.09,-44.434,673.937,385.08740477728634
1192,1686621296.04,-22.949,180.176,-20.02,22.461,673.941,365.6761143339016
1193,1686621296.05,-47.363,-77.637,-55.176,5.371,673.945,362.73464144285344
1194,1686621296.05,-112.793,-723.145,-34.668,-68.359,673.949,378.6979320375522
1195,1686621296.06,-104.492,-686.035,35.645,-69.336,673.953,374.4021063832653
1196,1686621296.06,-21.484,201.66,41.504,-0.977,673.957,366.9628987649818
1197,1686621296.06,3.418,300.293,-37.598,18.555,673.961,382.49842073936077
1198,1686621296.07,-60.059,-268.555,-20.02,-47.363,673.964,363.5331521657805
1199,1686621296.07,-89.355,-173.34,21.484,-82.031,673.968,374.8069334592155
1200,1686621296.07,-35.156,229.492,4.883,-32.227,673.982,361.25725012973436
1201,1686621296.08,-14.16,115.723,-39.062,3.418,673.986,376.00494367616744
1202,1686621296.08,-79.102,-365.234,-56.152,-46.387,673.99,374.20236703530895
1203,1686621296.08,-132.812,-327.637,-13.672,-119.141,673.993,380.2693345897811
1204,1686621296.09,-92.773,83.496,-8.301,-95.703,673.997,388.59513220822583
1205,1686621296.09,-43.457,-142.578,-60.547,-34.668,674.001,371.2164287802156
1206,1686621296.09,-95.703,-931.641,-64.941,-62.5,674.005,363.34034914153443
1207,1686621296.1,-168.945,-458.984,21.484,-134.766,674.009,377.73658944548265
1208,1686621296.1,-156.25,394.043,2.93,-123.047,674.013,379.2152353418397
1209,1686621296.11,-102.051,116.211,-28.809,-56.152,674.017,381.8017993996966
1210,1686621296.11,-111.328,-25.879,-11.23,-61.035,674.021,376.8392607065783
1211,1686621296.11,-184.082,182.617,-7.324,-136.719,674.025,369.4311385459291
1212,1686621296.12,-198.73,206.055,-31.25,-150.391,674.027,361.4443877503784
1213,1686621296.12,-141.602,-306.152,-26.855,-92.285,674.031,390.778118579792
1214,1686621296.13,-125.0,-294.922,29.785,-84.473,674.035,359.8109776595933
1215,1686621296.13,-186.035,249.512,0.977,-161.133,674.039,373.76018828225
1216,1686621296.13,-223.145,50.293,-37.109,-208.008,674.042,365.40779981500674
1217,1686621296.14,-158.691,-272.461,-11.23,-152.832,674.046,356.20447963651213
1218,1686621296.14,-112.793,-103.027,11.23,-105.957,674.05,368.8132775012906
1219,1686621296.14,-168.945,246.582,-19.531,-160.645,674.054,370.923704257532
1220,1686621296.15,-224.609,-15.625,-56.152,-216.797,674.058,372.6785879897857
1221,1686621296.15,-185.059,-505.859,28.809,-173.34,674.062,378.3423690447499
1222,1686621296.16,-121.094,-43.457,88.379,-122.559,674.066,375.7212782050597
1223,1686621296.16,-162.109,438.965,-5.859,-158.203,674.07,375.93666634060236
1224,1686621296.18,-246.582,-148.438,-59.57,-227.539,674.072,368.71302046999926
1225,1686621296.18,-234.375,-449.707,1.953,-214.844,674.076,385.3367032097399
1226,1686621296.18,-162.598,-61.523,41.992,-147.949,674.08,380.1185147300336
1227,1686621296.19,-169.434,220.703,8.301,-145.02,674.084,370.6697020198624
1228,1686621296.19,-255.859,-104.492,-57.617,-223.633,674.088,357.40356469059816
1229,1686621296.2,-288.086,-764.648,-38.086,-260.742,674.092,378.895584332153
1230,1686621296.2,-229.004,-168.457,61.035,-212.402,674.096,368.4414050189034
1231,1686621296.2,-202.637,553.711,6.836,-183.594,674.1,359.28237062386927
1232,1686621296.21,-276.855,-150.391,-55.176,-241.211,674.104,364.920470280581
1233,1686621296.21,-331.055,-651.855,3.418,-294.434,674.107,368.59341869870894
1234,1686621296.22,-280.273,184.082,42.969,-254.883,674.111,364.24764230448517
1235,1686621296.22,-226.074,436.523,-15.137,-202.637,674.115,357.7785754888451
1236,1686621296.22,-263.184,35.645,-27.344,-240.723,674.12,365.3124612802003
1237,1686621296.23,-311.035,-91.797,-14.16,-306.641,674.124,373.90890946390624
1238,1686621296.23,-278.32,24.414,-8.301,-280.273,674.128,388.21952304141115
1239,1686621296.24,-220.215,-34.668,-5.859,-211.426,674.132,370.0050711106493
1240,1686621296.24,-238.281,-348.633,-19.043,-225.098,674.136,357.9055215794167
1241,1686621296.24,-313.477,-527.344,-11.719,-291.504,674.14,363.0767291481548
1242,1686621296.25,-317.871,-151.367,20.02,-292.969,674.144,378.4195700571005
1243,1686621296.25,-238.281,219.238,9.766,-214.844,674.148,368.43277497774733
1244,1686621296.25,-227.051,-355.469,9.766,-198.242,674.152,387.19060138629936
1245,1686621296.26,-305.176,-351.074,55.664,-280.273,674.156,362.4866640109374
1246,1686621296.26,-331.055,249.512,8.301,-321.777,674.159,358.83262778887695
1247,1686621296.27,-275.879,-19.531,-19.531,-266.113,674.163,363.66958593047787
1248,1686621296.27,-247.07,28.32,6.348,-236.328,674.163,371.33873819359434
1249,1686621296.27,-298.828,251.465,-5.859,-296.387,674.167,374.46254718155774
1250,1686621296.27,-340.82,-50.293,-10.742,-334.473,674.17,379.79480871829514
1251,1686621296.28,-295.898,-326.66,6.836,-286.621,674.174,371.15247400216765
1252,1686621296.28,-251.953,-92.285,9.766,-236.328,674.178,374.1490343152917
1253,1686621296.29,-292.969,83.984,-0.977,-268.066,674.182,362.1301418393708
1254,1686621296.29,-355.957,-120.605,-2.441,-340.332,674.186,361.48300868684544
1255,1686621296.29,-342.773,-253.418,-0.977,-333.984,674.19,359.92037561272696
1256,1686621296.3,-291.016,-848.145,-8.301,-263.672,674.194,364.7596947108184
1257,1686621296.3,-308.105,-446.289,58.594,-273.926,674.198,367.1179572510947
1258,1686621296.3,-382.812,502.93,44.434,-363.77,674.202,365.44274386344307
1259,1686621296.31,-392.578,238.77,16.602,-377.93,674.206,364.1555625637323
1260,1686621296.31,-316.895,279.297,64.453,-310.059,674.208,352.88481343276635
1261,1686621296.32,-284.18,557.129,44.434,-291.016,674.212,352.12677360888614
1262,1686621296.32,-353.027,216.309,-7.324,-364.258,674.216,364.14491047224817
1263,1686621296.32,-393.066,-126.465,35.645,-405.762,674.22,377.9325882430982
1264,1686621296.33,-330.566,74.219,64.453,-338.867,674.224,371.18414461922384
1265,1686621296.33,-286.133,93.75,26.855,-282.715,674.228,372.82327856225595
1266,1686621296.33,-337.402,-14.648,5.371,-333.984,674.231,373.7462626225552
1267,1686621296.34,-399.414,-551.27,3.418,-391.602,674.235,364.35710106743306
1268,1686621296.34,-357.91,-455.078,101.074,-358.398,674.239,367.432113339235
1269,1686621296.35,-289.551,560.547,104.98,-295.898,674.243,362.9339483675634
1270,1686621296.35,-325.195,416.016,3.418,-321.777,674.247,362.3704196399939
1271,1686621296.35,-388.184,-201.172,10.254,-388.184,674.251,353.45137852583224
1272,1686621296.36,-357.91,53.223,72.266,-371.582,674.252,361.9335207889707
1273,1686621296.36,-298.34,500.0,53.711,-311.035,674.256,365.8141107174598
1274,1686621296.36,-305.176,35.156,-34.18,-309.57,674.26,367.3044499434022
1275,1686621296.37,-376.953,-512.207,-3.418,-372.559,674.264,366.94175644296683
1276,1686621296.37,-410.645,-90.82,61.035,-405.762,674.268,362.2197908896942
1277,1686621296.38,-350.098,126.953,24.902,-357.422,674.272,370.5505529844571
1278,1686621296.38,-330.078,-190.43,1.465,-323.242,674.276,374.5033620571921
1279,1686621296.38,-410.156,-477.051,10.742,-381.348,674.28,361.30511137221674
1280,1686621296.39,-454.102,102.051,68.848,-436.035,674.284,357.7427791098056
1281,1686621296.39,-395.996,505.859,33.203,-388.184,674.288,374.32465063127455
1282,1686621296.4,-352.051,144.531,1.953,-333.008,674.292,358.9007667137578
1283,1686621296.4,-408.203,-57.129,10.254,-388.672,674.295,350.8024448309372
1284,1686621296.4,-465.82,131.348,20.508,-456.055,674.311,367.62363266173156
1285,1686621296.41,-429.199,225.586,9.277,-427.246,674.315,365.9292928900379
1286,1686621296.41,-383.789,-142.578,28.809,-366.699,674.319,377.6059039283754
1287,1686621296.42,-416.504,-106.934,66.895,-389.16,674.323,365.94978109141005
1288,1686621296.42,-484.375,193.359,3.418,-464.844,674.327,362.3454357079713
1289,1686621296.42,-484.863,-47.363,-14.16,-466.797,674.331,358.8214454735208
1290,1686621296.43,-415.039,-501.465,20.508,-395.02,674.335,370.245923866944
1291,1686621296.43,-406.25,-284.18,58.105,-386.23,674.339,362.8852718728086
1292,1686621296.43,-476.562,394.531,33.691,-455.078,674.343,379.2872547309523
1293,1686621296.44,-506.836,117.188,-10.742,-472.168,674.347,359.39807592364343
1294,1686621296.44,-451.66,55.176,31.25,-405.273,674.35,362.10348781620166
1295,1686621296.45,-423.34,400.391,50.781,-379.395,674.354,371.861636425717
