,timestamps,TP9,AF7,AF8,TP10,Secondary Timestamp,emg_signal
0,1686879865.93,-17.09,103.027,-18.066,59.57,1093.828,429.8426700184816
1,1686879865.94,-25.391,114.258,-13.184,3.418,1093.832,428.5270885894695
2,1686879865.94,-45.898,47.852,-27.832,-72.754,1093.836,436.70178678613155
3,1686879865.94,-42.48,-149.902,-24.902,-30.273,1093.84,431.1777237052692
4,1686879865.95,-17.09,-337.891,-46.875,46.387,1093.844,436.15773947565225
5,1686879865.95,-22.949,-417.969,-2.93,13.672,1093.848,422.58644149239973
6,1686879865.96,-46.875,-72.266,32.715,-73.242,1093.851,433.0618016290871
7,1686879865.96,-45.41,153.809,-19.531,-68.359,1093.855,437.3500279788
8,1686879865.96,-9.766,-443.848,-49.316,19.043,1093.859,425.23673643505737
9,1686879865.97,0.488,-334.961,45.898,29.297,1093.863,439.5015680769264
10,1686879865.97,-27.832,327.637,4.395,-50.781,1093.867,426.1086341618382
11,1686879865.97,-46.387,-157.227,-56.641,-72.754,1093.871,430.67378324580216
12,1686879865.98,-28.32,-411.621,56.641,-4.883,1093.873,435.82679631442403
13,1686879865.98,-0.488,23.438,27.344,32.715,1093.877,432.96190103369867
14,1686879865.98,-13.672,12.695,-30.762,-34.668,1093.881,439.9153000931964
15,1686879865.99,-38.086,-143.555,-20.996,-89.844,1093.884,431.83243647152847
16,1686879865.99,-26.855,-619.141,20.508,-28.32,1093.888,426.28595734289473
17,1686879866.0,-0.488,-325.195,35.645,40.039,1093.892,430.60174653565497
18,1686879866.0,-12.695,28.32,-23.926,-0.977,1093.896,432.45070414829627
19,1686879866.0,-44.922,-282.227,-39.062,-68.848,1093.9,434.3333833721698
20,1686879866.01,-50.293,-847.168,-13.184,-36.133,1093.904,430.0502635741978
21,1686879866.01,-15.625,-231.934,52.246,29.297,1093.908,430.7358879745353
22,1686879866.02,-11.719,460.938,4.395,9.766,1093.912,435.83876440651625
23,1686879866.02,-51.27,110.84,-40.039,-67.383,1093.916,435.18068000834677
24,1686879866.02,-53.711,79.102,-1.953,-74.707,1093.92,427.8279055244136
25,1686879866.03,-20.02,400.391,2.441,11.719,1093.924,435.2494937781818
26,1686879866.03,-5.859,354.98,-36.133,36.133,1093.928,440.3416596708593
27,1686879866.04,-31.738,20.996,-49.316,-49.805,1093.932,439.03846265071314
28,1686879866.04,-47.363,44.922,-32.715,-89.844,1093.936,439.180531654952
29,1686879866.04,-22.949,-6.348,-26.855,-7.324,1093.94,435.6528371074295
30,1686879866.05,-0.977,-62.012,-29.785,42.48,1093.944,440.3760945194954
31,1686879866.05,-30.762,-521.484,-70.312,-33.203,1093.948,433.72583052781823
32,1686879866.05,-64.453,-706.055,27.832,-104.98,1093.951,440.5313732210923
33,1686879866.06,-46.875,147.461,36.133,-62.012,1093.955,431.64500916334043
34,1686879866.06,-24.414,307.129,-43.945,4.883,1093.959,430.68382461448766
35,1686879866.07,-32.227,-216.797,24.414,-26.367,1093.963,425.9999051046661
36,1686879866.08,-51.27,43.457,30.762,-81.543,1093.978,431.681925618786
37,1686879866.09,-49.805,247.559,-45.41,-57.129,1093.982,433.74598913140045
38,1686879866.09,-7.812,-145.996,-28.32,18.555,1093.986,433.12063645863964
39,1686879866.09,5.859,-167.48,41.504,18.555,1093.99,434.1541052456217
40,1686879866.1,-19.043,151.855,-12.695,-65.43,1093.994,432.8478888714571
41,1686879866.1,-36.133,25.879,-31.25,-78.125,1093.998,434.6541787534464
42,1686879866.11,-10.254,-199.707,-21.973,-1.465,1094.001,431.44493651638226
43,1686879866.11,7.324,-811.035,-32.227,25.879,1094.005,436.03455743130513
44,1686879866.11,-17.09,415.527,-4.395,-26.855,1094.021,426.5437082074527
45,1686879866.11,-17.09,-475.098,46.387,-56.641,1094.009,437.26548518967223
46,1686879866.12,-52.734,316.406,-38.086,-104.004,1094.025,434.936745359135
47,1686879866.12,-44.922,200.195,-16.113,-98.633,1094.013,434.67743246356054
48,1686879866.12,-32.715,-114.258,-50.781,-58.594,1094.029,444.14964056027884
49,1686879866.12,-30.273,-22.949,-34.668,-24.902,1094.017,439.28528356538135
50,1686879866.12,9.277,40.039,-11.23,11.23,1094.033,445.0173903169876
51,1686879866.12,4.883,84.473,30.273,34.18,1094.021,444.83373374652103
52,1686879866.13,3.418,411.621,-16.113,-13.184,1094.036,438.3512261195217
53,1686879866.13,-41.504,1.465,-47.363,-89.844,1094.04,438.1536559005736
54,1686879866.14,-43.945,-436.523,-26.367,-78.613,1094.044,445.77255943272036
55,1686879866.14,-14.648,-38.086,3.418,10.742,1094.048,427.80829060288
56,1686879866.14,-10.254,400.391,-11.23,8.301,1094.052,438.4454788064383
57,1686879866.15,-27.344,254.395,-40.527,-72.266,1094.056,442.6000387940409
58,1686879866.15,-39.551,-584.473,-52.246,-73.73,1094.06,432.9429321250852
59,1686879866.15,-18.066,-377.93,22.461,0.488,1094.064,442.3476687752996
60,1686879866.16,10.254,273.926,0.0,23.926,1094.066,438.8744807253152
61,1686879866.16,-28.809,-123.535,-60.059,-42.48,1094.07,449.82396525353397
62,1686879866.16,-68.359,-834.473,-41.992,-96.191,1094.074,438.1366180851205
63,1686879866.17,-26.855,-344.727,47.852,-42.48,1094.077,438.0054284494323
64,1686879866.17,0.977,403.809,12.207,18.066,1094.081,437.1087218270904
65,1686879866.18,-10.742,-87.891,-39.551,-21.484,1094.085,449.0411733018803
66,1686879866.18,-40.039,-694.824,13.184,-95.703,1094.089,428.05048733833684
67,1686879866.18,-47.852,-87.402,33.203,-68.359,1094.093,444.4845615991286
68,1686879866.19,-6.836,448.73,-20.508,21.484,1094.097,434.95507379370736
69,1686879866.19,-9.277,131.836,-41.504,-1.465,1094.101,433.0086506911133
70,1686879866.2,-43.457,-64.941,-6.836,-84.473,1094.105,430.3691175310705
71,1686879866.2,-41.016,191.406,-7.324,-74.219,1094.109,439.9220379396522
72,1686879866.2,-5.859,340.332,-25.879,2.93,1094.111,442.6796186758082
73,1686879866.21,9.766,121.094,-39.551,1.465,1094.115,433.44849087507464
74,1686879866.21,-20.02,98.633,-40.039,-66.406,1094.119,432.01559452414386
75,1686879866.22,-42.969,2.441,-42.48,-81.055,1094.123,426.9122344705064
76,1686879866.22,-20.508,-129.395,-28.809,-13.672,1094.127,441.39846743570945
77,1686879866.22,-4.883,-494.141,-71.289,34.668,1094.131,425.00225131595124
78,1686879866.23,-35.156,-636.719,18.555,-33.203,1094.135,431.29712471895925
79,1686879866.23,-56.641,85.938,12.695,-100.098,1094.139,428.77700636184414
80,1686879866.24,-40.527,200.195,-48.34,-38.574,1094.143,433.4410161729484
81,1686879866.24,-7.812,-82.031,11.23,36.621,1094.146,432.1723854808861
82,1686879866.24,-13.672,160.645,-6.348,-11.719,1094.15,434.82428347323327
83,1686879866.25,-56.152,283.203,-35.645,-99.121,1094.154,435.7468542890663
84,1686879866.26,-58.105,44.922,-29.785,-82.031,1094.158,428.8722697119089
85,1686879866.26,-24.902,-129.883,-15.137,1.465,1094.162,429.0448721302816
86,1686879866.27,-25.391,-134.277,-9.277,0.488,1094.166,427.903583635795
87,1686879866.27,-48.828,154.297,-9.766,-82.52,1094.17,430.4770313864466
88,1686879866.28,-55.664,34.18,-54.688,-78.125,1094.174,434.3985650010377
89,1686879866.28,-24.902,-770.02,-34.18,13.672,1094.178,438.488889769011
90,1686879866.28,-0.488,-503.418,31.738,23.926,1094.182,425.32794436151084
91,1686879866.29,-30.762,129.883,-0.977,-72.266,1094.185,427.286043909556
92,1686879866.29,-60.547,-117.188,-55.664,-110.352,1094.189,441.9744210442919
93,1686879866.3,-30.273,-678.711,15.137,-29.785,1094.193,431.70490861582914
94,1686879866.3,-0.488,0.488,39.551,13.184,1094.197,430.6177219808819
95,1686879866.3,-28.32,432.129,-30.762,-49.805,1094.201,433.29733275215096
96,1686879866.31,-56.641,-4.395,-45.898,-109.863,1094.203,433.3355275983866
97,1686879866.31,-45.41,-11.23,-12.695,-52.734,1094.207,422.907515963769
98,1686879866.32,-12.695,333.008,-6.348,23.926,1094.211,437.51623244774356
99,1686879866.32,-15.625,322.266,-31.738,-14.648,1094.214,430.0862424131167
100,1686879866.32,-51.758,-69.824,-45.41,-84.961,1094.218,425.1806726115325
101,1686879866.33,-53.711,-296.875,-26.367,-62.988,1094.222,429.2070537110881
102,1686879866.33,-27.344,-54.199,4.883,11.719,1094.226,432.0063368080236
103,1686879866.33,-18.066,291.504,-31.25,2.441,1094.23,431.7326342191221
104,1686879866.34,-34.668,-495.605,-81.055,-74.707,1094.234,430.34662480293196
105,1686879866.34,-46.387,-716.797,46.387,-77.148,1094.238,434.3089096907629
106,1686879866.35,-25.879,238.77,30.273,5.371,1094.242,435.17326884569104
107,1686879866.35,-11.23,300.293,-35.156,31.738,1094.246,434.25977269864853
108,1686879866.35,-32.715,-103.516,43.457,-44.434,1094.248,437.9060024783309
109,1686879866.36,-51.27,-34.18,11.23,-83.008,1094.252,442.2999085495931
110,1686879866.36,-39.551,-27.832,-14.648,-23.926,1094.256,437.3912469736405
111,1686879866.36,-14.648,-102.051,-7.812,20.996,1094.26,440.6775057134405
112,1686879866.37,-25.879,-492.188,10.254,-36.133,1094.263,435.6839523431239
113,1686879866.37,-51.758,-461.426,7.812,-87.402,1094.267,442.0867524966369
114,1686879866.38,-38.574,-33.691,-7.812,-41.016,1094.271,429.2453421559743
115,1686879866.38,-6.348,-1.953,-29.297,28.32,1094.275,438.9370426954614
116,1686879866.38,-19.043,-601.562,3.418,3.906,1094.279,437.33823694962734
117,1686879866.39,-53.711,-49.316,33.203,-79.59,1094.283,434.3243301104714
118,1686879866.39,-54.199,337.402,-32.715,-67.871,1094.287,431.53991950246825
119,1686879866.4,-20.508,-83.496,-19.043,20.508,1094.291,438.0659569837106
120,1686879866.4,-11.23,39.551,32.227,24.414,1094.293,439.68717935731456
121,1686879866.4,-44.434,338.867,4.395,-56.641,1094.297,432.74288667283906
122,1686879866.4,-59.082,254.395,-30.273,-76.172,1094.3,434.8813465622923
123,1686879866.41,-36.621,-94.727,-36.133,-8.301,1094.304,430.64929658738345
124,1686879866.41,-23.926,64.453,-11.719,19.531,1094.308,432.0317558441957
125,1686879866.42,-45.898,69.336,-11.719,-50.293,1094.312,441.42966251854756
126,1686879866.42,-69.336,-180.664,-23.438,-98.145,1094.316,434.3322721285116
127,1686879866.42,-48.34,-549.316,-55.176,-35.156,1094.32,430.93169922324455
128,1686879866.43,-19.531,-435.547,37.598,25.879,1094.324,439.53538429158505
129,1686879866.43,-33.691,297.363,19.043,-31.25,1094.328,439.20235387935617
130,1686879866.44,-62.5,188.477,-48.34,-105.469,1094.332,447.05397129131177
131,1686879866.44,-54.199,-152.344,37.598,-72.754,1094.336,431.80484537674596
132,1686879866.44,-25.879,203.613,22.461,-2.441,1094.34,431.90131046098435
133,1686879866.45,-27.344,330.566,-41.016,-25.391,1094.344,430.9675584628951
134,1686879866.45,-55.664,-232.91,-35.645,-94.727,1094.348,427.6516355406617
135,1686879866.45,-56.152,-842.773,-18.555,-82.031,1094.352,426.99681216725725
136,1686879866.46,-21.484,-268.066,37.598,3.906,1094.356,433.3858284429136
137,1686879866.46,-15.137,200.195,-0.488,21.484,1094.36,436.3107193078171
138,1686879866.47,-46.387,-272.461,-40.039,-54.199,1094.364,428.59460308674886
139,1686879866.47,-61.035,-748.047,3.418,-75.684,1094.368,435.6752272886217
140,1686879866.47,-39.551,-59.082,41.016,-1.953,1094.372,427.9322248364099
141,1686879866.48,-18.066,516.113,-15.625,27.832,1094.376,427.8142103599256
142,1686879866.48,-38.086,129.883,-40.039,-39.551,1094.38,422.9543159711149
143,1686879866.48,-48.828,-9.277,-13.184,-81.543,1094.383,431.4771497992732
144,1686879866.49,-30.762,268.066,-13.184,-38.086,1094.384,424.7257284722076
145,1686879866.49,-10.254,384.766,-21.484,21.484,1094.388,435.8255139536472
146,1686879866.5,-20.508,65.918,-51.27,-14.16,1094.392,438.2977452384647
147,1686879866.5,-51.758,16.602,-44.434,-88.379,1094.396,425.9934570236275
148,1686879866.5,-39.551,25.391,-17.09,-41.504,1094.4,429.7173925004646
149,1686879866.51,-7.812,-68.359,-24.414,45.41,1094.404,434.549529470723
150,1686879866.51,-12.207,-544.434,-95.215,26.855,1094.408,436.3129850483274
151,1686879866.51,-41.504,-812.988,8.789,-56.152,1094.412,436.4149226763759
152,1686879866.52,-44.922,-43.945,41.016,-73.73,1094.416,434.2563924965879
153,1686879866.52,-22.949,199.219,-18.555,1.953,1094.42,428.6330129044499
154,1686879866.53,-5.371,39.551,27.832,23.438,1094.424,421.4900539800298
155,1686879866.53,-19.043,201.66,7.324,-45.41,1094.427,426.9674963727714
156,1686879866.53,-49.805,286.133,-22.461,-75.684,1094.442,425.1044046739987
157,1686879866.54,-39.551,88.379,-40.527,-2.93,1094.446,422.3831360279201
158,1686879866.54,-17.578,-260.742,-8.789,43.457,1094.45,424.9538145772502
159,1686879866.54,-31.738,37.109,-2.93,-20.02,1094.454,428.8286584458951
160,1686879866.55,-64.941,299.805,-40.039,-81.543,1094.457,430.1449790151675
161,1686879866.55,-57.617,-99.121,-40.039,-35.645,1094.461,441.8816196811761
162,1686879866.56,-17.578,-862.793,-34.18,32.715,1094.465,433.5601077044583
163,1686879866.56,-18.066,-572.266,31.25,-11.23,1094.469,433.3683489344634
164,1686879866.56,-42.48,191.406,-8.301,-84.961,1094.473,431.0382314963461
165,1686879866.57,-39.062,-62.012,-33.203,-53.711,1094.477,432.66042102724634
166,1686879866.57,-15.137,-230.957,46.387,26.367,1094.481,432.6874283680574
167,1686879866.57,-12.695,231.934,15.625,17.09,1094.485,442.09834311951573
168,1686879866.58,-35.645,299.805,-33.691,-66.895,1094.487,425.9568376819353
169,1686879866.58,-55.664,-70.312,-40.527,-78.125,1094.49,438.6772009275131
170,1686879866.59,-29.297,30.273,-10.254,-1.465,1094.494,428.1011343849904
171,1686879866.59,-1.953,369.629,-12.207,23.926,1094.498,426.6680598014243
172,1686879866.59,-30.273,236.816,-40.039,-45.41,1094.502,432.4324887560559
173,1686879866.6,-54.688,-356.934,-69.824,-83.984,1094.506,434.3678848990358
174,1686879866.6,-29.785,-437.5,-23.438,-22.461,1094.51,426.00609119758445
175,1686879866.6,-10.254,148.438,3.906,23.438,1094.514,432.9483526820427
176,1686879866.61,-25.391,254.395,-38.086,-35.156,1094.518,438.4000711688256
177,1686879866.61,-57.129,-616.211,-59.082,-92.285,1094.522,428.52069785377535
178,1686879866.62,-46.387,-520.508,40.039,-50.293,1094.526,435.54128736993914
179,1686879866.62,-13.672,304.688,23.438,6.836,1094.53,435.97399848140844
180,1686879866.64,-11.719,248.047,-45.41,-12.207,1094.533,439.38386281902314
181,1686879866.64,-33.691,-337.402,-6.836,-69.336,1094.537,424.40859571200485
182,1686879866.64,-64.453,-395.996,10.742,-79.59,1094.541,433.5813820568872
183,1686879866.65,-46.387,163.574,7.812,-20.02,1094.544,431.93538098003984
184,1686879866.65,-22.461,153.32,-42.48,-10.742,1094.548,436.40952910893725
185,1686879866.66,-42.969,-772.949,-43.945,-69.336,1094.552,424.71423302046173
186,1686879866.66,-44.434,-589.844,56.641,-72.266,1094.556,429.0569329971447
187,1686879866.66,-22.949,191.895,29.297,-5.371,1094.56,429.6294997471755
188,1686879866.67,-0.488,55.664,-20.996,26.367,1094.564,433.65561207297407
189,1686879866.67,-16.113,-259.277,35.156,-34.18,1094.568,425.62341102496725
190,1686879866.68,-57.129,64.941,21.973,-86.426,1094.572,430.3799671313876
191,1686879866.68,-36.621,251.465,-32.227,-15.137,1094.576,432.92397503576456
192,1686879866.68,-6.348,-132.812,-25.391,57.617,1094.578,441.37400404563675
193,1686879866.68,-10.254,-223.633,24.902,13.184,1094.582,429.950064441652
194,1686879866.69,-23.438,144.531,11.719,-53.711,1094.586,425.8283054796018
195,1686879866.69,-19.531,162.109,-14.16,-21.484,1094.59,430.62690346844744
196,1686879866.7,7.324,-93.75,-35.156,62.988,1094.593,436.1993105278429
197,1686879866.7,7.324,-239.258,-33.691,52.734,1094.597,431.5086560930294
198,1686879866.7,-15.137,-156.738,7.324,-23.438,1094.601,417.54632735065917
199,1686879866.71,-22.461,62.012,-23.926,-20.996,1094.605,425.7663389594981
200,1686879866.71,11.23,-484.863,-66.406,70.312,1094.609,429.13120177420626
201,1686879866.72,33.203,-458.496,44.922,82.031,1094.613,431.83108793678525
202,1686879866.72,-1.465,246.582,16.602,3.906,1094.617,431.0994413530971
203,1686879866.72,-17.09,101.074,-42.48,-23.438,1094.621,428.54264020694575
204,1686879866.73,0.488,-80.566,13.672,41.504,1094.623,433.504838121429
205,1686879866.73,20.996,82.52,-20.996,84.961,1094.627,429.66588663635105
206,1686879866.73,17.09,-74.219,-26.367,26.367,1094.63,430.0929472594261
207,1686879866.74,-10.254,-353.027,-16.602,-30.273,1094.634,430.9878613556173
208,1686879866.74,-5.371,-823.73,-33.691,24.902,1094.638,431.16539737548317
209,1686879866.75,26.855,-582.52,24.902,96.191,1094.642,428.6961641030806
210,1686879866.75,19.531,49.805,23.926,48.828,1094.646,429.94029929877655
211,1686879866.75,-8.301,-106.445,-48.828,-30.762,1094.65,441.68526734760434
212,1686879866.76,-11.23,-729.492,2.93,-4.883,1094.654,432.5585726075157
213,1686879866.76,21.973,-117.676,51.758,59.57,1094.658,429.26284740005167
214,1686879866.76,35.156,379.395,-25.391,39.551,1094.662,418.3929720047827
215,1686879866.77,-14.16,-44.434,-37.109,-47.363,1094.666,426.30068090435327
216,1686879866.77,-26.367,-106.934,6.836,-61.523,1094.668,432.9979401718575
217,1686879866.78,11.23,254.395,-4.883,22.461,1094.672,436.178693823214
218,1686879866.78,24.414,310.059,-37.109,41.016,1094.675,431.44024337071437
219,1686879866.78,0.0,-57.617,-45.898,-37.598,1094.679,424.6962325232718
220,1686879866.79,-24.902,-111.328,-30.762,-70.312,1094.683,431.05853362691477
221,1686879866.79,-4.395,-105.957,-11.719,6.836,1094.687,421.94650202180856
222,1686879866.8,23.926,-139.16,-25.879,57.617,1094.691,425.5048903261135
223,1686879866.8,5.859,-598.633,-80.078,-9.277,1094.695,429.38183072570575
224,1686879866.8,-28.32,-814.941,29.785,-77.148,1094.699,417.00899896284534
225,1686879866.81,-10.254,0.488,40.527,-23.926,1094.703,431.36402883075186
226,1686879866.81,20.508,220.215,-29.785,44.434,1094.707,421.27581377825646
227,1686879866.81,8.301,-91.309,32.227,-10.254,1094.711,422.6669941402968
228,1686879866.82,-19.043,74.219,4.395,-83.984,1094.713,418.5950086820363
229,1686879866.82,-19.043,203.125,-21.484,-57.129,1094.717,419.34234764706616
230,1686879866.82,1.953,-246.582,-25.391,19.531,1094.721,425.0974499610097
231,1686879866.83,4.395,-679.199,11.23,28.32,1094.725,426.60378812065153
232,1686879866.83,-21.973,-162.109,14.16,-54.199,1094.728,417.96830095782894
233,1686879866.84,-37.109,-56.152,-25.879,-70.801,1094.732,416.07903666815076
234,1686879866.84,-12.207,-331.543,-18.555,12.207,1094.736,427.4271545657834
235,1686879866.84,6.348,-730.957,-3.418,38.574,1094.74,423.79542545835284
236,1686879866.85,-5.859,-413.086,25.391,-35.156,1094.744,420.35742274910297
237,1686879866.85,-22.461,173.34,-21.484,-88.867,1094.748,416.2140849909083
238,1686879866.86,-8.789,-65.43,-26.855,-19.043,1094.752,420.40241639481275
239,1686879866.86,16.602,-198.73,32.715,39.062,1094.756,421.4715532292643
240,1686879866.86,3.906,164.551,-0.488,-25.879,1094.772,412.6007596884337
241,1686879866.87,-28.809,183.105,-33.691,-95.703,1094.775,421.80331526415625
242,1686879866.87,-25.391,-145.508,-34.668,-45.41,1094.779,426.06206725185
243,1686879866.87,3.418,55.664,-8.301,36.133,1094.783,419.9726850447896
244,1686879866.88,3.906,290.039,-12.207,-2.441,1094.787,424.28289704213836
245,1686879866.88,-26.367,-103.516,-39.551,-81.055,1094.791,419.03512308627523
246,1686879866.89,-34.18,-690.43,-63.477,-65.43,1094.795,423.3721042235265
247,1686879866.89,0.488,-479.492,31.738,12.207,1094.799,421.7187609816837
248,1686879866.89,2.93,278.32,16.602,12.695,1094.803,424.52169668435147
249,1686879866.9,-40.039,199.707,-58.105,-64.941,1094.807,420.57641694045293
250,1686879866.9,-46.387,-354.492,-12.695,-71.777,1094.811,415.6958412240861
251,1686879866.9,-15.625,-137.207,12.207,12.207,1094.815,418.99351956283544
252,1686879866.94,-1.953,343.262,-11.23,27.832,1094.833,431.1382478079891
253,1686879866.94,-31.738,97.656,-59.57,-64.941,1094.836,428.2100156591871
254,1686879866.94,-64.453,-766.113,-59.082,-102.051,1094.84,424.2386550907571
255,1686879866.95,-39.062,-361.816,37.598,-45.41,1094.844,416.14381781286403
256,1686879866.95,-5.371,343.262,1.465,10.742,1094.848,424.9808383990768
257,1686879866.95,-17.578,32.227,-61.523,7.324,1094.891,415.6346501462219
258,1686879866.96,-24.414,-143.555,-53.711,-29.785,1094.852,431.4900085936196
259,1686879866.96,-25.391,-365.234,-19.531,-20.996,1094.895,425.3406946075796
260,1686879866.96,-61.035,-844.727,-26.855,-102.539,1094.856,432.88305553112366
261,1686879866.96,-63.965,-119.629,16.602,-104.004,1094.899,424.7809131876565
262,1686879866.96,-57.617,-365.723,18.555,-72.266,1094.86,435.76830994379986
263,1686879866.97,-55.176,181.641,-23.926,-70.312,1094.903,438.2300196336843
264,1686879866.97,-25.879,284.18,-6.836,4.883,1094.864,434.41456619122283
265,1686879866.97,-18.066,20.02,-40.039,19.043,1094.907,433.61649926402555
266,1686879866.97,-24.902,29.297,-31.25,-16.113,1094.868,426.87020647217685
267,1686879866.97,-19.043,-301.758,-63.965,0.488,1094.911,437.75165928735674
268,1686879866.98,-57.129,-299.316,16.113,-97.168,1094.872,435.44797365782546
269,1686879866.98,-52.734,-319.336,-16.602,-88.867,1094.915,437.181461094894
270,1686879866.98,-54.688,74.219,32.227,-78.613,1094.876,433.4731326417344
271,1686879866.98,-57.617,-3.906,-3.906,-83.008,1094.919,440.3781708754379
272,1686879866.98,-17.578,-166.016,-25.391,7.812,1094.923,438.5327196321776
273,1686879866.99,-9.277,-338.379,-0.488,14.16,1094.926,445.9113926940841
274,1686879866.99,-43.945,81.055,-8.789,-70.801,1094.93,446.90705147208286
275,1686879867.0,-60.059,208.984,-33.691,-108.887,1094.934,442.7018440299341
276,1686879867.01,-40.039,-373.535,-55.664,-31.738,1094.908,450.73937746555634
277,1686879867.02,-20.508,-833.496,-11.719,21.973,1094.912,448.14953626302156
278,1686879867.02,-33.203,-310.059,0.977,-41.992,1094.916,443.27730750918147
279,1686879867.02,-57.129,-144.043,-31.25,-91.797,1094.92,459.60974480899387
280,1686879867.03,-46.387,-625.488,-39.062,-40.527,1094.924,442.11045773121975
281,1686879867.03,-19.043,-892.09,-0.488,28.32,1094.928,454.4767138069438
282,1686879867.04,-20.996,-357.422,41.504,-22.461,1094.932,450.08130843000606
283,1686879867.04,-47.363,-31.25,-33.691,-98.145,1094.935,449.8832439248601
284,1686879867.04,-45.898,-462.891,15.625,-59.082,1094.939,459.05929727437314
285,1686879867.05,-14.16,-268.066,83.008,27.344,1094.943,461.79470908204024
286,1686879867.05,-2.441,381.836,-5.859,7.324,1094.947,463.4047787548046
287,1686879867.05,-31.738,119.629,-44.922,-80.078,1094.951,464.9381785230376
288,1686879867.06,-39.551,-251.465,-1.465,-77.148,1094.955,469.4292341751227
289,1686879867.06,-7.324,65.43,20.508,1.953,1094.959,475.04528328068966
290,1686879867.07,1.953,379.883,-25.879,16.602,1094.963,469.0088749728208
291,1686879867.07,-32.227,54.688,-52.734,-57.617,1094.966,470.5562596713857
292,1686879867.07,-50.293,-308.105,-54.199,-89.844,1094.97,468.46494717803046
293,1686879867.08,-29.297,-268.555,-24.902,-20.02,1094.974,478.8661076793272
294,1686879867.08,-7.324,-193.359,3.418,22.949,1094.978,472.8930171081837
295,1686879867.08,-21.973,-430.664,-69.336,-34.18,1094.982,476.0268706823063
296,1686879867.09,-52.246,-928.223,-30.762,-78.613,1094.986,484.3504772233494
297,1686879867.09,-41.504,-398.438,91.797,-36.621,1094.99,489.5988862390796
298,1686879867.1,-20.508,219.727,-8.301,27.344,1094.994,482.9876556352865
299,1686879867.1,-24.902,-51.27,-18.066,-10.742,1094.998,477.73160496147045
300,1686879867.1,-53.223,-124.023,13.184,-93.262,1094.998,479.19366633061287
301,1686879867.11,-57.617,-102.539,-23.438,-68.848,1095.002,481.38235899556946
302,1686879867.11,-19.531,-264.16,-30.273,20.996,1095.005,482.326270764174
303,1686879867.11,-9.766,-359.375,3.906,20.508,1095.009,488.5267132653635
304,1686879867.12,-40.527,-239.258,3.418,-65.918,1095.013,495.4507796899036
305,1686879867.12,-56.152,-255.859,-46.875,-75.195,1095.017,491.2758691099636
306,1686879867.13,-38.086,-220.215,-9.766,1.953,1095.021,491.8272197906769
307,1686879867.13,-21.484,-497.07,-43.945,28.32,1095.025,493.06264327483524
308,1686879867.13,-42.969,-1000.0,3.906,-32.715,1095.029,488.5426385721656
309,1686879867.14,-59.082,-283.691,64.941,-78.613,1095.033,490.07080462665215
310,1686879867.14,-35.645,102.539,-21.484,-18.066,1095.037,486.1379815810608
311,1686879867.14,1.953,-85.938,-3.418,32.227,1095.041,494.7105939973665
312,1686879867.15,-7.324,84.473,5.859,-20.996,1095.043,497.5385575505034
313,1686879867.15,-44.434,184.082,-20.508,-85.449,1095.047,493.3866582925896
314,1686879867.15,-39.062,-53.711,-33.203,-46.387,1095.051,487.8800585355269
315,1686879867.16,-8.789,-125.977,-27.344,34.668,1095.055,494.22965592963914
316,1686879867.16,-15.137,118.164,-29.785,10.742,1095.058,490.38799010722215
317,1686879867.17,-51.758,-137.207,-34.18,-77.637,1095.062,487.0255470458976
318,1686879867.17,-54.199,-569.336,-63.477,-76.66,1095.066,488.56468639164257
319,1686879867.17,-22.461,-715.332,-22.949,15.137,1095.07,481.7208673418302
320,1686879867.18,-15.625,-128.418,49.316,21.484,1095.074,488.42448647660984
321,1686879867.18,-45.898,195.312,-50.293,-70.801,1095.078,496.4837371146282
322,1686879867.18,-64.453,-279.785,-23.926,-94.238,1095.082,490.6178138561477
323,1686879867.19,-35.645,-342.773,45.41,-15.137,1095.086,494.02560404266495
324,1686879867.19,-5.371,163.574,-7.812,21.484,1095.101,488.1188709701257
325,1686879867.2,-29.297,30.273,-43.457,-50.781,1095.105,491.95835451049425
326,1686879867.2,-62.012,-687.988,-57.617,-92.773,1095.109,487.11766929331174
327,1686879867.2,-43.457,-739.746,16.602,-29.297,1095.113,485.4903276980946
328,1686879867.21,-9.766,-5.859,27.344,26.855,1095.117,486.47412056687136
329,1686879867.21,-17.09,-50.293,-55.176,-16.602,1095.121,481.9653742652389
330,1686879867.22,-51.758,-704.59,-29.785,-92.773,1095.125,489.4761111690458
331,1686879867.22,-46.875,-655.273,37.109,-63.477,1095.129,485.5891309563172
332,1686879867.22,-1.953,119.141,21.484,11.23,1095.133,474.8186872227876
333,1686879867.23,-1.465,178.223,-37.598,-5.371,1095.136,482.69451211437774
334,1686879867.23,-38.086,-223.633,-39.551,-85.938,1095.14,484.19990855019176
335,1686879867.23,-41.992,-222.656,-15.137,-87.402,1095.144,480.6539678800485
336,1686879867.24,-12.207,151.367,2.441,1.465,1095.139,479.51590493723785
337,1686879867.24,-9.277,-18.555,-37.598,19.531,1095.142,473.77177790860213
338,1686879867.25,-34.668,-457.031,-24.414,-66.895,1095.146,479.429857306153
339,1686879867.25,-43.945,-184.57,10.254,-102.539,1095.15,483.3422385297291
340,1686879867.26,-25.391,131.348,-22.949,-22.461,1095.154,476.4682947290581
341,1686879867.26,-9.277,-343.262,-69.336,26.855,1095.158,477.2351290878419
342,1686879867.26,-30.762,-685.547,-19.043,-43.457,1095.162,468.70976205128613
343,1686879867.27,-52.734,-181.641,38.086,-103.516,1095.166,465.01522177075384
344,1686879867.27,-41.992,108.887,-23.438,-53.223,1095.17,466.954296862965
345,1686879867.27,-8.301,-189.941,-14.648,20.996,1095.174,464.5360283928852
346,1686879867.28,-6.348,-334.961,23.926,-8.789,1095.178,466.91762342830475
347,1686879867.28,-36.133,-49.805,4.883,-92.285,1095.181,463.8720252616372
348,1686879867.3,-32.715,2.93,-17.578,-64.941,1095.193,451.2661188795285
349,1686879867.3,-2.93,-375.977,-9.277,18.066,1095.197,450.637095704972
350,1686879867.3,-7.324,-428.711,23.438,3.906,1095.201,460.01725987438
351,1686879867.31,-41.016,-146.484,-20.508,-76.172,1095.205,461.6807243952193
352,1686879867.31,-45.898,-366.211,-23.438,-84.473,1095.209,458.3350651259323
353,1686879867.32,2.441,-755.371,-43.945,8.789,1095.213,457.3219374026018
354,1686879867.32,3.906,-961.426,15.625,27.344,1095.217,449.81378152174005
355,1686879867.32,-54.688,-332.031,74.707,-70.312,1095.221,448.4487476010495
356,1686879867.33,-70.312,-76.66,-34.668,-115.723,1095.225,449.596002760846
357,1686879867.33,-31.738,-267.578,-2.93,-33.203,1095.229,454.5185939156189
358,1686879867.34,5.371,-3.418,19.531,32.227,1095.232,440.68552343696405
359,1686879867.34,-3.418,178.711,-6.836,-19.531,1095.236,445.1760159657266
360,1686879867.34,-32.715,-158.691,-38.086,-80.566,1095.238,449.43655580544885
361,1686879867.35,-31.738,-398.438,-21.973,-34.18,1095.242,442.58644808583045
362,1686879867.35,-3.906,-47.363,2.93,44.922,1095.245,449.6922536940888
363,1686879867.35,-2.441,105.469,-22.461,1.465,1095.249,444.1892412656131
364,1686879867.36,-25.879,-241.699,-44.922,-73.242,1095.253,437.46172986986164
365,1686879867.36,-25.879,-673.34,-38.086,-48.34,1095.257,431.7803348994723
366,1686879867.37,3.418,-616.699,3.906,27.344,1095.261,441.6955806870146
367,1686879867.37,11.719,-209.961,15.137,24.414,1095.265,437.0750660258794
368,1686879867.37,-20.996,-383.301,-57.129,-61.035,1095.269,435.1288924573193
369,1686879867.38,-41.504,-953.125,-15.137,-73.73,1095.273,439.56579854567747
370,1686879867.38,-12.207,-455.078,92.285,-0.488,1095.277,435.4652321549353
371,1686879867.38,5.859,48.34,-3.906,23.926,1095.281,427.84051025397605
372,1686879867.39,-19.043,-200.684,-30.762,-45.898,1095.283,429.93731970179635
373,1686879867.39,-44.434,-574.707,-13.672,-90.332,1095.287,436.76624072768396
374,1686879867.39,-23.438,-364.746,6.348,-27.832,1095.291,428.77774067763727
375,1686879867.4,-1.465,58.594,-13.184,30.273,1095.294,433.70367917318885
376,1686879867.4,-20.02,-450.684,-32.715,-14.16,1095.298,432.87111053852084
377,1686879867.41,-43.457,-922.363,21.973,-86.914,1095.302,421.0103603628025
378,1686879867.41,-32.227,-436.035,27.832,-58.105,1095.306,417.9869095055946
379,1686879867.41,-0.488,19.043,-11.719,19.531,1095.31,434.48176269463767
380,1686879867.42,-6.348,-526.855,-29.297,11.719,1095.314,428.7696465647812
381,1686879867.42,-34.668,-840.332,46.875,-64.453,1095.318,420.8853493885226
382,1686879867.42,-35.645,-167.969,30.273,-69.336,1095.322,421.58244234749327
383,1686879867.43,-1.953,-40.039,-26.855,18.555,1095.326,420.68804755399367
384,1686879867.43,10.742,-367.188,18.555,31.25,1095.328,422.71880200772307
385,1686879867.44,-18.555,-255.371,31.738,-56.152,1095.331,419.6187338315068
386,1686879867.44,-39.062,-12.695,-11.23,-77.148,1095.335,418.6669378620695
387,1686879867.44,-15.137,-163.574,-22.949,6.836,1095.339,417.41816852913985
388,1686879867.45,1.953,-268.066,-39.551,38.574,1095.343,422.30518811088075
389,1686879867.45,-14.648,-357.422,-35.156,-41.504,1095.347,425.4099936155193
390,1686879867.46,-40.039,-507.812,6.348,-90.332,1095.351,423.7404468513916
391,1686879867.46,-28.32,-643.555,-45.41,-25.879,1095.355,424.5927565899408
392,1686879867.46,4.395,-753.418,-9.277,32.715,1095.359,426.5146238782229
393,1686879867.47,-4.883,-202.148,61.035,-17.09,1095.363,423.9849077456359
394,1686879867.47,-35.156,33.203,-46.875,-88.379,1095.367,414.5271976905802
395,1686879867.47,-38.574,-395.02,-29.297,-48.828,1095.371,417.0751395201801
396,1686879867.48,-4.883,-422.363,14.16,37.109,1095.373,425.6075937443774
397,1686879867.48,-8.301,-319.336,-22.949,17.578,1095.377,409.6421038123384
398,1686879867.48,-50.293,-303.711,-31.738,-73.242,1095.381,422.45640608309003
399,1686879867.49,-53.223,-608.887,-52.734,-62.988,1095.384,421.37641226958795
400,1686879867.49,-12.207,-780.762,16.602,23.438,1095.388,414.8005810874061
401,1686879867.5,5.859,-300.293,27.832,21.973,1095.392,412.1865637151755
402,1686879867.5,-22.949,-287.598,-38.574,-47.852,1095.396,414.681817162991
403,1686879867.5,-47.852,-718.262,-21.484,-74.707,1095.4,415.8606580380707
404,1686879867.51,-33.203,-642.09,41.504,-9.766,1095.404,416.82270936491375
405,1686879867.51,-4.883,111.328,12.695,27.344,1095.408,412.8045722081446
406,1686879867.52,-25.879,60.547,-45.41,-37.109,1095.412,412.1564055019756
407,1686879867.52,-62.988,-250.0,-2.93,-101.074,1095.416,412.84352517819445
408,1686879867.52,-46.875,-69.824,15.625,-43.945,1095.421,411.73782800027413
409,1686879867.53,-22.461,162.598,-7.812,19.043,1095.425,416.0785847368138
410,1686879867.53,-31.738,-196.777,-38.574,-32.227,1095.429,420.89834346520587
411,1686879867.53,-58.594,-592.285,-5.371,-114.258,1095.433,418.95221438421265
412,1686879867.54,-52.246,-304.199,15.625,-94.238,1095.437,409.8299416810028
413,1686879867.54,-23.926,-268.066,-29.297,0.977,1095.441,402.6920174730964
414,1686879867.55,-20.02,-604.004,-66.406,-0.977,1095.445,418.5982256989497
415,1686879867.55,-47.852,-825.195,-23.926,-90.332,1095.448,411.88147560132984
416,1686879867.55,-50.293,-324.219,62.5,-100.586,1095.452,413.5885330689526
417,1686879867.56,-14.16,121.582,-17.09,-13.672,1095.456,413.5009986761791
418,1686879867.56,-0.977,-131.836,-20.02,12.695,1095.46,414.6615336642204
419,1686879867.56,-27.344,-268.066,26.367,-62.988,1095.464,413.98539039993227
420,1686879867.58,-52.246,-81.543,-12.695,-101.074,1095.478,410.89928642780876
421,1686879867.59,-38.086,-221.68,-54.199,-33.691,1095.482,403.03522019350976
422,1686879867.59,-8.789,-705.078,-41.992,24.414,1095.486,398.0609452037147
423,1686879867.59,-26.855,-672.852,7.324,-30.762,1095.49,407.3750909511389
424,1686879867.6,-58.594,-304.199,-4.883,-104.004,1095.494,411.10796783266125
425,1686879867.6,-42.969,-397.461,-10.254,-62.012,1095.498,409.02071429074
426,1686879867.61,-12.695,-745.117,-31.738,20.996,1095.502,406.84835600416045
427,1686879867.61,-21.973,-825.684,10.742,-10.742,1095.505,407.72938548542186
428,1686879867.61,-49.805,-211.426,26.367,-101.074,1095.509,419.0340739143624
429,1686879867.62,-56.641,-153.809,-39.062,-90.82,1095.513,420.182263822937
430,1686879867.62,-28.809,-266.602,-7.324,-7.324,1095.517,414.3014885513046
431,1686879867.62,-10.742,-36.621,6.836,-2.441,1095.521,407.78609725244155
432,1686879867.63,-32.227,63.477,-16.602,-83.008,1095.524,411.10046832111647
433,1686879867.63,-38.086,-248.047,-39.062,-89.355,1095.528,405.9102012395917
434,1686879867.64,-16.602,-446.289,-23.926,-18.066,1095.532,407.14259877275924
435,1686879867.64,-2.93,-63.477,4.883,1.953,1095.536,407.2822466032154
436,1686879867.64,-23.438,-8.301,-45.41,-74.219,1095.54,403.5153973635579
437,1686879867.65,-41.016,-563.965,-69.824,-109.863,1095.544,405.1497287846356
438,1686879867.65,-25.391,-607.422,-13.672,-35.156,1095.548,408.4429175573295
439,1686879867.65,-5.859,-314.941,-16.602,15.625,1095.551,410.0328390105377
440,1686879867.66,-17.578,-229.492,-29.785,-44.434,1095.555,397.7683601222718
441,1686879867.66,-41.016,-454.102,-56.641,-109.863,1095.559,407.86810221583863
442,1686879867.67,-31.738,-1000.0,-20.996,-62.5,1095.563,414.27502184473616
443,1686879867.67,-0.977,-525.391,54.688,7.324,1095.567,402.2942506971088
444,1686879867.67,2.93,20.02,-16.113,-21.484,1095.568,406.1279668717354
445,1686879867.68,-30.273,-469.727,-35.645,-97.168,1095.572,402.0608728733798
446,1686879867.68,-47.852,-659.18,9.766,-91.309,1095.576,406.75979396365034
447,1686879867.68,-19.531,-93.262,13.184,-14.16,1095.58,416.3457221882917
448,1686879867.69,-5.371,-2.441,-33.691,0.0,1095.583,403.8451055461106
449,1686879867.69,-33.203,-583.496,-51.758,-66.895,1095.587,413.77498980384047
450,1686879867.7,-50.293,-735.352,0.0,-89.355,1095.591,407.92678905483695
451,1686879867.7,-22.949,-187.5,8.301,-17.578,1095.595,406.04083853479153
452,1686879867.7,-1.953,-20.02,-23.438,16.602,1095.599,407.2013724451928
453,1686879867.71,-23.438,-644.531,-72.754,-44.434,1095.603,411.2696302044605
454,1686879867.71,-55.176,-955.566,18.555,-96.68,1095.607,423.2959769356988
455,1686879867.72,-39.062,-266.113,68.359,-49.805,1095.611,413.2567550318285
456,1686879867.72,-8.789,-92.773,-29.785,29.785,1095.626,413.72140678028546
457,1686879867.72,-22.461,-386.719,-30.762,-9.277,1095.63,412.27123267803944
458,1686879867.72,-52.734,-300.781,6.348,-88.379,1095.634,413.88342574285514
459,1686879867.73,-47.852,-119.629,-3.418,-55.176,1095.638,410.50349867338196
460,1686879867.73,-17.578,-210.449,-32.715,23.926,1095.642,411.87603938121305
461,1686879867.74,-16.602,-553.223,-34.18,7.324,1095.646,411.40646596345636
462,1686879867.74,-41.992,-527.832,-16.113,-75.195,1095.65,414.7749465493103
463,1686879867.74,-40.039,-180.176,-14.16,-79.59,1095.654,412.5705241402578
464,1686879867.75,-16.113,-418.457,-53.223,9.277,1095.658,410.0778284655882
465,1686879867.75,-7.324,-807.129,1.465,39.062,1095.662,426.3038747633718
466,1686879867.76,-29.297,-290.039,44.922,-43.945,1095.665,421.1798112236495
467,1686879867.76,-54.199,-53.711,-41.992,-88.867,1095.669,422.7346684605675
468,1686879867.76,-36.133,-486.816,-11.23,-11.23,1095.658,423.95298620547663
469,1686879867.76,-12.207,-757.324,13.672,33.203,1095.662,436.10480204344725
470,1686879867.77,-29.785,-438.965,-11.23,-39.062,1095.666,427.40949461178883
471,1686879867.77,-58.594,-164.551,-26.367,-99.121,1095.669,432.6330965620907
472,1686879867.78,-51.758,-611.816,-51.758,-41.504,1095.673,441.7483617491438
473,1686879867.78,-18.555,-882.324,5.859,40.527,1095.677,437.39648587397164
474,1686879867.78,-19.043,-396.973,17.09,-4.883,1095.681,433.18452172238875
475,1686879867.79,-48.828,-166.016,-50.293,-78.613,1095.685,441.9500818287507
476,1686879867.79,-46.387,-684.082,-39.551,-45.898,1095.689,440.4040856698579
477,1686879867.8,-11.719,-684.082,56.641,33.203,1095.693,449.1718417983372
478,1686879867.8,2.441,4.883,18.066,21.484,1095.697,448.23946676158323
479,1686879867.8,-35.645,-126.465,-49.805,-70.801,1095.701,447.30827608828423
480,1686879867.81,-57.617,-519.043,9.277,-80.078,1095.703,457.24886337511185
481,1686879867.81,-23.438,-224.609,34.668,2.441,1095.707,452.51164315769614
482,1686879867.81,-10.254,57.129,-29.297,12.695,1095.711,454.8028976132921
483,1686879867.82,-39.062,-392.09,-65.43,-64.941,1095.715,458.3637752204201
484,1686879867.82,-62.012,-718.262,-34.18,-106.934,1095.719,458.35245086437106
485,1686879867.83,-45.41,-589.844,-0.488,-41.992,1095.723,454.28967816381817
486,1686879867.83,-22.461,-310.547,2.93,15.625,1095.727,464.0152470249457
487,1686879867.83,-38.086,-408.691,-66.406,-41.504,1095.731,468.1618451896662
488,1686879867.84,-62.012,-865.723,-34.668,-105.957,1095.734,464.0357521760276
489,1686879867.84,-47.363,-386.23,56.152,-65.918,1095.738,459.5266001835133
490,1686879867.84,-15.625,2.441,-25.879,14.16,1095.742,478.24194287660873
491,1686879867.85,-19.531,-308.105,-9.766,-12.695,1095.746,473.92182448788026
492,1686879867.85,-52.734,-424.316,25.879,-103.027,1095.748,469.52044512722915
493,1686879867.86,-62.988,-416.504,-10.742,-92.773,1095.752,466.42052869417995
494,1686879867.86,-31.25,-457.031,-17.578,-7.812,1095.756,471.3372895137101
495,1686879867.86,-17.09,-649.902,-12.207,-1.465,1095.76,472.0010769170616
496,1686879867.87,-41.504,-758.301,12.695,-70.801,1095.764,478.56764021274637
497,1686879867.87,-59.082,-599.609,-14.648,-90.82,1095.768,470.91030374314374
498,1686879867.88,-39.062,-562.012,-13.672,-24.414,1095.771,472.60396659849397
499,1686879867.88,-18.066,-780.273,-42.48,21.973,1095.775,483.4671501338047
500,1686879867.88,-35.156,-821.777,5.371,-47.363,1095.779,477.85229994751415
501,1686879867.89,-52.246,-262.695,33.203,-111.816,1095.783,476.45430912336593
502,1686879867.89,-26.855,-240.723,-29.297,-42.969,1095.787,481.07265350879806
503,1686879867.89,-6.348,-307.617,-0.488,25.879,1095.791,475.16351906151834
504,1686879867.9,-26.855,-83.496,-8.301,-28.32,1095.793,478.18099437625483
505,1686879867.9,-42.48,15.137,-28.809,-88.867,1095.797,479.49856176186734
506,1686879867.9,-36.133,-293.457,-35.645,-51.758,1095.801,480.8097503456583
507,1686879867.91,-8.789,-387.695,-15.137,10.742,1095.804,472.59084244761084
508,1686879867.91,-7.324,-57.129,-26.855,-7.324,1095.808,480.2698446435105
509,1686879867.92,-42.48,-306.641,-46.387,-83.496,1095.812,468.1326712649819
510,1686879867.92,-48.828,-750.488,-56.641,-82.031,1095.816,475.47410773435996
511,1686879867.92,-19.043,-831.055,-21.973,3.418,1095.82,477.891309131573
512,1686879867.93,-5.371,-537.109,44.434,15.625,1095.824,482.4009387185736
513,1686879867.93,-35.645,-193.359,-4.883,-62.5,1095.828,481.3313054331308
514,1686879867.94,-64.453,-519.531,-46.387,-91.797,1095.832,475.72727503980957
515,1686879867.94,-40.527,-693.848,2.441,-26.367,1095.836,478.2024755450196
516,1686879867.94,-14.16,-105.957,0.0,9.766,1095.838,480.5212274085881
517,1686879867.95,-34.18,-244.629,-41.992,-55.176,1095.842,476.1689394773714
518,1686879867.95,-35.156,-826.172,-44.434,-86.914,1095.846,469.80339666364705
519,1686879867.95,-27.832,-707.52,23.926,-29.785,1095.85,473.0632202641862
520,1686879867.96,-31.25,-103.516,1.465,1.953,1095.854,472.8766225908519
521,1686879867.96,-43.945,-320.312,-56.641,-46.875,1095.858,466.073369169409
522,1686879867.97,-77.637,-848.633,-19.043,-115.723,1095.862,472.9360296805798
523,1686879867.97,-73.73,-737.793,30.273,-94.238,1095.866,462.5082942890252
524,1686879867.97,-38.086,-77.148,15.137,-24.414,1095.87,472.3833804364399
525,1686879867.98,-41.504,-22.461,-36.621,-41.016,1095.874,469.73856383370304
526,1686879867.98,-83.984,-411.621,-22.461,-127.441,1095.877,463.8803363277593
527,1686879867.98,-91.797,-512.695,0.977,-125.977,1095.881,456.12967030739344
528,1686879867.99,-54.688,-142.09,10.742,-35.156,1095.889,466.34711555300123
529,1686879867.99,-33.691,-108.887,-40.039,-2.441,1095.893,458.30537421847606
530,1686879868.0,-54.688,-542.48,-29.785,-83.008,1095.896,468.91072406670384
531,1686879868.0,-73.73,-412.109,9.766,-115.234,1095.9,476.43724612276714
532,1686879868.0,-49.805,-92.285,-2.441,-33.691,1095.904,467.19476709213626
533,1686879868.01,-18.066,-438.965,-66.895,17.09,1095.908,462.72438053152115
534,1686879868.01,-35.645,-896.484,-17.578,-48.34,1095.912,464.57252962935553
535,1686879868.02,-69.336,-483.887,66.895,-116.211,1095.916,462.5184058231849
536,1686879868.02,-55.176,-109.863,-23.438,-65.43,1095.92,471.49328788019045
537,1686879868.02,-17.578,-304.199,0.0,15.625,1095.924,464.3293672975686
538,1686879868.03,-29.297,-329.59,19.043,-8.789,1095.928,458.0589921101324
539,1686879868.03,-57.617,-123.047,-8.789,-81.055,1095.932,455.164847034415
540,1686879868.03,-46.875,-151.367,-34.668,-59.082,1095.942,455.6580336749657
541,1686879868.04,-13.184,-500.0,-19.531,16.602,1095.946,456.3034899895005
542,1686879868.04,-15.137,-714.844,18.555,-0.977,1095.95,449.7359967471339
543,1686879868.04,-52.734,-467.773,-4.883,-83.984,1095.954,449.57950923655164
544,1686879868.05,-60.547,-236.328,-19.043,-93.262,1095.958,456.49396524746527
545,1686879868.05,-35.645,-645.508,-62.988,-7.324,1095.962,455.3359399472153
546,1686879868.06,-20.02,-1000.0,27.832,22.949,1095.966,450.91015586930143
547,1686879868.06,-35.156,-417.48,76.172,-67.871,1095.97,446.11330208743817
548,1686879868.06,-52.246,-174.805,-29.785,-113.77,1095.973,435.77878562398433
549,1686879868.07,-31.738,-336.426,1.953,-46.875,1095.977,443.1137768465932
550,1686879868.07,-9.277,-201.66,7.812,19.043,1095.981,433.961369785528
551,1686879868.08,-24.902,-123.535,-29.297,-30.273,1095.985,432.72425365597206
552,1686879868.09,-47.363,-273.438,-30.273,-99.121,1095.988,434.7780504579298
553,1686879868.1,-37.109,-434.57,-16.602,-61.035,1095.992,422.38492147294164
554,1686879868.1,-11.23,-122.07,8.789,10.742,1095.996,425.9820586722487
555,1686879868.1,-8.789,-11.719,-23.438,-20.508,1096.0,416.4322813113757
556,1686879868.11,-33.203,-480.469,-79.59,-96.68,1096.004,405.7710166677472
557,1686879868.11,-44.922,-912.109,-24.902,-74.219,1096.008,404.6159340463276
558,1686879868.12,-12.207,-536.621,36.621,6.348,1096.012,401.3694598120886
559,1686879868.12,2.441,-0.977,-13.672,0.488,1096.016,407.79117514126983
560,1686879868.12,-42.48,-448.73,-69.336,-85.449,1096.019,401.21818588267666
561,1686879868.13,-54.688,-799.316,-20.02,-92.285,1096.023,401.4295014971548
562,1686879868.13,-12.695,-170.41,44.434,-9.766,1096.027,392.61726191436355
563,1686879868.13,3.418,71.777,-24.902,27.344,1096.031,397.252118803437
564,1686879868.14,-25.391,-298.828,-31.25,-42.48,1096.033,396.94427178688727
565,1686879868.14,-45.898,-689.941,-3.418,-96.68,1096.037,386.9601075602424
566,1686879868.14,-33.691,-455.078,9.277,-30.762,1096.041,383.4340478197457
567,1686879868.15,-2.93,-59.082,-28.32,27.344,1096.045,386.79481177649
568,1686879868.15,-12.207,-514.648,-46.387,-26.855,1096.048,383.9188811103262
569,1686879868.16,-56.152,-958.496,12.695,-96.68,1096.052,378.57575669634036
570,1686879868.16,-50.781,-706.543,0.488,-58.594,1096.056,378.25052309085856
571,1686879868.16,-14.16,-410.156,-14.648,19.043,1096.06,374.9083623933679
572,1686879868.17,-15.625,-676.27,-42.48,-1.465,1096.064,381.5463541234553
573,1686879868.17,-47.852,-830.078,1.465,-85.938,1096.068,375.5835079298978
574,1686879868.18,-51.27,-219.727,20.508,-86.426,1096.072,365.4144544182764
575,1686879868.18,-24.414,-153.32,-31.25,1.465,1096.076,363.46397077827004
576,1686879868.18,-13.184,-262.207,-17.578,18.066,1096.078,370.3551173329039
577,1686879868.18,-29.785,-99.609,-14.648,-57.129,1096.082,359.7671522278804
578,1686879868.19,-59.57,-40.039,-18.066,-90.332,1096.086,346.468646531261
579,1686879868.19,-41.992,-245.117,-22.461,-13.184,1096.089,352.8228249862763
580,1686879868.2,-9.766,-365.234,-42.48,33.203,1096.093,348.969645098553
581,1686879868.2,-26.855,-468.75,-51.758,-34.668,1096.097,344.4783231264951
582,1686879868.2,-49.316,-412.109,-4.883,-85.938,1096.101,349.4586383066458
583,1686879868.21,-30.762,-432.129,-56.641,-22.461,1096.105,350.53140821630626
584,1686879868.21,-6.836,-789.551,-45.41,45.41,1096.109,349.60883075271875
585,1686879868.22,-13.184,-538.086,43.945,-0.488,1096.113,359.24493281396275
586,1686879868.22,-40.039,-167.969,-12.695,-77.148,1096.117,343.81746740990843
587,1686879868.22,-39.551,-511.23,-38.086,-50.781,1096.121,353.8229400141178
588,1686879868.23,-4.395,-626.465,20.508,28.809,1096.123,353.5855402753834
589,1686879868.23,0.977,-281.25,-0.977,2.441,1096.127,353.93978010502616
590,1686879868.23,-23.438,-417.969,-40.039,-80.566,1096.131,347.9966990499832
591,1686879868.24,-37.109,-760.254,-19.043,-69.824,1096.134,347.27788428841836
592,1686879868.24,-14.16,-642.578,28.32,17.09,1096.138,349.66846276110846
593,1686879868.25,-2.93,-265.137,-1.465,33.691,1096.142,358.4150098933245
594,1686879868.25,-26.855,-420.898,-23.438,-48.828,1096.146,346.67690536929916
595,1686879868.25,-43.945,-772.461,-25.391,-85.938,1096.15,352.7504673707783
596,1686879868.26,-25.391,-658.691,38.086,-19.531,1096.154,355.32659548049844
597,1686879868.26,1.465,50.293,18.066,18.066,1096.158,354.67731532162026
598,1686879868.26,-8.789,-5.371,-39.551,-31.25,1096.162,344.79852950916444
599,1686879868.27,-40.039,-451.66,-21.484,-84.473,1096.166,347.8036627886318
600,1686879868.27,-29.785,-441.406,4.883,-41.504,1096.168,355.6156080584682
601,1686879868.28,-1.465,-0.977,4.883,27.344,1096.172,361.76930402016467
602,1686879868.28,-5.859,-95.703,-50.293,-2.93,1096.176,353.76194652626396
603,1686879868.28,-30.273,-574.707,-32.715,-83.008,1096.18,351.8201730583982
604,1686879868.29,-36.133,-391.602,-0.488,-71.289,1096.184,346.6779134627075
605,1686879868.29,-10.742,-253.906,-18.555,19.531,1096.188,352.53822891856925
606,1686879868.3,-9.277,-557.129,-59.57,18.555,1096.192,352.79130553162275
607,1686879868.3,-39.551,-813.477,-21.973,-62.012,1096.195,348.25169634460616
608,1686879868.3,-56.641,-413.574,44.922,-82.52,1096.199,356.55267069451685
609,1686879868.31,-38.086,-13.672,-19.531,-11.719,1096.203,356.4743602205913
610,1686879868.31,-13.184,-199.219,-6.836,14.16,1096.207,359.27846675928913
611,1686879868.31,-34.18,-291.016,13.184,-57.129,1096.211,370.2496657034709
612,1686879868.32,-57.617,-130.859,-28.809,-92.285,1096.227,360.8663466151298
613,1686879868.32,-32.227,-309.082,-28.809,-18.555,1096.231,360.204375412332
614,1686879868.32,-5.371,-768.066,-40.527,39.062,1096.234,367.5440956816916
615,1686879868.33,-19.043,-785.156,15.137,-20.996,1096.238,372.6031535793361
616,1686879868.33,-46.387,-223.145,15.137,-86.914,1096.242,370.9169714154258
617,1686879868.34,-40.527,-240.234,-56.641,-41.504,1096.246,372.5512704048305
618,1686879868.34,-15.625,-756.348,-26.855,36.621,1096.25,369.75299486424905
619,1686879868.34,-22.949,-652.344,25.391,6.836,1096.254,372.0570182776595
620,1686879868.35,-47.363,20.996,-0.488,-76.66,1096.258,381.74734524954613
621,1686879868.35,-43.945,-67.871,-34.668,-49.805,1096.262,375.61901960586863
622,1686879868.36,-8.301,-233.887,12.695,35.645,1096.266,374.2897468027808
623,1686879868.36,-4.395,-67.383,4.395,26.855,1096.27,377.95734967363165
624,1686879868.36,-40.527,29.785,-15.625,-63.965,1096.271,379.37367205421157
625,1686879868.37,-55.176,-229.004,-39.062,-87.891,1096.275,381.9712655193055
626,1686879868.37,-27.344,-401.367,-26.367,-7.812,1096.279,383.05838405323175
627,1686879868.37,-4.395,-62.5,-2.441,34.18,1096.283,378.5636293446175
628,1686879868.38,-30.762,-0.977,-29.785,-44.922,1096.287,388.32436802707826
629,1686879868.38,-55.176,-495.605,-69.824,-100.586,1096.291,384.1939199106152
630,1686879868.39,-39.062,-954.102,-24.902,-35.645,1096.295,393.3764937432034
631,1686879868.39,-11.23,-496.094,51.27,30.762,1096.299,383.6275923198408
632,1686879868.39,-18.066,97.168,-20.996,-20.996,1096.303,388.57527339268916
633,1686879868.4,-57.617,-434.082,-65.43,-98.145,1096.307,394.1799978011027
634,1686879868.4,-65.918,-735.352,-2.441,-56.152,1096.31,382.7310489621726
635,1686879868.4,-29.297,-60.547,23.438,25.391,1096.314,400.5221738221026
636,1686879868.44,-24.414,131.836,-38.574,-4.883,1096.333,385.6965017698264
637,1686879868.44,-51.27,-471.191,-29.297,-89.844,1096.337,401.51003686544703
638,1686879868.44,-54.199,-687.5,36.133,-81.055,1096.341,409.0929107908206
639,1686879868.45,-24.414,-115.234,19.531,-6.348,1096.345,394.10584741993193
640,1686879868.45,-8.301,69.824,-31.738,3.418,1096.349,398.8086777951926
641,1686879868.46,-33.203,-578.125,-61.523,-60.059,1096.353,401.5635760903398
642,1686879868.46,-52.246,-848.145,28.32,-78.613,1096.357,405.07446310862457
643,1686879868.46,-30.762,-334.473,51.27,-10.742,1096.361,409.41059651627756
644,1686879868.47,-8.789,-117.188,-28.809,27.832,1096.363,400.8688658422688
645,1686879868.47,-11.23,-281.25,-39.551,22.949,1096.365,407.9216999102795
646,1686879868.47,-26.855,-254.395,-20.508,-17.578,1096.367,414.6679809146621
647,1686879868.47,-34.18,-601.562,14.648,-40.527,1096.369,412.616022534534
648,1686879868.48,-55.664,-153.809,-15.625,-86.914,1096.371,409.9299863905161
649,1686879868.48,-57.129,-495.605,66.406,-94.727,1096.373,406.86099383891735
650,1686879868.48,-52.246,-2.93,-11.23,-54.688,1096.375,412.77087590647733
651,1686879868.48,-36.133,-42.969,-7.812,-42.969,1096.376,412.1473126112878
652,1686879868.48,-28.809,-208.496,-41.016,19.043,1096.379,414.3118444858544
653,1686879868.49,-31.25,-682.129,-63.965,4.883,1096.383,409.95384303286573
654,1686879868.49,-54.688,-591.797,-5.859,-67.871,1096.387,411.7407277226897
655,1686879868.49,-46.875,-208.984,5.859,-70.801,1096.391,422.27085613911584
656,1686879868.5,-11.719,-382.324,-40.527,11.23,1096.395,422.6824664900713
657,1686879868.5,2.93,-559.082,-28.809,30.762,1096.398,416.6219028285956
658,1686879868.51,-16.602,-430.176,-16.113,-45.41,1096.402,419.1310582844943
659,1686879868.51,-34.668,-380.371,-6.348,-75.684,1096.406,423.6510609919391
660,1686879868.51,-17.578,-489.258,-25.391,-7.324,1096.408,423.05764927134453
661,1686879868.52,3.906,-1000.0,-19.531,48.34,1096.412,419.58732165489573
662,1686879868.52,-16.113,-758.301,65.43,-26.367,1096.416,417.25346283792095
663,1686879868.52,-40.527,-148.926,23.438,-103.516,1096.42,430.0277281536129
664,1686879868.53,-26.367,-355.469,-19.531,-46.875,1096.423,427.00758140306806
665,1686879868.53,-4.883,-551.758,-2.93,31.25,1096.427,426.86977375103436
666,1686879868.54,-11.719,-281.25,-4.883,-4.395,1096.431,422.32086490915634
667,1686879868.54,-38.574,-61.523,-29.297,-90.332,1096.435,429.70714389990417
668,1686879868.54,-41.504,-639.648,-59.57,-71.289,1096.439,425.4653454614269
669,1686879868.55,-10.254,-742.676,21.484,9.277,1096.443,436.69902070185054
670,1686879868.55,-3.906,34.668,30.273,-7.324,1096.447,437.3383465625683
671,1686879868.56,-33.203,-56.641,-37.598,-90.332,1096.451,440.0255425976504
672,1686879868.56,-52.734,-537.109,-21.973,-95.703,1096.453,431.36942906360133
673,1686879868.56,-25.391,-390.625,14.648,-16.113,1096.457,430.808216218106
674,1686879868.56,0.488,78.613,4.883,8.301,1096.461,436.18200255629387
675,1686879868.57,-28.809,-101.074,-53.711,-62.5,1096.464,435.1765350800986
676,1686879868.57,-59.57,-583.008,-43.457,-99.609,1096.468,443.0592048670879
677,1686879868.58,-32.715,-516.602,6.348,-27.832,1096.472,435.15652626339795
678,1686879868.58,0.0,-285.645,-0.977,22.949,1096.476,433.520043819189
679,1686879868.58,-17.09,-486.816,-59.57,-37.598,1096.48,441.92962819470506
680,1686879868.59,-47.363,-790.527,-9.277,-95.215,1096.484,441.7882109711663
681,1686879868.59,-35.645,-311.035,61.035,-48.828,1096.488,440.49098859524287
682,1686879868.6,-2.441,91.797,-28.32,23.438,1096.492,450.8850716106329
683,1686879868.6,-5.371,-166.016,-8.301,-5.859,1096.496,439.4123495966652
684,1686879868.6,-36.133,-273.438,20.02,-76.66,1096.498,436.03353628179286
685,1686879868.6,-36.133,-303.711,-17.578,-60.059,1096.502,441.1274496203585
686,1686879868.61,-6.348,-404.785,-4.395,11.23,1096.506,439.97250348755716
687,1686879868.61,-0.977,-644.531,-34.18,12.207,1096.51,425.22303413890603
688,1686879868.62,-34.668,-832.031,-13.672,-69.336,1096.514,434.6413943934862
689,1686879868.62,-53.223,-525.391,8.789,-95.215,1096.517,439.35625452119297
690,1686879868.62,-30.762,-291.992,-13.184,-16.113,1096.521,437.4597408235314
691,1686879868.63,-8.301,-609.863,-20.02,20.996,1096.525,439.51934920611234
692,1686879868.63,-25.879,-694.824,22.461,-59.57,1096.529,426.10674579188463
693,1686879868.64,-47.852,-7.324,18.066,-116.699,1096.533,431.8269015843547
694,1686879868.64,-36.133,-7.324,-19.531,-49.316,1096.537,441.4633879909817
695,1686879868.64,-16.602,-196.289,3.906,-3.418,1096.541,437.0736107200059
696,1686879868.66,-28.32,-75.684,-1.465,-67.871,1096.558,429.8824039484149
697,1686879868.66,-53.223,16.113,-13.672,-127.441,1096.562,434.00914502341004
698,1686879868.67,-49.805,-197.266,-31.25,-76.172,1096.566,429.8284122990249
699,1686879868.67,-17.09,-274.902,-15.137,2.93,1096.57,435.97836320087816
700,1686879868.68,-9.277,-15.137,-15.137,-18.066,1096.574,436.88753810460236
701,1686879868.68,-51.758,-272.461,-27.344,-98.145,1096.577,435.50083276151486
702,1686879868.68,-60.547,-680.664,-45.41,-97.656,1096.581,433.4716984804142
703,1686879868.69,-21.484,-976.074,-29.785,1.953,1096.585,432.38926561722576
704,1686879868.69,-11.23,84.473,-4.883,1.953,1096.601,438.48121859500117
705,1686879868.69,-6.348,-511.719,77.148,9.766,1096.589,438.3406398379002
706,1686879868.7,-37.598,-144.043,-39.062,-62.5,1096.605,433.6790842914668
707,1686879868.7,-27.832,42.48,-18.555,-81.055,1096.593,429.46944003650106
708,1686879868.7,-64.453,-777.344,-35.645,-113.77,1096.609,429.4589080146078
709,1686879868.7,-45.41,-328.613,-23.926,-101.074,1096.597,433.9739060677062
710,1686879868.7,-43.945,-702.637,45.41,-57.617,1096.613,429.27654922403156
711,1686879868.7,-28.32,-322.754,49.316,-31.25,1096.601,449.9751936269611
712,1686879868.71,-12.695,-36.133,24.414,4.395,1096.617,432.14955439902866
713,1686879868.71,-32.227,-207.031,-55.176,-41.992,1096.621,436.83131399223004
714,1686879868.72,-58.105,-659.18,6.348,-109.375,1096.625,437.8276013061948
715,1686879868.72,-44.922,-432.129,32.715,-72.754,1096.628,438.97266108598336
716,1686879868.72,-12.207,-163.574,-16.113,15.625,1096.632,433.46421718581945
717,1686879868.73,-8.301,-257.324,-18.066,0.0,1096.636,440.18121298010016
718,1686879868.73,-37.109,-716.797,-35.645,-87.891,1096.64,449.4989799963906
719,1686879868.73,-50.781,-778.32,20.508,-93.75,1096.644,444.74434891674974
720,1686879868.74,-19.043,-45.898,50.293,-22.461,1096.647,444.6497380556108
721,1686879868.74,0.977,-16.602,-34.18,2.441,1096.651,444.3066165558587
722,1686879868.74,-26.367,-280.273,-32.227,-65.43,1096.655,450.6804409558603
723,1686879868.75,-50.781,-165.039,8.789,-95.703,1096.659,448.4251560455054
724,1686879868.75,-31.738,34.18,-13.672,-18.555,1096.663,440.5873859794515
725,1686879868.76,-1.953,-357.91,-69.824,35.645,1096.667,441.619687939283
726,1686879868.76,-11.719,-745.117,-20.508,-25.391,1096.671,451.2118887305315
727,1686879868.76,-35.645,-297.852,48.34,-86.914,1096.674,448.6412714747426
728,1686879868.77,-25.879,-8.301,-10.254,-36.621,1096.678,453.76517140049964
729,1686879868.77,4.883,-287.109,-19.043,28.809,1096.682,459.9999509992282
730,1686879868.78,2.441,-474.121,-6.348,-6.348,1096.686,452.45145342302646
731,1686879868.78,-37.109,-419.922,-3.906,-81.055,1096.69,451.18995067109086
732,1686879868.78,-41.504,-189.453,11.719,-63.965,1096.692,456.29116283838204
733,1686879868.79,-10.742,-493.652,-36.133,26.367,1096.696,449.34311494798516
734,1686879868.79,-5.859,-873.535,30.762,29.785,1096.7,453.9633190228104
735,1686879868.8,-30.273,-283.691,37.109,-59.082,1096.704,450.8471363729494
736,1686879868.8,-46.387,-99.121,-52.246,-70.801,1096.708,460.0811921536652
737,1686879868.8,-23.438,-500.488,-21.973,6.348,1096.712,456.4290710522947
738,1686879868.81,-1.465,-461.426,25.879,29.785,1096.716,462.46904124587843
739,1686879868.81,-23.438,-31.25,1.953,-43.945,1096.72,468.1833286567274
740,1686879868.81,-47.852,-139.16,-52.246,-92.285,1096.723,461.62028238163447
741,1686879868.82,-30.762,-581.055,23.926,-25.879,1096.727,454.23216832034257
742,1686879868.82,-5.371,-380.371,98.633,31.25,1096.731,464.37193358621533
743,1686879868.83,-12.695,45.898,-5.859,-23.438,1096.735,466.63660786127406
744,1686879868.83,-30.762,-205.566,-39.062,-83.496,1096.736,465.16578282635254
745,1686879868.83,-31.738,-620.605,-16.602,-46.387,1096.74,466.7100956470753
746,1686879868.84,-7.812,-454.59,0.977,26.367,1096.744,468.64648282669737
747,1686879868.84,-0.488,-25.391,8.789,-6.348,1096.748,467.2329847824068
748,1686879868.85,-37.598,-284.668,-56.641,-90.82,1096.752,469.96933446842513
749,1686879868.85,-49.805,-911.621,-39.062,-72.266,1096.756,465.85720181935335
750,1686879868.85,-7.812,-633.301,54.688,16.602,1096.76,476.3724754312705
751,1686879868.86,2.93,37.598,16.113,19.531,1096.764,466.77893940861924
752,1686879868.86,-35.156,-375.977,-69.824,-57.129,1096.767,468.93764913838385
753,1686879868.86,-53.223,-801.758,-22.949,-76.66,1096.771,470.88477779550203
754,1686879868.87,-32.715,-283.691,60.547,-12.207,1096.775,462.3176179726066
755,1686879868.87,-15.137,-41.504,-12.695,18.555,1096.779,477.51641090451824
756,1686879868.89,-27.832,-321.777,-13.672,-47.852,1096.783,468.1496512356688
757,1686879868.89,-52.246,-697.266,16.113,-94.238,1096.787,477.8861081791917
758,1686879868.9,-38.086,-494.629,17.09,-35.156,1096.791,471.2437629826844
759,1686879868.9,-0.977,-76.172,4.395,33.691,1096.795,474.48579739553185
760,1686879868.9,-13.184,-514.16,-67.383,-4.883,1096.798,459.73148918385186
761,1686879868.91,-59.57,-1000.0,-0.488,-76.66,1096.802,466.8068816552465
762,1686879868.91,-56.641,-627.93,99.121,-46.387,1096.806,470.37133244537875
763,1686879868.91,-13.184,-129.395,-2.93,32.227,1096.81,465.2161132875142
764,1686879868.92,-13.672,-484.863,-28.809,17.09,1096.814,464.19641543652125
765,1686879868.92,-53.711,-473.633,33.691,-72.266,1096.818,455.08369888052914
766,1686879868.93,-65.43,-142.09,-9.766,-74.707,1096.822,462.73132433903163
767,1686879868.93,-30.762,-351.562,-29.297,18.066,1096.826,468.068396793377
768,1686879868.93,-17.09,-361.816,3.906,22.461,1096.828,458.76468542237535
769,1686879868.94,-51.758,-214.844,-13.184,-69.824,1096.832,453.1327524819956
770,1686879868.94,-62.5,-121.094,-22.949,-92.285,1096.836,459.06459681983074
771,1686879868.94,-32.227,-235.84,-21.484,-13.184,1096.84,453.0417043139046
772,1686879868.95,-3.418,-375.0,-37.598,32.227,1096.843,451.8486808047228
773,1686879868.95,-18.555,-435.547,-45.41,-28.32,1096.847,458.7891201812164
774,1686879868.96,-59.082,-584.473,-4.883,-92.285,1096.851,454.9193408952777
775,1686879868.96,-43.457,-697.754,-55.664,-34.18,1096.855,472.46974102638745
776,1686879868.96,-11.23,-980.957,-56.641,38.574,1096.859,453.22400697877765
777,1686879868.97,-24.902,-559.082,53.711,-10.742,1096.863,449.1118831799629
778,1686879868.97,-50.293,-102.051,-19.531,-77.148,1096.867,452.9501877467548
779,1686879868.98,-40.039,-445.312,-6.836,-36.621,1096.871,455.44468954204876
780,1686879868.98,-17.578,-341.309,33.691,30.273,1096.873,453.25014840916566
781,1686879868.98,-20.996,-286.133,-28.809,1.465,1096.877,456.2844306715233
782,1686879868.98,-47.852,-374.023,-35.156,-79.102,1096.88,450.43700078488234
783,1686879868.99,-65.918,-641.602,-41.504,-72.754,1096.884,446.34432926682996
784,1686879868.99,-42.969,-701.172,12.695,10.742,1096.888,442.1788576919561
785,1686879869.0,-24.902,-293.945,-9.277,26.367,1096.892,447.2144201945097
786,1686879869.0,-49.316,-422.363,-39.551,-53.223,1096.896,444.56839845475065
787,1686879869.0,-74.707,-795.41,-36.621,-91.797,1096.9,447.0102655891335
788,1686879869.01,-47.852,-696.289,18.066,-19.043,1096.904,445.7523475162408
789,1686879869.01,-15.625,-226.074,20.02,34.668,1096.908,458.0315392999752
790,1686879869.02,-27.344,-253.418,-35.156,-30.762,1096.912,447.23196034432647
791,1686879869.02,-57.617,-553.223,-5.371,-101.562,1096.916,445.8696059192172
792,1686879869.02,-50.293,-405.762,23.926,-53.711,1096.918,441.1323705893442
793,1686879869.02,-20.996,65.43,2.441,20.02,1096.922,447.69732524535186
794,1686879869.03,-18.066,-134.277,-27.832,-10.254,1096.926,446.1984356137274
795,1686879869.03,-42.48,-393.066,-32.227,-91.309,1096.93,452.6738202051391
796,1686879869.04,-53.223,-263.672,-21.973,-69.824,1096.934,448.07145846316405
797,1686879869.04,-24.902,-308.105,-30.273,15.625,1096.938,443.6653071198936
798,1686879869.04,-17.578,-602.051,-62.5,12.695,1096.941,436.14044737864583
799,1686879869.05,-44.922,-871.094,-30.762,-64.453,1096.945,439.9519670398811
800,1686879869.05,-51.27,-450.195,58.105,-75.684,1096.949,445.40593653015014
801,1686879869.06,-22.949,-18.066,-1.465,8.789,1096.953,456.1300218060017
802,1686879869.06,-7.812,-232.91,3.906,30.273,1096.957,447.74893885907403
803,1686879869.06,-34.668,-418.945,5.859,-50.293,1096.961,434.5257713200787
804,1686879869.07,-50.781,-415.039,-33.203,-92.773,1096.967,445.1157476892646
805,1686879869.07,-24.902,-422.363,-13.672,-25.879,1096.97,441.3949737208758
806,1686879869.08,-4.883,-720.215,-41.992,33.691,1096.974,441.9645062911741
807,1686879869.08,-19.043,-825.684,7.812,-25.391,1096.978,454.71452019087985
808,1686879869.08,-46.387,-348.633,20.996,-97.168,1096.982,444.0783859944395
809,1686879869.09,-38.574,-311.035,-35.645,-58.105,1096.986,439.24286345243394
810,1686879869.09,-2.93,-749.023,-25.391,23.926,1096.99,445.0283281787837
811,1686879869.09,-7.324,-715.82,12.695,-1.465,1096.994,432.8973978593001
812,1686879869.1,-41.016,-146.484,2.441,-88.867,1096.998,441.0931721725392
813,1686879869.1,-44.922,-209.961,-40.039,-77.637,1097.002,441.95494533732165
814,1686879869.11,-10.254,-302.734,3.906,6.836,1097.006,448.4184769689141
815,1686879869.11,0.977,-98.145,10.254,9.277,1097.01,434.210827732797
816,1686879869.11,-29.785,-5.859,-16.602,-75.195,1097.022,440.81253081337604
817,1686879869.12,-44.434,-238.77,-18.066,-97.656,1097.026,442.88341270210907
818,1686879869.12,-15.625,-599.121,-18.066,-16.602,1097.03,448.8497068290768
819,1686879869.12,14.16,-371.094,5.371,27.832,1097.034,442.6716388589839
820,1686879869.13,-7.324,-74.707,-14.16,-44.434,1097.038,449.99366404924996
821,1686879869.13,-41.504,-481.445,-64.453,-93.262,1097.042,435.5297357642273
822,1686879869.14,-42.48,-1000.0,-34.18,-30.762,1097.046,445.6755638403356
823,1686879869.14,-13.184,-577.148,65.918,26.855,1097.05,428.83768063964646
824,1686879869.14,-6.348,74.219,2.93,-20.508,1097.053,437.18266151537557
825,1686879869.15,-40.039,-284.18,-34.18,-90.332,1097.057,439.88104542092213
826,1686879869.15,-42.48,-418.945,22.461,-60.547,1097.061,439.29229492907444
827,1686879869.16,-7.812,-56.152,24.414,20.508,1097.065,442.1914725856949
828,1686879869.16,-4.395,28.32,-28.809,0.977,1097.068,444.2076949293635
829,1686879869.16,-45.41,-554.688,-40.527,-85.449,1097.071,447.5768698040338
830,1686879869.16,-44.434,-749.512,29.297,-80.078,1097.075,444.7701230035733
831,1686879869.17,-3.418,-132.812,17.09,-0.488,1097.079,430.68472224936806
832,1686879869.17,-17.09,-19.531,-40.527,0.0,1097.083,437.14713499873994
833,1686879869.18,-52.246,-569.824,-37.109,-78.613,1097.087,433.06979410874516
834,1686879869.18,-66.406,-948.242,17.578,-108.887,1097.091,429.7516452811846
835,1686879869.18,-44.434,-431.152,23.926,-43.457,1097.095,437.30894180917863
836,1686879869.19,-25.391,-7.324,-18.555,-11.23,1097.099,426.15242093560204
837,1686879869.19,-41.992,-596.191,-28.32,-71.777,1097.103,432.2392273020019
838,1686879869.2,-61.035,-726.074,41.016,-111.328,1097.107,425.41897797322173
839,1686879869.2,-42.969,-68.848,7.324,-51.758,1097.11,427.98343807683375
840,1686879869.22,-17.09,-112.793,-37.598,11.23,1097.113,419.04810569691404
841,1686879869.22,-25.391,-339.844,-20.996,-33.691,1097.117,416.94290673574164
842,1686879869.22,-64.453,-261.719,-11.23,-103.027,1097.121,415.1620180759501
843,1686879869.23,-62.012,-76.66,-4.883,-66.895,1097.124,414.25440755969777
844,1686879869.23,-12.695,-175.781,-39.062,22.461,1097.128,409.291704364732
845,1686879869.24,-14.16,-654.297,-52.734,9.277,1097.132,409.3468188982557
846,1686879869.24,-54.199,-542.969,-11.23,-76.66,1097.136,401.5190866269009
847,1686879869.24,-60.059,-307.129,-10.254,-80.566,1097.14,405.99711420252277
848,1686879869.25,-27.344,-642.09,-63.965,16.602,1097.144,403.4431980906801
849,1686879869.25,-19.531,-916.016,-25.879,39.551,1097.148,397.97302367397356
850,1686879869.26,-41.992,-418.457,48.34,-51.27,1097.152,410.43087324985925
851,1686879869.26,-61.523,-113.77,-32.227,-90.82,1097.156,404.22770707377555
852,1686879869.26,-48.828,-345.703,-3.418,-27.344,1097.158,407.7993656230743
853,1686879869.27,-22.461,-439.453,27.344,17.09,1097.161,407.68010313030345
854,1686879869.27,-34.18,-303.223,4.395,-45.41,1097.165,397.2124713684102
855,1686879869.27,-75.195,-119.141,-14.16,-120.605,1097.169,405.4886534154162
856,1686879869.28,-66.406,-540.039,-32.715,-61.523,1097.173,393.5210344196583
857,1686879869.28,-21.973,-779.297,18.066,21.484,1097.177,410.6387426104601
858,1686879869.29,-31.25,-366.211,6.348,-21.973,1097.181,399.6224546078671
859,1686879869.29,-59.57,-132.812,-46.387,-105.957,1097.185,398.84865402349504
860,1686879869.29,-55.664,-635.254,-36.621,-80.078,1097.189,388.21081490326463
861,1686879869.3,-20.508,-683.105,47.852,3.906,1097.193,397.8860210612355
862,1686879869.3,-10.254,-223.145,17.578,-2.441,1097.197,406.06371149712544
863,1686879869.3,-39.062,-287.598,-32.227,-68.848,1097.201,404.59325920991927
864,1686879869.31,-51.27,-523.926,11.23,-78.125,1097.217,393.1762953335174
865,1686879869.31,-21.484,-309.082,39.551,-3.418,1097.221,400.3215219064083
866,1686879869.31,5.859,103.516,-15.625,25.879,1097.224,410.32854052051266
867,1686879869.32,-17.578,-189.941,-41.504,-51.758,1097.228,405.74887174817155
868,1686879869.32,-49.805,-450.195,-40.039,-99.121,1097.232,393.8151481824488
869,1686879869.33,-30.762,-444.824,-30.273,-33.691,1097.236,394.0073650609665
870,1686879869.33,4.395,-317.383,2.93,23.926,1097.24,397.96226365921143
871,1686879869.33,-17.09,-401.855,-51.27,-34.18,1097.244,405.4543006549446
872,1686879869.34,-54.199,-824.219,-43.945,-101.562,1097.248,399.6044404016019
873,1686879869.34,-40.527,-362.793,47.852,-63.477,1097.252,406.43884543169753
874,1686879869.34,-7.324,62.988,-35.156,19.043,1097.256,406.9030533024671
875,1686879869.35,-13.672,-423.828,-41.992,1.953,1097.26,406.1969419758252
876,1686879869.35,-44.922,-704.59,18.555,-85.938,1097.251,407.7870534684901
877,1686879869.36,-50.781,-501.465,-2.441,-81.543,1097.255,405.1021105769959
878,1686879869.36,-22.949,-429.688,-13.672,-2.93,1097.259,410.97461661565666
879,1686879869.36,-13.184,-681.152,-45.41,4.883,1097.263,411.4534277205244
880,1686879869.37,-39.062,-870.605,-26.855,-72.266,1097.267,410.3111132903828
881,1686879869.37,-54.688,-618.652,3.906,-100.586,1097.271,412.6645284962484
882,1686879869.38,-27.344,-369.141,-17.578,-25.879,1097.274,414.97569586089617
883,1686879869.38,-9.277,-651.367,-39.551,20.02,1097.278,418.07327584030037
884,1686879869.38,-35.645,-742.676,8.301,-55.176,1097.282,406.53435167303894
885,1686879869.39,-56.641,-92.773,10.742,-112.305,1097.286,418.6986426583549
886,1686879869.39,-41.992,-55.176,-37.109,-40.527,1097.29,415.2150899816586
887,1686879869.4,-16.602,-374.023,12.695,23.926,1097.294,405.6721698081203
888,1686879869.4,-26.855,-221.191,31.25,-30.273,1097.293,408.97408696536274
889,1686879869.4,-55.176,50.781,-19.043,-102.539,1097.297,410.0327544493179
890,1686879869.4,-45.41,-213.379,-44.922,-60.059,1097.301,411.04218718598156
891,1686879869.41,-10.254,-536.133,-32.715,28.809,1097.305,420.7680047278336
892,1686879869.41,-4.395,-291.504,-18.066,4.395,1097.309,413.9712882906181
893,1686879869.42,-33.203,-246.582,-21.484,-76.172,1097.313,411.67307036685963
894,1686879869.42,-40.527,-568.359,-41.992,-65.918,1097.317,417.0890783087074
895,1686879869.42,-15.625,-924.316,-35.645,21.484,1097.321,415.97042069694515
896,1686879869.43,-9.766,-516.602,59.57,22.461,1097.324,417.0879945825919
897,1686879869.43,-27.832,94.727,-14.648,-64.941,1097.328,415.91247985208287
898,1686879869.44,-31.25,-273.438,-16.113,-77.148,1097.332,429.1249910853673
899,1686879869.44,-10.254,-308.105,43.457,-6.348,1097.336,420.79562782839827
900,1686879869.44,2.441,41.016,-18.066,17.578,1097.338,407.3115689720406
901,1686879869.45,-18.555,-188.477,-34.18,-47.852,1097.342,420.26743459874706
902,1686879869.45,-51.27,-768.066,-37.109,-101.562,1097.346,428.60215689889327
903,1686879869.45,-39.551,-706.543,16.113,-50.293,1097.35,421.86427250385657
904,1686879869.46,-4.883,-98.145,7.324,14.16,1097.354,425.86649443217976
905,1686879869.46,-13.184,-227.051,-41.992,-24.414,1097.357,424.03047045753885
906,1686879869.47,-52.246,-753.906,-35.645,-92.773,1097.361,421.386456368835
907,1686879869.47,-52.734,-834.473,33.203,-62.5,1097.365,424.5946312655618
908,1686879869.47,-7.324,-97.656,61.035,20.02,1097.369,432.15972936206634
909,1686879869.48,-3.906,66.406,-25.879,0.0,1097.373,422.32446501249046
910,1686879869.48,-39.062,-294.434,-9.277,-89.844,1097.377,426.6176976637773
911,1686879869.48,-42.48,-204.102,10.254,-90.82,1097.381,428.59833024261235
912,1686879869.49,-12.695,80.566,3.906,-8.789,1097.396,430.72055828000396
913,1686879869.49,5.859,-7.324,-17.09,20.996,1097.4,426.67310048560887
914,1686879869.5,-20.02,-322.266,-32.715,-50.293,1097.404,429.74167263538754
915,1686879869.5,-47.363,-243.652,-6.836,-92.285,1097.408,419.36710414072985
916,1686879869.5,-28.809,-41.992,-6.348,-26.855,1097.412,419.78156934999123
917,1686879869.51,4.883,-366.211,-68.359,34.18,1097.415,423.9756179209225
918,1686879869.51,-13.672,-853.516,-9.277,-20.996,1097.419,427.46305512128777
919,1686879869.51,-51.27,-505.371,49.316,-91.797,1097.423,424.86272373205423
920,1686879869.52,-36.621,-221.191,-12.695,-43.945,1097.427,431.5375426137176
921,1686879869.52,-0.488,-617.188,-40.039,31.25,1097.431,422.32743871856974
922,1686879869.53,-7.324,-665.039,-34.18,-0.977,1097.435,436.28318996200403
923,1686879869.53,-36.621,-198.242,7.324,-81.055,1097.439,434.44422465061916
924,1686879869.55,-41.016,-87.891,-41.016,-63.965,1097.443,426.9169243421675
925,1686879869.55,-13.184,-501.953,-8.301,19.531,1097.447,425.9317733079561
926,1686879869.56,-2.441,-579.59,58.594,14.16,1097.451,424.5246618215079
927,1686879869.56,-22.949,-160.645,4.883,-69.336,1097.455,431.2432559468429
928,1686879869.56,-33.203,-122.559,-34.668,-82.52,1097.459,433.80944929389227
929,1686879869.57,-9.766,-640.137,-48.828,6.836,1097.462,428.9919041194794
930,1686879869.57,4.395,-923.34,29.297,44.434,1097.466,433.4299384863262
931,1686879869.57,-15.625,-304.688,43.457,-37.109,1097.47,432.54829282861084
932,1686879869.58,-37.598,-128.418,-35.645,-83.496,1097.474,424.3024414555492
933,1686879869.58,-50.293,-353.027,-22.949,-86.914,1097.486,426.56842647347656
934,1686879869.58,-19.043,-384.766,-7.324,-14.648,1097.478,433.0646699023187
935,1686879869.58,-38.574,-567.871,14.648,-38.086,1097.49,428.34005732352017
936,1686879869.59,11.719,-266.113,3.418,46.387,1097.482,426.3828386223074
937,1686879869.59,-3.906,-328.125,38.574,32.227,1097.494,426.42410039743186
938,1686879869.59,-7.324,-246.582,-15.137,-14.16,1097.486,435.53210955325994
939,1686879869.59,-3.418,23.926,-21.973,1.953,1097.498,430.7177068275858
940,1686879869.6,-32.227,-291.992,-47.363,-67.871,1097.502,428.69943911294195
941,1686879869.6,-46.875,-758.301,-33.691,-57.617,1097.506,436.7494805957435
942,1686879869.6,-18.066,-547.363,17.09,19.531,1097.51,427.58861359474935
943,1686879869.61,-6.348,-31.25,5.371,23.926,1097.514,429.2027606474997
944,1686879869.61,-30.762,-399.414,-81.543,-50.781,1097.518,427.4031214493106
945,1686879869.61,-44.922,-902.344,-25.391,-74.219,1097.522,427.5232472639961
946,1686879869.62,-15.137,-386.23,66.406,-6.348,1097.526,417.2608605455041
947,1686879869.62,11.23,31.25,-11.23,28.32,1097.529,425.73672139386804
948,1686879869.64,-14.648,-313.477,-19.043,-41.504,1097.536,427.36916211630665
949,1686879869.64,-50.781,-682.617,7.324,-82.031,1097.54,427.5509105568715
950,1686879869.64,-37.109,-639.648,-1.465,-21.973,1097.544,429.1048818471844
951,1686879869.65,-2.441,-335.938,6.836,39.551,1097.548,432.14397796607113
952,1686879869.65,-12.695,-492.188,-50.293,-7.812,1097.551,428.8504471216083
953,1686879869.66,-51.758,-1000.0,-18.066,-85.449,1097.555,428.66623426899775
954,1686879869.66,-43.945,-636.719,77.148,-52.734,1097.559,422.8211070246015
955,1686879869.66,-2.93,-78.613,-4.395,24.414,1097.563,422.4003853329223
956,1686879869.67,-3.906,-436.523,-18.555,7.324,1097.567,426.62702308430875
957,1686879869.67,-38.574,-498.535,20.508,-70.312,1097.571,424.18022196786177
958,1686879869.68,-51.27,-113.77,-14.648,-71.777,1097.575,426.05120506225626
959,1686879869.68,-18.066,-203.125,-9.766,13.184,1097.579,426.4784797603455
960,1686879869.68,-2.441,-304.688,11.23,24.902,1097.578,421.88381720044146
961,1686879869.69,-28.32,-203.125,2.441,-62.012,1097.582,431.35313903092305
962,1686879869.69,-42.48,-124.512,-18.066,-96.68,1097.586,421.52895364820523
963,1686879869.69,-23.926,-306.152,-35.645,-22.949,1097.59,428.2815050701805
964,1686879869.7,-2.441,-592.773,-28.809,25.391,1097.594,425.06258004947745
965,1686879869.7,-27.344,-626.953,-9.277,-41.504,1097.598,428.7320551941019
966,1686879869.71,-64.941,-452.148,8.789,-105.957,1097.601,422.30553246287906
967,1686879869.71,-51.27,-432.617,-53.711,-52.734,1097.605,425.67355670473245
968,1686879869.71,-23.438,-929.688,-41.504,23.926,1097.609,425.9117323084545
969,1686879869.72,-24.902,-555.664,83.008,-16.602,1097.613,426.40856470354
970,1686879869.72,-46.387,-43.457,-16.602,-94.727,1097.617,417.0929534463296
971,1686879869.72,-50.293,-355.957,-10.254,-68.848,1097.621,425.953259674798
972,1686879869.73,-24.902,-326.66,28.809,3.418,1097.623,433.31000599540334
973,1686879869.73,-19.531,-283.691,-16.602,-5.371,1097.627,426.1875048559356
974,1686879869.74,-52.246,-462.402,-19.531,-89.844,1097.631,419.4679551855162
975,1686879869.74,-68.359,-773.926,-34.668,-95.703,1097.635,425.8932680594158
976,1686879869.74,-41.504,-686.523,27.832,-10.742,1097.639,420.36535629990726
977,1686879869.75,-23.926,-330.078,6.348,5.859,1097.643,424.6400585099748
978,1686879869.75,-47.852,-533.691,-22.949,-68.359,1097.647,429.70080695064814
979,1686879869.75,-73.242,-842.773,-35.156,-94.727,1097.651,429.7326971148693
980,1686879869.76,-41.992,-831.055,28.32,-21.973,1097.654,416.45842054102883
981,1686879869.76,-8.301,-99.121,52.246,17.09,1097.658,425.3148181211103
982,1686879869.77,-26.367,-53.711,-46.875,-36.133,1097.662,421.1980284714481
983,1686879869.77,-53.223,-447.266,-5.859,-91.309,1097.666,432.6954822226616
984,1686879869.77,-44.434,-205.566,30.273,-52.734,1097.668,428.7911005664307
985,1686879869.78,-12.207,70.801,-7.324,23.438,1097.672,422.3776628910932
986,1686879869.78,-7.812,-134.766,-35.156,0.0,1097.676,428.68290351469557
987,1686879869.78,-40.527,-430.176,-23.926,-84.961,1097.68,429.2433591567085
988,1686879869.79,-56.152,-322.754,-20.508,-70.312,1097.683,414.3162436202083
989,1686879869.79,-21.973,-352.539,-13.672,24.902,1097.687,427.5492754817874
990,1686879869.8,-11.23,-591.309,-51.758,26.367,1097.691,420.3656277860351
991,1686879869.8,-51.27,-854.004,-24.902,-67.871,1097.695,420.70146530082656
992,1686879869.8,-61.523,-496.582,51.27,-82.031,1097.699,420.70657211815063
993,1686879869.81,-28.32,-185.547,-16.602,-2.93,1097.703,416.19808606492745
994,1686879869.81,-11.719,-634.277,-42.48,20.508,1097.707,420.0804477683744
995,1686879869.82,-20.02,-730.469,-3.906,-38.574,1097.711,425.47108848717056
996,1686879869.82,-34.18,-249.512,2.441,-76.66,1097.713,418.7966027663107
997,1686879869.82,-25.391,-333.984,-29.785,-10.742,1097.717,421.541046633401
998,1686879869.82,-2.93,-799.316,-30.273,45.41,1097.721,420.11365051606737
999,1686879869.83,-20.996,-710.938,12.695,-7.324,1097.724,418.97529752842183
1000,1686879869.83,-54.199,-239.746,-0.488,-75.195,1097.728,421.8162363565614
1001,1686879869.84,-42.48,-367.188,-41.504,-38.574,1097.732,415.07506313472345
1002,1686879869.84,-7.324,-798.828,-24.414,41.992,1097.736,413.060541815674
1003,1686879869.84,-9.766,-734.375,21.484,12.695,1097.74,410.75626966742186
1004,1686879869.85,-38.574,-148.926,4.395,-69.824,1097.744,418.0642991330426
1005,1686879869.85,-38.574,-198.73,-38.086,-53.223,1097.748,418.783544142039
1006,1686879869.86,3.906,-327.637,9.277,32.227,1097.752,408.43050164390826
1007,1686879869.86,21.973,-190.43,2.93,37.598,1097.756,412.9709765039419
1008,1686879869.86,-24.414,-306.152,-16.113,-48.828,1097.763,409.2110058937653
1009,1686879869.87,-49.316,-433.594,-10.254,-81.543,1097.767,414.1525695187651
1010,1686879869.87,-18.555,-574.707,13.672,-4.395,1097.771,416.99197968898477
1011,1686879869.88,2.93,-285.156,34.18,28.809,1097.775,414.4583214711362
1012,1686879869.88,-18.066,-91.797,-24.414,-44.922,1097.779,418.87150965883586
1013,1686879869.88,-42.969,-603.027,-70.312,-90.82,1097.783,424.2409898782296
1014,1686879869.89,-24.902,-928.223,17.09,-29.785,1097.787,412.70331702669665
1015,1686879869.89,10.254,-401.855,94.727,23.438,1097.791,413.6298470019088
1016,1686879869.9,4.883,-15.137,-15.625,-20.508,1097.794,417.351879471357
1017,1686879869.9,-37.598,-466.797,-33.691,-79.102,1097.798,424.9422004408409
1018,1686879869.9,-37.109,-563.477,16.113,-54.688,1097.802,417.66960154669874
1019,1686879869.91,2.93,-16.602,-44.434,4.395,1097.817,409.16527072488026
1020,1686879869.91,0.0,-100.098,14.648,24.902,1097.806,416.16568421753516
1021,1686879869.91,-35.156,-563.477,-39.062,-81.055,1097.821,418.39952771760636
1022,1686879869.91,-45.41,-879.883,36.133,-83.984,1097.825,432.45905672424516
1023,1686879869.92,-4.883,-432.129,18.555,6.348,1097.829,415.62843434044265
1024,1686879869.92,2.93,-103.027,-9.277,33.691,1097.833,416.1744054754809
1025,1686879869.93,-29.785,-559.082,-59.57,-42.969,1097.837,411.9745504547748
1026,1686879869.93,-48.828,-1000.0,5.371,-75.195,1097.841,414.713437806467
1027,1686879869.93,-20.996,-541.992,87.402,-27.344,1097.845,417.9572132718687
1028,1686879869.94,5.371,-119.141,-13.184,2.93,1097.849,423.53706141043153
1029,1686879869.94,-9.277,-337.402,-34.18,-53.223,1097.853,415.3413048745921
1030,1686879869.94,-38.574,-298.34,-1.953,-102.051,1097.857,418.7693905484384
1031,1686879869.95,-30.273,-120.605,-12.695,-54.688,1097.86,411.81853328400655
1032,1686879869.97,0.488,-183.594,-27.344,18.066,1097.863,417.6435927465257
1033,1686879869.97,-17.578,-344.727,-15.625,-19.043,1097.867,416.31855895141376
1034,1686879869.97,-53.223,-283.203,-7.812,-94.727,1097.871,411.081473209113
1035,1686879869.98,-47.852,-161.133,-10.742,-58.594,1097.875,417.0388307799066
1036,1686879869.98,-19.043,-349.121,-22.461,24.414,1097.879,410.10147786866344
1037,1686879869.99,-16.113,-756.836,-47.363,7.324,1097.882,416.83152443217955
1038,1686879869.99,-46.875,-742.676,-11.23,-82.031,1097.886,411.8322759620825
1039,1686879869.99,-56.152,-619.141,7.324,-94.238,1097.89,418.4017240178426
1040,1686879870.0,-24.414,-698.73,-52.734,-7.324,1097.894,411.6987017404501
1041,1686879870.0,-7.812,-891.602,-21.484,23.438,1097.898,419.90511709517995
1042,1686879870.0,-33.691,-489.258,65.918,-58.594,1097.902,415.6876014059156
1043,1686879870.01,-52.246,-144.043,-20.996,-103.516,1097.906,412.9992937266696
1044,1686879870.01,-34.668,-405.762,-11.23,-27.344,1097.908,416.9513276505684
1045,1686879870.02,-8.301,-623.535,15.625,35.645,1097.912,407.6581268820036
1046,1686879870.02,-20.02,-434.57,-13.672,-25.879,1097.916,416.99051158469695
1047,1686879870.02,-51.758,-158.691,-15.137,-93.75,1097.92,405.8373833854889
1048,1686879870.03,-50.293,-574.219,-33.203,-48.34,1097.923,413.7682789782706
1049,1686879870.03,-20.508,-921.875,0.977,20.508,1097.927,415.5173041292379
1050,1686879870.04,-20.508,-472.656,1.465,-16.602,1097.931,412.6878431227387
1051,1686879870.04,-48.34,-342.773,-22.461,-100.098,1097.935,412.04364379511975
1052,1686879870.04,-41.504,-829.102,-45.41,-69.336,1097.939,420.7657030199971
1053,1686879870.05,-9.766,-822.754,24.902,23.438,1097.943,418.0597760120372
1054,1686879870.05,-3.418,-102.539,58.105,7.324,1097.947,414.9550078782382
1055,1686879870.06,-34.18,-135.254,-40.039,-69.824,1097.951,414.16149928418946
1056,1686879870.06,-59.082,-514.648,-15.625,-83.008,1097.953,414.03950723436117
1057,1686879870.06,-30.762,-270.996,22.949,-13.184,1097.957,415.7772140565543
1058,1686879870.06,-0.977,-4.883,-13.184,28.809,1097.961,417.36801439476693
1059,1686879870.07,-24.902,-248.535,-35.645,-50.293,1097.965,412.40974695395437
1060,1686879870.07,-50.293,-586.426,-32.227,-91.797,1097.969,409.6597537475513
1061,1686879870.08,-37.109,-635.742,-19.043,-14.16,1097.973,414.36315757792903
1062,1686879870.08,-14.16,-386.719,10.742,29.297,1097.977,418.1446804835655
1063,1686879870.08,-22.461,-406.25,-60.059,-17.578,1097.98,416.4210587959305
1064,1686879870.09,-51.27,-888.672,-39.062,-86.914,1097.984,416.96893031100086
1065,1686879870.09,-49.316,-518.555,62.012,-58.594,1097.988,413.9640746467973
1066,1686879870.1,-14.648,-233.398,-10.254,11.719,1097.992,413.254947912415
1067,1686879870.1,-18.555,-697.266,-46.875,-10.742,1097.996,415.9196363480206
1068,1686879870.1,-63.965,-737.793,-10.742,-86.914,1097.998,414.5904620342889
1069,1686879870.1,-62.988,-461.426,7.812,-78.125,1098.002,416.5175284740883
1070,1686879870.11,-18.555,-522.461,-3.906,1.953,1098.005,419.17033207630965
1071,1686879870.11,-16.602,-742.188,-27.832,8.301,1098.009,420.8314718567354
1072,1686879870.12,-46.875,-771.484,-17.09,-72.266,1098.013,414.94314211024295
1073,1686879870.12,-53.711,-562.5,-7.812,-92.285,1098.017,412.69255861765373
1074,1686879870.12,-30.273,-487.305,2.93,-15.625,1098.021,418.32215611349574
1075,1686879870.13,-7.324,-708.496,-13.184,22.949,1098.025,410.66913216468197
1076,1686879870.13,-25.391,-758.301,16.113,-40.527,1098.029,422.42298912759725
1077,1686879870.14,-51.758,-136.719,16.602,-95.215,1098.033,416.1399030805686
1078,1686879870.14,-31.738,-149.902,-31.25,-34.668,1098.037,424.10851402820856
1079,1686879870.14,-0.488,-302.734,8.789,41.016,1098.041,419.2450167869677
1080,1686879870.15,-16.602,-218.262,-14.16,-3.906,1098.047,414.28098719689143
1081,1686879870.15,-56.641,-375.0,-22.461,-83.496,1098.051,417.2014935056567
1082,1686879870.16,-52.246,-419.434,-14.648,-46.387,1098.054,409.4382580157636
1083,1686879870.16,-19.531,-564.941,11.719,34.668,1098.058,422.4972634057303
1084,1686879870.16,-17.09,-346.191,29.785,11.719,1098.062,416.60890077214583
1085,1686879870.17,-43.945,-349.609,-20.02,-74.707,1098.066,421.9524583877901
1086,1686879870.17,-54.688,-733.887,-41.016,-57.617,1098.07,418.42191927529745
1087,1686879870.17,-23.926,-840.82,-1.953,35.156,1098.074,413.29745458753354
1088,1686879870.18,-2.441,-340.332,67.383,34.18,1098.078,420.1848073228683
1089,1686879870.18,-28.809,-20.996,-30.273,-56.641,1098.082,416.8423886213715
1090,1686879870.19,-54.199,-492.676,-13.672,-94.238,1098.086,417.968599211482
1091,1686879870.19,-39.551,-523.926,51.758,-25.391,1098.09,423.2512679907266
1092,1686879870.19,-19.531,-38.086,1.953,24.414,1098.118,418.27249857876956
1093,1686879870.2,-32.715,-238.281,-40.039,-32.227,1098.122,419.59825870226695
1094,1686879870.2,-60.547,-809.57,-41.504,-82.52,1098.126,419.93909544573785
1095,1686879870.2,-38.574,-895.996,3.418,-25.879,1098.129,412.9742806349656
1096,1686879870.21,5.371,-430.664,0.0,33.203,1098.133,411.6048335221727
1097,1686879870.21,-16.602,-324.219,-29.785,-11.719,1098.137,424.4773339978513
1098,1686879870.22,-64.941,-782.227,-37.109,-82.031,1098.141,415.4165501585761
1099,1686879870.22,-57.129,-901.855,25.879,-58.594,1098.145,416.0452083747471
1100,1686879870.22,-14.648,-238.281,61.523,16.113,1098.149,420.14446585089917
1101,1686879870.23,-2.441,-0.488,-26.367,7.812,1098.153,417.6810325740354
1102,1686879870.23,-35.156,-330.566,-17.578,-74.219,1098.157,423.1347424817746
1103,1686879870.23,-47.363,-319.336,4.395,-81.543,1098.161,418.31318454502303
1104,1686879870.24,-14.16,-113.77,-0.488,6.348,1098.147,419.69970635100236
1105,1686879870.24,4.395,-188.965,-12.207,38.086,1098.151,425.64172235339095
1106,1686879870.24,-16.113,-394.531,-22.461,-38.086,1098.154,425.71516787106816
1107,1686879870.25,-33.691,-305.664,-5.859,-83.008,1098.158,419.67711127550245
1108,1686879870.25,-21.484,-144.043,-8.789,-26.855,1098.162,418.15036292621744
1109,1686879870.26,-1.953,-408.691,-59.57,31.738,1098.166,413.09070209757334
1110,1686879870.26,-27.832,-880.859,-49.316,-25.391,1098.17,417.66759641798774
1111,1686879870.26,-62.988,-718.262,16.602,-93.75,1098.174,416.57013411897594
1112,1686879870.27,-40.527,-176.758,0.488,-33.691,1098.178,420.9385047467826
1113,1686879870.27,-6.836,-399.414,-54.199,44.434,1098.182,417.0186266147539
1114,1686879870.28,-20.996,-682.129,-30.273,-1.953,1098.186,421.817355827455
1115,1686879870.28,-53.711,-285.645,1.465,-87.891,1098.19,416.9714701794886
1116,1686879870.3,-50.293,-159.18,-8.301,-74.219,1098.193,420.5858414157277
1117,1686879870.3,-14.16,-522.949,-20.996,20.02,1098.197,415.3499749204717
1118,1686879870.3,-15.625,-1000.0,-14.648,31.25,1098.201,425.61292989224603
1119,1686879870.31,-47.852,-734.375,59.57,-60.547,1098.205,425.50724587565713
1120,1686879870.31,-60.059,-217.773,-13.184,-84.473,1098.208,423.22695222607166
1121,1686879870.32,-33.203,-604.492,-20.996,0.488,1098.212,420.62930595219035
1122,1686879870.32,-11.23,-629.395,73.242,27.832,1098.216,423.6500330242058
1123,1686879870.32,-38.574,-153.809,0.977,-62.012,1098.22,424.1496674837989
1124,1686879870.33,-54.688,-284.668,-38.086,-100.586,1098.224,417.7776911241979
1125,1686879870.33,-33.691,-812.012,-20.996,-31.738,1098.228,431.7170154628236
1126,1686879870.34,-3.418,-674.316,35.645,27.344,1098.232,424.15213845819625
1127,1686879870.34,-14.648,-68.848,9.766,-25.391,1098.236,429.53965467674965
1128,1686879870.34,-50.293,-304.688,-33.691,-90.332,1098.238,426.5933731474053
1129,1686879870.34,-40.527,-545.41,18.066,-55.664,1098.242,425.3482858471754
1130,1686879870.35,-12.207,-198.73,21.973,5.859,1098.246,422.79829347865297
1131,1686879870.35,-15.137,-1.953,-9.766,-20.02,1098.25,413.04711917131846
1132,1686879870.36,-49.316,-246.582,-31.25,-97.168,1098.253,427.2159488458571
1133,1686879870.36,-60.059,-725.098,-35.645,-83.984,1098.257,427.00989564165974
1134,1686879870.36,-29.297,-604.004,7.812,3.418,1098.261,422.66033955182024
1135,1686879870.37,-21.484,-99.121,7.324,5.859,1098.265,425.4203790077472
1136,1686879870.37,-49.805,-412.109,-79.102,-77.637,1098.269,431.38044001259
1137,1686879870.38,-59.57,-903.32,-23.926,-91.797,1098.273,430.67406523226066
1138,1686879870.38,-19.043,-483.887,59.57,-13.184,1098.277,432.2287426822307
1139,1686879870.38,-1.465,-350.586,-16.602,20.02,1098.281,435.28208136426343
1140,1686879870.39,-35.156,-714.355,-28.809,-49.316,1098.286,429.6214066371209
1141,1686879870.39,-57.129,-972.168,-2.93,-97.168,1098.29,418.0452255837137
1142,1686879870.4,-35.156,-612.305,27.344,-35.645,1098.294,429.10988801620505
1143,1686879870.4,-6.836,-131.836,-6.836,17.09,1098.298,429.59591297774347
1144,1686879870.4,-23.926,-562.5,-51.27,-32.227,1098.302,417.4900965510118
1145,1686879870.41,-50.293,-975.586,-17.09,-89.355,1098.306,422.853163311651
1146,1686879870.41,-40.039,-669.922,21.973,-56.152,1098.31,423.314250395746
1147,1686879870.41,-3.418,-243.652,-0.488,24.902,1098.314,427.7782633368989
1148,1686879870.42,-3.418,-598.145,-41.016,4.883,1098.318,430.2209700868975
1149,1686879870.42,-40.527,-791.016,18.555,-83.984,1098.322,430.66931708714435
1150,1686879870.43,-44.922,-192.383,18.066,-83.984,1098.326,419.93700415483016
1151,1686879870.43,-13.672,-159.18,-25.391,-1.953,1098.329,431.2953635749939
1152,1686879870.45,0.488,-306.641,-7.324,8.301,1098.346,423.53810914322594
1153,1686879870.45,-28.32,-323.73,-15.625,-68.359,1098.35,429.91352531008727
1154,1686879870.46,-48.828,-424.316,-21.973,-89.355,1098.354,427.9682142005019
1155,1686879870.46,-24.902,-415.527,-9.277,-14.648,1098.358,423.28349947145676
1156,1686879870.46,0.0,-458.984,-22.949,23.926,1098.362,430.7830132531853
1157,1686879870.47,-18.555,-571.777,-32.715,-46.875,1098.366,430.8838495800862
1158,1686879870.47,-50.293,-568.848,0.0,-104.492,1098.37,426.418184306794
1159,1686879870.47,-39.551,-517.578,-36.621,-43.457,1098.374,435.94690235538775
1160,1686879870.48,-7.812,-420.898,46.387,20.996,1098.373,432.5029648069893
1161,1686879870.48,-10.254,-940.43,-40.527,36.621,1098.377,433.05666224917763
1162,1686879870.48,-8.789,-333.008,-8.789,19.043,1098.377,428.235628929222
1163,1686879870.48,-12.695,-628.418,73.73,-8.301,1098.381,430.19159456410574
1164,1686879870.48,-37.109,-406.738,-7.812,-68.359,1098.381,424.28026316271297
1165,1686879870.49,-40.039,-167.969,-14.648,-90.82,1098.385,430.87977944643046
1166,1686879870.49,-36.621,-627.441,-29.785,-74.219,1098.385,433.7055297171251
1167,1686879870.49,-38.574,-508.789,-9.766,-64.941,1098.389,425.17489768812385
1168,1686879870.49,-6.836,-882.812,1.953,15.137,1098.389,422.9165132124251
1169,1686879870.5,9.277,-502.93,37.109,30.762,1098.393,422.26912314258226
1170,1686879870.5,-8.301,-503.906,-6.348,-52.246,1098.396,428.81219483611324
1171,1686879870.5,-25.391,-720.215,-1.465,-91.309,1098.4,427.0947263231216
1172,1686879870.51,-14.648,-512.207,29.297,-35.645,1098.404,427.91345403920866
1173,1686879870.51,-0.977,-87.891,-4.883,3.418,1098.408,444.05155424726837
1174,1686879870.52,-14.648,-66.406,-33.691,-58.105,1098.412,434.76337722792374
1175,1686879870.52,-51.758,-721.191,-61.035,-106.445,1098.416,434.0833391649328
1176,1686879870.52,-43.457,-819.824,21.484,-51.758,1098.418,426.84708402046726
1177,1686879870.52,-8.301,-156.25,51.27,11.23,1098.422,435.0733806484406
1178,1686879870.53,-9.277,-226.074,-34.18,-21.973,1098.426,434.5499560607387
1179,1686879870.53,-40.527,-508.301,-25.391,-103.516,1098.43,428.52703847067306
1180,1686879870.54,-42.969,-358.887,-9.766,-76.66,1098.433,425.32933997038003
1181,1686879870.54,-17.578,-395.996,-25.391,14.648,1098.437,430.1183293751695
1182,1686879870.54,-24.414,-616.211,-59.57,8.789,1098.441,434.8379201966386
1183,1686879870.55,-50.781,-959.473,-53.223,-65.918,1098.445,436.15997406284663
1184,1686879870.55,-56.152,-692.383,65.43,-87.891,1098.449,431.81107420858535
1185,1686879870.56,-26.367,-49.805,17.578,-23.926,1098.453,424.1225470719112
1186,1686879870.56,-6.836,-255.371,-19.531,5.859,1098.457,443.21227839478945
1187,1686879870.56,-33.203,-428.711,5.371,-65.918,1098.461,432.4385013714007
1188,1686879870.57,-52.246,-198.242,-18.555,-102.051,1098.463,433.0044037284035
1189,1686879870.57,-25.879,-312.012,-24.414,-25.391,1098.467,436.654890648017
1190,1686879870.58,-3.906,-746.582,-26.855,39.551,1098.471,437.89223579297266
1191,1686879870.58,-16.602,-766.113,3.418,-13.184,1098.474,434.15675048145357
1192,1686879870.58,-42.48,-301.758,-13.184,-85.449,1098.478,423.34591799314524
1193,1686879870.59,-37.598,-395.02,-36.621,-43.945,1098.482,438.18133239982296
1194,1686879870.59,-3.418,-840.332,-24.414,32.227,1098.486,436.84469196403415
1195,1686879870.59,-7.812,-753.418,10.742,-0.488,1098.49,437.7384069305514
1196,1686879870.6,-37.109,-196.289,7.812,-85.449,1098.494,430.36157351248363
1197,1686879870.6,-34.668,-291.992,-26.367,-69.824,1098.498,442.13323228143383
1198,1686879870.61,-12.207,-751.465,14.16,14.648,1098.502,429.92417286028035
1199,1686879870.61,-10.742,-555.664,25.879,16.602,1098.506,427.06519827553143
1200,1686879870.61,-37.109,-94.727,-4.883,-62.012,1098.522,436.21494981539814
1201,1686879870.62,-53.223,-331.543,-25.391,-84.473,1098.526,436.0255001317615
1202,1686879870.62,-29.785,-533.691,-8.789,-16.602,1098.53,451.51726300572955
1203,1686879870.62,-2.441,-206.543,4.395,20.996,1098.534,433.7475146792776
1204,1686879870.63,-31.25,-135.254,-24.902,-51.758,1098.538,432.67921640276217
1205,1686879870.63,-60.059,-630.371,-64.941,-97.656,1098.542,433.32776254605136
1206,1686879870.64,-40.039,-943.848,11.23,-30.273,1098.546,433.1610672760354
1207,1686879870.64,-15.625,-439.453,83.008,19.531,1098.55,436.6553730640976
1208,1686879870.64,-22.949,-44.922,-11.23,-26.367,1098.553,444.01453843767837
1209,1686879870.65,-49.316,-467.773,-41.992,-94.727,1098.557,440.65847870398386
1210,1686879870.65,-46.387,-600.098,-8.301,-60.059,1098.561,433.5491864603573
1211,1686879870.65,-12.695,-213.379,-3.906,29.297,1098.565,440.68474155715757
1212,1686879870.66,-16.113,-343.75,-20.996,4.395,1098.566,437.6800764782464
1213,1686879870.66,-42.48,-795.898,-33.691,-77.148,1098.57,433.0180817135015
1214,1686879870.66,-42.969,-911.621,41.504,-72.754,1098.574,438.8046735662204
1215,1686879870.67,-15.625,-351.562,77.637,7.812,1098.578,429.99321618495856
1216,1686879870.67,-1.953,-69.824,-24.414,18.066,1098.582,436.5598304378789
1217,1686879870.68,-24.902,-563.477,-29.297,-60.547,1098.586,433.4993992871944
1218,1686879870.68,-52.734,-759.277,3.906,-91.309,1098.59,427.84478787568565
1219,1686879870.68,-34.18,-283.691,21.484,-25.879,1098.594,441.01691455687615
1220,1686879870.69,-3.906,-109.375,-29.785,22.461,1098.598,443.45529916380093
1221,1686879870.69,-25.391,-602.539,-29.297,-34.18,1098.602,444.7585619586897
1222,1686879870.7,-58.594,-636.23,53.711,-97.168,1098.606,442.0044525120577
1223,1686879870.7,-44.922,-145.996,8.789,-47.363,1098.609,431.647183066157
1224,1686879870.72,-12.695,-201.172,-17.578,15.137,1098.613,439.3892570797216
1225,1686879870.72,-18.555,-428.711,-6.348,-37.109,1098.617,434.22736070005647
1226,1686879870.72,-45.898,-568.848,-15.625,-104.492,1098.621,429.27350208212135
1227,1686879870.73,-45.41,-554.199,17.578,-76.66,1098.625,441.13200923766584
1228,1686879870.73,-12.695,-423.34,-19.043,3.906,1098.629,442.36935994899017
1229,1686879870.74,-15.137,-809.57,-33.203,9.766,1098.633,433.5909434637635
1230,1686879870.74,-47.363,-779.297,38.574,-77.637,1098.637,432.3558180375885
1231,1686879870.74,-62.5,-311.035,7.812,-91.797,1098.64,449.84684256784993
1232,1686879870.75,-33.203,-493.164,-47.363,-1.953,1098.644,445.2375807956514
1233,1686879870.75,-4.395,-739.258,-37.109,24.414,1098.648,449.67901844458817
1234,1686879870.76,-30.273,-327.637,4.883,-51.758,1098.652,443.6158068722208
1235,1686879870.76,-56.152,-267.578,-26.367,-90.82,1098.656,436.1617622487304
1236,1686879870.76,-33.203,-569.336,0.488,-21.484,1098.658,442.7073218637769
1237,1686879870.77,-3.906,-738.281,17.09,31.25,1098.662,439.47670386196774
1238,1686879870.77,-13.184,-482.91,-1.465,-25.879,1098.666,447.10777281078754
1239,1686879870.77,-41.016,-262.695,-18.555,-83.496,1098.67,444.3678062336328
1240,1686879870.78,-42.48,-695.801,-36.133,-30.762,1098.674,445.4486437202581
1241,1686879870.78,-10.254,-894.043,12.207,43.457,1098.678,447.1923700464748
1242,1686879870.79,-11.23,-655.273,0.977,1.465,1098.682,441.5201464204924
1243,1686879870.79,-47.363,-621.582,-16.602,-77.637,1098.686,445.2651469087532
1244,1686879870.79,-47.852,-834.473,-41.016,-53.711,1098.69,442.4166225793595
1245,1686879870.8,-12.207,-851.074,28.32,25.391,1098.693,438.47380300004926
1246,1686879870.8,-1.953,-217.773,59.57,14.648,1098.697,452.48671446390347
1247,1686879870.8,-31.738,-200.195,-32.227,-74.219,1098.701,442.23764769213966
1248,1686879870.81,-58.594,-529.785,-5.371,-91.309,1098.703,442.89022231805563
1249,1686879870.81,-29.297,-314.941,13.672,-2.441,1098.707,442.805564771056
1250,1686879870.82,12.695,-105.957,-12.207,28.809,1098.711,439.9551042674371
1251,1686879870.82,-8.301,-352.051,-28.809,-40.039,1098.714,444.913563786652
1252,1686879870.82,-36.621,-628.906,-42.48,-73.73,1098.718,449.95570018969937
1253,1686879870.83,-18.555,-645.508,-26.855,-16.113,1098.722,442.41477192046034
1254,1686879870.83,4.883,-625.0,6.836,29.785,1098.726,447.3894891067681
1255,1686879870.83,-22.461,-725.098,-57.617,-31.738,1098.73,449.6596243606106
1256,1686879870.84,-59.57,-1000.0,-54.199,-95.703,1098.734,444.6277185943893
1257,1686879870.84,-54.199,-701.66,81.055,-55.176,1098.738,442.2011677023358
1258,1686879870.85,-21.973,-147.949,14.16,17.578,1098.742,438.0993710943904
1259,1686879870.85,-16.113,-392.09,-3.418,2.441,1098.746,444.1674297187252
1260,1686879870.85,-46.387,-600.098,17.578,-81.543,1098.748,439.358883486908
1261,1686879870.86,-50.781,-605.469,-21.973,-67.871,1098.751,448.60648777082747
1262,1686879870.86,-16.602,-466.797,-1.465,27.344,1098.755,447.6776347664062
1263,1686879870.86,-5.371,-573.242,-28.809,41.992,1098.759,445.25834300183294
1264,1686879870.87,-39.551,-846.68,-30.762,-33.691,1098.763,444.2071186652348
1265,1686879870.87,-57.617,-631.348,-24.414,-63.965,1098.767,436.0888349622599
1266,1686879870.88,-35.645,-547.852,-20.996,0.977,1098.771,452.57064743499393
1267,1686879870.88,-13.672,-760.742,-27.344,42.969,1098.775,450.25898807215367
1268,1686879870.88,-23.438,-795.898,14.648,-23.438,1098.779,448.11708538103477
1269,1686879870.89,-39.062,-310.059,2.441,-80.566,1098.783,445.12543068048956
1270,1686879870.89,-26.855,-398.438,-35.156,-17.578,1098.787,448.95285658497033
1271,1686879870.9,0.0,-682.129,36.621,48.828,1098.791,445.8922454895131
1272,1686879870.9,-15.625,-432.617,36.621,1.465,1098.793,448.3382009327477
1273,1686879870.9,-44.922,-150.879,-28.32,-69.824,1098.797,444.5125241542863
1274,1686879870.9,-41.016,-413.574,-36.133,-48.34,1098.801,441.8976687743054
1275,1686879870.91,-15.625,-535.645,0.488,22.461,1098.804,441.06170758444136
1276,1686879870.91,-19.531,-288.574,-21.484,5.859,1098.808,451.81295660618986
1277,1686879870.92,-55.176,-507.812,-41.016,-69.824,1098.812,447.2867809499368
1278,1686879870.92,-61.523,-813.477,-51.27,-58.105,1098.816,438.53970201822284
1279,1686879870.92,-28.809,-909.18,-19.043,21.484,1098.82,447.9025540853208
1280,1686879870.93,-15.137,-494.141,56.152,27.344,1098.824,436.4952713700514
1281,1686879870.93,-49.805,-140.625,-23.926,-51.758,1098.828,440.8082935566193
1282,1686879870.94,-66.406,-559.082,-23.438,-93.262,1098.832,449.9299100146159
1283,1686879870.94,-38.086,-614.746,27.832,-21.484,1098.836,450.0945337663926
1284,1686879870.94,-18.066,-226.562,-7.812,24.414,1098.842,451.4771357023183
1285,1686879870.95,-38.086,-478.027,-32.715,-52.246,1098.846,439.873143900603
1286,1686879870.95,-67.871,-925.293,-44.922,-103.516,1098.849,442.38050447765335
1287,1686879870.95,-51.27,-879.883,47.852,-41.992,1098.853,441.0710258842327
1288,1686879870.96,-19.043,-402.832,63.965,26.855,1098.857,447.8187733726773
1289,1686879870.96,-24.414,-466.309,-44.434,-13.672,1098.861,444.8057561410218
1290,1686879870.97,-52.734,-890.625,-20.02,-81.055,1098.865,450.99195313439634
1291,1686879870.97,-47.363,-800.781,55.176,-53.711,1098.869,449.5638259297937
1292,1686879870.97,-8.789,-237.305,35.645,20.02,1098.873,442.1480802540086
1293,1686879870.98,-2.93,-182.617,-35.156,21.973,1098.877,440.49548511792773
1294,1686879870.98,-39.551,-614.258,-7.812,-67.383,1098.881,449.5713018357574
1295,1686879870.98,-54.199,-548.34,28.32,-83.008,1098.885,448.1802859856131
