timestamps,TP9,AF7,AF8,TP10
1644531787.965,-9.766,130.859,-87.402,-30.273
1644531787.969,-93.262,224.121,-68.359,5.371
1644531787.973,-44.922,520.996,-77.637,-21.973
1644531787.977,45.898,419.922,-86.914,-67.871
1644531787.981,-4.883,-13.184,-77.148,-47.852
1644531787.985,-109.863,-162.109,-58.105,-0.977
1644531787.989,-76.660,-3.418,-59.570,6.348
1644531787.992,35.156,30.273,-78.125,-42.969
1644531787.996,21.973,-505.859,-86.914,-68.848
1644531788.000,-96.191,-715.332,-54.688,-23.926
1644531788.004,-110.352,222.656,-45.898,0.000
1644531788.008,2.930,328.125,-70.312,-43.457
1644531788.010,42.480,1.465,-69.824,-77.637
1644531788.014,-61.035,137.207,-66.406,-44.434
1644531788.018,-122.559,110.352,-62.988,-3.906
1644531788.022,-43.945,-84.473,-74.707,-40.039
1644531788.026,32.715,-560.059,-95.703,-87.402
1644531788.030,-28.809,-381.836,-82.520,-66.895
1644531788.034,-101.562,43.457,-69.336,-8.301
1644531788.037,-46.875,-101.074,-79.102,-17.578
1644531788.041,39.551,-772.949,-80.078,-66.406
1644531788.045,1.465,-249.023,-43.945,-59.570
1644531788.049,-102.539,463.379,-36.621,0.000
1644531788.053,-82.520,177.246,-66.895,5.371
1644531788.054,24.414,12.207,-82.520,-53.711
1644531788.058,32.715,272.949,-64.941,-74.219
1644531788.062,-66.895,335.938,-51.270,-22.949
1644531788.066,-91.797,135.742,-62.012,6.348
1644531788.070,4.883,159.180,-69.824,-51.270
1644531788.074,41.504,-54.688,-76.660,-91.797
1644531788.078,-39.062,-153.320,-59.570,-42.480
1644531788.081,-102.051,-378.906,-62.500,11.719
1644531788.085,-42.480,-385.742,-59.570,-28.809
1644531788.089,48.340,256.836,-53.711,-76.172
1644531788.093,-3.906,134.766,-70.312,-41.504
1644531788.097,-105.469,-217.285,-57.617,10.742
1644531788.116,-70.801,187.500,-57.617,-10.254
1644531788.120,36.621,351.562,-79.102,-70.312
1644531788.124,8.789,-170.898,-79.590,-64.453
1644531788.128,-100.098,-770.508,-66.406,4.883
1644531788.132,-84.473,-205.078,-43.945,15.137
1644531788.136,30.273,145.508,-58.105,-50.293
1644531788.140,52.734,-250.977,-66.406,-75.195
1644531788.143,-56.641,-430.664,-44.922,-22.949
1644531788.147,-83.008,154.297,-44.922,13.672
1644531788.151,14.160,502.441,-53.223,-26.367
1644531788.155,48.340,94.238,-70.312,-69.824
1644531788.159,-54.199,-124.023,-65.918,-51.270
1644531788.147,-96.680,252.930,-55.176,9.766
1644531788.151,-19.043,199.707,-81.543,-9.277
1644531788.155,45.898,-206.055,-90.820,-86.914
1644531788.159,-23.926,-75.195,-74.219,-86.426
1644531788.163,-128.906,354.492,-81.543,-25.879
1644531788.167,-70.312,104.980,-120.117,-15.625
1644531788.171,43.945,-347.656,-143.066,-62.988
1644531788.174,34.668,23.926,-130.859,-57.617
1644531788.178,-58.594,485.352,-131.836,9.766
1644531788.182,-61.523,583.496,-152.344,15.625
1644531788.186,27.832,-359.375,-177.246,-40.039
1644531788.190,34.668,-688.965,-145.996,-70.312
1644531788.189,-60.547,308.594,-113.281,-28.320
1644531788.193,-86.914,407.227,-138.184,18.066
1644531788.197,-7.812,-138.672,-156.738,-29.785
1644531788.201,54.688,-6.836,-129.883,-66.406
1644531788.205,-19.043,78.613,-115.723,-38.086
1644531788.209,-109.375,-80.566,-129.395,2.441
1644531788.213,-57.617,-798.828,-146.973,-12.695
1644531788.216,34.180,-693.359,-124.023,-70.801
1644531788.220,3.418,235.840,-117.676,-72.266
1644531788.224,-95.215,268.066,-127.441,-13.672
1644531788.228,-79.102,216.797,-125.488,-20.020
1644531788.232,28.809,384.277,-126.953,-76.660
1644531788.236,27.344,340.332,-127.930,-72.754
1644531788.240,-86.426,38.086,-138.184,-30.762
1644531788.244,-112.793,115.723,-135.254,-27.344
1644531788.248,-4.883,335.938,-127.441,-76.660
1644531788.252,27.832,208.008,-131.836,-96.680
1644531788.256,-78.125,-343.750,-142.090,-54.199
1644531788.260,-121.582,-452.148,-127.930,-8.789
1644531788.263,-21.973,-100.586,-110.840,-32.227
1644531788.267,48.340,141.113,-121.582,-74.219
1644531788.271,-29.785,-535.156,-138.184,-52.246
1644531788.275,-112.305,-632.324,-91.309,-1.465
1644531788.279,-52.734,250.977,-76.172,-15.137
1644531788.294,44.922,253.906,-103.516,-62.988
1644531788.298,16.602,-138.672,-97.656,-52.734
1644531788.302,-83.984,-146.973,-85.449,1.465
1644531788.306,-65.918,256.836,-91.309,1.953
1644531788.310,43.945,181.641,-104.004,-48.828
1644531788.314,49.316,-781.738,-100.098,-57.129
1644531788.318,-62.500,-456.543,-64.941,-15.137
1644531788.321,-97.168,511.719,-78.125,6.348
1644531788.325,6.348,187.012,-107.422,-43.945
1644531788.329,56.641,-358.398,-90.332,-67.871
1644531788.333,-39.551,42.480,-73.242,-26.367
1644531788.337,-106.445,338.379,-76.660,12.207
1644531788.341,-13.184,32.227,-82.031,-13.672
1644531788.345,67.871,-188.477,-65.918,-51.270
1644531788.349,-0.488,199.219,-49.805,-33.691
1644531788.353,-88.867,421.387,-55.664,15.137
1644531788.357,-43.945,127.930,-76.660,8.301
1644531788.361,53.711,-210.449,-81.055,-46.387
1644531788.365,27.344,-151.855,-61.523,-46.387
1644531788.368,-78.125,262.207,-63.965,16.602
1644531788.372,-74.707,-249.023,-86.426,31.250
1644531788.376,39.551,-438.965,-59.570,-31.738
1644531788.380,62.012,288.086,-62.988,-62.012
1644531788.384,-46.387,167.969,-87.402,-16.113
1644531788.385,-79.590,-357.422,-85.449,19.531
1644531788.389,9.766,-35.156,-84.961,-29.297
1644531788.393,70.801,46.387,-97.168,-57.129
1644531788.397,-7.324,-213.867,-81.543,-3.906
1644531788.401,-90.820,-231.445,-63.477,25.879
1644531788.405,-38.574,-144.531,-66.895,-39.551
1644531788.409,46.387,45.898,-64.941,-94.727
1644531788.412,-2.930,19.043,-76.660,-60.547
1644531788.416,-107.422,-745.605,-90.820,-4.883
1644531788.420,-63.965,-205.078,-62.988,-20.020
1644531788.424,49.805,543.457,-72.266,-78.613
1644531788.428,36.621,180.176,-92.773,-69.824
1644531788.430,-84.961,41.504,-73.730,-20.020
1644531788.434,-80.566,409.180,-87.402,-22.949
1644531788.438,26.855,246.094,-106.934,-67.871
1644531788.442,36.133,-198.242,-103.027,-83.984
1644531788.446,-60.059,-86.426,-88.867,-38.086
1644531788.450,-103.516,125.000,-101.562,9.277
1644531788.454,-16.113,11.719,-117.676,-25.879
1644531788.457,60.547,-430.176,-117.676,-48.828
1644531788.461,-14.648,-425.781,-97.168,-6.348
1644531788.465,-95.703,392.578,-95.703,25.879
1644531788.469,-25.879,424.316,-125.977,6.348
1644531788.473,66.895,2.441,-124.512,-32.715
1644531788.490,12.695,202.148,-108.398,-31.250
1644531788.494,-82.031,421.387,-120.605,19.531
1644531788.498,-57.129,-50.293,-137.695,15.137
1644531788.502,40.527,-680.176,-125.488,-49.805
1644531788.506,24.414,-263.672,-99.121,-63.477
1644531788.510,-91.797,1.465,-102.051,-14.160
1644531788.514,-100.586,-258.789,-107.422,13.184
1644531788.517,13.184,-798.340,-119.141,-36.621
1644531788.521,53.711,-382.812,-91.309,-63.477
1644531788.525,-36.133,273.926,-84.961,-16.602
1644531788.529,-76.172,193.848,-107.422,16.113
1644531788.533,8.789,218.750,-96.191,-13.184
1644531788.520,76.172,371.094,-99.121,-50.293
1644531788.524,0.000,291.016,-123.047,-25.879
1644531788.528,-91.309,28.320,-120.117,36.621
1644531788.532,-36.621,163.574,-105.957,21.973
1644531788.536,64.941,354.980,-102.539,-39.062
1644531788.540,25.879,-7.812,-105.469,-42.480
1644531788.544,-77.148,-395.020,-102.539,15.137
1644531788.547,-56.152,-186.035,-88.379,26.855
1644531788.551,56.641,150.391,-82.031,-22.461
1644531788.555,58.105,286.133,-92.773,-39.062
1644531788.559,-59.570,-469.727,-112.793,2.441
1644531788.563,-72.266,-670.898,-87.402,30.273
1644531788.564,40.039,250.000,-81.543,-25.879
1644531788.568,64.941,248.047,-114.258,-64.453
1644531788.572,-36.133,-673.340,-117.188,-15.137
1644531788.576,-91.309,-204.102,-82.520,30.273
1644531788.580,-19.531,448.242,-104.492,-18.066
1644531788.584,58.594,-90.820,-125.000,-67.871
1644531788.588,-19.531,-797.852,-122.070,-44.434
1644531788.591,-108.398,-171.875,-95.703,0.000
1644531788.595,-52.246,520.020,-100.098,-10.742
1644531788.599,43.945,122.559,-120.117,-62.500
1644531788.603,18.066,-157.227,-101.074,-51.758
1644531788.607,-87.891,214.844,-86.914,-0.488
1644531788.611,-79.590,515.137,-98.633,-2.441
1644531788.615,23.438,97.168,-118.164,-58.594
1644531788.619,33.691,-154.785,-98.633,-72.266
1644531788.623,-61.035,273.926,-82.031,-20.508
1644531788.627,-94.238,447.266,-89.355,9.766
1644531788.631,0.488,-84.473,-102.051,-18.555
1644531788.635,58.105,-323.730,-89.355,-50.781
1644531788.638,-37.598,133.789,-70.801,-25.879
1644531788.642,-110.840,381.836,-80.566,20.020
1644531788.646,-36.621,-287.598,-114.258,-7.324
1644531788.650,53.223,-259.277,-88.379,-62.988
1644531788.654,-9.766,356.445,-69.336,-52.246
1644531788.687,-109.375,166.504,-92.773,5.859
1644531788.691,-59.082,-460.938,-95.703,0.488
1644531788.695,32.715,-349.121,-87.891,-60.059
1644531788.699,14.648,269.531,-80.566,-54.199
1644531788.703,-92.285,54.688,-97.168,-6.348
1644531788.707,-101.074,-804.688,-112.793,-1.465
1644531788.711,9.277,-441.406,-77.148,-47.852
1644531788.714,34.668,335.449,-72.266,-69.824
1644531788.718,-68.848,147.949,-91.797,-28.809
1644531788.722,-109.375,-11.719,-82.031,12.695
1644531788.726,-16.113,284.180,-77.148,-20.996
1644531788.730,48.340,406.738,-83.984,-60.059
1644531788.714,-38.574,42.480,-91.797,-27.344
1644531788.718,-110.840,-2.930,-68.359,33.691
1644531788.722,-41.992,275.391,-69.824,-2.441
1644531788.726,49.805,44.434,-88.867,-79.102
1644531788.730,0.000,-297.363,-82.031,-60.547
1644531788.734,-108.398,-329.590,-75.195,-9.277
1644531788.738,-71.777,92.773,-64.453,-16.113
1644531788.741,38.574,253.418,-71.289,-62.500
1644531788.745,-10.254,-259.766,-114.746,-87.891
1644531788.749,-141.602,-16.602,-118.652,-62.500
1644531788.753,-140.137,393.066,-114.746,-45.410
1644531788.757,-28.320,77.148,-120.117,-81.055
1644531788.760,4.883,-666.016,-150.391,-108.398
1644531788.764,-105.469,-1000.000,-150.391,-75.195
1644531788.768,-162.109,-189.941,-120.117,-42.480
1644531788.772,-61.035,201.172,-134.766,-71.777
1644531788.776,19.531,-504.395,-147.461,-104.492
1644531788.780,-72.754,-395.996,-120.605,-74.219
1644531788.784,-158.691,77.637,-102.539,-27.832
1644531788.787,-88.867,-46.387,-114.746,-48.340
1644531788.791,13.672,-756.836,-128.418,-97.656
1644531788.795,-25.391,-319.336,-95.703,-90.820
1644531788.799,-137.207,432.129,-83.984,-37.598
1644531788.803,-110.840,256.348,-105.469,-30.273
1644531788.805,17.090,214.844,-96.191,-67.383
1644531788.809,8.301,403.809,-91.309,-77.637
1644531788.813,-112.793,388.184,-99.609,-37.109
1644531788.817,-125.000,135.254,-99.121,-10.254
1644531788.821,-11.719,173.828,-92.773,-51.758
1644531788.825,30.762,68.359,-99.609,-87.402
1644531788.829,-77.148,-61.035,-98.145,-57.617
1644531788.832,-129.395,-378.418,-103.516,-1.465
1644531788.836,-38.574,-630.371,-85.938,-21.484
1644531788.840,44.434,129.883,-67.871,-67.871
1644531788.844,-21.973,342.285,-79.590,-36.621
1644531788.848,-104.004,-250.488,-75.684,19.043
1644531788.850,-49.805,62.012,-65.918,-2.930
1644531788.854,60.059,371.582,-76.172,-61.035
1644531788.858,33.203,-129.395,-80.078,-54.199
1644531788.862,-86.914,-605.469,-77.637,-2.930
1644531788.866,-76.660,-49.316,-60.547,1.465
1644531788.870,46.875,199.707,-61.523,-35.156
1644531788.874,70.801,-145.020,-71.289,-36.621
1644531788.877,-46.875,-280.273,-61.523,15.625
1644531788.881,-83.008,289.062,-51.758,33.203
1644531788.885,29.297,628.906,-70.801,-20.996
1644531788.889,86.914,145.020,-68.848,-39.062
1644531788.893,-0.488,-236.816,-24.414,9.277
1644531788.898,-62.012,294.922,-13.184,56.641
1644531788.902,11.230,544.434,-33.203,28.320
1644531788.906,99.609,16.602,-47.363,-19.043
1644531788.910,47.852,-152.832,-28.809,7.324
1644531788.914,-58.594,276.367,-14.160,60.059
1644531788.918,-21.973,165.039,-41.992,32.715
1644531788.922,91.309,-452.637,-54.688,-20.996
1644531788.925,79.102,-500.000,-14.648,-14.160
1644531788.929,-39.062,259.766,1.465,34.668
1644531788.933,-34.668,383.789,-19.043,40.527
1644531788.937,83.984,22.461,-19.043,-15.137
1644531788.941,93.750,152.344,-13.184,-46.875
1644531788.941,-27.832,323.730,-24.902,1.953
1644531788.945,-68.848,32.715,-51.270,37.598
1644531788.949,20.508,-547.852,-59.570,-17.578
1644531788.953,81.055,-331.055,-27.832,-58.594
1644531788.957,-3.906,142.578,-20.508,-17.578
1644531788.961,-71.777,-148.438,-41.992,31.738
1644531788.965,13.672,-913.574,-41.504,23.926
1644531788.968,87.402,-899.902,-10.254,-26.855
1644531788.972,17.090,37.109,2.930,-23.438
1644531788.976,-92.773,246.582,-22.949,25.391
1644531788.980,-62.500,143.066,-42.969,8.301
1644531788.984,56.641,357.422,-54.688,-52.734
1644531788.986,53.223,369.629,-61.035,-60.547
1644531788.990,-60.547,92.285,-61.035,3.906
1644531788.994,-77.637,168.945,-47.852,27.832
1644531788.998,38.574,277.344,-53.711,-25.879
1644531789.002,82.031,51.270,-60.059,-49.805
1644531789.006,-35.156,-504.395,-70.312,-4.395
1644531789.010,-86.426,-847.656,-64.941,31.738
1644531789.013,21.973,52.734,-46.387,-15.625
1644531789.017,80.566,338.379,-63.965,-62.500
1644531789.021,-9.766,-42.480,-68.359,-40.039
1644531789.025,-86.914,231.934,-54.688,24.414
1644531789.029,-31.250,473.633,-65.918,9.277
1644531789.049,68.359,296.387,-71.777,-46.387
1644531789.053,13.672,-145.508,-73.242,-36.621
1644531789.057,-108.887,-173.828,-67.383,5.371
1644531789.061,-77.637,275.391,-61.523,5.859
1644531789.065,44.922,234.863,-77.148,-35.645
1644531789.069,48.340,-717.285,-81.543,-29.785
1644531789.073,-60.547,-616.699,-40.527,20.020
1644531789.076,-88.867,166.992,-24.902,33.691
1644531789.080,12.207,97.656,-42.480,-16.113
1644531789.084,55.176,-285.156,-35.156,-50.293
1644531789.088,-38.086,130.371,-19.043,-11.719
1644531789.092,-87.891,431.641,-25.391,34.668
1644531789.090,-6.836,99.609,-48.828,-2.441
1644531789.094,66.406,-44.922,-47.852,-54.688
1644531789.098,-9.277,214.844,-39.062,-34.668
1644531789.102,-100.586,334.473,-42.480,22.461
1644531789.106,-37.598,63.965,-51.758,17.578
1644531789.110,65.430,-164.062,-50.781,-36.133
1644531789.114,30.273,40.527,-46.387,-43.457
1644531789.117,-73.242,336.426,-46.387,14.648
1644531789.121,-59.570,-303.223,-73.242,30.762
1644531789.125,41.016,-631.836,-60.547,-40.039
1644531789.129,34.668,224.609,-35.645,-68.359
1644531789.133,-80.078,311.523,-54.688,-13.672
1644531789.135,-94.727,-263.184,-55.176,16.113
1644531789.139,19.043,-74.707,-43.457,-35.156
1644531789.143,74.707,77.637,-47.852,-68.848
1644531789.147,-16.113,-159.180,-45.898,-31.738
1644531789.151,-98.633,-536.621,-50.781,12.207
1644531789.155,-20.508,-306.641,-47.363,-20.508
1644531789.159,66.406,32.227,-53.223,-67.871
1644531789.162,-6.836,-66.406,-72.266,-51.758
1644531789.166,-105.957,-633.301,-72.266,-2.441
1644531789.170,-54.688,-64.453,-51.270,-16.602
1644531789.174,53.223,408.691,-66.406,-74.707
1644531789.178,18.555,-138.672,-70.801,-78.125
1644531789.195,-103.027,-232.422,-48.340,-28.809
1644531789.199,-94.238,212.402,-44.434,-9.277
1644531789.203,29.785,350.586,-48.340,-50.293
1644531789.207,46.875,-99.609,-50.293,-62.988
1644531789.211,-75.195,-245.605,-55.176,-23.926
1644531789.215,-119.629,-51.270,-68.848,3.418
1644531789.219,-14.160,-70.801,-67.871,-34.180
1644531789.222,60.547,-436.523,-66.895,-68.848
1644531789.226,-31.738,-509.277,-43.945,-40.527
1644531789.230,-99.609,254.395,-28.809,7.812
1644531789.234,-22.949,367.676,-47.852,-12.207
1644531789.238,58.594,-9.277,-46.875,-69.824
1644531789.226,-6.836,170.898,-29.297,-63.965
1644531789.230,-111.328,291.504,-35.156,-7.812
1644531789.234,-65.918,-106.445,-49.316,-16.602
1644531789.238,39.062,-745.605,-54.688,-67.383
1644531789.242,16.602,-354.004,-32.715,-61.035
1644531789.246,-91.797,125.488,-30.762,2.930
1644531789.250,-85.449,-99.121,-29.297,24.414
1644531789.253,40.527,-53.223,-16.602,-33.203
1644531789.257,55.176,272.949,-14.648,-54.688
1644531789.261,-59.082,495.117,-10.254,-5.859
1644531789.265,-94.727,154.785,-26.367,29.297
1644531789.269,-5.371,-591.797,-24.902,-13.184
1644531789.271,54.199,33.691,1.953,-52.246
1644531789.275,-24.902,429.688,-13.672,-17.090
1644531789.279,-101.562,81.543,-18.066,32.715
1644531789.283,-32.227,186.523,-8.301,8.301
1644531789.287,71.777,262.695,-24.902,-36.133
1644531789.291,30.762,62.500,-32.715,-21.484
1644531789.295,-82.031,-491.211,-50.781,19.043
1644531789.298,-69.824,-811.035,-41.016,8.789
1644531789.302,44.434,55.664,-20.020,-45.410
1644531789.306,45.898,264.160,-35.156,-50.781
1644531789.310,-66.895,-51.270,-34.668,3.418
1644531789.314,-78.613,242.188,-34.180,16.602
1644531789.315,26.855,501.953,-52.734,-27.832
1644531789.319,55.664,261.230,-62.500,-50.293
1644531789.323,-52.734,-269.043,-58.105,-15.137
1644531789.327,-94.727,70.801,-41.504,30.762
1644531789.331,2.930,443.359,-49.805,0.977
1644531789.335,59.570,-0.977,-79.102,-50.781
1644531789.339,-29.785,-802.246,-89.844,-31.250
1644531789.342,-120.605,-513.184,-58.105,12.695
1644531789.346,-58.594,213.379,-57.617,-22.949
1644531789.350,56.152,128.906,-70.801,-70.801
1644531789.354,23.438,-169.434,-40.039,-50.293
1644531789.358,-96.191,218.262,-26.855,0.000
1644531789.361,-80.078,414.062,-40.527,7.324
1644531789.365,37.598,95.215,-60.547,-46.875
1644531789.369,41.504,60.059,-58.594,-59.570
1644531789.373,-75.195,285.645,-53.711,-0.488
1644531789.377,-98.145,283.203,-62.988,25.391
1644531789.381,15.625,-193.848,-68.848,-27.832
1644531789.385,63.477,-376.953,-62.012,-71.777
1644531789.388,-55.176,73.242,-51.758,-49.805
1644531789.392,-129.395,298.340,-62.500,-5.371
1644531789.396,-41.504,-260.254,-84.473,-39.551
1644531789.400,39.551,-382.324,-72.266,-85.449
1644531789.404,-27.344,99.609,-50.293,-51.270
1644531789.420,-112.305,235.352,-59.570,9.766
1644531789.424,-46.387,-615.234,-84.961,-1.953
1644531789.428,52.246,-854.980,-49.805,-67.383
1644531789.432,10.254,116.211,-31.250,-70.801
1644531789.436,-89.844,189.453,-61.035,-3.418
1644531789.440,-87.891,-635.254,-69.336,5.371
1644531789.444,18.066,-351.562,-44.434,-50.293
1644531789.447,39.062,324.707,-41.992,-64.453
1644531789.451,-68.359,60.059,-52.734,-21.973
1644531789.455,-97.168,-417.480,-41.992,14.160
1644531789.459,5.859,147.949,-47.363,-31.250
1644531789.463,61.035,455.078,-50.781,-76.660
1644531789.465,-38.574,19.531,-49.316,-39.062
1644531789.469,-111.816,-49.316,-41.992,9.277
1644531789.473,-36.621,319.336,-43.457,-26.855
1644531789.477,47.852,389.160,-60.547,-68.848
1644531789.481,-9.766,-157.715,-80.078,-49.316
1644531789.485,-98.633,-463.867,-63.965,6.348
1644531789.489,-61.523,-39.062,-48.828,-0.488
1644531789.492,32.715,303.711,-71.777,-67.383
1644531789.496,10.742,-320.312,-99.121,-60.059
1644531789.500,-102.051,-479.004,-71.777,-7.324
1644531789.504,-94.238,321.289,-57.617,-3.906
1644531789.508,31.250,314.453,-78.125,-45.898
1644531789.510,55.176,-25.879,-68.848,-59.570
1644531789.514,-59.570,71.777,-52.246,-15.625
1644531789.518,-102.539,6.836,-51.758,21.484
1644531789.522,-2.441,-186.523,-62.012,-22.949
1644531789.526,54.688,-735.840,-75.684,-66.895
1644531789.530,-39.062,-722.168,-59.082,-51.270
1644531789.534,-114.746,109.863,-48.828,-18.066
1644531789.537,-38.574,132.812,-78.613,-30.762
1644531789.541,56.152,-661.133,-84.473,-62.988
1644531789.545,11.719,-84.473,-53.223,-54.688
1644531789.549,-96.680,521.973,-64.453,-8.789
1644531789.553,-81.055,224.121,-90.332,-11.230
1644531789.554,25.879,141.113,-86.914,-70.312
1644531789.558,7.812,364.746,-71.777,-69.824
1644531789.562,-104.492,378.418,-68.359,-13.672
1644531789.566,-99.121,150.391,-64.453,5.371
1644531789.570,14.648,151.855,-52.734,-42.969
1644531789.574,41.504,-35.645,-50.781,-76.660
1644531789.578,-67.383,-114.258,-43.945,-46.875
1644531789.581,-121.582,-452.637,-54.688,-9.766
1644531789.585,-53.711,-808.105,-43.457,-50.293
1644531789.589,12.695,66.895,-20.020,-89.844
1644531789.593,-41.016,303.711,-29.785,-40.039
1644531789.597,-129.395,17.578,-37.598,-10.254
1644531789.599,-91.797,333.496,-51.758,-70.312
1644531789.603,4.883,423.828,-66.895,-131.836
1644531789.607,-35.645,-106.934,-76.172,-126.465
1644531789.611,-184.082,-635.254,-64.941,-85.449
1644531789.615,-184.082,-45.898,-50.293,-104.004
1644531789.619,-68.848,182.129,-77.637,-166.992
1644531789.623,-76.660,-224.121,-86.426,-178.711
1644531789.626,-184.082,-712.402,-77.148,-123.535
1644531789.630,-187.988,-302.246,-62.012,-93.262
1644531789.634,-82.031,314.941,-81.543,-148.438
1644531789.638,-45.898,76.660,-91.309,-174.805
1644531789.642,-142.090,-147.949,-55.176,-124.023
1644531789.645,-176.758,320.801,-42.480,-65.918
1644531789.649,-78.125,472.656,-62.012,-83.496
1644531789.653,3.418,102.051,-76.172,-119.141
1644531789.657,-54.688,93.262,-69.824,-90.820
1644531789.661,-140.625,305.176,-73.242,-36.621
1644531789.665,-82.031,-2.930,-96.680,-47.852
1644531789.669,22.461,-574.707,-112.793,-88.379
1644531789.672,-11.719,-563.965,-91.309,-81.543
1644531789.676,-108.887,188.477,-77.637,-27.344
1644531789.680,-74.707,344.238,-93.262,2.441
1644531789.684,57.617,-99.609,-95.703,-35.645
1644531789.688,69.824,-227.051,-81.543,-46.387
1644531789.690,-42.480,150.391,-62.988,13.184
1644531789.694,-75.195,255.371,-84.473,42.480
1644531789.698,44.434,-660.156,-118.164,8.789
1644531789.702,110.352,-509.766,-82.520,-10.742
1644531789.706,16.602,300.781,-68.359,32.227
1644531789.710,-35.645,-2.930,-83.496,88.379
1644531789.714,47.363,-730.469,-81.055,54.688
1644531789.717,120.117,-168.945,-68.359,-5.371
1644531789.721,58.594,362.305,-78.613,13.672
1644531789.725,-18.066,178.711,-71.289,78.613
1644531789.729,22.949,212.891,-64.453,72.266
1644531789.733,105.957,364.746,-81.543,10.742
1644531789.738,85.449,346.680,-87.891,8.789
1644531789.742,-20.508,0.000,-80.566,73.242
1644531789.746,-23.438,9.277,-70.312,84.473
1644531789.750,84.961,318.848,-68.848,26.367
1644531789.754,113.770,342.773,-71.777,7.812
1644531789.758,5.859,-323.730,-76.660,57.617
1644531789.762,-35.156,-563.965,-61.523,74.707
1644531789.765,76.172,200.195,-49.805,24.902
1644531789.769,133.789,323.730,-69.824,-5.859
1644531789.773,44.922,-317.383,-79.102,31.250
1644531789.777,-31.250,-108.398,-52.734,80.078
1644531789.781,44.434,384.277,-42.480,62.012
1644531789.795,137.207,245.605,-51.270,6.348
1644531789.799,75.195,-115.234,-47.852,3.418
1644531789.803,-33.203,-171.387,-39.551,51.270
1644531789.807,3.418,136.230,-34.180,41.992
1644531789.811,108.887,-47.363,-40.527,-8.789
1644531789.815,89.355,-873.047,-57.129,-5.859
1644531789.819,-31.250,-961.426,-32.227,41.992
1644531789.822,-40.039,47.852,-4.395,60.547
1644531789.826,62.012,226.074,-25.391,12.695
1644531789.830,78.125,71.289,-37.598,-27.344
1644531789.834,-25.391,326.660,-21.973,17.578
1644531789.838,-68.359,428.223,-16.602,71.289
1644531789.840,21.973,150.879,-41.016,28.320
1644531789.844,91.797,9.277,-23.926,-19.531
1644531789.848,9.766,228.027,-12.207,2.930
1644531789.852,-71.289,316.895,-34.180,54.199
1644531789.856,-0.488,38.086,-46.875,47.363
1644531789.860,97.656,-228.516,-36.133,-11.719
1644531789.864,49.805,-266.113,-22.949,-18.066
1644531789.867,-52.246,-75.195,-19.531,27.832
1644531789.871,-22.461,-418.457,-36.621,29.297
1644531789.875,82.520,-870.605,-19.531,-19.531
1644531789.879,79.102,-9.277,7.324,-23.926
1644531789.883,-35.156,311.035,-14.648,29.297
1644531789.885,-61.035,107.422,-24.414,48.828
1644531789.889,33.691,219.238,-39.551,-19.043
1644531789.893,74.707,90.820,-54.199,-59.570
1644531789.897,-18.555,-157.227,-36.133,-0.977
1644531789.901,-78.125,-533.691,-31.738,42.480
1644531789.905,2.441,-341.309,-28.320,5.859
1644531789.909,67.383,103.516,-33.203,-37.598
1644531789.912,-0.488,62.012,-49.805,-14.160
1644531789.916,-88.867,-625.488,-57.129,33.691
1644531789.920,-43.945,-282.227,-48.828,0.488
1644531789.924,57.617,333.008,-44.922,-51.270
1644531789.928,29.297,75.195,-51.758,-38.574
1644531789.929,-82.031,-99.121,-42.969,17.578
1644531789.933,-69.824,306.641,-33.691,24.902
1644531789.937,43.457,401.367,-42.969,-24.902
1644531789.941,54.199,103.516,-51.270,-46.875
1644531789.945,-51.758,125.977,-40.039,3.418
1644531789.949,-80.566,126.953,-51.270,33.203
1644531789.953,8.789,-13.184,-58.105,-20.508
1644531789.956,56.641,-389.648,-64.453,-51.270
1644531789.960,-12.207,-443.359,-55.664,-9.277
1644531789.964,-56.152,345.215,-42.969,62.500
1644531789.968,4.395,413.574,-47.363,24.414
1644531789.972,64.941,-127.441,-50.781,-63.965
1644531789.975,-2.441,-106.445,-39.551,-49.316
1644531789.979,-97.168,303.711,-40.039,10.254
1644531789.983,-43.945,56.641,-59.570,5.859
1644531789.987,60.059,-708.008,-58.594,-44.922
1644531789.991,27.344,-457.031,-30.273,-53.223
1644531789.995,-73.730,62.500,-23.926,0.000
1644531789.999,-88.379,-91.797,-43.457,18.066
1644531790.002,15.625,-629.395,-60.059,-31.250
1644531790.006,43.945,-123.535,-40.039,-59.082
1644531790.010,-63.965,436.523,-32.715,-12.695
1644531790.014,-100.586,234.375,-41.992,22.949
1644531790.018,-10.254,105.957,-48.828,-17.578
1644531790.035,45.410,291.992,-47.363,-53.711
1644531790.039,-31.250,345.215,-44.922,-24.414
1644531790.043,-91.797,1.465,-41.504,29.785
1644531790.047,-19.531,15.137,-28.320,-0.977
1644531790.051,60.059,282.715,-30.273,-55.176
1644531790.055,10.254,103.516,-33.203,-28.320
1644531790.059,-85.938,-440.430,-48.340,32.227
1644531790.062,-45.410,-579.590,-38.574,19.531
1644531790.066,74.707,282.227,-25.391,-38.086
1644531790.070,48.828,440.430,-47.363,-45.410
1644531790.074,-74.707,-138.184,-56.641,1.953
1644531790.078,-94.238,116.211,-48.828,20.996
1644531790.064,7.812,518.555,-45.410,-37.598
1644531790.068,38.574,271.484,-63.477,-64.941
1644531790.072,-71.289,-249.023,-56.641,-7.812
1644531790.076,-103.027,87.402,-23.926,27.832
1644531790.080,4.395,380.859,-38.574,-18.555
1644531790.084,63.965,-88.379,-56.152,-57.617
1644531790.088,-24.414,-543.945,-56.152,-24.414
1644531790.091,-105.469,-163.086,-30.273,27.344
1644531790.095,-40.039,352.539,-26.367,5.371
1644531790.099,54.688,59.082,-55.176,-35.156
1644531790.103,6.836,-883.301,-64.453,-16.113
1644531790.107,-104.492,-593.262,-33.203,28.320
1644531790.111,-68.359,336.914,-43.457,15.137
1644531790.115,47.852,130.371,-66.895,-44.434
1644531790.119,42.969,-26.855,-54.199,-59.570
1644531790.123,-73.730,253.906,-42.969,-22.949
1644531790.127,-86.426,381.348,-51.270,0.488
1644531790.131,17.578,-129.395,-76.660,-42.480
1644531790.135,44.434,-347.656,-63.477,-75.195
1644531790.138,-53.711,-20.996,-56.641,-29.297
1644531790.142,-109.863,54.688,-75.684,21.973
1644531790.146,-28.809,-461.914,-96.680,-9.766
1644531790.150,42.480,-572.266,-63.965,-60.547
1644531790.154,-23.926,206.543,-47.852,-31.738
1644531790.170,-100.586,350.586,-58.105,32.715
1644531790.174,-42.480,-31.250,-68.848,5.371
1644531790.178,49.805,-155.762,-83.984,-64.453
1644531790.182,1.953,223.633,-75.684,-62.500
1644531790.186,-93.750,98.145,-85.938,1.465
1644531790.190,-63.477,-760.254,-99.609,5.859
1644531790.194,30.762,-497.070,-63.965,-58.105
1644531790.197,31.738,284.668,-48.340,-59.570
1644531790.201,-64.941,89.355,-57.617,-3.906
1644531790.205,-80.078,-225.586,-45.898,24.414
1644531790.209,25.391,-76.660,-45.898,-20.508
1644531790.213,59.570,178.711,-48.340,-64.941
1644531790.215,-36.621,92.285,-59.570,-38.086
1644531790.219,-90.820,46.875,-51.758,6.836
1644531790.223,-9.766,338.867,-47.852,-11.230
1644531790.227,65.918,358.398,-59.570,-54.688
1644531790.231,0.977,-0.977,-62.012,-41.504
1644531790.235,-95.703,-170.898,-41.504,4.883
1644531790.239,-55.176,-5.371,-34.180,-3.906
1644531790.242,47.852,212.402,-46.875,-55.176
1644531790.246,16.113,-279.297,-52.734,-49.316
1644531790.250,-100.098,-413.086,-27.344,8.301
1644531790.254,-83.984,366.699,-37.109,9.766
1644531790.258,33.203,338.379,-58.105,-39.551
1644531790.275,47.852,-103.516,-50.293,-47.852
1644531790.279,-64.941,-198.730,-48.340,-7.324
1644531790.283,-99.121,28.320,-45.898,17.578
1644531790.287,10.742,150.391,-52.734,-24.902
1644531790.291,58.105,-634.277,-65.430,-59.082
1644531790.295,-56.641,-716.309,-31.738,-34.180
1644531790.299,-133.789,130.371,-30.273,1.465
1644531790.302,-56.152,190.918,-63.965,-25.879
1644531790.306,34.180,-616.211,-62.988,-72.754
1644531790.310,-14.160,-135.254,-40.039,-60.547
1644531790.314,-95.215,495.605,-42.480,-5.371
1644531790.318,-60.059,260.254,-59.082,-11.719
1644531790.306,39.551,173.340,-59.082,-72.754
1644531790.310,32.227,327.637,-50.781,-81.543
1644531790.314,-83.008,351.562,-49.316,-22.949
1644531790.318,-87.402,43.945,-55.664,-2.930
1644531790.322,17.090,-0.488,-51.758,-53.223
1644531790.326,47.363,-20.508,-39.062,-47.852
1644531790.330,-48.828,-157.227,-32.715,2.441
1644531790.333,-93.750,-225.098,-45.898,17.090
1644531790.337,-1.465,31.738,-41.504,-28.809
1644531790.341,66.406,350.586,-35.645,-73.730
1644531790.345,-11.719,299.805,-37.109,-46.387
1644531790.349,-91.797,-443.359,-39.551,19.043
1644531790.349,-10.254,-541.504,-14.160,17.090
1644531790.353,87.402,166.992,-23.438,-49.805
1644531790.357,21.973,-107.422,-44.434,-60.547
1644531790.361,-100.098,-244.141,-27.832,-14.160
1644531790.365,-75.195,227.051,-20.508,-8.301
1644531790.369,41.016,76.660,-37.109,-56.152
1644531790.373,35.156,-180.176,-43.945,-69.336
1644531790.376,-78.125,-842.285,-54.688,-19.043
1644531790.380,-80.566,-899.902,-36.621,-3.906
1644531790.384,32.227,102.539,-22.461,-46.387
1644531790.388,58.105,162.598,-42.969,-71.289
1644531790.392,-49.316,91.797,-43.945,-38.574
1644531790.395,-98.633,450.684,-58.105,-2.930
1644531790.399,-4.395,463.867,-69.824,-40.039
1644531790.403,74.219,172.363,-70.801,-58.594
1644531790.407,11.719,264.648,-54.199,-20.508
1644531790.411,-66.895,572.266,-56.641,19.043
1644531790.415,-11.719,348.145,-73.730,0.488
1644531790.419,66.406,-344.727,-84.961,-44.922
1644531790.422,13.184,-613.770,-63.477,-49.805
1644531790.426,-82.031,99.609,-40.527,0.488
1644531790.430,-58.594,185.547,-55.664,11.719
1644531790.434,40.039,-324.707,-67.871,-41.016
1644531790.438,43.945,-124.023,-41.992,-54.688
1644531790.440,-66.895,448.730,-38.086,-17.090
1644531790.444,-101.562,271.484,-71.289,1.465
1644531790.448,-3.418,-345.703,-73.730,-43.457
1644531790.452,43.945,-20.020,-49.316,-72.266
1644531790.456,-42.969,334.961,-48.828,-36.133
1644531790.460,-106.934,-83.008,-73.730,4.395
1644531790.464,-42.480,-839.844,-82.520,-28.809
1644531790.467,31.250,-469.238,-42.969,-80.566
1644531790.471,-27.832,252.441,-41.016,-55.176
1644531790.475,-98.633,205.566,-47.852,12.207
1644531790.479,-51.270,88.379,-52.246,0.000
1644531790.483,43.457,17.090,-61.523,-54.688
1644531790.503,14.648,195.801,-54.688,-46.387
1644531790.507,-92.773,79.590,-51.758,2.441
1644531790.511,-83.008,-73.242,-43.945,12.695
1644531790.515,24.414,222.656,-56.152,-48.340
1644531790.519,35.156,304.688,-68.848,-71.777
1644531790.523,-72.754,-221.680,-79.590,-13.184
1644531790.527,-103.516,-305.664,-73.730,12.695
1644531790.530,-7.324,284.668,-68.359,-43.945
1644531790.534,54.688,249.512,-73.730,-66.895
1644531790.538,-40.527,-320.801,-78.125,-25.391
1644531790.542,-107.910,-51.270,-58.594,7.812
1644531790.546,-24.414,426.270,-57.129,-21.484
1644531790.545,39.551,207.520,-68.848,-61.035
1644531790.549,-19.043,-180.176,-62.012,-42.480
1644531790.553,-101.562,-219.727,-54.688,4.883
1644531790.557,-73.242,13.672,-64.453,-10.742
1644531790.561,27.832,49.316,-81.055,-75.684
1644531790.565,15.625,-444.824,-80.078,-76.172
1644531790.569,-95.703,-258.301,-60.059,-14.648
1644531790.572,-96.191,361.328,-63.477,-4.395
1644531790.576,17.578,192.871,-78.125,-62.012
1644531790.580,38.574,-841.309,-83.496,-68.848
1644531790.584,-69.824,-842.773,-44.434,-26.367
1644531790.588,-109.863,201.172,-26.367,-2.930
1644531790.589,-15.137,252.930,-62.988,-47.852
1644531790.593,41.992,120.605,-60.059,-82.031
1644531790.597,-36.621,351.562,-55.176,-39.551
1644531790.601,-105.957,433.105,-77.637,14.160
1644531790.605,-48.340,16.113,-88.379,-18.555
1644531790.609,46.875,-307.617,-77.637,-77.148
1644531790.613,11.719,-140.137,-58.105,-53.711
1644531790.616,-92.285,307.129,-57.129,1.465
1644531790.620,-69.336,-230.469,-87.402,9.766
1644531790.624,36.621,-625.488,-63.965,-46.875
1644531790.628,23.438,237.305,-39.062,-62.988
1644531790.632,-80.078,337.891,-54.199,-0.488
1644531790.650,-53.223,95.703,-45.898,43.945
1644531790.654,59.082,218.750,-38.574,-3.418
1644531790.658,42.969,164.551,-51.758,-71.289
1644531790.662,-73.242,-24.414,-53.711,-45.410
1644531790.666,-116.211,-416.504,-56.641,-6.836
1644531790.670,-36.621,-231.934,-61.035,-50.781
1644531790.674,17.578,20.508,-58.594,-90.820
1644531790.677,-73.242,-173.828,-59.082,-81.055
1644531790.681,-137.695,-714.355,-57.129,-22.461
1644531790.685,-68.359,-172.363,-39.062,-46.875
1644531790.689,31.738,516.602,-54.199,-109.375
1644531790.693,-3.906,106.934,-73.242,-86.914
1644531790.679,-116.211,-35.645,-63.477,-28.809
1644531790.683,-90.332,443.848,-65.918,-27.832
1644531790.687,16.113,479.980,-77.148,-84.473
1644531790.691,13.672,96.680,-69.824,-76.172
1644531790.695,-84.961,68.848,-47.852,-22.949
1644531790.699,-114.258,93.750,-55.664,-22.461
1644531790.703,-12.695,-108.887,-68.359,-66.406
1644531790.706,26.367,-342.773,-66.895,-78.125
1644531790.710,-69.336,-88.867,-50.781,-34.668
1644531790.714,-113.770,170.898,-55.664,11.719
1644531790.718,-18.555,49.316,-55.176,-17.090
1644531790.722,61.523,-547.363,-65.918,-61.035
1644531790.725,-6.836,-692.871,-51.270,-42.969
1644531790.729,-82.031,159.668,-40.039,10.742
1644531790.733,-36.621,29.297,-63.965,1.465
1644531790.737,58.105,-588.379,-74.707,-50.781
1644531790.741,16.113,-125.488,-66.895,-51.758
1644531790.745,-99.609,230.469,-75.195,4.395
1644531790.749,-80.078,-103.027,-93.262,18.555
1644531790.752,32.715,-657.715,-84.473,-32.715
1644531790.756,51.270,-97.168,-52.734,-54.688
1644531790.760,-52.246,477.539,-52.246,-7.324
1644531790.764,-68.848,280.273,-61.523,29.785
1644531790.768,29.785,135.254,-66.895,-23.438
1644531790.772,62.988,18.555,-72.754,-70.312
1644531790.776,-41.504,234.375,-70.801,-39.062
1644531790.780,-105.957,132.812,-80.566,9.766
1644531790.784,-23.926,-55.176,-67.383,-23.926
1644531790.788,46.387,189.453,-73.242,-83.984
1644531790.792,-0.977,41.992,-86.426,-59.570
1644531790.796,-85.449,-420.898,-76.660,15.137
1644531790.799,-60.547,-436.035,-42.969,3.906
1644531790.803,41.016,259.277,-34.668,-52.734
1644531790.807,28.320,295.410,-48.340,-44.922
1644531790.811,-83.984,24.902,-46.387,-0.977
1644531790.815,-74.707,289.062,-48.340,11.230
1644531790.829,34.668,468.262,-59.570,-47.852
1644531790.833,47.363,232.422,-76.172,-72.266
1644531790.837,-56.152,-283.691,-84.961,-19.043
1644531790.841,-80.566,-188.965,-65.918,20.508
1644531790.845,7.812,258.301,-59.082,-26.367
1644531790.849,55.664,-10.254,-71.289,-74.707
1644531790.853,-20.996,-822.754,-74.219,-47.363
1644531790.856,-90.820,-359.863,-44.434,-5.371
1644531790.860,-24.414,450.195,-46.387,-24.414
1644531790.864,62.988,122.559,-74.219,-62.988
1644531790.868,5.371,-515.625,-60.059,-42.969
1644531790.872,-100.586,-13.184,-42.969,5.371
1644531790.861,-68.359,459.473,-53.711,0.977
1644531790.865,42.480,141.602,-66.895,-54.688
1644531790.869,26.367,89.355,-56.641,-54.688
1644531790.873,-83.984,348.145,-39.062,6.348
1644531790.877,-90.820,330.078,-57.129,23.926
1644531790.881,12.695,-121.094,-81.543,-27.832
1644531790.885,30.762,-372.070,-66.895,-62.012
1644531790.888,-72.266,-88.379,-47.363,-14.648
1644531790.892,-107.422,374.512,-54.688,14.648
1644531790.896,-0.977,-319.336,-84.473,-37.109
1644531790.900,59.570,-805.664,-67.871,-79.102
1644531790.904,-25.879,96.680,-44.922,-46.387
1644531790.920,-90.820,394.531,-50.781,15.625
1644531790.924,-12.695,13.184,-52.246,0.000
1644531790.928,72.754,-227.539,-60.547,-49.805
1644531790.932,19.531,137.207,-47.852,-40.527
1644531790.936,-77.637,270.996,-45.898,18.066
1644531790.940,-52.246,-684.570,-68.848,29.785
1644531790.944,56.641,-547.363,-41.504,-30.273
1644531790.947,48.828,239.746,-34.668,-49.805
1644531790.951,-64.941,-88.867,-62.988,4.883
1644531790.955,-79.590,-652.344,-66.895,27.344
1644531790.959,20.996,-18.555,-44.434,-26.855
1644531790.963,60.547,438.477,-42.969,-48.340
1644531790.965,-40.527,91.797,-53.711,0.488
1644531790.969,-95.703,183.105,-47.852,38.086
1644531790.973,-7.324,424.316,-53.711,-8.301
1644531790.977,60.547,349.121,-65.430,-61.035
1644531790.981,-11.230,14.648,-61.035,-27.832
1644531790.985,-84.473,-146.484,-53.711,35.156
1644531790.989,-36.621,-28.320,-65.918,7.324
1644531790.992,60.059,207.031,-65.430,-59.082
1644531790.996,34.180,-294.434,-72.754,-48.828
1644531791.000,-80.078,-474.609,-64.941,5.859
1644531791.004,-72.266,97.168,-64.941,7.324
1644531791.008,30.273,129.395,-74.707,-44.922
1644531791.011,30.762,-322.266,-83.008,-57.617
1644531791.015,-84.961,-155.273,-66.895,-12.695
1644531791.019,-105.469,102.539,-63.477,16.113
1644531791.023,9.277,44.434,-72.754,-36.621
1644531791.027,52.246,-489.746,-85.449,-75.195
1644531791.031,-43.945,-457.520,-62.012,-33.203
1644531791.035,-94.727,168.457,-41.992,13.184
1644531791.038,-22.949,121.582,-75.195,-16.602
1644531791.042,49.805,-648.438,-91.797,-62.500
1644531791.046,-5.371,-148.438,-59.570,-38.574
1644531791.050,-97.168,474.121,-57.129,23.438
1644531791.054,-52.246,243.164,-76.660,8.789
1644531791.055,49.805,52.246,-78.125,-58.105
1644531791.059,26.855,43.945,-66.895,-68.359
1644531791.063,-76.172,286.621,-54.199,-23.926
1644531791.067,-77.148,114.746,-73.242,-23.438
1644531791.071,20.996,-26.367,-76.660,-74.707
1644531791.075,39.551,-46.875,-66.406,-80.078
1644531791.079,-67.871,-45.410,-60.059,-31.250
1644531791.082,-99.609,-337.402,-64.941,2.930
1644531791.086,4.395,-538.574,-44.922,-35.645
1644531791.090,66.406,222.168,-25.879,-74.707
1644531791.094,-21.973,324.219,-37.109,-36.621
1644531791.098,-86.426,-239.258,-36.133,31.250
1644531791.100,-7.324,110.352,-26.855,8.301
1644531791.104,89.844,480.469,-35.645,-33.203
1644531791.108,23.438,-91.309,-45.898,-13.672
1644531791.112,-89.844,-674.805,-43.457,20.508
1644531791.116,-58.105,-174.805,-20.020,7.324
1644531791.120,47.852,193.359,-21.484,-44.434
1644531791.124,29.785,-139.160,-21.973,-49.316
1644531791.127,-92.285,-707.520,-34.668,-3.418
1644531791.131,-91.797,-158.691,-25.879,6.836
1644531791.135,23.926,550.293,-32.715,-44.922
1644531791.139,43.457,232.422,-54.199,-65.430
1644531791.143,-62.500,143.555,-47.363,-21.484
1644531791.161,-111.816,404.785,-54.688,6.348
1644531791.165,-21.484,437.988,-58.594,-37.598
1644531791.169,55.176,100.586,-56.641,-73.730
1644531791.173,-33.203,80.078,-52.734,-41.992
1644531791.177,-115.234,315.430,-47.363,9.766
1644531791.181,-45.410,117.676,-54.199,-15.625
1644531791.185,41.504,-449.707,-67.383,-69.336
1644531791.188,-4.395,-865.723,-51.270,-50.781
1644531791.192,-100.098,-33.691,-23.438,-3.418
1644531791.196,-75.195,340.820,-46.387,-17.090
1644531791.200,21.484,-130.859,-63.965,-76.660
1644531791.204,13.184,31.738,-43.945,-79.590
1644531791.190,-79.590,352.051,-22.461,-7.812
1644531791.194,-83.496,253.418,-33.691,19.043
1644531791.198,17.578,-299.316,-60.059,-35.156
1644531791.202,63.477,-86.914,-38.574,-56.641
1644531791.206,-52.246,319.824,-31.250,-29.785
1644531791.210,-122.559,-70.801,-60.059,-2.930
1644531791.214,-29.785,-305.664,-50.781,-22.949
1644531791.217,31.250,133.789,-41.992,-63.477
1644531791.221,-37.598,162.598,-46.875,-31.250
1644531791.225,-100.098,-86.914,-41.016,33.203
1644531791.229,-52.734,-831.055,-66.895,1.953
1644531791.233,26.855,-642.090,-53.711,-71.777
1644531791.236,-7.324,245.117,-46.387,-61.035
1644531791.240,-115.723,135.742,-63.477,-8.301
1644531791.244,-95.215,171.387,-62.500,-15.625
1644531791.248,15.137,413.086,-65.430,-77.148
1644531791.252,13.184,379.883,-54.199,-86.914
1644531791.256,-102.539,-112.305,-56.152,-28.809
1644531791.260,-122.070,-214.355,-55.176,-6.836
1644531791.263,-9.766,273.438,-50.293,-60.059
1644531791.267,26.855,330.566,-60.547,-83.008
1644531791.271,-73.242,-349.121,-80.566,-38.086
1644531791.275,-122.070,-283.691,-59.570,-1.953
1644531791.279,-23.438,95.703,-52.246,-27.344
1644531791.295,45.898,-119.141,-75.684,-73.730
1644531791.299,-40.527,-524.902,-85.938,-50.293
1644531791.303,-120.605,-375.000,-76.660,9.766
1644531791.307,-56.641,252.441,-65.430,-7.812
1644531791.311,44.922,229.492,-83.496,-71.289
1644531791.315,2.930,-770.996,-108.887,-69.336
1644531791.319,-98.633,-530.762,-69.824,-14.648
1644531791.322,-82.520,476.074,-65.918,-0.977
1644531791.326,20.020,304.688,-90.332,-58.594
1644531791.330,32.227,83.496,-73.730,-73.730
1644531791.334,-75.684,331.543,-58.594,-19.531
1644531791.338,-102.051,487.793,-58.105,11.230
1644531791.341,-9.277,275.391,-85.938,-31.250
1644531791.345,40.039,29.297,-83.984,-75.684
1644531791.349,-61.035,23.926,-69.336,-59.570
1644531791.353,-134.277,339.844,-73.730,-18.555
1644531791.357,-48.828,65.918,-87.891,-36.621
1644531791.361,34.668,-425.781,-84.473,-83.984
1644531791.365,-20.996,-195.801,-65.430,-65.430
1644531791.368,-114.746,297.852,-69.336,-11.719
1644531791.372,-66.406,-186.035,-97.168,-21.484
1644531791.376,40.039,-425.293,-74.707,-65.918
1644531791.380,16.602,272.461,-61.035,-65.430
1644531791.384,-97.168,249.023,-78.613,-26.367
1644531791.385,-102.051,28.809,-81.055,-15.137
1644531791.389,15.625,104.004,-79.102,-65.430
1644531791.393,44.922,-40.527,-71.777,-82.031
1644531791.397,-71.777,-272.949,-70.801,-41.504
1644531791.401,-123.047,-737.305,-77.637,-13.184
1644531791.405,-21.973,-582.031,-58.594,-41.016
1644531791.409,42.969,-98.145,-47.363,-71.289
1644531791.412,-43.945,-39.551,-56.152,-40.039
1644531791.416,-117.188,-737.793,-66.406,22.461
1644531791.420,-44.922,-373.535,-44.434,-1.465
1644531791.424,56.152,378.418,-46.387,-57.129
1644531791.428,16.602,137.207,-61.523,-36.133
1644531791.430,-84.473,128.418,-47.363,19.043
1644531791.434,-52.246,347.656,-48.828,2.441
1644531791.438,57.617,346.191,-58.594,-60.547
1644531791.442,51.758,75.195,-44.434,-55.176
1644531791.446,-62.988,82.031,-29.297,-2.441
1644531791.450,-80.078,82.031,-49.316,0.977
1644531791.454,24.902,-63.965,-58.594,-49.805
1644531791.457,46.875,-453.125,-72.266,-62.012
1644531791.461,-60.059,-817.871,-60.547,-15.137
1644531791.465,-102.539,139.160,-36.133,14.648
1644531791.469,-10.742,464.355,-56.152,-13.184
1644531791.473,56.641,-42.480,-61.035,-47.363
1644531791.474,-23.438,174.316,-47.852,-25.879
1644531791.478,-107.910,424.805,-45.898,33.203
1644531791.482,-41.016,27.832,-66.895,9.766
1644531791.486,61.523,-576.172,-76.172,-39.062
1644531791.490,11.719,-196.777,-48.340,-30.273
1644531791.494,-96.680,140.137,-44.922,14.160
1644531791.498,-62.012,-135.742,-52.734,21.484
1644531791.501,49.805,-708.008,-63.965,-36.133
1644531791.505,44.434,-212.402,-57.129,-62.988
1644531791.509,-72.754,265.625,-69.824,-16.113
1644531791.513,-96.680,-85.938,-74.219,5.371
1644531791.517,15.137,-123.535,-62.988,-37.109
1644531791.520,56.152,313.477,-69.824,-58.594
1644531791.524,-50.293,438.965,-80.078,-25.391
1644531791.528,-99.609,154.297,-82.520,11.719
1644531791.532,-22.949,227.539,-77.148,-22.949
1644531791.536,31.738,397.949,-84.961,-73.242
1644531791.540,-44.922,147.461,-92.285,-67.871
1644531791.544,-120.605,-402.344,-92.285,-10.742
1644531791.547,-60.059,-495.605,-80.078,-20.508
1644531791.551,40.527,235.840,-73.242,-77.637
1644531791.555,6.836,295.898,-80.078,-68.359
1644531791.559,-101.562,-28.320,-83.008,-17.578
1644531791.563,-74.219,107.910,-78.613,-8.301
1644531791.566,40.039,110.840,-78.613,-54.199
1644531791.570,38.574,66.895,-85.938,-75.684
1644531791.574,-67.871,-592.285,-90.820,-21.973
1644531791.578,-92.285,-312.500,-59.082,13.184
1644531791.582,15.625,370.605,-59.082,-34.668
1644531791.586,74.707,-46.387,-73.730,-58.105
1644531791.590,-23.926,-792.480,-69.336,-14.160
1644531791.593,-101.562,-260.254,-42.480,9.277
1644531791.597,-23.926,415.039,-58.105,-25.879
1644531791.601,58.105,95.215,-81.543,-64.941
1644531791.605,-18.555,-12.207,-62.500,-43.457
1644531791.609,-114.258,277.344,-61.523,17.578
1644531791.611,-55.664,350.586,-74.219,7.812
1644531791.615,57.129,100.586,-80.078,-50.781
1644531791.619,31.250,-70.801,-66.895,-49.805
1644531791.623,-89.844,-25.879,-51.758,-5.859
1644531791.627,-93.750,305.664,-54.688,0.000
1644531791.631,20.020,-193.848,-78.613,-42.969
1644531791.635,33.691,-773.438,-57.617,-62.012
1644531791.638,-74.219,14.648,-35.645,-21.973
1644531791.642,-106.934,385.742,-55.664,6.348
1644531791.646,-9.277,-82.520,-75.195,-34.180
1644531791.650,47.852,31.738,-62.500,-70.801
1644531791.654,-36.621,332.520,-50.781,-40.527
1644531791.670,-103.516,264.648,-53.223,7.812
1644531791.674,-23.926,-131.348,-60.547,-16.113
1644531791.678,54.688,-285.156,-69.336,-77.148
1644531791.682,-15.625,142.090,-69.336,-73.242
1644531791.686,-105.469,38.574,-75.684,-10.742
1644531791.690,-74.707,-770.508,-96.191,-13.184
1644531791.694,26.855,-675.293,-75.195,-67.383
1644531791.697,19.531,53.711,-56.152,-66.895
1644531791.701,-89.355,95.215,-76.172,-1.465
1644531791.705,-88.867,-643.066,-81.543,25.391
1644531791.709,18.066,-144.043,-68.848,-41.504
1644531791.713,40.527,312.500,-69.336,-72.266
1644531791.714,-56.641,46.387,-60.059,-26.367
1644531791.718,-103.516,158.691,-50.293,0.977
1644531791.722,-23.926,346.191,-56.641,-43.945
1644531791.726,35.645,341.309,-64.453,-80.566
1644531791.730,-50.293,42.969,-77.637,-52.734
1644531791.734,-133.789,-156.250,-73.242,-7.324
1644531791.738,-67.383,-83.984,-58.594,-24.414
1644531791.741,30.273,155.273,-58.594,-78.125
1644531791.745,-8.789,-395.020,-87.891,-76.172
1644531791.749,-118.652,-834.473,-72.754,-24.902
1644531791.753,-101.074,121.094,-57.617,-21.484
1644531791.757,12.695,337.402,-77.637,-71.289
1644531791.760,9.277,-52.246,-62.500,-80.566
1644531791.764,-107.910,52.246,-59.570,-26.855
1644531791.768,-130.859,120.117,-73.730,-16.602
1644531791.772,-9.277,133.789,-72.754,-61.035
1644531791.776,36.621,-486.328,-66.895,-78.125
1644531791.780,-67.871,-492.188,-36.621,-37.598
1644531791.784,-115.723,94.238,-22.461,9.277
1644531791.787,-25.879,133.789,-45.410,-26.367
1644531791.791,60.059,-607.910,-60.059,-47.852
1644531791.795,-9.766,-191.406,-27.344,-16.602
1644531791.799,-112.793,304.199,-25.391,0.488
1644531791.803,-55.664,-30.762,-33.691,-22.949
1644531791.819,40.039,-104.004,-37.109,-78.125
1644531791.823,-4.883,277.344,-38.086,-71.777
1644531791.827,-107.910,412.598,-38.574,-10.254
1644531791.831,-83.496,177.734,-44.434,-3.418
1644531791.835,36.133,214.355,-34.668,-42.480
1644531791.839,60.059,105.957,-27.344,-39.062
1644531791.843,-42.480,17.578,-23.926,11.230
1644531791.846,-87.402,-258.789,-37.109,26.855
1644531791.850,10.254,-397.949,-26.855,-31.738
1644531791.854,64.453,311.523,-23.926,-60.059
1644531791.858,-42.969,367.188,-42.480,-20.020
1644531791.862,-108.398,81.055,-49.316,28.320
1644531791.866,-16.113,234.375,-46.875,0.488
1644531791.870,60.059,161.621,-32.227,-49.316
1644531791.874,-7.812,-148.926,-31.738,-31.250
1644531791.878,-99.121,-658.203,-41.992,27.344
1644531791.882,-54.199,-378.418,-19.043,7.812
1644531791.886,50.781,43.457,-24.414,-52.734
1644531791.890,21.484,-229.980,-35.645,-45.410
1644531791.893,-90.332,-229.004,-19.043,4.395
1644531791.897,-91.309,239.746,-30.762,0.488
1644531791.901,15.137,478.516,-54.199,-66.895
1644531791.905,34.668,31.250,-66.895,-74.707
1644531791.909,-69.824,-689.941,-62.012,-18.555
1644531791.895,-108.398,-28.320,-42.480,7.324
1644531791.899,-11.719,415.527,-57.129,-43.457
1644531791.903,48.340,2.441,-65.430,-87.402
1644531791.907,-43.457,-134.766,-53.223,-49.805
1644531791.911,-118.652,41.992,-45.898,3.906
1644531791.915,-43.457,1.465,-58.105,-14.160
1644531791.919,57.617,-327.637,-64.453,-59.082
1644531791.922,-13.672,-137.695,-48.828,-53.711
1644531791.926,-119.629,283.691,-40.039,1.953
1644531791.930,-71.289,423.828,-59.082,-12.695
1644531791.934,36.621,-339.355,-87.402,-71.777
1644531791.938,12.207,-796.387,-52.734,-65.430
1644531791.940,-95.215,136.719,-25.879,-17.090
1644531791.944,-84.961,258.789,-63.477,-0.977
1644531791.948,30.273,-452.148,-80.078,-45.410
1644531791.952,43.457,-65.430,-57.617,-82.520
1644531791.956,-75.195,390.625,-55.176,-46.875
1644531791.960,-117.188,25.391,-78.125,-1.465
1644531791.964,-18.066,-804.688,-90.332,-39.062
1644531791.967,37.109,-537.598,-48.828,-92.285
1644531791.971,-45.898,327.148,-47.852,-63.965
1644531791.975,-116.211,241.211,-73.242,-20.020
1644531791.979,-58.594,59.570,-72.754,-53.223
1644531791.983,33.691,342.773,-68.359,-100.586
1644531792.016,-5.371,410.156,-72.754,-83.496
1644531792.020,-100.098,158.691,-81.055,-23.926
1644531792.024,-66.895,145.020,-66.895,-13.672
1644531792.028,46.387,285.156,-57.617,-64.941
1644531792.032,34.180,324.707,-62.012,-73.730
1644531792.036,-83.984,-169.922,-77.148,-18.066
1644531792.040,-89.844,-272.461,-61.035,-0.977
1644531792.043,28.320,285.645,-50.781,-54.199
1644531792.047,56.152,273.438,-71.777,-79.590
1644531792.051,-52.734,-429.199,-76.660,-40.039
1644531792.055,-104.980,-445.312,-44.434,-9.766
1644531792.059,-12.207,299.316,-42.969,-42.969
1644531792.045,53.223,304.688,-66.895,-76.172
1644531792.049,-26.855,-208.008,-64.941,-50.781
1644531792.053,-108.398,-201.660,-50.293,1.953
1644531792.057,-55.176,291.016,-50.293,-23.926
1644531792.061,38.574,225.098,-67.383,-87.891
1644531792.065,-0.977,-473.145,-66.895,-81.543
1644531792.069,-106.934,-237.793,-40.039,-21.973
1644531792.072,-88.379,396.484,-45.410,-17.578
1644531792.076,20.996,141.113,-53.711,-62.012
1644531792.080,23.926,-180.664,-26.367,-69.336
1644531792.084,-77.148,114.258,-22.461,-25.391
1644531792.088,-111.328,193.359,-40.527,0.000
1644531792.090,-17.578,-120.117,-56.152,-61.523
1644531792.094,36.621,-895.020,-59.570,-93.262
1644531792.098,-73.242,-684.082,-14.648,-51.758
1644531792.102,-138.672,239.746,-21.973,-15.137
1644531792.106,-44.922,123.047,-61.523,-50.293
1644531792.110,27.832,-167.480,-60.547,-96.191
1644531792.114,-46.875,-10.254,-50.293,-70.801
1644531792.117,-132.324,413.574,-56.152,-17.578
1644531792.121,-73.730,-139.648,-84.473,-19.043
1644531792.125,24.902,-448.730,-62.500,-73.242
1644531792.129,-4.883,230.469,-45.898,-79.590
1644531792.133,-101.562,89.844,-66.895,-14.160
1644531792.135,-83.496,-79.590,-70.801,0.000
1644531792.139,20.996,97.168,-76.172,-64.941
1644531792.143,27.344,7.324,-74.219,-77.148
1644531792.147,-72.266,-114.746,-63.477,-13.672
1644531792.151,-113.281,-585.449,-81.055,13.672
1644531792.155,-15.137,-647.461,-72.266,-30.762
1644531792.159,43.945,-24.414,-57.129,-70.312
1644531792.162,-54.199,107.910,-60.059,-32.227
1644531792.166,-118.652,-560.547,-63.477,21.973
1644531792.170,-37.598,-24.414,-46.387,-24.414
1644531792.174,49.316,521.973,-49.805,-74.219
1644531792.178,-14.160,143.555,-56.641,-48.340
1644531792.179,-113.770,193.359,-45.898,-4.395
1644531792.183,-68.359,447.266,-55.176,-9.277
1644531792.187,42.969,426.758,-63.965,-55.664
1644531792.191,17.578,106.445,-62.012,-52.246
1644531792.195,-92.285,-40.039,-52.246,-1.465
1644531792.199,-80.078,-33.203,-52.246,12.207
1644531792.203,26.855,-0.977,-66.406,-44.922
1644531792.206,46.875,-364.746,-82.031,-67.871
1644531792.210,-58.594,-830.566,-66.406,-18.066
1644531792.214,-100.586,83.008,-38.086,-0.977
1644531792.218,-7.324,462.402,-62.500,-41.992
1644531792.222,47.363,-3.418,-70.312,-74.707
1644531792.224,-46.387,187.500,-43.457,-47.363
1644531792.228,-119.141,357.422,-41.992,-0.488
1644531792.232,-38.086,-4.883,-61.523,-15.137
1644531792.236,49.316,-556.152,-66.895,-69.336
1644531792.240,-6.836,-159.180,-40.527,-56.641
1644531792.244,-104.980,196.289,-40.527,7.324
1644531792.248,-76.660,-134.766,-68.359,-3.418
1644531792.251,26.855,-789.062,-81.543,-62.988
1644531792.255,11.230,-425.781,-46.387,-66.895
1644531792.259,-85.449,417.480,-49.316,-1.953
1644531792.263,-71.289,340.332,-62.012,37.598
1644531792.267,8.789,180.176,-46.387,-37.109
1644531792.270,-6.836,338.867,-45.410,-97.168
1644531792.274,-102.051,384.766,-53.711,-51.758
1644531792.278,-113.281,173.828,-59.082,5.371
1644531792.282,-26.367,185.547,-54.199,-28.809
1644531792.286,28.809,264.648,-50.781,-79.102
1644531792.290,-48.828,47.363,-46.387,-54.688
1644531792.294,-123.535,-345.215,-40.039,0.488
1644531792.297,-59.082,-474.121,-30.762,-21.973
1644531792.301,41.016,186.035,-38.086,-70.312
1644531792.305,-7.812,211.426,-61.523,-51.270
1644531792.309,-113.770,-346.680,-62.500,3.906
1644531792.313,-80.078,-44.922,-46.387,-5.371
1644531792.331,34.180,427.246,-44.434,-54.199
1644531792.335,26.855,165.527,-53.711,-44.922
1644531792.339,-90.820,-516.602,-62.988,4.395
1644531792.343,-118.652,-82.520,-56.152,11.230
1644531792.347,-12.207,421.875,-64.453,-47.363
1644531792.351,26.855,-71.777,-72.754,-77.148
1644531792.355,-84.961,-807.129,-84.961,-33.691
1644531792.358,-143.066,-275.879,-63.965,-2.441
1644531792.362,-47.852,427.246,-64.453,-37.109
1644531792.366,36.133,185.547,-75.195,-70.312
1644531792.370,-29.785,57.617,-56.152,-45.410
1644531792.374,-114.746,266.113,-48.828,6.836
1644531792.363,-54.199,169.922,-57.129,-7.324
1644531792.367,57.617,-160.156,-57.129,-60.059
1644531792.371,20.020,-228.027,-44.922,-51.758
1644531792.375,-100.098,189.453,-42.480,6.836
1644531792.379,-77.637,373.535,-53.223,9.277
1644531792.383,35.645,-125.488,-72.266,-47.363
1644531792.387,33.691,-293.457,-57.129,-53.711
1644531792.390,-79.590,182.129,-44.922,-10.742
1644531792.394,-89.844,468.750,-54.199,18.555
1644531792.398,22.461,-266.602,-87.402,-24.902
1644531792.402,68.359,-793.945,-77.637,-59.082
1644531792.406,-35.156,122.070,-47.852,-26.367
1644531792.419,-102.051,446.289,-71.289,9.277
1644531792.423,-20.996,15.625,-83.008,-18.066
1644531792.427,67.383,-192.871,-64.941,-63.965
1644531792.431,0.977,-52.734,-52.734,-50.781
1644531792.435,-93.262,214.844,-56.152,1.953
1644531792.439,-43.457,-578.613,-96.680,-7.812
1644531792.443,41.992,-1000.000,-87.402,-61.035
1644531792.446,11.230,-123.047,-39.062,-54.688
1644531792.450,-87.891,313.477,-57.129,-6.836
1644531792.454,-90.332,215.332,-82.031,-12.695
1644531792.458,9.766,378.418,-77.637,-59.570
1644531792.462,30.762,379.395,-65.918,-61.035
1644531792.464,-74.219,95.215,-74.219,-27.832
1644531792.468,-116.211,101.562,-73.242,-11.230
1644531792.472,-13.184,313.965,-72.266,-46.387
1644531792.476,56.641,318.848,-69.824,-71.289
1644531792.480,-31.250,-24.414,-61.035,-19.531
1644531792.484,-79.102,-179.199,-57.129,20.020
1644531792.488,-2.441,-88.867,-66.406,-18.066
1644531792.491,62.012,-51.758,-73.242,-64.453
1644531792.495,2.441,-451.172,-79.590,-41.992
1644531792.499,-98.633,-827.148,-58.105,14.160
1644531792.503,-63.477,104.980,-44.434,-3.906
1644531792.507,56.152,376.953,-73.242,-60.059
1644531792.510,33.203,-16.602,-69.336,-64.941
1644531792.514,-84.961,105.469,-72.754,-16.113
1644531792.518,-84.473,67.383,-83.008,0.000
1644531792.522,27.344,86.426,-79.590,-52.246
1644531792.526,71.777,-464.844,-94.238,-62.012
1644531792.530,-39.062,-480.957,-71.289,-9.277
1644531792.534,-93.750,183.105,-53.711,20.508
1644531792.537,9.277,136.719,-72.266,-23.438
1644531792.541,70.312,-765.625,-84.473,-56.152
1644531792.545,-22.949,-418.945,-50.781,-28.809
1644531792.549,-98.633,458.984,-49.805,16.602
1644531792.553,-27.344,200.684,-77.637,-6.836
1644531792.555,65.430,76.172,-76.660,-68.359
1644531792.559,12.695,307.617,-71.289,-61.523
1644531792.563,-96.191,369.629,-69.824,-0.977
1644531792.567,-72.266,159.668,-78.125,-2.441
1644531792.571,35.156,89.844,-74.219,-54.199
1644531792.575,11.230,-67.871,-63.477,-53.223
1644531792.579,-95.215,-31.250,-56.152,-7.812
1644531792.582,-90.820,-229.980,-62.500,15.137
1644531792.586,14.160,-462.891,-40.527,-40.527
1644531792.590,48.828,230.469,-28.320,-78.125
1644531792.594,-51.270,230.957,-40.039,-18.555
1644531792.598,-107.910,-321.777,-38.574,30.273
1644531792.600,-16.602,32.715,-28.809,-2.930
1644531792.604,62.500,399.414,-33.691,-46.875
1644531792.608,-12.207,-95.703,-52.734,-26.855
1644531792.612,-95.215,-563.477,-58.594,30.762
1644531792.616,-45.410,-58.105,-42.480,10.742
1644531792.620,56.152,157.715,-38.086,-34.668
1644531792.624,27.344,-216.309,-40.527,-21.973
1644531792.627,-85.938,-721.191,-49.805,19.531
1644531792.631,-78.125,-129.395,-35.645,5.371
1644531792.635,40.527,501.953,-54.688,-62.012
1644531792.639,32.227,186.035,-84.473,-75.684
1644531792.643,-97.168,144.043,-62.500,-26.855
1644531792.648,-106.445,328.125,-48.828,3.906
1644531792.652,6.348,149.902,-55.176,-37.109
1644531792.656,55.176,-139.648,-48.340,-58.594
1644531792.660,-41.992,-109.863,-31.250,-18.066
1644531792.664,-94.727,291.992,-37.598,20.020
1644531792.668,-14.648,156.738,-68.359,-13.672
1644531792.672,53.223,-395.996,-71.289,-53.711
1644531792.675,-17.578,-534.180,-29.297,-28.320
1644531792.679,-92.773,243.652,-13.672,23.438
1644531792.683,-45.898,427.734,-41.992,6.836
1644531792.687,39.551,-49.805,-54.199,-48.340
1644531792.691,13.184,84.961,-39.551,-40.039
1644531792.690,-93.750,436.523,-33.691,14.160
1644531792.694,-86.426,292.969,-50.781,22.461
1644531792.698,24.902,-255.371,-62.500,-39.062
1644531792.702,36.133,-205.566,-53.711,-65.430
1644531792.706,-74.219,37.598,-38.574,-12.207
1644531792.710,-108.887,-10.254,-44.434,13.672
1644531792.714,-4.883,-765.625,-77.148,-23.438
1644531792.717,48.828,-1000.000,-54.199,-54.199
1644531792.721,-42.480,-67.871,-22.949,-32.715
1644531792.725,-95.215,313.965,-41.992,26.367
1644531792.729,-12.207,195.312,-48.340,0.000
1644531792.733,45.410,382.324,-48.828,-78.125
1644531792.736,-24.414,359.863,-54.199,-69.336
1644531792.740,-103.516,128.418,-72.754,-13.672
1644531792.744,-62.012,145.020,-76.660,-17.578
1644531792.748,32.227,312.012,-71.289,-73.242
1644531792.752,13.184,279.785,-79.590,-73.242
1644531792.756,-86.426,-214.844,-80.078,-7.324
1644531792.760,-84.473,-428.223,-68.359,5.859
1644531792.763,40.039,-158.691,-63.477,-53.223
1644531792.767,57.617,95.703,-71.289,-79.102
1644531792.771,-63.965,-381.836,-88.867,-36.133
1644531792.775,-114.258,-508.301,-66.406,-5.371
1644531792.779,-10.742,238.281,-64.941,-40.039
1644531792.795,79.590,298.340,-81.055,-67.383
1644531792.799,0.977,-58.594,-80.566,-20.508
1644531792.803,-83.984,-40.039,-73.730,34.668
1644531792.807,-18.066,357.422,-74.707,-10.254
1644531792.811,77.637,375.000,-96.191,-67.383
1644531792.815,15.137,-676.270,-102.051,-37.598
1644531792.819,-93.750,-535.645,-46.387,10.254
1644531792.822,-60.547,495.117,-44.922,-4.883
1644531792.826,51.758,281.250,-68.848,-44.434
1644531792.830,39.551,-113.770,-51.270,-44.434
1644531792.834,-72.754,230.469,-45.898,-3.906
1644531792.838,-69.336,499.023,-54.199,19.531
1644531792.840,43.945,102.539,-64.941,-27.344
1644531792.844,76.172,-244.629,-44.922,-56.152
1644531792.848,-36.621,174.805,-24.414,-10.254
1644531792.852,-88.379,412.109,-34.668,30.273
1644531792.856,10.742,101.074,-61.035,-13.184
1644531792.860,62.988,-271.973,-62.012,-59.082
1644531792.864,-27.832,-205.078,-28.320,-32.227
1644531792.867,-103.027,216.309,-30.273,14.648
1644531792.871,-40.039,-225.586,-64.453,-14.648
1644531792.875,44.922,-398.926,-59.082,-69.336
1644531792.879,9.277,97.168,-50.293,-49.805
1644531792.883,-80.566,42.969,-59.570,11.719
1644531792.886,-52.246,-518.555,-64.941,20.996
1644531792.890,56.641,-466.797,-42.480,-35.156
1644531792.894,46.387,-60.059,-35.156,-43.945
1644531792.898,-69.824,-37.109,-43.457,8.301
1644531792.902,-83.008,-482.910,-67.871,26.367
1644531792.906,17.578,-456.055,-67.383,-20.508
1644531792.910,48.828,63.965,-48.828,-57.129
1644531792.913,-40.039,84.473,-59.082,-15.625
1644531792.917,-91.309,-623.535,-64.941,37.109
1644531792.921,-15.625,-130.371,-40.039,-11.230
1644531792.925,63.965,481.934,-44.922,-58.105
1644531792.929,-1.953,162.598,-49.805,-22.949
1644531792.931,-92.285,198.242,-35.156,27.344
1644531792.935,-36.621,389.648,-35.156,9.766
1644531792.939,62.500,97.168,-50.293,-45.410
1644531792.943,26.367,-125.488,-41.504,-46.387
1644531792.947,-77.148,169.922,-22.461,10.254
1644531792.951,-61.523,128.418,-33.203,19.531
1644531792.955,40.039,-50.781,-41.016,-46.387
1644531792.958,51.758,-368.652,-50.781,-58.105
1644531792.962,-60.059,-829.102,-49.805,3.906
1644531792.966,-84.961,93.262,-22.949,33.203
1644531792.970,27.344,455.078,-43.457,-8.789
1644531792.974,76.660,-129.395,-56.641,-46.387
1644531792.975,-20.996,114.746,-37.598,-21.973
1644531792.979,-93.750,401.367,-44.922,22.461
1644531792.983,-14.648,-21.973,-65.430,-3.906
1644531792.987,62.500,-625.000,-70.801,-52.734
1644531792.991,-2.930,-369.629,-50.781,-41.016
1644531792.995,-88.867,31.250,-34.668,23.438
1644531792.999,-52.246,-77.637,-56.152,13.184
1644531793.002,35.645,-733.398,-73.242,-53.711
1644531793.006,20.020,-482.422,-37.598,-62.500
1644531793.010,-75.684,371.094,-37.109,-6.836
1644531793.014,-64.453,331.543,-62.500,23.926
1644531793.018,37.109,178.223,-54.688,-28.809
