timestamps,TP9,AF7,AF8,TP10
1644358127.492,-30.273,-320.312,-12.695,-14.648
1644358127.496,-854.980,997.559,56.641,312.012
1644358127.500,205.078,488.770,-103.516,22.461
1644358127.504,-1000.000,-833.984,-192.871,-356.445
1644358127.508,-413.574,-1000.000,-100.098,-130.859
1644358127.512,-985.352,-395.508,-37.598,291.504
1644358127.515,586.914,213.867,-46.387,136.719
1644358127.519,-862.305,-528.320,-161.621,-301.270
1644358127.523,-758.301,-958.496,-102.051,-245.605
1644358127.527,663.086,451.660,84.473,182.617
1644358127.531,875.488,933.594,-12.207,231.934
1644358127.535,-467.773,-385.742,-197.266,-189.453
1644358127.537,-1000.000,-1000.000,-159.668,-326.172
1644358127.541,267.090,63.477,90.820,56.641
1644358127.545,-913.086,-798.828,103.516,253.418
1644358127.549,-74.219,187.500,-133.789,-89.844
1644358127.553,-1000.000,-1000.000,-127.930,-354.980
1644358127.557,-112.305,-243.652,55.664,-47.363
1644358127.560,-859.375,-894.043,102.539,271.973
1644358127.564,314.453,336.426,-85.449,30.273
1644358127.568,-1000.000,-1000.000,-157.715,-348.145
1644358127.572,-495.605,-361.328,65.430,-190.918
1644358127.576,955.566,-953.125,133.789,225.586
1644358127.580,650.391,448.242,-55.176,140.137
1644358127.587,-786.133,-948.242,-147.461,-283.203
1644358127.591,-814.941,-702.637,-19.531,-267.090
1644358127.595,574.707,602.051,76.172,160.156
1644358127.599,925.781,966.309,7.812,236.328
1644358127.603,-380.859,-141.602,-129.395,-170.410
1644358127.607,-1000.000,-1000.000,-118.652,-332.031
1644358127.610,174.805,17.578,64.453,52.734
1644358127.614,-890.625,690.918,32.227,295.898
1644358127.618,7.324,-269.531,-91.309,-43.945
1644358127.622,-1000.000,-924.805,-66.406,-370.605
1644358127.626,-217.773,-347.656,41.504,-83.496
1644358127.630,-875.977,870.605,107.910,299.316
1644358127.643,405.273,662.109,-19.531,75.195
1644358127.647,-1000.000,-672.363,-139.160,-347.168
1644358127.651,-595.703,-854.004,-48.828,-214.844
1644358127.655,860.352,447.754,76.172,227.051
1644358127.659,745.605,904.297,0.977,180.176
1644358127.663,-672.852,-379.395,-160.645,-262.207
1644358127.666,-882.324,-1000.000,-103.027,-304.199
1644358127.670,475.098,-651.855,1.953,133.301
1644358127.674,990.723,250.000,36.621,256.348
1644358127.678,-273.438,-5.859,-49.316,-163.086
1644358127.682,-1000.000,-1000.000,-103.027,-365.234
1644358127.686,69.336,-62.012,65.918,12.207
1644358127.672,-861.328,-822.754,107.910,289.551
1644358127.676,121.582,486.328,-90.820,-15.625
1644358127.680,-1000.000,-883.301,-144.531,-350.586
1644358127.684,-314.453,-293.457,40.527,-96.680
1644358127.688,-920.410,-932.617,108.887,278.809
1644358127.692,502.930,568.848,-51.270,93.262
1644358127.695,-947.754,-854.004,-164.062,-309.082
1644358127.699,-667.480,-629.883,-14.160,-235.352
1644358127.703,779.785,809.082,115.723,193.848
1644358127.707,817.383,888.672,-5.371,198.242
1644358127.711,-565.918,-535.156,-227.539,-223.633
1644358127.715,-938.477,-931.641,-103.027,-302.734
1644358127.717,383.789,461.426,160.156,97.168
1644358127.721,-956.055,-985.352,42.969,268.555
1644358127.725,-177.246,-261.230,-135.742,-104.492
1644358127.729,-1000.000,-1000.000,-68.848,-359.863
1644358127.733,8.301,167.480,92.773,-16.113
1644358127.737,-902.832,930.176,60.059,301.270
1644358127.740,133.789,-156.250,-115.723,20.508
1644358127.744,-1000.000,-1000.000,-105.469,-338.379
1644358127.748,-411.621,-217.285,57.617,-142.578
1644358127.752,-987.305,826.660,52.734,265.137
1644358127.756,588.867,264.648,-83.496,141.113
1644358127.760,-855.957,-666.504,-111.328,-298.340
1644358127.763,-745.605,-637.207,-36.133,-245.117
1644358127.767,673.340,586.426,78.613,189.453
1644358127.771,880.371,-971.191,17.578,223.145
1644358127.775,-461.426,-107.422,-134.766,-187.500
1644358127.779,-995.117,-992.188,-96.191,-301.270
1644358127.783,281.250,-38.574,48.828,81.543
1644358127.786,-916.016,-957.520,71.777,268.066
1644358127.790,-71.289,332.520,-57.617,-80.078
1644358127.794,-1000.000,-893.066,-121.094,-334.473
1644358127.798,-116.211,-919.434,-24.414,-14.648
1644358127.802,-861.328,335.449,80.566,304.199
1644358127.806,331.055,729.492,0.488,55.664
1644358127.823,-1000.000,-744.629,-144.531,-312.012
1644358127.827,-521.973,-663.086,-35.156,-158.203
1644358127.831,932.617,819.824,140.625,249.023
1644358127.835,671.875,917.969,28.320,168.945
1644358127.839,-762.695,-418.945,-184.082,-253.906
1644358127.843,-827.637,-933.594,-123.535,-252.441
1644358127.846,558.594,339.355,106.934,152.344
1644358127.850,935.547,-884.766,76.660,232.910
1644358127.854,-372.559,-119.629,-159.668,-163.086
1644358127.858,-1000.000,-996.582,-129.883,-332.520
1644358127.862,175.293,261.719,106.445,31.250
1644358127.866,-881.348,-845.703,72.754,269.043
1644358127.867,17.578,23.438,-121.094,-51.758
1644358127.871,-1000.000,-1000.000,-114.258,-361.328
1644358127.875,-206.543,-138.184,70.801,-78.125
1644358127.879,-871.582,-882.812,92.773,295.898
1644358127.883,412.109,436.523,-74.707,81.543
1644358127.887,-1000.000,-970.703,-172.852,-331.543
1644358127.890,-574.707,-716.797,-28.320,-202.637
1644358127.894,891.113,828.125,101.074,229.004
1644358127.898,729.980,346.680,-65.918,189.453
1644358127.902,-688.477,-1000.000,-147.461,-265.137
1644358127.906,-887.207,-899.414,-27.344,-312.500
1644358127.910,469.727,270.020,72.266,145.996
1644358127.912,990.723,877.441,34.668,274.414
1644358127.916,-277.832,-103.027,-85.938,-149.902
1644358127.920,-1000.000,-1000.000,-99.121,-372.559
1644358127.924,73.730,-243.164,32.715,2.441
1644358127.928,-857.910,932.617,64.453,286.621
1644358127.932,110.840,217.773,-71.777,-31.738
1644358127.935,-1000.000,-973.633,-91.797,-384.277
1644358127.939,-330.078,-611.328,9.277,-135.742
1644358127.943,-924.805,475.586,64.453,269.043
1644358127.947,506.836,791.016,6.348,93.750
1644358127.951,-952.637,-536.133,-126.465,-333.984
1644358127.955,-677.734,-894.043,-37.598,-249.023
1644358127.972,772.461,523.438,126.465,193.359
1644358127.976,820.801,-948.242,34.668,206.543
1644358127.980,-565.918,-221.680,-152.344,-232.910
1644358127.984,-945.801,-986.816,-86.426,-318.359
1644358127.988,379.883,297.852,90.820,122.070
1644358127.992,-949.707,-936.523,45.410,293.457
1644358127.995,-170.410,-80.078,-112.305,-109.863
1644358127.999,-1000.000,-1000.000,-168.457,-363.770
1644358128.003,-36.133,-341.797,24.902,-21.973
1644358128.007,-843.750,-873.535,141.113,294.434
1644358128.011,225.098,361.328,-106.445,13.672
1644358128.015,-1000.000,-1000.000,-194.824,-373.535
1644358128.002,-414.062,-312.012,10.742,-166.992
1644358128.006,-976.074,-914.062,85.938,260.742
1644358128.010,591.309,593.262,-114.258,143.555
1644358128.014,-867.188,-881.836,-226.074,-299.316
1644358128.018,-753.906,-762.207,-66.895,-271.973
1644358128.022,674.316,645.508,25.391,164.551
1644358128.025,878.906,741.211,-82.520,217.285
1644358128.029,-468.750,-640.137,-231.934,-209.473
1644358128.033,-1000.000,-964.355,-151.367,-349.609
1644358128.037,272.949,415.039,34.668,53.711
1644358128.041,-921.875,787.109,-56.641,268.555
1644358128.045,-98.145,-604.980,-236.328,-91.309
1644358128.047,-1000.000,-1000.000,-138.672,-378.906
1644358128.051,-121.094,0.488,3.418,-75.684
1644358128.055,-856.934,-914.062,34.668,265.137
1644358128.059,327.637,638.184,-57.129,34.668
1644358128.063,-1000.000,-713.867,-159.180,-341.797
1644358128.067,-506.348,-676.270,-48.828,-173.828
1644358128.070,949.219,363.770,45.898,251.465
1644358128.074,685.059,551.270,-20.508,160.156
1644358128.078,-749.023,-364.258,-120.605,-279.785
1644358128.082,-837.402,-971.191,-89.844,-265.625
1644358128.086,549.316,248.535,59.570,175.293
1644358128.090,942.383,930.176,29.297,267.578
1644358128.092,-363.281,-238.281,-91.797,-141.113
1644358128.096,-1000.000,-1000.000,-81.055,-315.430
1644358128.100,161.621,-663.086,30.273,69.336
1644358128.104,-876.465,786.133,121.582,304.688
1644358128.108,38.574,503.418,-34.180,-32.715
1644358128.112,-1000.000,-1000.000,-167.969,-325.195
1644358128.115,-242.676,-437.988,8.301,-50.781
1644358128.119,-885.742,-964.844,157.227,291.992
1644358128.123,427.246,736.328,-17.090,86.426
1644358128.127,-1000.000,-699.707,-161.621,-302.246
1644358128.131,-579.590,-541.504,2.930,-160.156
1644358128.135,772.461,852.539,123.535,219.727
1644358128.138,604.004,784.180,-37.598,156.738
1644358128.142,-650.391,-521.973,-177.734,-206.543
1644358128.146,-894.531,-864.258,-59.570,-255.371
1644358128.150,489.746,539.551,112.793,154.297
1644358128.154,919.922,953.125,10.742,254.883
1644358128.158,-402.344,-383.789,-183.594,-135.254
1644358128.161,-1000.000,-1000.000,-113.770,-309.082
1644358128.165,75.684,109.375,96.680,23.438
1644358128.169,-862.793,-860.352,90.820,301.270
1644358128.173,131.836,13.184,-105.469,15.625
1644358128.177,-1000.000,-1000.000,-134.277,-324.707
1644358128.181,-319.336,-327.637,44.922,-109.375
1644358128.197,-921.875,-993.652,82.031,280.762
1644358128.201,507.812,354.004,-81.543,125.977
1644358128.205,-941.406,-889.160,-128.906,-278.320
1644358128.209,-670.898,-760.742,-4.883,-192.383
1644358128.213,771.973,470.703,76.172,218.262
1644358128.217,827.637,553.223,-26.367,231.934
1644358128.220,-547.363,-624.512,-93.262,-192.383
1644358128.224,-937.500,-843.750,-12.695,-280.273
1644358128.228,376.465,118.164,63.477,133.301
1644358128.232,-941.895,834.961,51.270,288.574
1644358128.236,-149.414,260.254,-26.855,-83.496
1644358128.240,-1000.000,-901.367,-51.758,-307.617
1644358128.242,-19.043,-194.336,83.984,6.836
1644358128.246,-846.191,-959.473,131.836,300.781
1644358128.250,248.535,598.145,-27.344,36.621
1644358128.254,-1000.000,-808.105,-135.254,-324.219
1644358128.258,-426.758,-671.875,-4.395,-129.883
1644358128.262,-992.676,798.340,103.516,261.719
1644358128.265,601.074,622.070,-25.391,144.043
1644358128.269,-841.797,-678.223,-135.742,-261.230
1644358128.273,-770.508,-1000.000,-62.988,-215.820
1644358128.277,643.066,-76.660,94.727,197.266
1644358128.281,891.602,978.516,80.566,231.934
1644358128.285,-447.754,-312.012,-118.164,-172.852
1644358128.287,-1000.000,-1000.000,-81.543,-300.781
1644358128.291,257.812,247.070,130.859,74.707
1644358128.295,-907.715,-823.730,97.168,268.066
1644358128.299,-63.477,178.223,-115.234,-79.102
1644358128.303,-1000.000,-1000.000,-118.164,-347.168
1644358128.307,-124.512,-362.305,71.289,-31.250
1644358128.310,-855.469,-935.059,137.207,311.035
1644358128.314,327.637,356.934,-47.852,77.637
1644358128.318,-1000.000,-1000.000,-145.996,-312.988
1644358128.322,-518.555,-434.082,80.078,-175.293
1644358128.326,937.988,-980.469,181.152,247.559
1644358128.330,685.547,523.926,-3.906,183.105
1644358128.332,-751.953,-898.438,-115.234,-259.766
1644358128.336,-831.543,-712.891,13.184,-280.762
1644358128.340,560.547,600.586,122.070,165.039
1644358128.344,940.430,-983.398,58.105,269.531
1644358128.348,-365.723,-37.598,-89.844,-159.668
1644358128.352,-1000.000,-1000.000,-95.703,-346.191
1644358128.355,157.715,-2.930,74.219,42.480
1644358128.359,-881.348,708.008,54.199,301.758
1644358128.363,26.367,-188.965,-60.059,-44.922
1644358128.367,-1000.000,-914.062,-63.965,-382.812
1644358128.371,-242.676,-461.426,22.949,-95.215
1644358128.375,-883.301,642.090,84.473,296.387
1644358128.377,426.270,609.863,-1.465,86.426
1644358128.381,-1000.000,-537.109,-87.402,-347.168
1644358128.385,-607.422,-786.133,-29.297,-220.703
1644358128.389,852.051,416.016,93.262,227.051
1644358128.393,751.465,899.414,39.551,186.523
1644358128.397,-663.574,-320.801,-143.066,-257.324
1644358128.400,-901.855,-1000.000,-110.352,-306.641
1644358128.404,448.242,-186.523,69.336,122.070
1644358128.408,996.094,-902.344,110.352,250.977
1644358128.412,-262.695,184.570,-84.473,-153.320
1644358128.416,-1000.000,-1000.000,-119.629,-373.535
1644358128.420,45.898,38.086,75.195,-14.648
1644358128.423,-858.398,-807.129,102.539,274.414
1644358128.427,130.859,334.961,-105.957,-22.949
1644358128.431,-1000.000,-1000.000,-184.570,-363.770
1644358128.435,-348.145,-297.852,20.508,-132.812
1644358128.439,-934.082,-918.945,97.168,261.719
1644358128.443,508.789,546.875,-98.633,113.770
1644358128.446,-948.242,-896.484,-236.328,-310.547
1644358128.450,-696.777,-647.949,-62.500,-247.070
1644358128.454,747.559,797.852,123.535,192.871
1644358128.458,822.754,907.715,-18.066,214.844
1644358128.462,-556.152,-504.395,-199.707,-236.816
1644358128.466,-968.262,-955.078,-90.332,-337.891
1644358128.467,346.680,423.340,91.309,90.820
1644358128.471,-963.379,991.211,-0.488,271.973
1644358128.475,-186.523,-310.059,-174.316,-115.234
1644358128.479,-1000.000,-1000.000,-122.070,-383.789
1644358128.483,-56.152,-152.832,20.020,-37.109
1644358128.487,-854.980,855.957,14.160,302.734
1644358128.490,224.609,-262.695,-145.996,26.855
1644358128.494,-1000.000,-1000.000,-122.070,-369.629
1644358128.498,-447.754,-299.316,31.250,-170.410
1644358128.502,999.023,943.848,85.938,248.047
1644358128.506,595.215,791.992,-47.363,118.164
1644358128.510,-859.375,-606.934,-169.922,-332.031
1644358128.528,-775.391,-781.250,-62.988,-298.828
1644358128.532,640.137,535.156,76.660,168.457
1644358128.536,891.113,-970.215,20.020,227.539
1644358128.540,-450.195,-75.195,-143.555,-219.238
1644358128.544,-1000.000,-1000.000,-118.652,-368.164
1644358128.548,239.258,-41.504,35.156,47.852
1644358128.551,-920.410,960.938,20.996,277.832
1644358128.555,-63.965,63.965,-115.234,-85.938
1644358128.559,-1000.000,-984.863,-125.977,-382.324
1644358128.563,-170.898,-867.676,-35.156,-60.547
1644358128.567,-872.070,337.402,41.016,297.363
1644358128.571,323.730,653.809,-31.250,45.898
1644358128.572,-1000.000,-775.391,-155.762,-355.469
1644358128.576,-541.016,-721.680,-38.086,-197.266
1644358128.580,913.574,753.906,130.371,220.215
1644358128.584,694.824,937.500,-10.254,153.320
1644358128.588,-736.328,-412.109,-191.406,-269.531
1644358128.592,-856.934,-953.125,-110.840,-285.156
1644358128.595,519.531,325.195,84.961,140.137
1644358128.599,946.289,-895.996,60.059,231.934
1644358128.603,-348.633,-96.680,-188.965,-165.527
1644358128.607,-1000.000,-1000.000,-172.363,-341.309
1644358128.611,125.977,59.570,114.258,4.395
1644358128.615,-880.859,-797.852,108.887,260.742
1644358128.617,36.133,111.816,-118.652,-37.598
1644358128.621,-1000.000,-1000.000,-124.512,-351.074
1644358128.625,-262.207,-189.941,70.312,-104.980
1644358128.629,-902.344,-900.391,105.469,252.441
1644358128.633,439.453,526.855,-50.781,80.078
1644358128.637,-998.047,-905.762,-150.879,-302.246
1644358128.640,-624.023,-689.941,0.977,-199.219
1644358128.644,826.172,854.004,136.719,208.984
1644358128.648,760.742,368.164,-26.367,192.383
1644358128.652,-643.066,-974.609,-118.164,-226.074
1644358128.656,-897.949,-957.031,-23.438,-281.738
1644358128.660,443.359,267.578,88.379,117.676
1644358128.663,-997.559,529.297,31.250,252.441
1644358128.667,-246.094,-599.121,-70.312,-121.582
1644358128.671,-1000.000,-925.293,-23.926,-336.426
1644358128.675,41.992,7.324,92.285,11.230
1644358128.679,-855.957,-921.387,107.422,294.922
1644358128.683,162.598,217.773,-55.176,4.883
1644358128.686,-1000.000,-972.168,-99.121,-344.727
1644358128.690,-360.840,-614.746,8.789,-122.559
1644358128.694,-955.566,440.918,68.848,270.020
1644358128.698,545.410,794.434,6.836,120.117
1644358128.702,-906.738,-502.930,-111.816,-298.828
1644358128.706,-709.961,-948.242,-31.738,-242.188
1644358128.707,729.492,452.637,125.977,177.734
1644358128.711,842.285,-948.242,48.340,192.383
1644358128.715,-524.902,-250.000,-145.508,-219.727
1644358128.719,-971.191,-1000.000,-92.285,-314.453
1644358128.723,334.961,224.609,109.863,86.426
1644358128.727,-947.754,-907.227,82.031,269.531
1644358128.730,-153.809,-58.594,-96.191,-95.215
1644358128.734,-1000.000,-1000.000,-132.812,-346.680
1644358128.738,-61.523,-153.809,88.379,-35.645
1644358128.742,-850.586,-837.402,177.734,266.602
1644358128.746,267.578,366.211,-46.387,22.461
1644358128.750,-1000.000,-1000.000,-146.973,-339.355
1644358128.753,-453.125,-375.977,51.758,-163.574
1644358128.757,990.234,-966.309,165.039,247.559
1644358128.761,630.371,674.316,-18.066,142.090
1644358128.765,-818.848,-743.164,-144.531,-284.180
1644358128.769,-773.926,-803.223,-14.648,-253.418
1644358128.773,643.066,644.043,104.004,183.594
1644358128.776,895.508,714.844,-15.137,248.047
1644358128.780,-440.918,-769.043,-175.293,-169.434
1644358128.784,-1000.000,-954.102,-19.531,-325.684
1644358128.788,243.164,306.641,128.418,63.477
1644358128.792,-911.133,-968.262,65.918,283.691
1644358128.796,-57.617,207.031,-73.730,-65.430
1644358128.797,-1000.000,-915.039,-96.680,-352.051
1644358128.801,-170.898,-118.652,54.688,-50.293
1644358128.805,-868.164,-895.996,107.422,299.805
1644358128.809,368.652,624.512,-23.438,71.289
1644358128.813,-1000.000,-727.539,-123.535,-320.801
1644358128.817,-535.156,-734.863,-10.742,-148.438
1644358128.820,882.812,279.785,78.125,252.441
1644358128.824,658.203,351.562,1.465,170.898
1644358128.828,-721.191,-585.938,-74.707,-230.957
1644358128.832,-844.727,-902.832,-15.137,-253.906
1644358128.836,531.738,31.738,95.215,187.988
1644358128.840,959.961,859.375,72.266,285.645
1644358128.842,-332.520,113.281,-78.125,-142.090
1644358128.846,-1000.000,-1000.000,-104.492,-319.824
1644358128.850,137.207,-293.945,50.293,62.500
1644358128.854,-869.141,-878.906,111.328,303.711
1644358128.858,71.289,436.035,-80.078,-32.715
1644358128.862,-1000.000,-1000.000,-181.641,-350.586
1644358128.865,-273.438,-502.441,3.418,-87.402
1644358128.869,-893.066,984.863,139.160,283.691
1644358128.873,446.289,723.633,-20.020,94.727
1644358128.877,-956.055,-694.824,-181.641,-298.340
1644358128.881,-574.219,-795.898,-55.176,-182.129
1644358128.885,821.777,619.141,125.977,234.863
1644358128.903,785.156,998.047,26.855,215.332
1644358128.907,-616.699,-372.070,-164.551,-221.680
1644358128.911,-912.598,-912.598,-64.941,-287.109
1644358128.915,430.664,443.359,136.719,143.066
1644358128.919,-978.027,-928.223,55.664,290.039
1644358128.923,-229.492,-182.129,-145.020,-110.352
1644358128.926,-1000.000,-1000.000,-111.328,-340.332
1644358128.930,42.480,55.176,90.332,13.672
1644358128.934,-853.027,-866.699,84.473,311.035
1644358128.938,165.527,36.133,-111.816,14.160
1644358128.942,-1000.000,-1000.000,-145.020,-337.891
1644358128.946,-379.883,-490.234,29.297,-118.652
1644358128.947,-957.520,934.570,104.980,272.949
1644358128.951,531.250,125.000,-78.613,126.953
1644358128.955,-934.082,-1000.000,-121.094,-306.152
1644358128.959,-680.664,-537.109,26.367,-233.887
1644358128.963,665.527,691.895,87.891,171.387
1644358128.967,720.703,757.812,-20.996,175.781
1644358128.970,-511.719,-464.355,-125.000,-197.754
1644358128.974,-971.191,-849.121,-56.152,-316.406
1644358128.978,320.312,182.129,32.715,81.055
1644358128.982,-940.430,690.430,-7.812,265.625
1644358128.986,-133.301,87.891,-89.355,-108.887
1644358128.990,-1000.000,-946.289,-105.469,-363.770
1644358128.992,-68.848,-292.969,26.367,-38.574
1644358128.996,-853.516,-979.492,83.008,283.203
1644358129.000,290.527,558.594,-68.359,25.391
1644358129.004,-1000.000,-823.730,-161.133,-333.984
1644358129.008,-466.797,-927.734,-30.273,-142.090
1644358129.012,977.051,454.102,85.449,251.953
1644358129.015,639.160,843.262,1.953,142.578
1644358129.019,-800.781,-460.449,-134.277,-272.949
1644358129.023,-796.875,-1000.000,-103.027,-243.164
1644358129.027,608.398,187.012,104.980,170.898
1644358129.031,901.367,996.094,58.594,224.121
1644358129.035,-423.340,-330.078,-160.156,-172.363
1644358129.038,-1000.000,-1000.000,-111.328,-314.941
1644358129.042,210.938,172.363,113.281,46.875
1644358129.046,-896.973,-809.082,94.727,245.117
1644358129.050,-21.484,248.535,-135.254,-77.148
1644358129.054,-1000.000,-1000.000,-175.293,-351.562
1644358129.058,-189.941,-379.883,5.371,-74.707
1644358129.061,-873.535,-949.219,71.289,261.719
1644358129.065,356.934,332.520,-125.977,50.293
1644358129.069,-1000.000,-1000.000,-223.633,-320.312
1644358129.073,-554.199,-401.855,14.160,-194.336
1644358129.077,895.508,955.566,112.305,202.637
1644358129.081,708.496,727.051,-54.688,142.090
1644358129.083,-714.844,-553.711,-175.781,-273.438
1644358129.087,-854.004,-723.145,-80.078,-295.410
1644358129.091,517.090,556.641,45.898,121.582
1644358129.095,961.426,-981.934,-15.137,230.469
1644358129.099,-320.312,-62.012,-160.645,-160.645
1644358129.103,-1000.000,-1000.000,-154.297,-334.961
1644358129.106,113.281,-10.254,33.203,33.203
1644358129.110,-881.836,737.793,21.484,296.875
1644358129.114,55.664,-293.945,-121.582,-15.625
1644358129.118,-1000.000,-1000.000,-106.934,-333.984
1644358129.122,-272.949,-300.781,20.996,-77.148
1644358129.126,-904.297,491.699,47.363,290.039
1644358129.144,476.074,261.230,-44.434,100.098
1644358129.148,-972.656,-591.309,-117.188,-316.406
1644358129.152,-634.277,-722.656,-69.336,-215.820
1644358129.156,820.801,582.031,57.129,220.703
1644358129.160,783.691,914.551,-27.344,198.730
1644358129.164,-612.305,-319.824,-203.125,-229.492
1644358129.167,-922.852,-1000.000,-155.273,-286.133
1644358129.171,406.738,-287.598,35.156,126.953
1644358129.175,-966.309,-925.781,75.684,273.926
1644358129.179,-207.520,228.516,-113.281,-114.258
1644358129.183,-1000.000,-1000.000,-143.555,-349.609
1644358129.187,33.691,-119.629,30.762,2.441
1644358129.173,-842.773,-875.488,90.332,308.105
1644358129.177,188.965,512.207,-88.379,4.395
1644358129.181,-1000.000,-915.527,-179.688,-371.582
1644358129.185,-368.164,-386.719,2.930,-130.859
1644358129.189,-944.824,-959.961,105.957,290.527
1644358129.193,559.570,599.121,-69.336,138.672
1644358129.196,-900.879,-833.008,-166.992,-309.570
1644358129.200,-705.078,-688.477,-21.973,-252.441
1644358129.204,743.652,737.793,115.723,213.379
1644358129.208,844.238,910.645,27.344,236.328
1644358129.212,-521.973,-451.660,-221.680,-206.055
1644358129.216,-985.352,-1000.000,-160.156,-316.406
1644358129.248,311.523,229.004,135.742,68.848
1644358129.252,-931.641,-958.496,65.918,256.836
1644358129.256,-127.930,-103.027,-133.789,-104.492
1644358129.260,-1000.000,-1000.000,-89.844,-373.535
1644358129.264,-81.543,5.859,67.871,-53.223
1644358129.268,-851.074,980.957,39.551,285.156
1644358129.271,252.441,-249.512,-119.629,27.344
1644358129.275,-1000.000,-1000.000,-92.773,-371.094
1644358129.279,-466.309,-290.527,37.109,-182.129
1644358129.283,980.469,936.523,102.539,250.488
1644358129.287,636.230,854.004,2.930,158.203
1644358129.291,-817.871,-451.172,-113.770,-278.809
1644358129.277,-782.715,-794.434,-27.832,-267.090
1644358129.281,630.859,508.301,104.980,175.781
1644358129.285,912.598,-952.148,49.805,245.605
1644358129.289,-416.016,-86.426,-116.699,-190.430
1644358129.293,-1000.000,-1000.000,-107.422,-349.609
1644358129.297,222.656,-118.652,58.594,46.875
1644358129.300,-895.020,-906.738,82.031,267.090
1644358129.304,-25.391,380.371,-62.500,-85.938
1644358129.308,-1000.000,-1000.000,-125.488,-386.719
1644358129.312,-187.988,-431.641,29.297,-91.797
1644358129.316,-867.676,-993.652,74.707,266.113
1644358129.320,390.137,532.715,-73.242,48.340
1644358129.322,-1000.000,-693.848,-154.785,-347.168
1644358129.326,-573.730,-1000.000,-118.164,-191.406
1644358129.330,884.766,-210.938,26.367,221.191
1644358129.334,716.797,857.422,30.273,139.160
1644358129.338,-708.496,-270.996,-160.156,-275.879
1644358129.342,-864.258,-1000.000,-114.258,-296.875
1644358129.345,504.395,328.125,68.848,106.934
1644358129.349,973.145,-940.918,7.324,213.867
1644358129.353,-309.570,-166.016,-212.891,-171.875
1644358129.357,-1000.000,-1000.000,-210.938,-356.445
1644358129.361,105.469,115.723,36.621,-0.488
1644358129.365,-865.234,-814.941,33.203,255.859
1644358129.368,80.078,262.695,-153.320,-51.758
1644358129.372,-1000.000,-1000.000,-174.316,-369.141
1644358129.376,-295.898,-203.125,-1.953,-120.605
1644358129.380,-901.855,-896.484,39.551,250.488
1644358129.384,455.078,516.602,-113.281,64.941
1644358129.388,-1000.000,-912.109,-209.473,-333.008
1644358129.391,-647.461,-708.008,-60.059,-222.168
1644358129.395,808.105,833.496,73.730,192.871
1644358129.399,773.926,370.605,-88.379,190.430
1644358129.403,-627.441,-998.535,-198.242,-236.816
1644358129.407,-933.594,-965.332,-83.984,-317.383
1644358129.411,398.926,271.973,50.781,96.680
1644358129.412,-984.375,606.445,-32.227,256.836
1644358129.416,-228.516,-507.324,-153.320,-129.883
1644358129.420,-1000.000,-927.734,-105.469,-368.164
1644358129.424,11.230,19.531,27.832,-7.812
1644358129.428,-850.586,-882.812,39.551,299.805
1644358129.432,176.758,275.391,-126.465,8.789
1644358129.435,-1000.000,-958.496,-160.156,-354.980
1644358129.439,-374.512,-607.422,-42.969,-133.301
1644358129.443,-953.125,469.727,34.180,276.855
1644358129.447,563.965,821.289,-11.230,128.906
1644358129.451,-892.578,-439.941,-157.227,-310.547
1644358129.455,-728.516,-955.566,-103.516,-250.488
1644358129.458,713.379,373.047,52.734,201.660
1644358129.462,850.586,-924.316,-3.906,223.145
1644358129.466,-518.066,-130.371,-195.312,-212.402
1644358129.470,-981.934,-1000.000,-151.367,-315.430
1644358129.474,313.477,173.828,68.848,109.863
1644358129.478,-915.039,-890.137,39.062,317.871
1644358129.481,-93.262,-18.555,-141.113,-66.406
1644358129.485,-1000.000,-1000.000,-192.383,-342.773
1644358129.489,-78.613,-247.070,15.137,-5.371
1644358129.493,-841.797,-858.398,121.094,338.379
1644358129.497,300.293,441.406,-100.586,82.520
1644358129.501,-1000.000,-1000.000,-231.934,-309.082
1644358129.502,-463.867,-464.355,-14.648,-137.207
1644358129.506,990.234,-978.027,138.184,279.785
1644358129.510,655.273,662.109,-75.195,185.547
1644358129.514,-795.410,-805.176,-190.918,-257.324
1644358129.518,-791.992,-823.730,-42.969,-251.953
1644358129.522,621.094,596.680,83.008,190.918
1644358129.525,922.852,807.617,-23.438,272.949
1644358129.529,-402.832,-666.504,-180.664,-158.691
1644358129.533,-1000.000,-982.910,-32.227,-336.914
1644358129.537,214.844,340.820,139.648,87.891
1644358129.541,-883.789,921.387,62.988,344.727
1644358129.545,0.488,59.082,-91.797,-36.133
1644358129.548,-1000.000,-915.527,-80.078,-368.652
1644358129.552,-179.688,-152.344,64.453,-65.918
1644358129.556,-863.281,-907.715,114.746,314.941
1644358129.560,394.043,667.480,-3.418,96.680
1644358129.564,-1000.000,-693.359,-99.609,-313.965
1644358129.568,-565.918,-708.496,15.625,-169.434
1644358129.571,897.461,311.035,98.633,283.691
1644358129.575,727.539,380.371,20.020,222.656
1644358129.579,-699.219,-458.008,-57.129,-246.582
1644358129.583,-859.863,-892.090,-28.320,-280.762
1644358129.587,510.742,-115.723,81.055,172.852
1644358129.591,981.445,826.172,104.004,294.922
1644358129.653,-295.898,236.816,-57.617,-131.348
1644358129.657,-1000.000,-1000.000,-117.676,-344.238
1644358129.661,103.027,-228.516,61.523,45.898
1644358129.665,-857.910,-854.004,120.605,327.148
1644358129.669,106.934,451.172,-62.988,-1.953
1644358129.673,-1000.000,-1000.000,-188.477,-343.750
1644358129.676,-299.805,-610.840,-12.695,-84.961
1644358129.680,-904.785,928.711,163.086,312.988
1644358129.684,494.629,632.812,-5.859,134.766
1644358129.688,-963.867,-865.723,-160.645,-300.293
1644358129.692,-652.344,-611.328,8.301,-197.754
1644358129.696,804.199,809.570,177.734,251.953
1644358129.658,805.664,-1000.000,48.340,238.281
1644358129.662,-583.496,-329.102,-100.586,-216.797
1644358129.666,-930.664,-911.621,-12.695,-297.363
1644358129.670,400.391,437.988,156.250,144.043
1644358129.674,-967.773,-942.383,93.262,307.617
1644358129.678,-206.055,-184.570,-109.863,-91.797
1644358129.681,-1000.000,-1000.000,-85.449,-339.355
1644358129.685,-1.465,-1.465,140.137,1.465
1644358129.689,-850.098,-880.371,146.484,309.570
1644358129.693,195.312,139.160,-46.875,20.996
1644358129.697,-1000.000,-1000.000,-94.238,-353.516
1644358129.701,-399.902,-590.332,47.852,-133.301
1644358129.698,-972.656,723.633,113.770,285.156
1644358129.702,569.824,606.934,6.836,144.531
1644358129.706,-879.395,-697.754,-87.402,-297.363
1644358129.710,-740.723,-697.754,11.230,-248.047
1644358129.714,684.570,617.676,102.539,194.824
1644358129.718,865.234,732.910,-15.137,246.582
1644358129.721,-487.793,-467.773,-118.164,-194.824
1644358129.725,-994.141,-942.871,-52.734,-345.703
1644358129.729,298.340,169.922,44.922,69.824
1644358129.733,-941.895,179.199,-32.227,281.250
1644358129.737,-132.324,-831.543,-136.230,-77.637
1644358129.741,-1000.000,-1000.000,-56.152,-356.445
1644358129.743,-117.676,-192.383,86.914,-51.270
1644358129.747,-862.793,958.008,95.215,276.855
1644358129.751,295.898,687.988,-44.434,24.414
1644358129.755,-1000.000,-664.062,-149.902,-349.609
1644358129.759,-507.812,-837.891,-36.133,-169.922
1644358129.763,942.383,537.598,91.797,253.418
1644358129.766,659.180,866.699,20.020,161.621
1644358129.770,-780.762,-350.098,-126.465,-277.832
1644358129.774,-821.777,-1000.000,-158.203,-267.090
1644358129.778,570.312,3.906,6.836,174.805
1644358129.782,921.875,-936.035,-0.488,248.535
1644358129.786,-393.066,-247.559,-196.289,-170.898
1644358129.788,-1000.000,-984.375,-144.043,-338.867
1644358129.792,180.664,261.230,55.664,42.480
1644358129.796,-882.324,-827.148,46.387,295.898
1644358129.800,10.742,226.074,-168.945,-35.645
1644358129.804,-1000.000,-1000.000,-243.164,-341.309
1644358129.808,-200.684,-417.480,-16.113,-51.270
1644358129.811,-869.629,-940.918,102.539,313.965
1644358129.815,400.391,414.551,-112.793,92.285
1644358129.819,-1000.000,-1000.000,-213.867,-329.102
1644358129.823,-571.777,-392.090,20.996,-184.082
1644358129.827,887.695,957.031,110.840,271.973
1644358129.831,740.723,771.973,-38.086,221.680
1644358129.832,-681.152,-513.184,-167.969,-250.000
1644358129.836,-871.094,-771.484,-64.941,-296.387
1644358129.840,496.094,532.715,70.801,168.945
1644358129.844,989.746,-929.688,6.836,299.316
1644358129.848,-281.738,16.602,-136.719,-137.207
1644358129.852,-1000.000,-1000.000,-127.930,-349.609
1644358129.855,92.773,10.742,67.871,41.016
1644358129.859,-862.793,734.375,33.203,334.961
1644358129.863,101.074,-511.719,-116.699,3.418
1644358129.867,-1000.000,-1000.000,-75.684,-372.559
1644358129.871,-302.734,-419.922,34.180,-109.375
1644358129.875,-915.527,707.520,98.145,306.152
1644358129.877,517.090,762.695,7.812,123.047
1644358129.881,-937.500,-479.004,-87.402,-310.547
1644358129.885,-657.227,-792.480,-18.555,-210.938
1644358129.889,792.969,499.023,115.234,233.398
1644358129.893,816.895,956.055,48.828,223.633
1644358129.897,-563.965,-269.531,-145.508,-216.797
1644358129.900,-934.082,-1000.000,-120.117,-303.223
1644358129.904,372.070,-267.090,58.105,107.910
1644358129.908,-973.145,997.070,80.078,273.926
1644358129.912,-175.293,133.301,-82.520,-100.098
1644358129.916,-1000.000,-1000.000,-128.906,-346.191
1644358129.920,-15.137,-185.547,57.617,-9.277
1644358129.922,-849.609,-850.586,134.277,291.016
1644358129.926,229.980,530.273,-76.172,5.371
1644358129.930,-1000.000,-879.395,-159.668,-355.469
1644358129.934,-402.832,-372.070,15.625,-145.020
1644358129.938,-970.703,-951.660,97.656,253.418
1644358129.942,588.379,589.844,-71.777,122.559
1644358129.945,-857.422,-843.750,-216.797,-291.504
1644358129.949,-752.930,-708.008,-62.988,-257.324
1644358129.953,669.434,709.473,123.047,149.414
1644358129.957,869.141,939.453,-7.812,186.035
1644358129.961,-477.539,-378.418,-193.359,-233.887
1644358129.965,-1000.000,-1000.000,-142.090,-357.422
1644358129.969,266.602,138.672,51.270,37.598
1644358129.973,-919.922,-924.805,30.273,242.676
1644358129.977,-88.379,-211.914,-192.383,-103.516
1644358129.981,-1000.000,-1000.000,-139.648,-386.230
1644358129.985,-121.094,25.879,62.500,-84.473
1644358129.989,-862.793,991.699,10.254,270.508
1644358129.992,308.105,-71.777,-149.902,34.180
1644358129.996,-1000.000,-1000.000,-148.926,-354.980
1644358130.000,-504.395,-395.996,-26.855,-183.105
1644358130.004,941.895,786.133,31.250,229.004
1644358130.008,670.410,789.551,-85.449,146.973
1644358130.012,-779.297,-398.926,-196.289,-283.691
1644358130.028,-792.480,-738.770,-117.676,-277.832
1644358130.032,612.305,359.375,-12.207,157.715
1644358130.036,927.246,930.176,-53.223,223.633
1644358130.040,-372.559,-15.625,-181.152,-189.941
1644358130.044,-1000.000,-916.504,-170.898,-364.746
1644358130.048,164.551,-475.586,-80.078,22.949
1644358130.051,-891.113,185.059,-44.434,267.578
1644358130.055,12.207,187.500,-88.379,-87.402
1644358130.059,-1000.000,-947.266,-175.293,-404.785
1644358130.063,-242.188,-425.781,-40.527,-131.348
1644358130.067,-889.648,-989.258,29.785,243.652
1644358130.071,414.551,642.578,-108.887,45.410
1644358130.073,-1000.000,-719.238,-214.844,-365.234
1644358130.077,-598.145,-764.648,-90.332,-224.609
1644358130.081,861.328,679.199,86.426,214.844
1644358130.085,753.418,964.355,-24.902,170.898
1644358130.089,-658.691,-366.211,-199.219,-270.996
1644358130.093,-900.391,-994.141,-105.469,-324.707
1644358130.096,452.148,241.211,105.469,113.770
1644358130.100,-1000.000,-854.492,91.309,247.070
1644358130.104,-268.066,-16.113,-147.461,-158.691
1644358130.108,-1000.000,-1000.000,-148.438,-364.746
1644358130.112,82.031,76.660,138.184,-2.930
1644358130.116,-857.910,-812.988,133.789,284.668
1644358130.117,115.723,263.184,-78.613,-30.762
1644358130.121,-1000.000,-1000.000,-109.375,-391.602
1644358130.125,-328.125,-236.816,60.547,-145.508
1644358130.129,-925.293,-907.227,135.742,265.137
1644358130.133,518.555,543.945,-26.855,111.816
1644358130.137,-939.453,-856.934,-135.742,-314.941
1644358130.140,-681.641,-793.945,6.348,-235.352
1644358130.144,770.020,695.801,133.789,208.008
1644358130.148,814.453,380.859,-10.254,216.309
1644358130.152,-569.336,-1000.000,-114.746,-225.586
1644358130.156,-949.219,-977.539,7.812,-313.965
1644358130.160,366.211,152.832,113.281,116.699
1644358130.162,-955.078,899.414,94.238,291.504
1644358130.166,-171.875,17.090,-27.832,-84.961
1644358130.170,-1000.000,-882.812,-42.480,-336.426
1644358130.174,-27.832,-68.359,66.406,-11.719
1644358130.178,-851.074,-917.480,84.961,296.387
1644358130.182,227.539,336.914,-72.754,27.344
1644358130.185,-1000.000,-961.914,-157.715,-342.285
1644358130.189,-443.359,-770.996,-41.016,-136.230
1644358130.193,-999.512,417.480,53.711,286.133
1644358130.197,604.980,704.102,-14.160,161.133
1644358130.201,-854.004,-597.168,-150.391,-280.762
1644358130.205,-762.207,-1000.000,-86.914,-241.211
1644358130.207,661.621,172.363,96.191,200.195
1644358130.211,889.160,-908.203,55.664,255.859
1644358130.215,-456.055,-135.254,-143.066,-177.734
1644358130.219,-1000.000,-1000.000,-107.422,-324.219
1644358130.223,265.625,202.148,86.426,89.844
1644358130.227,-904.785,-882.812,44.434,319.336
1644358130.230,-59.082,5.859,-133.789,-49.316
1644358130.234,-1000.000,-1000.000,-166.992,-344.238
1644358130.238,-130.371,-221.680,44.434,-43.457
1644358130.242,-851.562,-863.770,141.113,289.062
1644358130.246,341.309,444.336,-74.219,62.012
1644358130.250,-1000.000,-973.145,-180.176,-323.242
1644358130.253,-523.926,-620.117,8.789,-166.504
1644358130.257,932.617,874.512,144.531,243.652
1644358130.261,683.594,737.793,-37.598,159.668
1644358130.265,-755.371,-764.160,-179.688,-266.113
1644358130.269,-827.637,-850.586,-28.809,-276.367
1644358130.273,562.988,542.969,89.355,150.879
1644358130.276,946.777,846.680,-20.508,239.258
1644358130.280,-357.910,-456.055,-155.762,-162.109
1644358130.284,-1000.000,-995.117,-84.961,-333.008
1644358130.288,166.016,286.133,72.266,37.598
1644358130.292,-883.789,860.352,11.230,298.340
1644358130.296,21.973,-251.953,-158.691,-25.391
1644358130.297,-1000.000,-995.605,-118.164,-350.098
1644358130.301,-254.883,-160.156,12.207,-81.543
1644358130.305,-893.066,-955.566,32.227,273.926
1644358130.309,430.176,645.020,-86.914,76.172
1644358130.313,-1000.000,-700.684,-164.062,-312.012
1644358130.317,-619.629,-720.215,-63.477,-194.824
1644358130.320,838.379,217.773,0.000,222.656
1644358130.324,754.395,236.816,-73.730,180.664
1644358130.328,-656.250,-443.848,-122.070,-266.113
1644358130.332,-904.297,-894.043,-99.121,-324.219
1644358130.336,442.383,200.684,13.184,105.469
1644358130.340,998.535,-948.242,-7.324,242.676
1644358130.342,-258.789,127.441,-131.348,-149.902
1644358130.346,-1000.000,-1000.000,-155.273,-354.492
1644358130.350,36.621,-450.684,-1.465,-3.906
1644358130.354,-863.281,-977.539,86.914,269.043
1644358130.358,128.906,478.027,-99.609,-24.902
1644358130.362,-1000.000,-1000.000,-216.797,-362.305
1644358130.365,-357.910,-644.531,-72.754,-142.090
1644358130.369,-944.336,787.109,79.102,230.469
1644358130.373,522.949,820.801,-45.898,79.102
1644358130.377,-933.594,-629.883,-230.957,-325.684
1644358130.381,-692.871,-668.457,-102.539,-255.859
1644358130.385,748.047,764.648,82.520,152.344
1644358130.402,829.102,-994.141,-13.184,158.203
1644358130.406,-543.945,-308.594,-238.770,-244.141
1644358130.410,-966.797,-955.566,-169.922,-331.055
1644358130.414,340.332,353.516,65.430,55.664
1644358130.418,-946.777,-889.160,-5.859,235.840
1644358130.422,-154.297,-85.938,-209.961,-115.234
1644358130.425,-1000.000,-1000.000,-190.918,-371.582
1644358130.429,-50.781,-70.801,6.836,-58.105
1644358130.433,-844.727,-838.379,21.484,270.020
1644358130.437,245.605,119.629,-176.270,8.789
1644358130.441,-1000.000,-1000.000,-223.633,-366.699
1644358130.445,-436.035,-455.078,-27.344,-155.762
1644358130.447,-987.793,-986.328,57.129,266.602
1644358130.451,592.285,191.895,-132.812,151.367
1644358130.455,-867.676,-1000.000,-185.547,-307.129
1644358130.459,-761.719,-650.879,-49.316,-279.297
1644358130.463,636.719,614.746,12.207,163.086
1644358130.467,858.887,941.406,-80.078,208.984
1644358130.470,-453.125,-316.895,-189.453,-209.473
1644358130.474,-1000.000,-910.156,-113.281,-356.445
1644358130.478,239.258,107.422,-17.578,64.453
1644358130.482,-907.227,824.707,-41.504,296.387
1644358130.486,-59.082,97.656,-141.113,-77.148
1644358130.490,-1000.000,-1000.000,-172.363,-374.023
1644358130.508,-165.527,-446.777,-37.109,-61.523
1644358130.512,-863.281,805.176,36.621,296.875
1644358130.516,349.609,695.801,-85.449,58.105
1644358130.520,-1000.000,-738.281,-185.547,-334.473
1644358130.524,-512.695,-729.492,-44.922,-164.551
1644358130.528,958.496,679.688,51.758,261.230
1644358130.531,685.547,858.398,-41.992,170.898
1644358130.535,-745.605,-394.531,-177.246,-270.508
1644358130.539,-857.910,-1000.000,-135.254,-276.855
1644358130.543,523.926,123.047,81.543,165.527
1644358130.547,950.195,-960.449,43.457,247.070
1644358130.551,-352.539,-232.910,-149.414,-180.176
1644358130.539,-1000.000,-1000.000,-118.652,-353.027
1644358130.543,139.648,-27.832,88.867,27.832
1644358130.547,-872.559,-840.820,126.465,282.715
1644358130.551,47.363,322.266,-89.355,-45.898
1644358130.555,-1000.000,-1000.000,-154.785,-369.629
1644358130.559,-269.043,-473.633,51.270,-90.332
1644358130.562,-890.625,-954.102,143.066,291.016
1644358130.566,439.941,461.914,-59.570,88.867
1644358130.570,-1000.000,-1000.000,-165.039,-333.496
1644358130.574,-629.395,-555.176,8.301,-224.609
1644358130.578,832.031,949.707,129.395,227.051
1644358130.582,760.254,535.645,-38.574,214.355
1644358130.582,-654.785,-963.379,-169.922,-237.305
1644358130.586,-909.668,-852.051,-5.859,-305.176
1644358130.590,439.453,516.602,103.027,127.441
1644358130.594,-998.047,769.531,-2.441,274.414
1644358130.598,-255.859,-410.156,-120.117,-133.301
1644358130.602,-1000.000,-1000.000,-72.266,-365.723
1644358130.605,39.551,-62.988,106.934,-12.695
1644358130.609,-863.770,684.570,88.379,300.781
1644358130.613,125.977,-398.926,-49.316,9.766
1644358130.617,-1000.000,-1000.000,-17.578,-368.652
1644358130.621,-356.934,-448.242,82.031,-117.676
1644358130.625,-942.871,700.195,165.039,300.293
1644358130.627,535.156,755.859,61.523,126.465
1644358130.631,-919.434,-490.723,-58.105,-317.383
1644358130.635,-717.773,-795.898,24.414,-230.957
1644358130.639,720.703,517.578,150.391,208.496
1644358130.643,833.984,938.965,78.613,212.891
1644358130.647,-536.621,-288.086,-78.125,-217.285
1644358130.650,-975.586,-1000.000,-43.457,-323.730
1644358130.654,325.195,-646.973,96.191,97.168
1644358130.658,-945.312,788.574,162.598,279.297
1644358130.662,-145.508,416.992,9.766,-100.098
1644358130.666,-1000.000,-958.984,-53.223,-355.469
1644358130.670,-75.195,-52.734,107.422,-30.762
1644358130.673,-852.051,-842.773,164.551,284.668
1644358130.677,262.695,552.246,4.395,20.508
1644358130.681,-1000.000,-850.586,-83.984,-349.121
1644358130.685,-461.426,-462.891,70.801,-160.645
1644358130.689,981.445,981.934,166.992,247.559
1644358130.693,627.930,652.832,-1.465,143.066
1644358130.696,-844.238,-777.832,-123.047,-294.434
1644358130.700,-731.934,-733.398,28.809,-252.930
1644358130.704,715.332,674.316,151.855,181.641
1644358130.708,880.371,921.875,49.316,199.707
1644358130.712,-440.918,-420.410,-169.434,-200.195
1644358130.716,-1000.000,-1000.000,-79.590,-330.078
1644358130.718,218.750,229.980,187.012,27.832
1644358130.722,-908.203,-909.668,110.840,245.605
1644358130.726,-42.969,147.461,-64.941,-83.008
1644358130.730,-1000.000,-933.594,-59.082,-373.047
1644358130.734,-193.848,-39.062,82.520,-91.797
1644358130.738,-878.906,-996.582,76.660,258.789
1644358130.741,338.379,-39.062,-67.871,46.875
1644358130.745,-1000.000,-1000.000,-63.965,-362.793
1644358130.749,-560.547,-372.070,52.734,-229.004
1644358130.753,901.367,902.344,111.328,197.754
1644358130.757,676.270,854.492,-2.441,129.395
1644358130.761,-770.508,-472.168,-140.625,-306.152
1644358130.763,-850.586,-820.312,-49.316,-315.430
1644358130.767,520.996,370.605,79.590,128.418
1644358130.771,948.730,-968.262,26.855,243.164
1644358130.775,-340.332,-42.480,-131.348,-184.082
1644358130.779,-1000.000,-969.727,-121.582,-387.207
1644358130.783,101.562,-487.305,-6.348,16.113
1644358130.786,-878.906,480.957,33.691,286.133
1644358130.790,49.805,503.418,-43.945,-71.777
1644358130.794,-1000.000,-915.527,-127.441,-400.391
1644358130.798,-290.039,-496.582,12.207,-129.883
1644358130.802,-908.203,949.219,75.684,254.395
1644358130.806,453.613,706.055,-44.434,75.195
1644358130.839,-992.676,-662.109,-152.344,-337.402
1644358130.843,-655.273,-852.051,-60.059,-226.074
1644358130.847,796.875,502.930,122.559,206.543
1644358130.851,778.809,-977.051,59.082,195.312
1644358130.855,-622.070,-243.164,-145.020,-237.793
1644358130.859,-919.922,-1000.000,-112.305,-310.059
1644358130.862,409.668,155.273,116.699,113.770
1644358130.866,-968.262,-847.656,94.238,272.461
1644358130.870,-204.102,12.207,-158.691,-107.422
1644358130.874,-1000.000,-1000.000,-156.250,-340.332
1644358130.878,8.301,73.242,81.543,-8.301
1644358130.882,-851.074,-826.172,71.777,289.551
1644358130.897,181.641,258.789,-115.723,-0.488
1644358130.901,-1000.000,-1000.000,-152.344,-357.910
1644358130.905,-372.559,-295.410,8.301,-134.766
1644358130.909,-956.543,-949.707,67.383,272.949
1644358130.913,560.059,527.344,-84.473,132.812
1644358130.917,-889.648,-869.629,-189.941,-300.781
1644358130.920,-725.098,-819.336,-47.363,-234.375
1644358130.924,706.543,566.406,102.051,207.520
1644358130.928,850.098,790.527,-1.465,234.863
1644358130.932,-502.930,-416.992,-133.789,-192.383
1644358130.936,-990.234,-1000.000,-90.820,-305.176
1644358130.940,301.758,184.082,61.035,91.309
1644358130.912,-943.359,571.777,-18.555,286.133
1644358130.916,-138.672,-794.434,-151.367,-65.430
1644358130.920,-1000.000,-1000.000,-42.969,-333.496
1644358130.924,-74.707,-34.180,61.523,-14.648
1644358130.928,-855.469,-943.359,58.594,307.617
1644358130.932,286.133,393.555,-92.773,49.316
1644358130.935,-1000.000,-921.387,-162.598,-322.754
1644358130.939,-478.516,-761.719,-38.086,-144.043
1644358130.943,961.426,510.742,77.637,255.371
1644358130.947,651.855,910.645,-6.836,150.391
1644358130.951,-784.668,-354.980,-150.391,-261.719
1644358130.955,-807.129,-1000.000,-84.961,-241.211
1644358130.957,590.332,218.750,73.730,172.363
1644358130.961,910.156,-924.805,33.203,242.676
1644358130.965,-408.691,7.812,-122.559,-156.738
1644358130.969,-1000.000,-1000.000,-148.926,-293.945
1644358130.973,196.777,-452.637,24.902,89.844
1644358130.977,-901.855,977.051,111.328,296.875
1644358130.980,-20.020,198.730,-65.918,-47.852
1644358130.984,-1000.000,-1000.000,-140.137,-333.984
1644358130.988,-195.312,-261.230,66.406,-46.875
1644358130.992,-873.047,-877.930,150.391,299.805
1644358130.996,396.973,493.164,-34.180,82.520
1644358131.000,-1000.000,-967.285,-166.992,-309.082
1644358131.003,-574.219,-540.039,17.090,-181.152
1644358131.007,885.254,949.219,218.262,234.375
1644358131.011,724.609,822.266,33.691,187.012
1644358131.015,-700.684,-602.051,-109.863,-246.582
1644358131.019,-850.098,-875.488,4.395,-277.344
1644358131.023,521.484,531.250,129.395,163.086
1644358131.026,978.516,863.770,35.156,285.645
1644358131.030,-306.152,-588.867,-110.840,-125.488
1644358131.034,-1000.000,-1000.000,3.418,-322.754
1644358131.038,124.023,262.695,143.555,57.617
1644358131.042,-865.234,-962.402,83.008,327.148
1644358131.046,90.332,215.820,-70.801,-5.371
1644358131.079,-1000.000,-964.844,-94.727,-352.539
1644358131.083,-280.762,-221.680,68.848,-88.867
1644358131.087,-901.855,958.984,120.605,309.082
1644358131.091,483.887,633.301,-5.371,119.629
1644358131.095,-964.844,-568.848,-94.727,-301.758
1644358131.099,-641.602,-793.945,-9.277,-196.777
1644358131.102,810.059,509.277,137.207,229.004
1644358131.106,798.828,999.512,77.148,209.473
1644358131.110,-586.914,-162.598,-82.031,-219.238
1644358131.114,-929.199,-836.426,-47.363,-300.293
1644358131.118,395.508,-311.523,47.363,117.676
1644358131.122,-969.727,479.004,69.824,269.043
1644358131.092,-198.242,299.805,-7.812,-125.488
1644358131.096,-1000.000,-1000.000,-78.613,-357.910
1644358131.100,-2.441,-267.090,61.035,-16.602
1644358131.104,-852.539,-882.324,134.766,278.320
1644358131.108,206.543,553.711,-11.230,1.465
1644358131.112,-1000.000,-925.293,-128.906,-331.055
1644358131.115,-392.578,-534.668,36.133,-115.723
1644358131.119,-967.285,944.824,168.945,257.812
1644358131.123,583.008,821.777,17.578,118.164
1644358131.127,-863.281,-582.031,-165.039,-289.551
1644358131.131,-736.328,-756.348,-59.570,-249.023
1644358131.135,693.359,643.066,107.422,158.691
1644358131.152,860.840,-971.191,17.578,198.242
1644358131.156,-494.629,-262.207,-210.938,-201.172
1644358131.160,-995.117,-1000.000,-176.758,-316.406
1644358131.164,292.969,221.680,102.539,51.270
1644358131.168,-922.852,-889.648,53.711,242.188
1644358131.172,-100.098,-68.359,-172.363,-98.145
1644358131.175,-1000.000,-1000.000,-180.664,-369.141
1644358131.179,-102.539,-188.965,10.742,-61.523
1644358131.183,-851.074,-855.957,62.988,268.555
1644358131.187,293.945,157.715,-169.434,34.180
1644358131.191,-1000.000,-1000.000,-225.586,-349.121
1644358131.195,-481.445,-458.984,-6.836,-182.617
1644358131.197,971.191,934.570,49.805,238.281
1644358131.201,652.344,521.973,-83.008,142.578
1644358131.205,-792.480,-762.695,-155.762,-283.691
1644358131.209,-798.828,-704.102,-70.312,-277.344
1644358131.213,605.469,626.953,34.180,156.250
1644358131.217,924.316,952.148,-54.199,251.953
1644358131.220,-392.090,-298.340,-171.387,-160.645
1644358131.224,-1000.000,-963.867,-117.676,-330.566
1644358131.228,200.195,-52.246,-20.508,51.270
1644358131.232,-893.555,419.434,-30.273,282.227
1644358131.236,-12.207,-21.973,-96.680,-67.871
1644358131.240,-1000.000,-848.633,-145.508,-367.676
1644358131.242,-206.543,-396.973,-23.926,-83.008
1644358131.246,-880.371,940.430,63.965,262.695
1644358131.250,395.996,713.867,-72.266,65.430
1644358131.254,-1000.000,-678.223,-178.711,-325.195
1644358131.258,-562.500,-793.457,-66.406,-188.965
1644358131.262,905.273,606.445,52.734,234.863
1644358131.265,727.539,776.367,-32.715,173.340
1644358131.269,-687.500,-473.145,-154.297,-268.555
1644358131.273,-879.395,-1000.000,-119.629,-294.922
1644358131.277,463.867,55.176,55.664,125.000
1644358131.281,962.891,-961.914,29.785,241.211
1644358131.285,-290.527,-171.387,-165.039,-140.625
1644358131.287,-1000.000,-1000.000,-193.848,-344.238
1644358131.291,73.242,-101.562,41.992,22.949
1644358131.295,-859.375,-813.965,102.051,301.270
1644358131.299,107.910,346.191,-135.742,-6.348
1644358131.303,-1000.000,-1000.000,-178.711,-346.680
1644358131.307,-300.293,-483.887,-7.812,-96.191
1644358131.310,-907.227,983.887,70.312,293.945
1644358131.314,487.793,470.703,-109.863,122.559
1644358131.318,-968.750,-1000.000,-205.078,-307.129
1644358131.322,-654.297,-558.105,4.883,-218.750
1644358131.326,798.340,844.238,106.934,233.398
1644358131.330,810.547,812.500,-25.879,226.562
1644358131.347,-577.148,-425.781,-170.898,-218.262
1644358131.351,-934.082,-1000.000,-109.863,-300.293
1644358131.355,392.090,275.879,62.012,118.164
1644358131.359,-954.590,883.789,-1.953,293.945
1644358131.363,-179.199,-229.004,-163.086,-86.914
1644358131.367,-1000.000,-1000.000,-135.254,-333.984
1644358131.370,0.000,-83.984,41.504,6.836
1644358131.374,-848.145,755.859,29.297,317.383
1644358131.378,220.703,-5.371,-92.773,33.691
1644358131.382,-1000.000,-810.547,-84.473,-339.844
1644358131.386,-398.438,-548.828,13.672,-123.047
1644358131.390,-968.750,608.398,96.191,283.203
1644358131.377,606.445,802.734,32.715,141.602
1644358131.381,-862.305,-435.547,-94.727,-295.898
1644358131.385,-705.566,-815.918,-47.363,-229.980
1644358131.389,744.629,487.305,80.078,214.844
1644358131.393,874.023,993.652,32.227,229.980
1644358131.397,-469.238,-199.219,-118.164,-184.570
1644358131.400,-994.141,-1000.000,-101.074,-305.176
1644358131.404,289.062,-132.324,83.008,89.355
1644358131.408,-914.551,-865.234,100.586,289.062
1644358131.412,-81.543,315.918,-74.219,-81.543
1644358131.416,-1000.000,-1000.000,-164.551,-353.027
1644358131.420,-118.652,-546.875,3.906,-24.902
1644358131.422,-853.027,971.191,144.531,303.223
1644358131.426,322.754,678.711,-50.293,43.945
1644358131.430,-1000.000,-818.359,-174.805,-343.262
1644358131.434,-500.977,-466.309,-13.672,-167.969
1644358131.438,957.031,991.211,95.215,254.883
1644358131.442,667.969,659.668,-53.223,167.480
1644358131.445,-777.344,-758.301,-212.402,-263.672
1644358131.449,-814.941,-774.902,-73.730,-273.926
1644358131.453,583.496,614.258,143.066,149.902
1644358131.457,940.918,-992.188,20.020,248.535
1644358131.461,-370.605,-296.875,-184.082,-155.273
1644358131.465,-1000.000,-1000.000,-122.559,-326.172
1644358131.467,183.105,133.301,97.656,51.270
1644358131.471,-878.906,-884.766,89.844,306.641
1644358131.475,17.578,-137.695,-104.492,-34.668
1644358131.479,-1000.000,-1000.000,-88.379,-364.258
1644358131.483,-221.680,-90.820,87.891,-86.914
1644358131.487,-876.953,998.535,98.145,285.645
1644358131.490,396.484,18.066,-42.480,76.660
1644358131.494,-1000.000,-1000.000,-46.875,-339.355
1644358131.498,-593.262,-505.859,63.965,-202.637
1644358131.502,861.328,601.074,111.328,235.352
1644358131.506,744.141,757.324,33.203,188.477
1644358131.510,-670.898,-310.059,-53.223,-254.395
1644358131.527,-889.648,-824.707,-0.488,-294.922
1644358131.531,465.820,361.328,123.535,145.508
1644358131.535,990.234,-919.922,89.844,272.949
1644358131.539,-277.344,113.770,-59.570,-137.695
1644358131.543,-1000.000,-988.281,-71.289,-349.121
1644358131.547,65.918,-278.809,59.570,19.043
1644358131.550,-860.840,955.566,113.770,298.340
1644358131.554,126.465,505.371,-18.066,-22.461
1644358131.558,-1000.000,-881.348,-120.117,-372.070
1644358131.562,-340.332,-875.977,8.789,-125.977
1644358131.566,-935.059,595.215,129.395,260.254
1644358131.570,506.348,595.215,3.906,95.703
1644358131.572,-943.359,-809.082,-121.094,-309.570
1644358131.576,-687.500,-1000.000,-44.434,-218.262
1644358131.580,757.812,199.219,140.625,201.660
1644358131.584,817.383,-946.777,74.707,201.172
1644358131.588,-563.477,-237.793,-153.320,-210.938
1644358131.592,-950.195,-1000.000,-115.723,-307.617
1644358131.595,362.793,193.359,80.078,95.215
1644358131.599,-954.102,-827.637,79.590,258.789
1644358131.603,-166.504,56.152,-161.621,-113.281
1644358131.607,-1000.000,-1000.000,-180.176,-354.004
1644358131.611,-31.738,10.742,85.449,-49.805
1644358131.615,-850.586,-833.984,97.168,248.535
1644358131.618,226.562,324.707,-89.355,1.465
1644358131.622,-1000.000,-1000.000,-144.043,-346.680
1644358131.626,-434.570,-571.777,0.977,-150.879
1644358131.630,-997.070,948.730,99.609,245.117
1644358131.634,590.820,425.781,-71.777,114.258
1644358131.638,-857.910,-1000.000,-185.547,-311.523
1644358131.641,-770.020,-736.816,-26.855,-281.250
1644358131.645,648.438,608.887,105.469,149.414
1644358131.649,867.188,859.375,6.348,203.613
1644358131.653,-476.562,-285.156,-128.906,-210.938
1644358131.657,-1000.000,-1000.000,-106.934,-337.891
1644358131.661,258.789,98.145,47.852,48.828
1644358131.663,-925.293,582.031,-7.324,261.719
1644358131.667,-92.773,-611.328,-136.719,-84.473
1644358131.671,-1000.000,-1000.000,-89.355,-357.910
1644358131.675,-123.047,-187.012,29.297,-50.781
1644358131.679,-863.281,989.746,68.359,280.762
1644358131.683,317.383,400.879,-73.242,44.922
1644358131.686,-1000.000,-910.156,-146.973,-333.496
1644358131.690,-528.320,-809.082,-41.992,-171.875
1644358131.694,919.922,-21.484,24.414,238.770
1644358131.698,678.223,605.957,3.418,148.438
1644358131.702,-755.371,-275.879,-118.164,-277.344
1644358131.706,-836.426,-976.562,-98.145,-266.113
1644358131.708,548.828,344.727,80.566,161.133
1644358131.712,939.941,-897.461,36.621,249.023
1644358131.716,-362.793,-32.227,-145.020,-154.297
1644358131.720,-1000.000,-1000.000,-110.352,-328.125
1644358131.724,151.855,117.188,66.406,38.574
1644358131.728,-883.301,-851.074,42.969,289.551
1644358131.731,28.320,106.445,-113.770,-42.480
1644358131.735,-1000.000,-1000.000,-196.289,-351.562
1644358131.739,-250.000,-515.137,-9.766,-69.824
1644358131.743,-886.230,979.492,154.785,294.922
1644358131.747,427.734,569.824,-51.270,97.168
1644358131.751,-1000.000,-922.852,-174.805,-317.383
1644358131.752,-616.211,-518.066,12.207,-207.031
1644358131.756,842.285,907.227,145.996,227.539
1644358131.760,759.766,835.938,-8.301,203.125
1644358131.764,-654.785,-527.832,-149.902,-239.746
1644358131.768,-894.531,-911.133,-50.781,-303.223
1644358131.772,452.637,433.105,89.355,130.371
1644358131.775,-981.934,923.828,12.207,267.090
1644358131.779,-288.086,-524.414,-145.996,-140.625
1644358131.783,-1000.000,-996.094,-44.434,-317.871
1644358131.787,219.727,333.008,107.422,50.781
1644358131.791,-876.465,866.211,47.363,289.062
1644358131.795,137.695,42.969,-87.891,4.883
1644358131.797,-1000.000,-883.301,-94.727,-331.543
1644358131.801,-328.125,-258.789,19.043,-99.609
1644358131.805,-929.199,-979.004,85.449,291.016
1644358131.809,534.668,772.949,-19.531,130.859
1644358131.813,-916.504,-555.176,-129.883,-291.504
1644358131.817,-686.523,-780.762,-40.527,-222.168
1644358131.820,758.789,95.703,35.156,213.867
1644358131.824,829.102,527.832,-7.324,218.750
1644358131.828,-546.387,-164.551,-79.102,-215.820
1644358131.832,-953.125,-979.492,-84.473,-306.641
1644358131.836,357.422,32.715,56.641,116.211
1644358131.840,-946.777,-928.223,84.961,299.805
1644358131.843,-155.273,124.023,-89.844,-75.195
1644358131.847,-1000.000,-1000.000,-151.367,-335.449
1644358131.851,-50.293,-648.926,12.207,-1.465
1644358131.855,-851.074,824.219,136.719,310.059
1644358131.859,255.371,591.797,-37.598,25.879
1644358131.863,-1000.000,-987.793,-185.547,-329.590
1644358131.866,-445.312,-572.754,-6.348,-128.906
1644358131.870,999.023,895.996,157.227,266.602
1644358131.874,627.930,887.207,11.719,147.461
1644358131.878,-822.754,-486.816,-152.344,-272.461
1644358131.882,-758.789,-782.227,-45.898,-233.398
1644358131.886,662.109,549.805,127.930,191.895
1644358131.889,899.414,-955.078,58.105,250.000
1644358131.893,-431.152,-194.824,-117.676,-164.062
1644358131.897,-1000.000,-1000.000,-80.566,-307.617
1644358131.901,255.371,134.277,91.309,80.078
1644358131.905,-956.055,-934.570,82.031,263.184
1644358131.909,-132.324,-99.609,-164.062,-86.426
1644358131.912,-1000.000,-1000.000,-148.926,-346.680
1644358131.916,-150.391,-84.961,110.840,-66.406
1644358131.920,-864.258,-888.672,111.328,277.344
1644358131.924,344.238,428.223,-72.266,45.410
1644358131.928,-1000.000,-958.496,-155.762,-332.520
1644358131.932,-538.086,-579.102,-3.906,-173.340
1644358131.948,917.480,832.520,104.492,236.816
1644358131.952,688.477,716.797,-26.367,164.062
1644358131.956,-744.141,-557.617,-138.672,-260.742
1644358131.960,-844.727,-806.641,-51.270,-282.227
1644358131.964,536.621,551.270,50.781,134.766
1644358131.968,943.359,465.332,-45.898,248.535
1644358131.971,-356.934,-745.605,-125.977,-155.273
1644358131.975,-1000.000,-895.508,-62.500,-341.309
1644358131.979,153.320,15.137,30.273,34.668
1644358131.983,-875.000,782.227,28.320,286.621
1644358131.987,57.617,369.141,-46.387,-45.410
1644358131.991,-1000.000,-815.918,-105.957,-367.676
1644358131.992,-256.348,-383.301,21.973,-102.539
1644358131.996,-889.648,955.078,116.699,269.043
1644358132.000,445.312,719.238,-34.668,73.242
1644358132.004,-1000.000,-653.320,-160.645,-339.355
1644358132.008,-614.258,-827.148,-51.270,-217.773
1644358132.012,839.844,528.320,77.148,234.863
1644358132.015,781.738,930.176,11.230,203.125
1644358132.019,-618.164,-236.328,-131.348,-234.375
1644358132.023,-911.621,-1000.000,-130.859,-278.320
1644358132.027,434.082,-219.727,63.477,144.043
1644358132.031,-984.375,-948.242,85.449,282.227
1644358132.035,-239.746,-110.352,-126.465,-123.047
1644358132.038,-1000.000,-1000.000,-117.676,-353.027
1644358132.042,38.574,53.711,108.398,9.277
1644358132.046,-827.637,-807.129,141.113,323.730
1644358132.050,101.562,345.703,-69.824,5.859
1644358132.054,-1000.000,-939.941,-132.812,-315.918
1644358132.058,-89.844,-415.039,32.227,-41.016
1644358132.061,-949.219,902.344,135.742,289.551
1644358132.065,533.691,541.016,-26.855,135.254
1644358132.069,-912.109,-1000.000,-161.133,-291.016
1644358132.073,-692.871,-657.227,40.527,-240.234
1644358132.077,752.441,790.527,138.184,214.355
1644358132.081,845.215,743.164,-18.066,247.559
1644358132.083,-521.484,-576.660,-136.230,-192.871
1644358132.087,-966.309,-867.676,-34.668,-307.617
1644358132.091,338.867,395.508,94.727,102.051
1644358132.095,-943.848,935.547,42.480,286.133
1644358132.099,-141.602,-70.801,-93.262,-89.355
1644358132.103,-1000.000,-1000.000,-105.957,-348.145
1644358132.106,-65.430,-177.246,66.406,-27.832
1644358132.110,-854.492,678.711,51.270,288.086
1644358132.114,244.629,-321.777,-91.797,23.438
1644358132.118,-1000.000,-993.652,-78.125,-354.004
1644358132.122,-460.449,-585.938,-0.977,-159.668
1644358132.126,992.676,562.012,87.891,256.836
1644358132.129,613.770,766.113,21.973,132.812
1644358132.133,-849.609,-490.234,-117.188,-290.039
1644358132.137,-772.949,-919.922,-56.641,-249.512
1644358132.141,636.230,329.102,95.215,185.547
1644358132.145,910.645,992.188,41.504,250.977
1644358132.149,-417.480,-159.180,-149.414,-170.898
1644358132.152,-1000.000,-1000.000,-148.438,-313.477
1644358132.156,230.469,-532.227,12.695,74.707
1644358132.160,-904.297,950.195,82.031,280.762
1644358132.164,-43.945,464.355,-93.750,-73.242
1644358132.168,-1000.000,-965.820,-181.641,-364.258
1644358132.172,-170.410,-151.367,0.488,-74.707
1644358132.173,-859.863,-875.488,81.055,280.762
1644358132.177,363.281,641.113,-101.562,61.523
1644358132.181,-1000.000,-753.418,-199.707,-343.750
1644358132.185,-551.270,-635.742,-31.250,-193.359
1644358132.189,909.668,795.410,74.219,243.652
1644358132.193,698.242,730.469,-50.781,174.316
1644358132.196,-734.863,-668.457,-228.027,-256.836
1644358132.200,-854.980,-856.934,-113.281,-280.762
1644358132.204,525.879,510.742,125.488,128.418
1644358132.208,957.520,-960.449,9.277,230.469
1644358132.212,-339.844,-270.996,-210.938,-169.922
1644358132.216,-1000.000,-1000.000,-153.809,-364.258
1644358132.233,125.977,218.750,31.250,5.371
1644358132.237,-869.141,-878.418,-14.160,272.949
1644358132.241,59.082,20.020,-199.707,-47.852
1644358132.245,-1000.000,-1000.000,-196.289,-375.000
1644358132.249,-264.648,-158.691,-48.340,-104.980
1644358132.253,-884.277,981.445,-37.109,288.086
1644358132.256,434.082,129.395,-184.570,95.703
1644358132.260,-1000.000,-1000.000,-224.609,-339.844
1644358132.264,-629.395,-507.812,-66.895,-241.699
1644358132.268,823.242,729.980,-27.832,200.195
1644358132.272,779.785,323.242,-158.691,187.988
1644358132.276,-619.141,-727.539,-182.129,-257.812
1644358132.277,-919.434,-816.406,-120.605,-319.336
1644358132.281,417.480,320.312,1.953,120.605
1644358132.285,-974.121,-906.250,-16.602,275.391
1644358132.289,-220.703,114.746,-180.664,-127.930
1644358132.293,-1000.000,-1000.000,-184.082,-366.211
1644358132.297,24.414,-268.066,-32.715,-12.207
1644358132.300,-851.074,-970.703,7.812,285.645
1644358132.304,171.387,504.883,-144.531,-13.672
1644358132.308,-1000.000,-784.668,-232.910,-380.371
1644358132.312,-372.070,-1000.000,-146.973,-138.184
1644358132.316,-950.195,95.215,-32.227,273.926
1644358132.320,548.340,752.930,-74.219,115.723
1644358132.323,-907.715,-621.094,-235.840,-320.312
1644358132.327,-725.098,-899.414,-158.203,-258.301
1644358132.331,714.355,513.184,40.527,187.988
1644358132.335,854.004,-933.594,-42.969,214.844
1644358132.339,-510.254,-165.039,-232.910,-215.332
1644358132.343,-988.281,-1000.000,-187.012,-334.961
1644358132.346,310.059,70.801,19.531,65.430
1644358132.350,-934.082,-813.477,24.902,235.840
1644358132.354,-129.883,104.980,-216.309,-134.277
1644358132.358,-1000.000,-1000.000,-234.375,-396.973
1644358132.362,-91.309,-41.504,7.324,-85.449
1644358132.366,-852.539,-830.078,29.785,247.559
1644358132.367,247.559,195.312,-199.219,-12.207
1644358132.371,-1000.000,-1000.000,-255.371,-388.672
1644358132.375,-491.699,-381.348,-13.184,-213.867
1644358132.379,958.984,993.652,41.992,196.289
1644358132.383,621.094,640.137,-110.352,104.004
1644358132.387,-831.543,-778.809,-215.332,-334.473
1644358132.390,-807.129,-812.988,-89.844,-322.754
1644358132.394,599.609,690.918,65.430,122.070
1644358132.398,892.578,500.000,-75.684,210.938
1644358132.402,-436.523,-837.402,-185.059,-200.195
1644358132.406,-1000.000,-1000.000,-109.863,-363.770
1644358132.410,194.336,11.719,10.254,37.598
1644358132.413,-893.555,897.949,11.719,293.457
1644358132.417,-20.508,122.559,-116.699,-48.340
1644358132.421,-1000.000,-967.773,-163.086,-368.164
1644358132.425,-186.035,-424.316,-35.156,-62.500
1644358132.429,-861.816,885.254,42.969,312.012
1644358132.433,375.488,463.867,-102.539,83.008
1644358132.436,-1000.000,-843.262,-172.852,-333.496
1644358132.440,-552.246,-773.438,-61.523,-184.082
1644358132.444,906.738,312.988,31.738,276.855
1644358132.448,727.051,957.031,3.418,213.379
1644358132.452,-701.660,-227.539,-164.062,-247.559
1644358132.456,-858.887,-1000.000,-113.770,-273.926
1644358132.457,519.043,301.270,67.871,178.223
1644358132.461,978.516,-855.957,27.344,303.711
1644358132.465,-308.594,39.062,-148.438,-116.211
1644358132.469,-1000.000,-1000.000,-137.207,-325.684
1644358132.473,108.398,15.625,30.762,57.129
1644358132.477,-859.863,-876.953,31.738,335.449
1644358132.480,94.238,146.484,-117.676,6.836
1644358132.484,-1000.000,-1000.000,-208.496,-325.684
1644358132.488,-287.598,-498.535,-21.973,-72.754
1644358132.492,-902.344,984.863,152.344,292.969
1644358132.496,483.887,599.121,-41.992,126.953
1644358132.500,-972.656,-891.113,-173.340,-274.902
1644358132.502,-642.090,-556.152,9.766,-185.059
1644358132.506,815.918,888.184,130.859,247.559
1644358132.510,792.480,847.168,-19.531,230.957
1644358132.514,-603.516,-510.742,-177.734,-207.031
1644358132.518,-919.922,-970.703,-104.004,-285.156
1644358132.522,412.598,324.219,56.152,146.973
1644358132.525,-962.891,919.434,12.207,320.801
1644358132.529,-199.219,-407.227,-147.949,-83.008
1644358132.533,-1000.000,-1000.000,-77.637,-323.242
1644358132.537,38.574,181.641,103.516,18.066
1644358132.541,-847.656,937.988,44.434,322.754
1644358132.545,180.176,-347.656,-139.648,38.574
