timestamps,TP9,AF7,AF8,TP10
1643307979.355,-858.887,-940.918,-29.297,-185.059
1643307979.359,-595.703,-594.727,17.578,-103.516
1643307979.363,744.141,809.082,27.344,136.230
1643307979.367,750.977,861.816,-18.555,103.516
1643307979.371,-576.660,-464.844,-50.293,-147.461
1643307979.375,-860.840,-958.008,-3.418,-164.062
1643307979.379,417.969,-102.051,11.719,81.543
1643307979.382,940.918,616.699,-14.160,146.973
1643307979.386,-219.727,-46.875,-39.062,-85.449
1643307979.390,-997.559,-1000.000,-55.176,-207.031
1643307979.394,53.223,-111.328,-14.160,-1.953
1643307979.398,-958.984,-843.262,-1.953,148.926
1643307979.398,-958.984,-843.262,-1.953,148.926
1643307979.399,183.105,387.695,-42.969,-32.715
1643307979.403,-999.512,-1000.000,-51.758,-220.215
1643307979.407,-350.098,-526.855,9.766,-75.684
1643307979.411,931.152,-991.699,44.922,148.926
1643307979.415,523.926,529.297,-4.883,39.551
1643307979.419,-818.359,-936.035,-37.109,-200.684
1643307979.423,-682.617,-846.680,13.672,-134.766
1643307979.426,673.340,573.730,82.520,137.207
1643307979.430,821.289,-991.699,37.109,122.559
1643307979.434,-493.652,-376.953,-22.949,-146.973
1643307979.438,-906.738,-955.566,19.531,-183.105
1643307979.442,348.145,380.371,62.012,48.828
1643307979.460,984.863,-877.930,10.254,141.602
1643307979.464,-145.020,-89.355,-62.012,-76.660
1643307979.468,-1000.000,-1000.000,-45.410,-219.238
1643307979.472,-27.832,37.598,25.879,-21.484
1643307979.476,-956.543,-824.707,17.578,140.625
1643307979.480,265.137,135.742,-45.410,-35.156
1643307979.484,-969.727,-1000.000,-41.504,-230.957
1643307979.487,-416.016,-424.805,29.297,-92.285
1643307979.491,902.832,-930.664,36.133,146.973
1643307979.495,618.164,194.824,-43.457,69.336
1643307979.499,-744.141,-1000.000,-55.176,-174.805
1643307979.503,-708.496,-620.605,17.090,-139.648
1643307979.490,628.906,710.449,65.430,114.258
1643307979.494,881.836,983.398,30.273,132.324
1643307979.498,-381.836,-308.105,-24.902,-127.441
1643307979.502,-919.434,-984.375,13.672,-200.684
1643307979.506,291.016,129.395,53.223,54.688
1643307979.510,-976.074,789.062,14.160,164.551
1643307979.514,-23.926,-182.617,-12.207,-59.570
1643307979.517,-987.305,-1000.000,13.184,-202.148
1643307979.521,-84.961,-402.344,57.129,-13.184
1643307979.525,-959.473,931.152,40.527,171.875
1643307979.529,385.254,539.062,-26.855,24.414
1643307979.533,-892.578,-812.012,-46.875,-191.406
1643307979.536,-474.121,-993.164,-22.949,-86.426
1643307979.540,841.309,192.383,20.996,150.391
1643307979.544,705.566,845.703,7.324,82.520
1643307979.548,-644.531,-505.859,-28.320,-159.668
1643307979.552,-773.438,-938.965,19.043,-151.367
1643307979.556,552.734,424.316,64.941,89.355
1643307979.560,912.109,-973.145,23.926,125.000
1643307979.563,-316.406,-199.219,-37.109,-115.234
1643307979.567,-973.145,-1000.000,-38.086,-201.660
1643307979.571,176.270,27.832,4.395,7.812
1643307979.575,-944.824,-800.293,-13.672,135.254
1643307979.579,85.449,187.988,-70.312,-52.246
1643307979.579,-986.816,-1000.000,-54.688,-222.168
1643307979.583,-167.480,-158.203,16.602,-50.781
1643307979.587,-970.703,-827.148,5.371,156.738
1643307979.591,458.984,386.719,-88.379,23.926
1643307979.595,-878.906,-1000.000,-103.516,-200.684
1643307979.599,-590.820,-740.723,-41.016,-112.793
1643307979.603,764.648,768.066,-25.879,114.746
1643307979.606,729.980,537.598,-68.848,70.801
1643307979.610,-615.723,-1000.000,-102.051,-162.598
1643307979.614,-828.613,-773.438,-41.504,-170.898
1643307979.618,478.516,588.867,-0.977,70.801
1643307979.622,955.078,969.727,-44.922,132.812
1643307979.628,-228.027,-247.559,-102.051,-100.586
1643307979.632,-971.191,-1000.000,-69.336,-199.707
1643307979.636,127.930,149.902,-23.438,13.672
1643307979.640,-937.988,-952.637,-50.781,150.391
1643307979.644,165.039,130.371,-66.406,-33.203
1643307979.648,-994.629,-1000.000,-67.383,-217.773
1643307979.652,-309.082,-423.340,-36.133,-75.195
1643307979.655,958.008,785.156,-19.531,143.555
1643307979.659,525.879,435.547,-45.410,34.668
1643307979.663,-816.895,-733.398,-58.594,-207.031
1643307979.667,-615.234,-733.398,-22.949,-134.766
1643307979.671,730.957,632.324,17.578,128.906
1643307979.669,808.105,933.594,-14.160,116.699
1643307979.673,-499.023,-326.660,-59.570,-131.348
1643307979.677,-878.906,-1000.000,-41.504,-168.945
1643307979.681,385.742,64.941,-18.066,68.848
1643307979.685,990.234,-974.609,-59.082,136.719
1643307979.689,-155.273,-201.660,-115.723,-104.980
1643307979.693,-1000.000,-1000.000,-87.402,-210.449
1643307979.696,-8.789,-822.266,-37.598,-1.953
1643307979.700,-963.867,463.379,-27.344,159.668
1643307979.704,246.094,509.277,-78.613,-15.137
1643307979.708,-984.863,-1000.000,-69.824,-209.961
1643307979.712,-406.738,-334.961,8.301,-74.707
1643307979.716,913.086,-919.434,14.160,143.555
1643307979.720,630.371,710.449,-22.461,80.078
1643307979.724,-736.816,-741.699,-27.344,-153.809
1643307979.728,-716.797,-730.469,6.348,-142.090
1643307979.732,642.578,763.184,22.949,106.934
1643307979.736,850.098,835.938,-18.066,119.629
1643307979.740,-447.266,-556.641,-53.223,-126.953
1643307979.743,-934.570,-974.121,-5.371,-177.734
1643307979.747,296.387,348.633,35.645,50.781
1643307979.751,-982.910,-939.453,-11.230,143.066
1643307979.755,-67.383,-194.336,-51.270,-74.219
1643307979.759,-1000.000,-1000.000,-16.602,-214.355
1643307979.759,-88.379,-10.254,32.715,-30.762
1643307979.763,-959.961,-899.414,14.160,146.973
1643307979.767,327.148,275.391,-41.504,-1.953
1643307979.771,-958.008,-1000.000,-38.574,-219.238
1643307979.775,-491.699,-643.066,6.348,-104.980
1643307979.779,854.980,733.887,19.043,147.461
1643307979.783,649.902,-5.859,-36.133,84.473
1643307979.786,-676.758,-1000.000,-48.828,-167.480
1643307979.790,-725.098,-790.039,-14.160,-143.555
1643307979.794,568.359,341.797,-0.488,114.258
1643307979.798,900.391,990.723,-13.672,132.324
1643307979.802,-358.887,-152.832,-35.156,-120.605
1643307979.835,-978.027,-1000.000,-20.508,-189.941
1643307979.839,201.172,85.449,15.625,39.551
1643307979.843,-958.008,-858.398,-2.930,154.297
1643307979.847,29.297,205.078,-54.199,-41.992
1643307979.851,-1000.000,-1000.000,-73.730,-215.820
1643307979.855,-211.914,-547.852,-42.480,-47.852
1643307979.859,-998.535,914.551,-23.438,160.645
1643307979.862,400.391,586.426,-76.660,13.672
1643307979.866,-927.246,-883.301,-109.863,-212.891
1643307979.870,-595.215,-862.793,-57.617,-103.027
1643307979.874,772.461,624.512,-29.785,137.207
1643307979.878,703.613,799.316,-76.172,70.312
1643307979.865,-645.508,-634.277,-107.422,-176.758
1643307979.869,-839.355,-849.121,-64.453,-164.062
1643307979.873,475.586,509.277,1.953,94.238
1643307979.877,938.965,-954.590,-25.879,141.113
1643307979.881,-280.273,-196.289,-81.543,-104.980
1643307979.885,-1000.000,-1000.000,-39.551,-195.801
1643307979.889,106.445,-80.078,45.898,20.996
1643307979.892,-958.008,-860.840,18.555,152.832
1643307979.896,115.234,98.633,-38.086,-37.598
1643307979.900,-1000.000,-1000.000,-5.371,-220.703
1643307979.904,-311.523,-233.398,49.316,-58.594
1643307979.908,959.473,-856.445,55.664,166.016
1643307979.927,483.887,257.812,-15.625,53.711
1643307979.931,-868.164,-1000.000,-27.832,-179.199
1643307979.935,-663.574,-579.590,45.410,-114.746
1643307979.939,708.984,899.414,41.504,134.766
1643307979.943,760.254,526.855,-27.832,111.816
1643307979.947,-571.289,-903.320,-50.781,-143.066
1643307979.951,-897.461,-850.098,0.000,-173.340
1643307979.954,374.023,528.320,24.414,65.430
1643307979.958,940.430,666.016,-17.090,140.137
1643307979.962,-229.492,-557.617,-50.293,-85.449
1643307979.966,-1000.000,-1000.000,-36.621,-211.914
1643307979.970,-7.324,22.461,-4.395,-14.160
1643307979.954,-997.559,-845.703,-0.488,152.344
1643307979.958,183.594,417.480,-22.461,-13.184
1643307979.962,-1000.000,-928.711,-20.020,-200.684
1643307979.966,-380.859,-509.277,26.855,-60.059
1643307979.970,920.898,874.023,37.109,165.039
1643307979.974,544.922,524.902,-10.742,61.035
1643307979.978,-797.363,-864.258,-28.809,-180.664
1643307979.981,-710.449,-958.984,20.996,-128.418
1643307979.985,636.719,334.961,72.754,120.117
1643307979.989,832.031,983.887,48.340,129.395
1643307979.993,-463.867,-229.980,-9.277,-117.188
1643307979.997,-926.270,-1000.000,-11.719,-166.992
1643307980.001,295.898,-608.887,44.434,83.984
1643307980.005,979.980,790.039,47.852,164.551
1643307980.009,-108.398,173.340,-26.367,-66.895
1643307980.013,-1000.000,-1000.000,-7.812,-196.289
1643307980.017,-76.660,-20.996,37.109,-2.441
1643307980.021,-988.770,-847.168,14.648,179.199
1643307980.025,296.387,212.891,-11.719,30.762
1643307980.028,-949.219,-1000.000,-13.184,-168.457
1643307980.032,-482.910,-482.422,27.344,-56.641
1643307980.036,853.027,-999.512,54.199,168.945
1643307980.040,647.461,678.223,10.254,91.797
1643307980.044,-713.867,-829.590,-31.738,-180.176
1643307980.044,-769.531,-741.699,-1.953,-152.832
1643307980.048,569.336,735.352,23.438,110.352
1643307980.052,880.859,862.305,-8.789,144.531
1643307980.056,-360.352,-458.984,-35.156,-96.680
1643307980.060,-943.359,-1000.000,-3.906,-178.711
1643307980.064,206.543,108.887,49.805,47.852
1643307980.068,-991.211,901.367,32.715,171.875
1643307980.071,-25.879,-461.914,-31.250,-28.809
1643307980.075,-1000.000,-1000.000,-18.555,-205.078
1643307980.079,-181.641,-130.371,34.668,-39.062
1643307980.083,992.676,895.996,44.922,157.227
1643307980.087,386.719,320.801,-1.465,12.695
1643307980.091,-900.391,-886.719,-21.973,-222.656
1643307980.095,-522.461,-505.859,26.367,-107.422
1643307980.099,807.129,895.020,40.039,139.648
1643307980.103,709.473,847.656,7.324,82.031
1643307980.107,-633.301,-481.445,-17.578,-170.410
1643307980.111,-804.688,-916.992,27.344,-158.691
1643307980.115,501.465,10.254,48.340,97.168
1643307980.118,913.086,815.430,-0.488,128.906
1643307980.122,-288.086,-0.977,-21.484,-111.328
1643307980.126,-965.332,-1000.000,3.418,-184.082
1643307980.130,153.320,-35.645,43.457,40.527
1643307980.134,-953.613,-892.578,43.457,179.199
1643307980.136,99.121,95.215,-3.418,-22.949
1643307980.140,-996.094,-1000.000,-7.812,-199.219
1643307980.144,-239.746,-395.020,35.156,-29.297
1643307980.148,977.539,-919.922,38.574,162.598
1643307980.152,476.074,420.898,-13.672,27.832
1643307980.156,-850.586,-917.969,-35.156,-205.566
1643307980.160,-597.656,-1000.000,11.719,-104.492
1643307980.163,743.652,222.656,48.828,135.742
1643307980.167,791.016,979.980,4.883,89.844
1643307980.171,-530.273,-478.027,-5.859,-145.996
1643307980.175,-826.660,-860.352,50.781,-161.133
1643307980.179,456.543,529.297,89.844,81.055
1643307980.195,982.422,-924.805,47.852,159.668
1643307980.199,-164.551,-147.949,-9.766,-68.848
1643307980.203,-978.027,-1000.000,0.000,-194.824
1643307980.207,68.359,20.996,49.805,5.859
1643307980.211,-938.965,-835.449,35.156,158.691
1643307980.215,204.590,28.809,-36.621,-11.719
1643307980.219,-970.215,-1000.000,-21.484,-195.312
1643307980.222,-291.992,-233.887,68.848,-49.805
1643307980.226,968.750,-930.664,73.730,166.016
1643307980.230,568.359,492.188,-9.277,53.223
1643307980.234,-777.344,-883.301,-27.344,-173.340
1643307980.238,-651.855,-639.648,35.645,-106.934
1643307980.239,680.176,775.879,57.129,126.465
1643307980.243,840.820,960.938,22.461,123.535
1643307980.247,-436.523,-350.098,1.953,-104.492
1643307980.251,-861.816,-955.078,35.156,-147.949
1643307980.255,375.977,202.637,65.430,97.168
1643307980.259,-985.840,819.824,33.203,202.148
1643307980.263,-63.965,-247.559,3.418,-14.160
1643307980.266,-954.590,-1000.000,29.785,-148.438
1643307980.270,8.789,-362.305,56.641,33.691
1643307980.274,-942.383,295.410,39.062,196.289
1643307980.278,315.430,-12.207,13.672,23.438
1643307980.282,-906.250,-933.594,3.418,-185.059
1643307980.287,-365.234,-580.078,54.199,-57.129
1643307980.291,919.922,898.926,80.078,166.992
1643307980.295,657.715,779.297,10.742,83.984
1643307980.299,-684.570,-628.418,-35.156,-150.879
1643307980.303,-683.105,-834.473,21.484,-104.492
1643307980.307,642.090,536.621,68.359,150.879
1643307980.311,882.812,944.824,20.020,146.973
1643307980.314,-364.746,-255.859,-20.508,-97.168
1643307980.318,-906.250,-1000.000,8.789,-141.113
1643307980.322,286.621,-231.445,66.895,76.172
1643307980.326,-951.660,-842.773,60.059,169.434
1643307980.330,11.230,109.863,-11.719,-46.387
1643307980.329,-997.070,-1000.000,-8.301,-198.730
1643307980.333,-95.215,-76.172,52.734,-3.418
1643307980.337,-948.730,-817.383,63.477,195.312
1643307980.341,413.574,332.520,4.395,53.223
1643307980.345,-875.000,-1000.000,-11.719,-161.621
1643307980.349,-459.961,-678.223,58.594,-60.059
1643307980.353,856.445,828.613,68.359,165.527
1643307980.356,712.402,514.648,-1.465,117.676
1643307980.360,-637.207,-1000.000,-21.973,-107.910
1643307980.364,-756.348,-807.129,54.199,-115.234
1643307980.368,565.918,584.961,104.492,127.441
1643307980.372,936.035,735.352,78.125,180.664
1643307980.376,-269.043,-580.078,39.062,-61.523
1643307980.380,-936.523,-951.660,37.598,-163.086
1643307980.384,212.891,238.281,64.941,57.617
1643307980.388,-941.895,-858.398,71.777,191.895
1643307980.392,105.957,228.027,77.148,-3.906
1643307980.396,-950.684,-1000.000,107.422,-166.992
1643307980.400,-158.203,-365.234,161.621,9.277
1643307980.403,-971.191,977.051,160.156,208.984
1643307980.407,495.605,603.027,109.863,71.777
1643307980.411,-821.289,-780.762,81.055,-166.992
1643307980.415,-515.625,-708.496,118.652,-83.008
1643307980.419,777.344,594.727,156.250,166.016
1643307980.420,742.676,701.660,109.863,130.859
1643307980.424,-532.227,-551.270,62.988,-106.934
1643307980.428,-798.340,-1000.000,87.891,-114.746
1643307980.432,485.840,105.957,117.188,127.930
1643307980.436,964.355,946.777,90.332,163.086
1643307980.440,-195.312,-251.465,64.453,-69.336
1643307980.444,-951.660,-1000.000,72.266,-165.527
1643307980.447,122.070,-709.961,90.820,47.363
1643307980.451,-918.457,727.539,118.164,199.707
1643307980.455,223.145,442.383,63.965,9.766
1643307980.459,-939.453,-1000.000,56.152,-175.781
1643307980.463,-239.746,-229.980,142.090,-18.555
1643307980.466,-996.094,-887.695,138.184,195.312
1643307980.470,573.730,639.160,58.105,82.520
1643307980.474,-762.207,-776.367,43.945,-147.461
1643307980.478,-587.402,-804.688,118.164,-74.219
1643307980.482,738.281,676.758,136.230,171.875
1643307980.486,845.215,821.289,71.777,162.598
1643307980.490,-454.102,-615.723,28.320,-90.820
1643307980.493,-830.078,-926.758,77.637,-129.395
1643307980.497,444.824,437.988,123.047,119.629
1643307980.501,-982.910,-964.844,88.867,194.336
1643307980.505,-82.520,-264.648,80.078,-27.832
1643307980.509,-946.289,-1000.000,114.258,-155.273
1643307980.509,72.754,37.598,151.367,49.316
1643307980.513,-905.273,-909.668,132.812,226.562
1643307980.517,305.664,190.918,64.941,59.570
1643307980.521,-897.461,-1000.000,67.383,-137.695
1643307980.525,-294.434,-549.805,138.672,1.953
1643307980.529,967.285,808.105,129.395,224.121
1643307980.533,625.977,-6.836,66.895,129.395
1643307980.536,-720.215,-1000.000,58.594,-111.816
1643307980.540,-651.367,-575.684,78.125,-70.801
1643307980.544,676.758,585.938,80.566,170.898
1643307980.548,888.184,676.270,58.105,182.129
1643307980.552,-364.746,-394.043,38.574,-64.453
1643307980.570,-870.605,-949.219,43.945,-127.441
1643307980.574,356.934,224.121,90.820,119.141
1643307980.578,-954.590,-885.742,59.082,214.355
1643307980.582,-10.254,105.469,-4.395,-8.301
1643307980.586,-964.355,-1000.000,41.016,-141.113
1643307980.590,-25.391,-376.465,102.051,55.176
1643307980.594,-921.875,-976.562,91.309,227.539
1643307980.597,382.324,487.793,33.691,48.340
1643307980.601,-899.902,-954.102,15.137,-167.969
1643307980.605,-432.617,-890.625,74.219,-32.227
1643307980.609,887.207,590.332,114.258,200.684
1643307980.613,702.637,866.699,64.941,122.070
1643307980.614,-657.227,-619.141,38.086,-119.141
1643307980.618,-744.141,-800.293,100.098,-90.820
1643307980.622,596.191,615.723,134.766,159.668
1643307980.626,925.293,-980.957,75.684,180.664
1643307980.630,-307.617,-267.578,20.508,-53.711
1643307980.634,-939.453,-1000.000,37.109,-143.066
1643307980.638,243.164,49.805,87.891,87.402
1643307980.641,-932.617,-829.102,82.031,219.238
1643307980.645,69.336,115.234,27.832,5.859
1643307980.649,-1000.000,-1000.000,31.738,-163.574
1643307980.653,-158.203,-137.695,109.863,19.043
1643307980.657,-955.078,-828.613,101.074,220.703
1643307980.676,437.500,239.258,35.156,75.684
1643307980.680,-886.230,-1000.000,49.805,-151.367
1643307980.684,-527.832,-491.699,89.355,-56.152
1643307980.688,818.848,937.500,80.078,198.730
1643307980.692,744.141,681.152,23.438,141.113
1643307980.696,-601.074,-761.230,-0.977,-105.469
1643307980.700,-811.523,-849.121,59.082,-104.004
1643307980.703,500.000,611.816,98.633,138.184
1643307980.707,960.449,613.770,77.148,204.590
1643307980.711,-228.516,-676.758,41.992,-42.480
1643307980.715,-982.422,-992.188,47.363,-168.945
1643307980.719,120.605,123.535,108.398,53.711
1643307980.705,-937.988,-812.012,108.887,204.102
1643307980.709,142.578,183.594,48.828,8.301
1643307980.713,-998.047,-1000.000,59.082,-165.039
1643307980.717,-263.184,-387.207,126.953,-4.395
1643307980.721,978.027,845.703,139.648,195.801
1643307980.725,522.461,428.711,84.961,84.961
1643307980.729,-818.359,-935.547,58.105,-134.766
1643307980.732,-620.117,-902.344,123.047,-74.707
1643307980.736,726.562,421.387,184.570,169.922
1643307980.740,801.758,939.453,153.809,143.066
1643307980.744,-515.137,-297.852,108.887,-123.047
1643307980.748,-880.859,-1000.000,137.695,-146.484
1643307980.751,382.324,-451.660,183.105,93.262
1643307980.755,968.262,941.406,166.016,156.250
1643307980.759,-173.828,106.445,115.234,-63.477
1643307980.763,-1000.000,-1000.000,140.625,-166.016
1643307980.767,13.184,-56.152,182.129,36.621
1643307980.771,-963.379,-859.375,154.785,184.570
1643307980.775,223.633,213.379,118.164,10.254
1643307980.778,-979.980,-1000.000,107.422,-168.945
1643307980.782,-390.137,-452.148,167.480,-22.949
1643307980.786,916.016,-973.633,200.195,186.523
1643307980.790,594.238,657.715,118.652,77.637
1643307980.794,-764.160,-854.004,94.727,-163.086
1643307980.795,-694.824,-689.453,131.836,-119.141
1643307980.799,649.902,804.199,128.418,129.883
1643307980.803,848.633,837.402,85.449,148.438
1643307980.807,-443.848,-522.949,66.406,-91.797
1643307980.811,-904.297,-1000.000,111.328,-140.625
1643307980.815,336.426,232.422,159.180,98.633
1643307980.819,-989.746,878.906,131.836,201.660
1643307980.822,-87.402,-542.969,91.797,-6.348
1643307980.826,-1000.000,-1000.000,143.066,-158.691
1643307980.830,-73.730,24.414,183.105,20.020
1643307980.834,-971.191,-892.090,145.996,188.477
1643307980.838,299.316,454.590,83.008,15.625
1643307980.870,-953.613,-906.250,76.172,-190.918
1643307980.874,-479.492,-391.602,113.281,-76.172
1643307980.878,845.703,-997.070,129.395,163.574
1643307980.882,648.438,741.699,89.355,105.469
1643307980.886,-705.078,-618.652,57.129,-153.809
1643307980.890,-762.207,-873.047,94.238,-140.625
1643307980.894,567.871,150.879,145.508,119.141
1643307980.897,880.371,826.172,149.414,136.230
1643307980.901,-371.094,-91.797,91.797,-121.094
1643307980.905,-961.914,-1000.000,90.820,-188.477
1643307980.909,205.566,-76.660,135.254,42.480
1643307980.913,-987.793,-870.117,124.023,154.297
1643307980.884,2.930,253.418,54.688,-45.898
1643307980.888,-1000.000,-1000.000,43.945,-199.707
1643307980.892,-173.340,-324.707,123.047,-12.695
1643307980.896,989.746,-857.422,118.652,172.852
1643307980.900,351.562,342.773,38.086,6.836
1643307980.904,-934.570,-1000.000,30.762,-211.914
1643307980.908,-578.613,-663.574,94.727,-110.352
1643307980.911,774.902,789.551,115.234,114.746
1643307980.915,696.777,849.609,38.086,61.523
1643307980.919,-643.555,-590.820,-2.930,-167.480
1643307980.923,-837.891,-845.215,50.293,-165.039
1643307980.927,459.961,547.852,78.125,64.941
1643307980.932,894.531,945.312,26.367,121.094
1643307980.936,-324.219,-321.289,-17.578,-102.051
1643307980.940,-1000.000,-1000.000,26.367,-207.031
1643307980.944,78.125,24.414,96.680,-2.930
1643307980.948,-999.512,-833.008,75.195,132.812
1643307980.952,58.105,25.391,18.555,-54.688
1643307980.956,-1000.000,-1000.000,41.992,-224.121
1643307980.959,-296.387,-139.648,87.891,-64.941
1643307980.963,927.246,-844.238,63.965,127.441
1643307980.967,420.898,152.344,19.043,7.812
1643307980.971,-880.859,-1000.000,19.043,-221.680
1643307980.975,-642.578,-488.770,67.383,-148.926
1643307981.005,707.520,863.770,67.383,99.121
1643307981.009,736.328,867.676,14.648,73.730
1643307981.013,-584.473,-476.562,-1.953,-183.105
1643307981.017,-888.184,-918.457,45.898,-212.891
1643307981.021,379.883,508.301,58.594,32.715
1643307981.025,917.480,395.508,10.254,113.770
1643307981.029,-252.930,-935.547,-11.230,-106.934
1643307981.032,-1000.000,-981.445,-1.953,-249.512
1643307981.036,-9.277,-59.082,20.996,-42.480
1643307981.040,977.539,-991.699,21.484,126.465
1643307981.044,151.367,449.707,-4.395,-44.434
1643307981.048,-1000.000,-909.668,-11.719,-234.375
1643307981.036,-393.066,-687.500,23.438,-100.586
1643307981.040,877.930,711.426,31.738,109.375
1643307981.044,497.070,757.812,-25.879,0.977
1643307981.048,-820.312,-694.824,-45.898,-216.309
1643307981.052,-716.309,-849.121,-2.441,-162.109
1643307981.056,624.512,582.031,25.879,75.684
1643307981.060,781.738,832.031,-12.207,69.824
1643307981.063,-511.719,-573.730,-65.430,-173.828
1643307981.067,-924.805,-950.195,-24.902,-207.031
1643307981.071,299.316,342.285,41.016,23.926
1643307981.075,959.961,-881.348,15.625,101.074
1643307981.079,-145.996,45.898,-40.527,-123.047
1643307981.079,-1000.000,-1000.000,-26.367,-250.488
1643307981.083,-119.629,-263.672,38.574,-54.688
1643307981.087,969.727,-832.031,32.715,112.305
1643307981.091,223.145,347.168,-40.527,-47.852
1643307981.095,-994.629,-1000.000,-60.059,-253.418
1643307981.099,-476.562,-608.398,-7.812,-132.812
1643307981.103,846.191,917.480,2.441,98.145
1643307981.106,582.520,473.633,-61.523,21.484
1643307981.110,-759.766,-1000.000,-108.398,-222.656
1643307981.114,-774.902,-695.312,-41.016,-187.988
1643307981.118,563.477,712.891,-10.742,57.617
1643307981.122,836.426,882.324,-92.285,54.688
1643307981.125,-436.035,-399.414,-103.027,-194.824
1643307981.129,-970.215,-925.781,-59.570,-263.184
1643307981.133,204.102,312.012,-29.785,-26.855
1643307981.137,965.820,-851.074,-38.574,93.262
1643307981.141,-78.613,126.953,-83.008,-122.559
1643307981.145,-1000.000,-1000.000,-75.684,-276.855
1643307981.149,-195.801,-231.934,-23.438,-96.191
1643307981.152,948.242,817.383,-20.020,105.469
1643307981.156,298.828,160.156,-62.500,-43.457
1643307981.160,-945.312,-882.324,-86.426,-267.090
1643307981.164,-549.805,-688.965,-53.711,-161.621
1643307981.168,785.156,673.828,-39.551,62.988
1643307981.169,648.926,824.707,-86.426,2.441
1643307981.173,-682.129,-500.000,-113.281,-244.629
1643307981.177,-831.055,-1000.000,-81.543,-234.863
1643307981.181,474.609,306.152,-49.316,20.996
1643307981.185,882.324,919.922,-72.266,71.289
1643307981.189,-349.121,-333.984,-118.652,-170.410
1643307981.193,-1000.000,-1000.000,-98.145,-252.441
1643307981.196,107.422,-737.793,-51.758,-7.324
1643307981.200,988.770,681.152,-50.293,124.512
1643307981.204,40.039,410.156,-93.262,-103.516
1643307981.208,-1000.000,-1000.000,-62.988,-291.504
1643307981.212,-252.441,-200.684,0.000,-116.699
1643307981.217,983.398,-854.492,3.418,97.656
1643307981.221,419.434,452.637,-40.527,-36.621
1643307981.225,-900.879,-1000.000,-53.711,-270.996
1643307981.229,-619.629,-526.855,5.371,-186.523
1643307981.233,707.520,913.574,8.789,44.922
1643307981.237,691.895,666.504,-57.129,11.230
1643307981.241,-593.750,-711.914,-80.566,-214.355
1643307981.244,-871.094,-841.797,-22.949,-233.887
1643307981.248,413.574,542.969,28.320,1.465
1643307981.252,946.777,990.723,1.953,83.984
1643307981.256,-241.699,-314.453,-61.035,-143.555
1643307981.260,-1000.000,-1000.000,-62.988,-259.277
1643307981.260,51.758,131.836,-18.555,-35.645
1643307981.264,-961.914,-902.832,-33.691,119.629
1643307981.268,142.090,49.316,-96.680,-72.266
1643307981.272,-1000.000,-1000.000,-100.098,-270.020
1643307981.276,-360.840,-480.469,-28.809,-114.746
1643307981.280,930.664,859.863,-14.160,101.562
1643307981.284,504.883,-42.480,-83.496,-9.766
1643307981.287,-844.727,-1000.000,-89.355,-258.301
1643307981.291,-680.664,-509.766,-33.203,-201.660
1643307981.295,679.688,791.016,-22.461,53.223
1643307981.299,800.293,966.797,-64.941,31.250
1643307981.303,-516.602,-319.824,-102.539,-223.145
1643307981.320,-903.809,-947.266,-85.449,-261.719
1643307981.324,348.145,292.969,-49.805,-7.812
1643307981.328,-994.141,-878.906,-52.734,90.332
1643307981.332,-181.152,-5.859,-82.520,-151.855
1643307981.336,-937.988,-1000.000,-61.035,-251.953
1643307981.340,149.414,-115.723,-25.391,-25.391
1643307981.344,993.164,992.676,-50.781,102.051
1643307981.347,209.961,266.113,-102.051,-70.312
1643307981.351,-997.559,-983.887,-101.562,-265.625
1643307981.355,-459.961,-1000.000,-35.156,-123.535
1643307981.359,860.352,271.973,2.441,94.238
1643307981.363,572.266,822.754,-47.852,-20.020
1643307981.365,-773.438,-686.035,-87.891,-261.230
1643307981.369,-765.625,-745.605,-37.598,-202.148
1643307981.373,583.496,714.355,-4.883,58.594
1643307981.377,835.938,971.680,-61.035,65.430
1643307981.381,-456.055,-347.168,-120.117,-184.570
1643307981.385,-972.168,-1000.000,-76.660,-229.004
1643307981.389,223.145,95.703,-17.090,10.742
1643307981.392,981.445,-855.957,-43.945,106.445
1643307981.396,-84.961,24.414,-93.262,-109.375
1643307981.400,-1000.000,-1000.000,-70.801,-259.766
1643307981.404,-167.969,-113.770,-9.277,-78.613
1643307981.408,994.629,-838.379,-30.273,110.352
1643307981.425,298.828,290.527,-96.191,-36.133
1643307981.429,-979.492,-1000.000,-87.402,-243.164
1643307981.433,-531.250,-408.203,-30.762,-121.582
1643307981.437,825.195,-988.281,-23.438,119.141
1643307981.441,658.691,648.926,-60.547,47.852
1643307981.445,-697.754,-794.922,-62.988,-201.660
1643307981.449,-805.664,-824.219,-9.277,-190.918
1643307981.452,529.297,691.406,9.277,47.363
1643307981.456,872.559,523.438,-50.293,84.961
1643307981.460,-393.555,-826.172,-83.984,-168.945
1643307981.464,-1000.000,-998.535,-41.504,-268.555
1643307981.468,126.953,68.359,-8.789,-38.574
1643307981.454,967.285,-892.090,-26.367,83.984
1643307981.458,-40.039,222.656,-67.871,-124.512
1643307981.462,-1000.000,-1000.000,-69.824,-281.250
1643307981.466,-256.836,-301.758,-27.832,-103.027
1643307981.470,945.801,-964.355,-19.531,91.309
1643307981.474,335.449,362.305,-69.336,-45.898
1643307981.478,-947.266,-982.910,-78.125,-274.414
1643307981.481,-625.000,-876.953,-29.297,-165.039
1643307981.485,717.285,349.121,0.977,79.102
1643307981.489,660.156,848.145,-23.926,24.414
1643307981.493,-655.273,-383.301,-68.359,-218.262
1643307981.497,-877.441,-1000.000,-48.340,-222.168
1643307981.503,397.461,-285.156,5.371,26.367
1643307981.507,897.461,933.105,-7.324,74.707
1643307981.511,-306.641,-205.078,-54.688,-164.551
1643307981.515,-1000.000,-1000.000,-22.949,-267.578
1643307981.519,24.902,104.980,23.926,-42.969
1643307981.523,976.562,-855.957,-21.484,107.422
1643307981.527,78.613,83.008,-84.473,-71.777
1643307981.530,-1000.000,-1000.000,-85.938,-250.488
1643307981.534,-382.812,-277.344,-35.645,-116.211
1643307981.538,891.113,-883.301,-21.484,79.102
1643307981.542,428.223,557.617,-66.895,-30.762
1643307981.546,-884.766,-931.641,-76.172,-264.648
1643307981.544,-699.707,-613.770,-3.418,-194.336
1643307981.548,658.203,889.160,48.340,61.523
1643307981.552,732.910,773.438,-3.418,44.922
1643307981.556,-584.473,-612.305,-58.105,-214.355
1643307981.560,-937.988,-1000.000,-22.461,-248.535
1643307981.564,271.973,276.367,11.719,-4.883
1643307981.568,870.117,868.164,-41.992,64.453
1643307981.571,-268.555,-580.566,-93.750,-150.879
1643307981.575,-1000.000,-1000.000,-40.527,-269.531
1643307981.579,-77.148,100.586,11.230,-84.961
1643307981.583,936.523,-897.461,-24.902,67.383
1643307981.587,120.605,326.660,-76.660,-102.539
1643307981.591,-1000.000,-989.746,-78.613,-291.504
1643307981.595,-463.379,-348.633,-15.625,-146.484
1643307981.599,825.684,-968.750,25.391,80.566
1643307981.603,493.652,710.449,-7.812,-11.230
1643307981.607,-810.547,-673.828,-62.988,-261.230
1643307981.611,-768.555,-813.965,-37.598,-224.121
1643307981.615,540.527,127.441,-4.883,34.180
1643307981.618,750.000,423.340,-24.902,43.945
1643307981.622,-507.324,-340.820,-53.711,-193.359
1643307981.626,-974.121,-1000.000,-54.688,-239.258
1643307981.630,193.359,87.891,-8.789,-14.160
1643307981.634,907.715,-882.812,-20.020,81.055
1643307981.634,-162.598,157.227,-90.820,-145.996
1643307981.638,-1000.000,-1000.000,-79.102,-287.598
1643307981.642,-165.527,-256.348,-18.555,-85.938
1643307981.646,875.488,-888.672,-33.203,73.242
1643307981.650,146.973,198.242,-96.680,-92.285
1643307981.654,-997.559,-1000.000,-98.145,-269.043
1643307981.658,-568.359,-1000.000,-58.105,-145.996
1643307981.661,743.164,277.832,-12.695,74.219
1643307981.665,559.082,876.465,-35.645,0.000
1643307981.669,-749.023,-638.184,-86.426,-248.535
1643307981.673,-816.895,-765.137,-51.758,-213.379
1643307981.677,479.980,670.410,-3.418,35.156
1643307981.694,820.312,-968.750,-15.625,67.383
1643307981.698,-418.945,-277.832,-49.805,-165.527
1643307981.702,-1000.000,-1000.000,-36.133,-253.906
1643307981.706,124.023,276.367,1.465,-31.738
1643307981.710,945.312,-886.230,-32.227,83.008
1643307981.714,-59.570,-69.824,-92.285,-117.188
1643307981.718,-1000.000,-1000.000,-75.195,-271.484
1643307981.721,-241.699,-137.207,-33.691,-91.309
1643307981.725,922.363,-847.656,-50.781,104.004
1643307981.729,319.336,129.883,-86.914,-41.504
1643307981.733,-945.312,-1000.000,-78.613,-263.672
1643307981.737,-607.422,-540.039,-42.969,-159.180
1643307981.739,731.445,793.945,-37.598,84.961
1643307981.743,658.203,606.445,-38.574,47.852
1643307981.747,-658.691,-682.129,-29.785,-192.383
1643307981.751,-855.469,-827.148,-4.883,-196.289
1643307981.755,427.734,441.895,2.441,50.781
1643307981.759,874.512,791.016,-25.879,100.098
1643307981.763,-329.102,-439.941,-48.340,-141.602
1643307981.766,-1000.000,-992.676,-27.344,-238.281
1643307981.770,56.641,-32.715,1.465,-6.348
1643307981.774,944.824,673.828,-10.742,129.883
1643307981.778,35.156,140.625,-41.992,-72.266
1643307981.782,-1000.000,-982.910,-67.383,-246.094
1643307981.815,-323.242,-501.953,-23.438,-78.125
1643307981.819,912.109,947.266,-10.742,133.789
1643307981.823,432.617,522.461,-73.730,7.324
1643307981.827,-868.164,-909.180,-80.078,-223.145
1643307981.831,-658.203,-969.238,-28.809,-152.344
1643307981.835,683.594,389.648,2.441,81.543
1643307981.839,734.375,922.363,-20.996,53.223
1643307981.842,-569.824,-392.578,-38.574,-185.059
1643307981.846,-903.809,-1000.000,-25.879,-215.820
1643307981.850,353.516,86.426,7.324,26.855
1643307981.854,931.152,-870.605,-10.742,99.121
1643307981.858,-236.816,-71.289,-69.336,-138.184
1643307981.829,-1000.000,-1000.000,-65.430,-257.812
1643307981.833,-18.066,62.988,-25.391,-58.105
1643307981.837,-999.512,-806.152,-46.875,101.074
1643307981.841,178.711,269.043,-127.441,-72.754
1643307981.845,-1000.000,-1000.000,-118.164,-265.137
1643307981.849,-387.207,-538.086,-26.855,-114.258
1643307981.853,894.531,961.914,-2.930,118.652
1643307981.856,527.344,415.527,-52.734,20.020
1643307981.860,-800.781,-1000.000,-45.410,-215.820
1643307981.864,-703.125,-667.480,0.000,-170.898
1643307981.868,641.602,806.152,0.000,69.824
1643307981.872,796.387,664.551,-53.711,68.359
1643307981.876,-502.441,-708.984,-78.125,-187.988
1643307981.880,-928.223,-961.426,-22.949,-235.840
1643307981.884,300.293,431.641,18.555,6.348
1643307981.888,964.844,669.922,-30.762,104.980
1643307981.892,-147.461,-723.145,-67.383,-93.262
1643307981.896,-1000.000,-1000.000,-6.348,-230.469
1643307981.900,-87.402,-110.352,33.203,-48.828
1643307981.903,986.816,713.867,-6.348,133.301
1643307981.907,256.836,-178.223,-44.922,-26.367
1643307981.911,-954.590,-966.797,-42.969,-242.676
1643307981.915,-445.801,-415.527,-8.789,-115.234
1643307981.919,864.746,845.215,-5.859,112.793
1643307981.920,641.113,775.879,-44.922,29.785
1643307981.924,-701.660,-550.293,-49.316,-208.984
1643307981.928,-745.117,-924.316,-24.902,-187.012
1643307981.932,582.520,436.523,-17.578,46.875
1643307981.936,880.371,854.004,-53.223,87.402
1643307981.940,-377.930,-414.551,-91.797,-145.020
1643307981.944,-967.285,-1000.000,-78.125,-225.586
1643307981.947,204.590,-691.895,-40.039,17.578
1643307981.951,-988.770,682.617,-45.410,122.559
1643307981.955,0.488,291.504,-84.473,-83.496
1643307981.959,-1000.000,-1000.000,-70.801,-209.473
1643307981.963,-144.043,-134.766,-21.973,-36.133
1643307981.966,-986.816,-846.191,-20.996,126.953
1643307981.970,388.184,537.598,-73.730,-29.297
1643307981.974,-916.016,-915.527,-84.961,-244.629
1643307981.978,-550.293,-491.699,-24.414,-144.043
1643307981.982,803.223,-997.559,-7.812,88.867
1643307981.986,694.824,646.973,-59.570,35.645
1643307981.990,-653.320,-789.551,-101.562,-203.125
1643307981.993,-813.477,-819.336,-49.805,-198.242
1643307981.997,505.371,580.566,11.230,47.852
1643307982.001,926.270,978.516,-27.832,92.285
1643307982.005,-303.223,-358.398,-59.082,-153.809
1643307982.009,-979.004,-1000.000,-23.926,-230.957
1643307982.010,158.203,206.055,9.277,0.000
1643307982.014,-971.680,-924.316,-37.109,112.305
1643307982.018,70.312,-139.160,-96.191,-89.844
1643307982.022,-1000.000,-1000.000,-75.684,-263.672
1643307982.026,-255.859,-389.648,-12.695,-95.703
1643307982.030,982.422,841.797,-3.418,125.488
1643307982.034,474.121,-95.215,-52.246,11.230
1643307982.037,-861.816,-1000.000,-43.945,-221.191
1643307982.041,-607.910,-445.312,5.859,-140.625
1643307982.045,744.141,750.977,-4.883,115.234
1643307982.049,773.438,749.512,-64.941,87.891
1643307982.053,-556.641,-431.641,-97.656,-177.246
1643307982.069,-862.793,-881.348,-66.406,-204.102
1643307982.073,420.898,403.809,-14.160,43.457
1643307982.077,956.055,-942.871,-31.738,105.957
1643307982.081,-221.191,-134.766,-72.754,-134.277
1643307982.085,-1000.000,-1000.000,-43.945,-249.512
1643307982.089,32.715,-559.082,-14.160,-31.738
1643307982.093,-980.957,560.547,-28.320,124.512
1643307982.096,172.852,437.012,-62.012,-62.012
1643307982.100,-996.094,-1000.000,-81.055,-240.723
1643307982.104,-337.891,-517.578,-26.855,-90.332
1643307982.108,945.801,993.164,6.836,127.441
1643307982.112,559.082,688.477,-54.199,22.461
1643307982.114,-803.223,-778.809,-94.238,-211.426
1643307982.118,-684.082,-703.613,-56.641,-163.086
1643307982.122,678.223,752.930,-25.879,72.266
1643307982.126,823.730,939.941,-72.266,72.266
1643307982.130,-482.422,-405.762,-122.559,-165.527
1643307982.134,-934.570,-1000.000,-83.496,-216.309
1643307982.138,304.199,164.551,-32.715,0.488
1643307982.141,974.609,-946.289,-64.453,86.426
1643307982.145,-146.973,-158.691,-106.934,-105.957
1643307982.149,-1000.000,-1000.000,-84.961,-236.816
1643307982.153,-78.125,-33.203,-22.949,-56.641
1643307982.157,-976.074,-819.336,-20.020,125.977
1643307982.161,258.789,215.332,-74.707,-31.250
1643307982.165,-983.398,-1000.000,-84.473,-234.375
1643307982.169,-434.082,-335.449,-35.645,-99.121
1643307982.173,891.602,-945.801,-19.043,136.230
1643307982.177,619.629,604.980,-66.406,41.992
1643307982.181,-747.559,-831.055,-117.188,-218.750
1643307982.185,-761.230,-787.598,-84.473,-181.152
1643307982.188,589.844,786.621,-43.457,63.477
1643307982.192,842.285,411.621,-91.797,85.449
1643307982.196,-447.754,-1000.000,-117.188,-147.461
1643307982.200,-969.238,-892.578,-87.891,-221.680
1643307982.204,229.492,290.039,-70.801,13.184
1643307982.205,-993.652,-887.695,-104.004,121.094
1643307982.209,-48.340,127.930,-149.902,-99.609
1643307982.213,-1000.000,-1000.000,-128.418,-252.930
1643307982.217,-141.602,-187.012,-64.941,-58.105
1643307982.221,-988.281,-903.809,-75.195,134.277
1643307982.225,317.871,220.215,-145.020,-23.438
1643307982.229,-969.238,-1000.000,-147.461,-241.211
1643307982.232,-560.547,-755.859,-98.633,-135.742
1643307982.236,791.016,30.273,-86.426,108.398
1643307982.240,661.133,410.156,-108.887,48.340
1643307982.244,-678.711,-465.332,-140.137,-202.637
1643307982.248,-823.242,-1000.000,-114.258,-188.477
1643307982.251,493.652,151.855,-58.105,59.570
1643307982.255,886.230,-883.301,-86.426,89.844
1643307982.259,-369.629,-134.766,-152.344,-164.551
1643307982.263,-1000.000,-1000.000,-119.629,-237.305
1643307982.267,137.207,168.945,-61.035,0.000
1643307982.271,997.559,-868.164,-103.027,112.305
1643307982.275,14.160,30.762,-141.602,-78.613
1643307982.278,-1000.000,-1000.000,-121.094,-232.910
1643307982.282,-277.344,-268.066,-59.570,-62.500
1643307982.286,980.469,-876.953,-59.570,139.160
1643307982.290,426.758,527.832,-111.816,7.812
1643307982.294,-906.738,-954.590,-119.629,-223.145
1643307982.295,-600.586,-556.152,-67.383,-134.277
1643307982.299,767.090,958.008,-41.992,118.164
1643307982.303,738.281,667.969,-100.098,76.172
1643307982.307,-608.887,-768.066,-125.488,-169.922
1643307982.311,-861.328,-1000.000,-60.059,-166.016
1643307982.315,435.059,359.375,-38.086,68.359
1643307982.319,925.781,849.121,-95.215,114.258
1643307982.322,-283.203,-621.094,-133.301,-111.328
1643307982.326,-1000.000,-1000.000,-83.984,-222.656
1643307982.330,39.551,191.895,-41.504,-5.859
1643307982.334,-998.535,-940.430,-62.988,153.320
1643307982.338,104.492,210.938,-85.449,-32.227
1643307982.341,-1000.000,-1000.000,-87.402,-221.680
1643307982.345,-355.469,-250.977,-47.363,-67.871
1643307982.349,926.270,-904.785,-30.273,140.625
1643307982.353,486.328,623.535,-83.008,10.742
1643307982.357,-850.098,-785.156,-85.938,-218.262
1643307982.361,-682.617,-776.855,-22.949,-136.719
1643307982.365,671.387,307.129,-17.090,110.840
1643307982.368,766.602,379.395,-45.410,91.797
1643307982.372,-540.039,-521.973,-60.059,-173.828
1643307982.376,-921.387,-950.195,-33.691,-215.820
1643307982.380,318.848,223.145,-4.395,28.809
1643307982.384,951.172,-897.949,-48.828,107.910
1643307982.400,-183.594,65.430,-105.469,-115.723
1643307982.404,-1000.000,-1000.000,-91.797,-243.164
1643307982.408,-45.410,-211.426,-28.320,-34.668
1643307982.412,-992.676,-828.125,-41.992,132.812
1643307982.416,215.332,202.637,-92.773,-31.738
1643307982.420,-1000.000,-1000.000,-95.703,-227.051
1643307982.424,-490.234,-1000.000,-64.453,-102.539
1643307982.427,822.266,246.582,-22.461,108.887
1643307982.431,535.156,853.027,-70.312,7.812
1643307982.435,-789.551,-656.738,-108.887,-213.867
1643307982.439,-755.859,-730.469,-71.289,-161.133
1643307982.443,591.309,719.727,-35.156,81.543
1643307982.444,840.820,-992.676,-60.547,92.285
1643307982.448,-450.195,-323.730,-85.938,-146.484
1643307982.452,-962.402,-985.840,-43.945,-203.125
1643307982.456,244.629,336.914,-15.625,29.297
1643307982.460,973.633,-925.293,-61.035,121.582
1643307982.464,-115.723,-144.043,-114.258,-106.445
1643307982.468,-1000.000,-1000.000,-85.449,-254.883
1643307982.471,-153.320,-61.035,-35.156,-53.711
1643307982.475,980.957,-849.121,-50.293,118.652
1643307982.479,277.832,75.684,-91.309,-38.086
1643307982.483,-985.352,-1000.000,-82.031,-247.070
1643307982.487,-545.898,-368.164,-44.434,-156.738
1643307982.490,801.758,971.191,-34.668,85.938
1643307982.494,629.883,681.152,-66.406,26.855
1643307982.498,-710.449,-672.363,-82.520,-207.520
1643307982.502,-798.340,-809.570,-28.809,-175.293
1643307982.506,526.367,520.996,1.465,86.914
1643307982.510,864.258,658.691,-54.199,120.605
1643307982.514,-385.742,-584.961,-76.172,-125.488
1643307982.517,-979.492,-930.664,-35.156,-209.473
1643307982.521,153.320,83.984,-36.133,-2.441
1643307982.525,976.562,886.230,-56.152,129.883
1643307982.529,9.766,254.395,-65.430,-66.895
1643307982.533,-1000.000,-973.633,-63.477,-236.328
1643307982.536,-238.281,-607.422,-29.785,-49.316
1643307982.540,941.895,763.184,-26.855,143.066
1643307982.544,392.090,638.184,-66.895,5.371
1643307982.548,-895.020,-848.145,-83.008,-210.449
1643307982.552,-601.562,-751.953,-52.246,-133.789
1643307982.556,750.977,688.965,-29.297,107.910
1643307982.560,702.148,822.754,-65.430,72.266
1643307982.563,-627.441,-468.262,-93.750,-171.387
1643307982.567,-868.652,-1000.000,-65.430,-178.223
1643307982.571,416.992,69.824,-29.785,55.664
1643307982.575,915.527,-877.441,-71.777,101.074
1643307982.579,-288.574,-107.422,-125.977,-129.883
1643307982.580,-1000.000,-1000.000,-73.242,-218.750
1643307982.584,64.453,152.832,-30.273,-11.719
1643307982.588,971.191,-866.211,-88.379,125.000
1643307982.592,59.570,67.871,-135.254,-63.965
1643307982.596,-1000.000,-1000.000,-99.609,-251.465
1643307982.600,-354.004,-454.102,-31.738,-93.750
1643307982.604,906.738,-986.328,-23.438,114.258
1643307982.607,456.543,409.668,-75.684,2.441
1643307982.611,-856.934,-1000.000,-66.895,-208.008
1643307982.615,-676.758,-598.633,-3.418,-148.438
1643307982.619,675.781,858.887,-4.883,81.055
1643307982.623,765.625,754.883,-46.875,80.566
1643307982.626,-550.781,-608.398,-71.289,-171.387
1643307982.630,-897.461,-850.098,-38.574,-209.473
1643307982.634,362.305,463.867,-14.160,37.109
1643307982.638,952.148,-972.656,-53.223,104.980
1643307982.642,-184.570,-92.773,-94.238,-116.211
1643307982.646,-1000.000,-1000.000,-82.031,-229.004
1643307982.650,-23.438,-91.309,-26.855,-27.832
1643307982.653,979.492,754.883,-33.691,140.625
1643307982.657,159.668,-417.969,-70.801,-27.832
1643307982.661,-1000.000,-1000.000,-55.664,-225.098
1643307982.665,-405.762,-376.465,-26.367,-86.914
1643307982.669,887.695,880.859,-7.324,140.137
1643307982.669,552.246,726.562,-40.039,35.645
1643307982.673,-792.969,-638.672,-72.754,-221.191
1643307982.677,-724.609,-883.789,-24.902,-166.016
1643307982.681,623.047,504.883,8.301,89.355
1643307982.685,816.895,792.480,-41.992,81.543
1643307982.689,-494.629,-502.930,-70.801,-169.922
1643307982.693,-899.902,-1000.000,-33.203,-203.125
1643307982.696,333.008,-382.812,11.230,38.086
1643307982.700,979.492,953.125,16.113,119.141
1643307982.704,-79.590,267.090,-10.742,-86.914
1643307982.708,-1000.000,-1000.000,-0.977,-208.984
1643307982.712,-86.914,-478.516,38.574,-24.414
1643307982.716,-975.098,-966.797,47.852,132.812
1643307982.720,324.219,549.805,-18.555,-31.250
1643307982.724,-937.012,-957.520,-46.875,-236.816
1643307982.728,-463.379,-399.414,10.742,-112.793
1643307982.732,856.445,-947.754,29.785,119.629
1643307982.736,655.273,599.609,-15.625,55.664
1643307982.740,-698.730,-841.309,-47.363,-177.734
1643307982.743,-764.160,-745.117,4.395,-154.785
1643307982.747,570.312,684.570,45.898,91.797
1643307982.751,895.020,937.012,2.441,130.371
1643307982.755,-365.723,-434.570,-40.527,-123.535
1643307982.759,-970.703,-1000.000,-18.555,-219.238
1643307982.760,208.008,291.992,21.973,7.812
1643307982.764,-967.285,-931.152,-3.418,131.836
1643307982.768,14.160,-194.336,-58.594,-77.148
1643307982.772,-1000.000,-1000.000,-33.691,-242.188
1643307982.776,-173.340,-267.090,-6.348,-62.012
1643307982.780,-996.582,910.645,-23.926,129.883
1643307982.784,385.254,-111.328,-74.219,-10.254
1643307982.787,-916.992,-1000.000,-75.195,-235.352
1643307982.791,-524.414,-400.391,-23.438,-137.695
1643307982.795,810.547,901.367,-12.207,112.305
1643307982.799,732.422,852.051,-32.715,58.105
1643307982.803,-611.328,-467.285,-58.594,-197.266
1643307982.819,-809.570,-881.348,-34.668,-183.105
1643307982.823,498.047,334.473,5.371,71.777
1643307982.827,939.941,-993.652,-30.762,110.840
1643307982.831,-325.684,-150.391,-78.613,-141.113
1643307982.835,-875.000,-1000.000,-45.410,-201.660
1643307982.839,335.938,-328.125,-10.254,44.922
1643307982.843,-962.891,780.762,-18.555,145.996
1643307982.846,142.090,391.113,-55.176,-42.480
1643307982.850,-952.148,-1000.000,-48.828,-213.867
1643307982.854,-240.234,-595.703,10.742,-62.012
1643307982.858,979.492,909.180,16.602,134.766
1643307982.862,509.766,676.270,-46.387,6.836
1643307982.865,-838.379,-839.844,-73.730,-213.867
1643307982.869,-620.117,-647.461,-15.625,-132.324
1643307982.873,741.211,870.605,22.949,107.422
1643307982.877,776.367,745.117,-31.250,81.543
1643307982.881,-523.438,-634.766,-84.961,-153.320
1643307982.885,-851.562,-1000.000,-61.035,-166.016
1643307982.889,386.719,182.129,-22.461,61.035
1643307982.892,975.098,-902.832,-37.109,127.441
1643307982.896,-179.688,-119.629,-95.215,-85.449
1643307982.900,-1000.000,-1000.000,-82.031,-208.496
1643307982.904,30.273,83.984,-25.879,-17.578
1643307982.908,-944.336,-799.316,-33.691,143.555
1643307982.911,216.309,163.086,-56.152,-28.809
1643307982.915,-985.840,-1000.000,-47.363,-218.750
1643307982.919,-352.051,-275.879,-2.930,-84.961
1643307982.923,936.523,-898.926,-5.371,135.254
1643307982.927,580.566,482.422,-53.223,41.992
1643307982.931,-784.180,-929.688,-66.406,-202.637
1643307982.935,-685.059,-848.145,-16.602,-141.113
1643307982.938,672.852,654.785,4.395,104.492
1643307982.942,830.078,390.137,-65.918,94.238
1643307982.946,-470.215,-1000.000,-97.656,-142.578
1643307982.950,-917.480,-863.281,-56.152,-203.125
1643307982.954,320.312,357.910,-22.461,23.438
1643307982.954,990.723,-877.930,-41.992,112.793
1643307982.958,-117.188,86.914,-86.426,-116.699
1643307982.962,-1000.000,-1000.000,-69.824,-247.070
1643307982.966,-54.688,-122.070,-21.973,-31.250
1643307982.970,-968.262,-883.301,-32.227,140.625
1643307982.974,280.762,210.938,-83.984,-22.949
1643307982.978,-978.516,-1000.000,-79.590,-220.215
1643307982.981,-456.055,-739.746,-16.602,-91.309
1643307982.985,880.371,251.953,-3.418,136.230
1643307982.989,623.047,550.293,-42.480,40.039
1643307982.993,-730.957,-505.371,-76.660,-206.543
1643307982.997,-765.137,-1000.000,-77.148,-167.480
1643307983.001,570.801,-94.727,-51.758,77.148
1643307983.005,875.000,-948.730,-60.059,88.867
1643307983.009,-396.973,-139.648,-104.004,-148.438
1643307983.013,-958.008,-1000.000,-77.148,-218.750
1643307983.017,242.676,248.535,-40.039,0.977
1643307983.021,-973.633,-913.086,-61.035,121.582
1643307983.025,-28.320,-67.871,-94.238,-86.914
1643307983.028,-1000.000,-1000.000,-89.355,-250.488
1643307983.032,-184.570,-223.145,-20.508,-56.641
1643307983.036,-976.074,-846.680,-13.672,135.742
1643307983.040,362.793,452.148,-85.449,-13.184
1643307983.044,-955.078,-1000.000,-85.449,-220.703
1643307983.046,-563.477,-461.914,-23.926,-125.977
1643307983.050,800.781,-984.863,-22.949,109.375
1643307983.054,699.219,669.922,-71.777,62.988
1643307983.058,-676.270,-789.062,-98.145,-188.965
1643307983.062,-792.480,-931.641,-52.734,-176.758
1643307983.066,550.293,495.605,3.418,66.895
1643307983.070,903.320,833.496,-29.297,97.168
1643307983.073,-337.891,-626.953,-91.309,-139.160
1643307983.077,-1000.000,-1000.000,-47.852,-232.422
1643307983.081,122.070,234.375,15.625,-16.113
1643307983.085,-954.102,-927.246,-2.441,120.117
1643307983.089,40.527,132.812,-40.527,-78.613
1643307983.107,-958.984,-922.852,-34.180,-228.516
1643307983.111,-120.605,-97.656,0.488,-44.922
1643307983.115,961.426,-986.816,-4.883,142.090
1643307983.119,441.406,600.586,-56.152,15.137
1643307983.123,-882.324,-791.016,-69.824,-212.891
1643307983.127,-632.324,-729.492,-12.695,-124.512
1643307983.131,738.770,395.020,0.488,127.441
1643307983.134,711.914,330.566,-53.711,75.684
1643307983.138,-625.000,-598.145,-89.355,-199.219
1643307983.142,-885.254,-896.973,-57.617,-208.008
1643307983.146,397.461,298.340,-24.414,44.434
1643307983.150,933.594,-915.039,-50.293,102.539
1643307983.134,-256.836,-17.090,-83.008,-119.629
1643307983.138,-1000.000,-1000.000,-73.730,-218.262
1643307983.142,33.691,-133.789,-9.277,0.000
1643307983.146,-968.262,-854.980,-13.184,145.996
1643307983.150,133.301,133.789,-89.355,-49.316
1643307983.154,-1000.000,-1000.000,-96.191,-231.934
1643307983.158,-398.926,-549.805,-48.340,-87.891
1643307983.161,903.809,886.230,-27.344,114.258
1643307983.165,513.184,650.879,-77.637,8.789
1643307983.169,-825.195,-694.336,-108.887,-208.496
1643307983.173,-696.777,-1000.000,-65.430,-137.695
1643307983.177,654.785,115.234,-24.414,94.727
1643307983.194,801.270,-971.191,-62.988,80.078
1643307983.198,-511.719,-386.719,-107.422,-166.992
1643307983.202,-928.711,-924.316,-60.059,-198.242
1643307983.206,319.824,456.055,-23.438,55.176
1643307983.210,960.449,-920.898,-52.734,129.395
1643307983.214,-176.270,-133.301,-89.355,-95.215
1643307983.218,-1000.000,-1000.000,-74.219,-230.957
1643307983.221,-94.727,-131.348,-16.113,-41.504
1643307983.225,984.863,-874.512,-19.531,136.719
1643307983.229,211.914,95.703,-54.688,-25.391
1643307983.233,-1000.000,-1000.000,-37.598,-230.957
1643307983.237,-470.703,-372.559,-4.395,-111.816
1643307983.239,859.863,-982.422,-20.508,111.816
1643307983.243,577.148,345.703,-70.801,39.062
1643307983.247,-766.602,-981.445,-60.059,-191.406
1643307983.251,-756.348,-712.402,-14.160,-150.879
1643307983.255,579.102,578.613,1.953,97.656
1643307983.259,843.262,603.516,-30.762,119.141
1643307983.263,-439.941,-659.668,-68.359,-125.488
1643307983.266,-945.312,-917.480,-41.504,-191.406
1643307983.270,263.672,205.566,-8.789,54.199
1643307983.274,990.234,729.980,-36.133,155.762
1643307983.278,-74.219,-182.617,-61.523,-73.242
1643307983.282,-1000.000,-1000.000,-43.457,-216.797
1643307983.286,-153.320,-394.531,-10.254,-38.086
1643307983.290,980.957,857.422,-3.906,136.230
1643307983.294,333.496,600.586,-33.203,-6.836
1643307983.298,-938.477,-857.422,-47.852,-208.496
1643307983.302,-522.461,-753.906,0.000,-99.121
1643307983.306,818.359,692.383,41.016,129.395
1643307983.310,673.828,766.602,1.953,63.965
1643307983.313,-673.340,-547.852,-49.805,-179.688
1643307983.317,-805.176,-1000.000,-18.066,-144.043
1643307983.321,512.207,118.652,23.438,103.027
1643307983.325,891.602,-899.902,-25.391,115.234
1643307983.329,-349.609,-179.199,-90.820,-131.348
1643307983.329,-1000.000,-1000.000,-64.941,-225.098
1643307983.333,128.418,137.207,-3.906,-11.230
1643307983.337,999.023,-815.430,-12.695,125.488
1643307983.341,31.738,158.691,-56.152,-40.527
1643307983.345,-1000.000,-1000.000,-47.852,-190.918
1643307983.349,-235.840,-380.371,4.395,-36.133
1643307983.353,969.727,-933.105,4.883,163.086
1643307983.356,427.246,395.996,-56.641,38.574
1643307983.360,-897.949,-1000.000,-71.777,-187.988
1643307983.364,-625.488,-570.801,8.789,-114.258
1643307983.368,738.770,899.902,27.832,108.887
1643307983.372,721.191,697.266,-36.621,77.637
1643307983.376,-613.770,-669.434,-46.875,-164.551
1643307983.380,-859.863,-842.773,-19.531,-179.199
1643307983.384,425.781,522.461,-6.836,61.523
1643307983.388,927.734,786.133,-27.344,129.883
1643307983.392,-256.348,-415.527,-67.383,-96.191
1643307983.396,-999.023,-1000.000,-42.480,-195.801
1643307983.400,77.637,-12.207,4.395,20.020
1643307983.403,-996.582,771.973,-46.875,152.832
1643307983.407,98.145,-205.078,-90.332,-47.363
1643307983.411,-1000.000,-1000.000,-74.707,-228.516
1643307983.415,-316.895,-258.789,-37.109,-61.523
1643307983.419,945.801,-971.191,-24.414,155.273
1643307983.419,524.902,678.223,-70.801,37.598
1643307983.423,-820.312,-692.871,-94.238,-196.289
1643307983.427,-666.504,-790.039,-70.312,-119.629
1643307983.431,683.105,621.094,-41.992,128.906
1643307983.435,794.922,719.727,-66.895,112.305
1643307983.439,-518.066,-593.750,-88.379,-142.090
1643307983.443,-905.762,-1000.000,-53.711,-182.617
1643307983.446,334.961,-670.898,-35.645,57.617
1643307983.450,946.289,341.309,-37.109,127.930
1643307983.454,-171.387,-40.039,-71.777,-98.145
1643307983.458,-1000.000,-1000.000,-73.242,-223.145
1643307983.462,-14.160,-13.672,-24.902,-26.855
1643307983.466,-968.750,-822.754,-37.109,134.277
1643307983.470,247.070,442.383,-99.121,-34.180
1643307983.474,-967.773,-964.844,-95.703,-224.121
1643307983.478,-401.855,-347.168,-20.996,-92.285
1643307983.482,899.902,-918.945,-16.113,117.188
1643307983.486,595.215,546.387,-59.082,27.832
1643307983.490,-758.301,-876.465,-76.172,-197.754
1643307983.493,-739.258,-750.000,-22.461,-157.227
1643307983.497,611.328,632.812,37.109,87.891
1643307983.501,852.051,937.988,-17.578,96.191
1643307983.505,-438.477,-443.359,-72.754,-139.648
1643307983.509,-931.152,-986.816,-21.973,-191.895
1643307983.524,287.109,343.750,25.391,34.668
1643307983.528,994.141,-944.336,-9.766,128.906
1643307983.532,-71.777,-108.398,-61.035,-83.008
1643307983.536,-1000.000,-1000.000,-56.152,-231.934
1643307983.540,-114.746,-162.598,-13.184,-53.711
1643307983.544,-989.258,985.352,-30.762,133.301
1643307983.548,308.105,-117.188,-88.379,-4.395
1643307983.551,-955.566,-1000.000,-65.430,-222.656
1643307983.555,-479.492,-348.633,-9.277,-116.211
1643307983.559,851.562,940.918,-0.488,123.535
1643307983.563,662.598,627.441,-43.457,58.105
1643307983.567,-690.918,-762.695,-55.664,-189.941
1643307983.569,-762.695,-761.719,-20.508,-173.340
1643307983.573,563.965,518.555,-7.812,79.590
1643307983.577,901.367,958.496,-41.992,110.352
1643307983.581,-344.727,-173.340,-88.867,-139.648
1643307983.585,-965.820,-1000.000,-71.777,-221.680
1643307983.589,192.383,-98.145,-28.320,15.137
1643307983.593,-968.262,-953.613,-2.930,142.578
1643307983.596,53.223,222.656,-1.953,-65.918
1643307983.600,-1000.000,-1000.000,-28.809,-234.863
1643307983.604,-200.195,-812.500,-8.301,-58.594
1643307983.608,994.629,570.312,19.531,136.719
1643307983.612,429.688,660.645,-22.949,-6.348
1643307983.615,-886.719,-891.602,-36.621,-223.145
1643307983.619,-559.570,-667.969,2.930,-127.930
1643307983.623,784.668,827.148,9.766,108.398
1643307983.627,740.723,841.309,-46.875,59.082
1643307983.631,-602.539,-541.992,-98.633,-184.082
1643307983.635,-844.238,-1000.000,-63.965,-183.594
1643307983.639,464.355,288.086,-12.695,57.617
1643307983.642,935.059,-915.039,-31.738,107.910
1643307983.646,-274.902,-155.762,-73.730,-121.094
1643307983.650,-1000.000,-1000.000,-47.363,-221.191
1643307983.654,96.680,101.074,14.648,-11.230
1643307983.658,-945.312,-802.734,1.465,142.578
1643307983.661,144.531,128.906,-44.922,-44.434
1643307983.665,-1000.000,-1000.000,-34.668,-224.121
1643307983.669,-288.086,-229.492,15.625,-65.430
1643307983.673,975.586,-858.398,-3.906,139.648
1643307983.677,509.766,240.723,-49.316,34.180
1643307983.681,-835.938,-1000.000,-48.828,-192.383
1643307983.685,-634.277,-594.727,-5.371,-136.719
1643307983.688,723.633,929.688,9.766,104.980
1643307983.692,782.715,375.000,-49.316,94.727
1643307983.696,-537.109,-1000.000,-52.246,-146.973
1643307983.700,-879.395,-822.266,-5.859,-189.941
1643307983.704,388.672,409.180,14.648,45.410
1643307983.704,969.238,-922.852,-17.090,127.930
1643307983.708,-183.105,-36.621,-42.969,-99.609
1643307983.712,-1000.000,-1000.000,-13.672,-227.051
1643307983.716,-0.488,-40.039,23.438,-15.137
1643307983.720,-968.262,-961.426,27.344,143.066
1643307983.724,194.336,97.656,-2.441,-46.387
1643307983.728,-1000.000,-1000.000,-10.742,-228.516
1643307983.731,-382.324,-625.977,25.391,-87.402
1643307983.735,901.367,182.129,29.297,121.582
1643307983.739,563.965,-10.254,13.184,25.391
1643307983.743,-776.855,-828.613,12.207,-219.727
1643307983.747,-717.773,-830.078,46.875,-177.246
1643307983.766,631.836,535.156,79.590,70.312
1643307983.770,845.215,-951.660,49.805,72.754
1643307983.774,-450.684,-246.094,23.438,-153.809
1643307983.778,-919.434,-1000.000,51.758,-192.383
1643307983.782,300.293,265.625,87.402,38.574
1643307983.786,982.910,-936.523,70.312,142.090
1643307983.790,-83.008,-102.051,34.668,-69.336
1643307983.793,-1000.000,-1000.000,28.809,-203.613
1643307983.797,-122.559,-263.672,61.523,-21.973
1643307983.801,-966.797,-882.812,74.707,139.648
1643307983.805,325.195,449.707,22.461,-14.648
1643307983.809,-960.449,-1000.000,25.879,-220.215
1643307983.794,-470.215,-412.109,84.961,-105.469
1643307983.798,873.047,-958.008,96.191,125.000
1643307983.802,658.203,641.602,51.270,51.758
1643307983.806,-712.891,-801.758,18.555,-195.312
1643307983.810,-757.324,-908.691,66.895,-162.598
1643307983.814,593.750,520.020,91.309,91.797
1643307983.818,873.535,799.316,34.180,106.934
1643307983.821,-396.973,-645.020,-12.695,-140.137
1643307983.825,-973.633,-1000.000,25.391,-208.008
1643307983.829,207.031,365.723,88.379,14.648
1643307983.833,-981.934,855.957,51.270,127.930
1643307983.837,-21.484,-545.410,-14.648,-60.059
1643307983.842,-1000.000,-1000.000,25.391,-223.145
1643307983.846,-184.082,-27.344,78.125,-55.664
1643307983.850,-994.629,-884.766,56.152,135.254
1643307983.854,399.414,542.480,22.949,1.465
1643307983.858,-904.785,-866.211,23.438,-216.797
1643307983.862,-536.133,-663.086,64.941,-119.629
1643307983.866,818.359,521.484,67.383,135.742
1643307983.869,708.496,563.477,5.859,61.035
1643307983.873,-645.508,-511.719,-8.301,-198.242
1643307983.877,-820.312,-873.047,39.551,-182.617
1643307983.881,498.047,406.738,62.012,72.754
1643307983.885,936.523,-948.730,20.020,118.164
1643307983.885,-280.762,-80.078,-29.297,-125.977
1643307983.889,-990.723,-1000.000,-8.301,-210.449
1643307983.893,134.277,-159.668,55.176,12.207
1643307983.897,-945.312,-874.023,48.828,142.090
1643307983.901,102.539,70.801,-11.230,-48.340
1643307983.905,-1000.000,-1000.000,-4.883,-213.867
1643307983.909,-296.387,-947.754,29.785,-56.641
1643307983.912,952.148,297.852,47.363,142.578
1643307983.916,467.285,716.309,0.000,20.508
1643307983.920,-868.652,-805.664,-22.949,-199.707
1643307983.924,-635.254,-719.727,37.109,-125.977
1643307983.928,730.469,772.461,63.965,111.816
1643307983.944,767.578,910.156,14.648,81.543
1643307983.948,-576.172,-501.465,-25.879,-167.480
1643307983.952,-871.582,-895.996,19.043,-181.152
1643307983.956,426.758,498.047,62.988,77.148
1643307983.960,957.520,983.398,22.949,147.461
1643307983.964,-236.328,-303.223,-40.527,-87.891
1643307983.968,-1000.000,-1000.000,-8.301,-198.730
1643307983.971,17.090,93.750,57.129,-0.977
1643307983.975,-954.102,-860.840,32.227,154.785
1643307983.979,181.641,10.254,-10.254,-18.066
1643307983.983,-1000.000,-1000.000,-5.371,-212.402
1643307983.987,-371.582,-255.859,23.926,-71.289
1643307983.990,925.293,-949.707,12.207,142.090
1643307983.994,554.688,555.176,-29.297,51.270
1643307983.998,-798.340,-825.195,-30.762,-180.176
1643307984.002,-703.125,-682.129,18.555,-130.859
1643307984.006,657.715,743.652,29.785,116.699
1643307984.010,798.340,516.602,-12.207,96.680
1643307984.014,-513.672,-759.277,-22.949,-154.785
1643307984.017,-936.035,-1000.000,6.348,-191.406
1643307984.021,301.270,133.789,21.484,47.852
1643307984.025,957.031,533.691,-8.789,139.648
1643307984.029,-159.180,-438.965,-43.945,-84.473
1643307984.033,-1000.000,-1000.000,-39.551,-220.703
1643307984.036,-84.473,-140.137,9.277,-15.137
1643307984.040,-981.934,-921.387,2.441,158.691
1643307984.044,269.531,528.320,-73.242,-6.836
1643307984.048,-979.004,-913.086,-98.145,-210.449
1643307984.052,-492.676,-643.555,-38.086,-103.027
1643307984.056,817.871,850.586,-8.789,115.234
1643307984.060,575.195,670.898,-44.922,39.062
1643307984.063,-744.629,-640.625,-65.430,-195.801
1643307984.067,-785.156,-1000.000,-41.016,-163.574
1643307984.071,536.133,105.469,-6.836,69.824
1643307984.075,831.543,-918.945,-31.250,91.309
1643307984.079,-433.594,-219.727,-75.684,-140.137
1643307984.079,-984.375,-1000.000,-38.574,-214.844
1643307984.083,191.406,244.629,20.508,16.602
1643307984.087,978.027,-827.148,-4.883,118.652
1643307984.091,-67.871,121.582,-63.965,-93.262
1643307984.095,-1000.000,-1000.000,-66.895,-240.234
1643307984.099,-222.656,-319.336,-18.555,-62.988
1643307984.103,945.801,-926.270,-13.184,126.953
1643307984.106,312.500,321.289,-63.477,-4.395
1643307984.110,-958.008,-1000.000,-67.383,-209.473
1643307984.114,-589.355,-480.957,3.906,-121.094
1643307984.118,761.719,994.629,11.719,108.887
1643307984.122,659.668,609.863,-32.227,70.801
1643307984.126,-672.852,-812.500,-46.387,-169.922
1643307984.130,-842.285,-779.785,-20.996,-185.547
1643307984.134,462.891,662.598,11.230,54.688
1643307984.138,865.234,713.379,-5.371,118.164
1643307984.142,-337.402,-554.688,-43.945,-106.934
1643307984.146,-979.492,-1000.000,-32.715,-205.566
1643307984.150,83.496,78.125,3.906,-4.883
1643307984.153,942.871,781.250,-33.203,126.953
1643307984.157,-2.930,-320.801,-64.941,-69.336
1643307984.161,-1000.000,-1000.000,-41.016,-251.465
1643307984.165,-302.246,-193.359,1.465,-81.055
1643307984.169,921.387,-948.242,4.395,119.141
1643307984.169,402.832,610.840,-51.758,3.906
1643307984.173,-886.230,-743.164,-65.430,-209.961
1643307984.177,-628.906,-807.129,-14.160,-124.512
1643307984.181,721.191,554.199,14.160,113.770
1643307984.185,734.863,696.777,-21.973,81.543
1643307984.189,-590.820,-622.559,-58.105,-166.504
1643307984.193,-888.184,-1000.000,-25.879,-191.895
1643307984.196,369.629,-560.547,6.836,62.012
1643307984.200,895.020,482.422,-20.020,117.676
1643307984.204,-272.461,48.340,-68.848,-129.395
1643307984.208,-1000.000,-1000.000,-51.758,-227.539
1643307984.212,13.184,-0.977,8.789,-12.695
1643307984.216,984.863,-812.500,-7.812,130.859
1643307984.220,124.023,387.695,-64.941,-43.945
1643307984.224,-1000.000,-1000.000,-57.617,-229.492
1643307984.228,-352.539,-308.594,8.789,-83.008
1643307984.232,914.062,-891.602,16.113,134.766
1643307984.236,500.977,474.609,-62.012,32.227
1643307984.240,-827.148,-965.332,-95.703,-195.312
1643307984.243,-710.449,-726.074,-30.762,-148.926
1643307984.247,645.508,727.539,28.320,74.707
1643307984.251,783.691,876.953,-12.207,68.359
1643307984.255,-523.926,-555.664,-37.598,-159.180
1643307984.259,-915.039,-931.641,12.695,-195.312
1643307984.259,311.035,436.523,24.902,24.902
1643307984.263,957.031,-998.535,-20.020,115.234
1643307984.267,-169.922,-242.676,-56.641,-92.285
1643307984.271,-990.234,-1000.000,-34.668,-213.379
1643307984.275,4.883,-93.750,13.672,-10.742
1643307984.279,989.258,976.074,3.906,148.926
1643307984.283,221.680,-159.668,-49.316,-8.301
1643307984.286,-996.094,-1000.000,-32.715,-215.820
1643307984.290,-453.613,-481.934,21.484,-102.539
1643307984.294,852.051,731.934,1.953,128.418
1643307984.298,582.031,581.543,-34.668,59.082
1643307984.302,-746.582,-645.996,-22.949,-190.918
1643307984.306,-746.094,-719.238,4.395,-169.434
1643307984.310,582.031,645.996,16.113,86.426
1643307984.314,863.281,-981.934,-10.254,118.164
1643307984.318,-438.965,-248.535,-45.898,-128.418
1643307984.322,-867.188,-950.684,-39.062,-182.617
1643307984.326,377.441,156.738,-2.441,69.336
1643307984.330,979.004,-942.383,-11.719,145.996
1643307984.333,-58.105,181.641,-46.875,-78.613
1643307984.337,-1000.000,-1000.000,-39.551,-213.379
1643307984.341,-144.043,-632.324,-1.953,-28.809
1643307984.345,996.582,798.828,8.789,160.156
1643307984.349,358.887,478.516,-36.621,23.438
1643307984.364,-907.227,-1000.000,-74.707,-199.219
1643307984.368,-479.980,-620.605,-41.016,-91.309
1643307984.372,839.355,863.281,-8.301,146.484
1643307984.376,698.730,793.457,-49.805,81.055
1643307984.380,-643.555,-617.676,-78.125,-154.785
1643307984.384,-770.020,-1000.000,-19.043,-126.465
1643307984.388,546.387,291.504,42.480,114.746
1643307984.391,921.875,-923.828,4.883,129.883
1643307984.395,-292.480,-197.266,-56.641,-104.980
1643307984.399,-941.406,-1000.000,-16.113,-171.387
1643307984.403,204.102,210.449,51.270,52.246
1643307984.407,-953.125,-818.359,19.043,176.758
