timestamps,TP9,AF7,AF8,TP10,Secondary Timestamp
1666057274.007,-98.145,132.812,-67.871,-100.586,828.905
1666057274.011,-145.508,-421.875,-63.965,-113.770,828.909
1666057274.015,-8.301,-139.160,-45.410,-15.625,828.912
1666057274.019,80.078,519.043,-49.316,28.809,828.916
1666057274.023,-36.133,364.258,-55.176,-48.828,828.920
1666057274.027,-144.531,-730.957,-55.176,-101.562,828.924
1666057274.031,-70.312,-708.984,-56.152,-43.457,828.928
1666057274.034,56.641,519.043,-48.828,19.043,828.932
1666057274.038,-15.137,414.062,-39.062,-43.945,828.936
1666057274.042,-158.691,-502.930,-32.715,-121.094,828.940
1666057274.046,-102.539,-213.379,-43.945,-79.590,828.944
1666057274.050,62.500,536.133,-55.176,13.184,828.948
1666057274.065,34.668,398.926,-48.340,-13.184,828.951
1666057274.069,-126.465,-239.746,-53.711,-116.699,828.955
1666057274.073,-131.348,-288.086,-49.316,-105.469,828.958
1666057274.077,24.902,26.855,-41.504,12.695,828.962
1666057274.081,63.965,47.363,-43.457,37.598,828.966
1666057274.085,-86.426,-765.137,-45.898,-72.754,828.970
1666057274.089,-152.832,-893.066,-47.363,-122.070,828.974
1666057274.092,-20.508,-18.066,-29.785,-30.762,828.978
1666057274.096,71.289,235.352,-44.434,26.855,828.982
1666057274.100,-48.828,-727.539,-64.941,-50.781,828.986
1666057274.104,-138.184,-546.387,-51.270,-113.281,828.990
1666057274.108,-52.734,122.070,-59.570,-55.176,828.994
1666057274.111,80.566,293.457,-56.152,35.156,829.011
1666057274.115,17.090,237.305,-35.156,-20.508,829.015
1666057274.119,-139.160,-113.770,-37.598,-115.234,829.019
1666057274.123,-105.957,-137.695,-51.758,-75.684,829.023
1666057274.127,61.523,111.816,-30.762,32.227,829.027
1666057274.131,52.246,4.395,-11.230,12.207,829.031
1666057274.135,-100.586,-356.445,-39.551,-85.938,829.035
1666057274.138,-121.582,-400.391,-46.875,-86.914,829.039
1666057274.142,14.648,-688.965,-44.922,2.930,829.042
1666057274.146,77.637,-404.297,-42.969,34.180,829.046
1666057274.150,-55.664,172.852,-38.574,-72.266,829.050
1666057274.154,-141.602,-291.504,-33.203,-123.047,829.054
1666057274.186,-28.809,-588.379,-25.391,-24.902,829.075
1666057274.190,79.102,358.887,-30.762,38.086,829.079
1666057274.194,-32.715,388.672,-33.203,-48.828,829.083
1666057274.198,-150.391,-609.863,-28.809,-111.816,829.087
1666057274.202,-35.645,-643.066,-22.461,-16.602,829.091
1666057274.206,93.262,-9.766,-16.602,51.758,829.095
1666057274.210,15.625,132.812,-21.973,-15.625,829.099
1666057274.213,-144.043,-403.809,-43.945,-117.676,829.103
1666057274.217,-125.977,-705.566,-18.066,-88.379,829.106
1666057274.221,32.715,178.711,7.812,26.367,829.110
1666057274.225,50.293,394.043,-7.324,16.113,829.114
1666057274.229,-97.168,-474.121,-22.949,-99.121,829.118
1666057274.201,-142.578,-763.184,-19.531,-113.281,829.087
1666057274.205,5.859,172.363,-0.488,-3.418,829.090
1666057274.209,83.496,608.887,7.324,42.969,829.094
1666057274.213,-44.922,-97.656,6.348,-45.898,829.098
1666057274.217,-142.090,-375.977,-5.859,-113.770,829.102
1666057274.221,-45.898,-118.652,-18.066,-39.551,829.106
1666057274.225,73.730,84.473,-16.113,37.109,829.110
1666057274.228,-26.367,-327.637,-20.508,-32.715,829.114
1666057274.232,-147.949,-445.312,-39.062,-110.840,829.118
1666057274.236,-67.871,56.152,-32.227,-52.734,829.122
1666057274.240,94.238,395.020,0.977,51.270,829.126
1666057274.244,53.711,16.113,0.488,5.371,829.130
1666057274.246,-102.539,-419.922,-34.668,-97.168,829.132
1666057274.250,-90.820,-392.090,-31.738,-73.730,829.136
1666057274.254,50.781,89.844,-14.648,19.531,829.140
1666057274.258,54.199,-583.984,-24.414,21.973,829.144
1666057274.262,-97.656,-1000.000,-12.207,-73.242,829.148
1666057274.266,-132.324,-571.777,7.812,-95.215,829.151
1666057274.270,13.184,-284.668,0.000,6.836,829.155
1666057274.273,105.469,-538.574,-8.789,69.824,829.159
1666057274.277,-17.090,-189.453,8.301,-27.832,829.163
1666057274.281,-118.652,-40.039,-0.977,-94.727,829.167
1666057274.285,-12.695,-191.895,1.953,-0.488,829.171
1666057274.289,112.793,394.043,5.859,74.219,829.175
1666057274.292,10.254,458.008,-13.184,-16.113,829.178
1666057274.296,-121.094,-112.305,-23.438,-99.121,829.182
1666057274.300,-50.293,-424.805,-10.742,-41.016,829.186
1666057274.304,80.566,-0.488,14.648,40.527,829.189
1666057274.308,43.945,347.656,1.953,-2.930,829.193
1666057274.312,-96.680,-219.238,-0.977,-87.891,829.197
1666057274.316,-101.074,-967.285,14.160,-50.781,829.201
1666057274.319,48.828,-644.531,12.207,56.152,829.205
1666057274.323,80.078,454.102,1.953,45.898,829.209
1666057274.327,-84.961,186.035,-17.090,-73.730,829.213
1666057274.331,-145.020,-478.516,-23.438,-98.633,829.217
1666057274.335,-1.465,72.754,2.441,0.488,829.221
1666057274.336,104.980,636.719,10.254,65.430,829.252
1666057274.340,-22.949,158.691,-18.066,-33.691,829.255
1666057274.344,-141.113,-704.102,-5.859,-110.840,829.259
1666057274.348,-48.828,-524.902,12.207,-40.039,829.263
1666057274.352,91.309,333.496,23.438,45.410,829.267
1666057274.356,23.438,55.176,17.090,-5.371,829.271
1666057274.360,-127.441,-971.680,-13.672,-88.379,829.275
1666057274.363,-87.891,-816.406,0.488,-46.387,829.279
1666057274.367,70.312,347.168,21.973,53.711,829.283
1666057274.371,61.523,457.031,8.301,41.016,829.287
1666057274.375,-95.215,-170.410,-1.465,-70.312,829.291
1666057274.379,-124.512,-121.582,9.277,-81.543,829.295
1666057274.383,49.805,360.840,26.855,40.039,829.296
1666057274.387,89.844,357.910,-2.930,52.246,829.300
1666057274.391,-82.520,-35.645,-38.086,-75.684,829.304
1666057274.395,-148.438,-207.520,-14.648,-107.422,829.308
1666057274.399,-15.137,114.746,24.902,3.418,829.312
1666057274.403,101.074,81.543,25.879,65.918,829.316
1666057274.407,-20.020,-304.199,7.812,-39.551,829.320
1666057274.410,-150.879,-306.641,1.953,-122.559,829.324
1666057274.414,-57.129,-289.062,3.906,-38.574,829.327
1666057274.418,89.844,-216.309,6.836,67.871,829.331
1666057274.422,31.738,134.766,-0.977,14.648,829.335
1666057274.426,-112.793,-48.340,-2.930,-85.938,829.339
1666057274.440,-91.309,-346.680,-4.883,-58.594,829.331
1666057274.444,63.477,-642.090,5.371,54.199,829.335
1666057274.448,72.266,-227.539,-0.488,44.434,829.339
1666057274.452,-92.285,-207.031,-19.043,-81.543,829.343
1666057274.456,-133.301,-666.504,-8.301,-92.773,829.347
1666057274.460,18.555,-865.234,-10.254,18.555,829.351
1666057274.464,83.984,-149.902,-5.859,42.969,829.355
1666057274.467,-58.105,237.305,-5.859,-61.523,829.359
1666057274.471,-134.277,-425.293,-16.113,-112.793,829.362
1666057274.475,-13.672,-252.930,-9.766,-20.508,829.366
1666057274.479,101.074,502.930,1.465,51.758,829.370
1666057274.483,5.859,204.590,5.859,-24.414,829.374
1666057274.489,-134.766,-656.250,-2.441,-102.051,829.376
1666057274.493,-81.055,-637.207,-18.066,-51.270,829.380
1666057274.497,66.895,408.691,-9.277,27.344,829.384
1666057274.501,32.227,518.555,-9.277,-10.742,829.388
1666057274.505,-110.840,-344.238,-30.273,-98.145,829.392
1666057274.509,-123.047,-639.648,-20.508,-97.656,829.396
1666057274.513,16.602,46.387,4.883,-3.418,829.400
1666057274.516,48.828,484.375,-2.930,10.742,829.403
1666057274.520,-102.051,-586.426,-28.320,-77.148,829.407
1666057274.524,-137.695,-763.184,4.883,-82.520,829.411
1666057274.528,5.371,249.023,30.273,7.812,829.415
1666057274.532,72.754,455.566,2.441,32.227,829.419
1666057274.531,-66.895,-276.855,-29.785,-72.266,829.417
1666057274.535,-167.480,-501.953,-31.738,-124.023,829.421
1666057274.539,-55.664,-270.996,-18.555,-37.598,829.424
1666057274.543,76.172,32.715,-0.977,43.457,829.428
1666057274.547,-13.672,-111.816,15.625,-22.461,829.432
1666057274.551,-147.461,-622.559,4.883,-112.793,829.436
1666057274.555,-105.469,-408.203,7.324,-78.125,829.440
1666057274.558,43.945,156.738,14.648,23.438,829.444
1666057274.562,31.250,-714.844,8.789,14.160,829.448
1666057274.566,-112.305,-904.297,19.043,-76.172,829.452
1666057274.570,-113.281,-202.148,4.395,-71.777,829.456
1666057274.574,39.062,-10.254,3.906,31.738,829.460
1666057274.606,89.355,281.738,18.555,51.270,829.492
1666057274.610,-54.688,216.797,1.465,-56.641,829.495
1666057274.614,-125.977,-173.340,6.348,-88.867,829.499
1666057274.618,5.371,-157.715,17.090,6.836,829.503
1666057274.622,106.934,196.777,20.020,61.523,829.507
1666057274.626,-20.996,-61.523,27.344,-30.273,829.511
1666057274.630,-137.695,-528.809,23.438,-103.027,829.515
1666057274.633,-41.016,-861.328,7.812,-24.414,829.519
1666057274.637,92.285,-566.406,27.832,66.406,829.523
1666057274.641,31.250,270.996,58.105,14.160,829.527
1666057274.645,-107.422,-101.562,36.621,-73.242,829.531
1666057274.649,-84.473,-420.898,13.184,-49.805,829.534
1666057274.620,72.266,309.082,18.555,42.969,829.550
1666057274.624,59.082,591.797,8.301,21.484,829.554
1666057274.628,-107.422,-124.512,-6.836,-93.750,829.557
1666057274.632,-127.441,-750.977,15.625,-98.633,829.561
1666057274.636,23.438,-19.043,34.180,6.836,829.565
1666057274.640,69.336,348.145,27.832,35.645,829.569
1666057274.644,-65.430,-399.902,16.602,-59.570,829.573
1666057274.647,-141.113,-701.172,10.254,-101.074,829.577
1666057274.651,-17.090,50.293,19.531,-13.672,829.581
1666057274.655,101.562,668.457,33.203,50.781,829.585
1666057274.659,-19.531,21.973,7.812,-30.273,829.589
1666057274.663,-153.809,-598.633,4.395,-112.305,829.593
1666057274.670,-77.637,-114.746,29.785,-46.387,829.555
1666057274.674,68.359,537.598,33.203,50.293,829.559
1666057274.678,18.555,-18.066,20.020,-3.418,829.563
1666057274.682,-133.301,-1000.000,5.371,-95.703,829.567
1666057274.686,-115.234,-524.414,11.719,-67.871,829.571
1666057274.690,48.340,105.469,30.762,45.898,829.575
1666057274.694,55.664,-209.473,33.691,42.480,829.579
1666057274.697,-96.680,-358.398,23.926,-72.266,829.583
1666057274.701,-117.188,-77.148,29.785,-71.289,829.587
1666057274.705,10.254,12.207,27.832,25.879,829.591
1666057274.709,82.520,15.137,24.902,49.316,829.595
1666057274.713,-42.480,29.785,27.344,-44.434,829.598
1666057274.726,-138.184,-86.914,34.668,-103.027,829.623
1666057274.730,-34.180,-66.406,20.508,-15.137,829.627
1666057274.734,90.820,40.527,17.578,66.406,829.631
1666057274.738,-10.254,-105.957,11.230,-25.391,829.635
1666057274.742,-133.789,-303.223,4.883,-97.168,829.639
1666057274.746,-55.664,-390.137,27.344,-31.738,829.643
1666057274.750,87.891,-867.676,33.691,58.594,829.647
1666057274.753,27.832,-1000.000,25.879,9.277,829.651
1666057274.757,-129.395,-542.480,37.109,-101.074,829.654
1666057274.761,-101.074,-354.492,40.039,-74.707,829.658
1666057274.765,57.129,168.457,45.410,45.410,829.662
1666057274.769,69.336,581.543,31.250,37.598,829.666
1666057274.788,-84.473,-144.043,20.508,-73.242,829.682
1666057274.792,-137.207,-724.121,21.973,-93.750,829.686
1666057274.796,2.930,-85.449,31.738,6.836,829.690
1666057274.800,88.379,710.449,30.762,50.293,829.694
1666057274.804,-42.480,318.848,26.367,-43.457,829.698
1666057274.808,-142.578,-712.891,5.859,-92.285,829.702
1666057274.812,-29.785,-477.539,4.395,-12.695,829.706
1666057274.815,112.305,627.930,28.809,72.754,829.710
1666057274.819,17.090,459.473,29.297,1.465,829.714
1666057274.823,-134.766,-758.789,25.391,-89.844,829.717
1666057274.827,-83.008,-644.043,27.344,-49.316,829.721
1666057274.831,80.078,513.672,36.133,36.621,829.725
1666057274.830,52.246,458.008,32.715,12.207,829.716
1666057274.834,-117.188,-350.586,31.738,-82.031,829.720
1666057274.838,-118.652,-432.617,40.039,-77.148,829.724
1666057274.842,45.410,-28.320,33.691,28.320,829.727
1666057274.846,82.031,98.633,36.621,42.969,829.731
1666057274.850,-71.777,-558.594,33.203,-64.453,829.735
1666057274.854,-126.953,-746.582,22.949,-83.984,829.739
1666057274.857,-7.812,59.570,23.926,4.395,829.743
1666057274.861,74.219,412.598,31.738,44.434,829.747
1666057274.865,-43.457,-33.203,31.250,-41.992,829.751
1666057274.869,-149.902,-235.352,22.461,-106.934,829.755
1666057274.873,-63.477,80.566,34.180,-33.203,829.759
1666057274.875,66.406,134.277,18.555,44.434,829.760
1666057274.879,-5.859,-837.891,17.090,-7.324,829.764
1666057274.883,-127.441,-820.312,60.059,-87.891,829.768
1666057274.887,-90.820,-123.047,47.852,-73.242,829.772
1666057274.891,63.965,88.379,38.086,27.344,829.776
1666057274.895,63.965,86.426,33.691,18.555,829.780
1666057274.899,-103.027,-364.258,17.090,-93.262,829.784
1666057274.902,-118.164,-652.344,30.762,-86.426,829.788
1666057274.906,30.762,-376.953,38.574,16.602,829.792
1666057274.910,80.566,307.129,26.855,34.668,829.796
1666057274.914,-59.570,285.156,29.785,-66.895,829.800
1666057274.918,-135.254,-213.379,24.902,-102.539,829.803
1666057274.908,-9.766,-830.078,9.277,3.906,829.804
1666057274.912,108.398,-300.781,32.227,61.035,829.808
1666057274.916,0.000,274.902,29.785,-34.180,829.812
1666057274.920,-128.418,-487.793,20.020,-101.562,829.816
1666057274.924,-51.270,-889.648,26.367,-27.832,829.820
1666057274.928,88.379,-134.277,23.438,58.105,829.823
1666057274.932,25.879,283.691,20.996,1.953,829.827
1666057274.935,-114.258,-335.938,21.484,-94.238,829.831
1666057274.939,-86.426,-558.594,25.391,-72.754,829.835
1666057274.943,67.383,353.027,29.785,34.180,829.839
1666057274.947,76.172,730.469,11.230,33.203,829.843
1666057274.951,-87.891,-190.918,-9.277,-71.289,829.847
1666057274.952,-123.047,-988.281,8.301,-83.984,829.848
1666057274.956,33.203,-36.133,36.621,16.602,829.852
1666057274.960,98.633,703.613,25.879,52.246,829.856
1666057274.964,-54.688,-2.930,12.695,-59.082,829.860
1666057274.968,-151.367,-354.492,18.066,-115.723,829.864
1666057274.972,-20.508,-121.582,21.484,-10.254,829.868
1666057274.976,94.727,200.684,20.020,63.477,829.872
1666057274.979,-20.996,-370.117,-5.859,-24.902,829.876
1666057274.983,-143.066,-675.781,0.000,-115.723,829.880
1666057274.987,-68.359,-3.906,7.812,-44.922,829.883
1666057274.991,68.359,254.395,-2.441,59.570,829.887
1666057274.995,22.461,-406.250,-8.789,18.555,829.891
1666057275.010,-121.094,-490.723,3.418,-80.078,829.896
1666057275.014,-108.398,4.395,38.574,-53.711,829.900
1666057275.018,42.480,185.059,32.227,40.527,829.904
1666057275.022,64.941,-34.180,13.184,25.391,829.907
1666057275.026,-83.984,-193.359,20.996,-67.871,829.911
1666057275.030,-132.324,-410.645,3.906,-95.215,829.915
1666057275.034,17.578,-330.078,17.090,4.395,829.919
1666057275.037,103.516,-680.664,22.949,62.988,829.923
1666057275.041,-30.762,-589.844,13.184,-30.273,829.927
1666057275.045,-133.301,-156.250,-4.883,-94.727,829.931
1666057275.049,-32.227,-204.102,-9.766,-22.461,829.935
1666057275.053,87.891,260.254,12.207,51.758,829.939
1666057275.044,-14.648,310.059,13.184,-25.879,829.933
1666057275.048,-135.742,-347.656,20.508,-108.398,829.937
1666057275.052,-75.195,-611.816,22.461,-50.293,829.941
1666057275.056,81.055,68.848,26.367,63.477,829.945
1666057275.060,49.316,567.871,20.020,28.809,829.949
1666057275.064,-125.000,-282.715,-11.719,-93.750,829.952
1666057275.068,-116.211,-828.125,1.953,-82.031,829.956
1666057275.071,57.129,34.668,47.363,34.180,829.960
1666057275.075,88.379,689.941,23.438,39.062,829.964
1666057275.079,-69.824,92.285,-14.160,-69.336,829.968
1666057275.083,-146.973,-842.773,6.348,-94.238,829.972
1666057275.087,-16.602,-297.363,43.457,2.930,829.976
1666057275.086,94.238,665.527,34.668,61.035,829.986
1666057275.090,-23.438,192.383,17.578,-16.602,829.990
1666057275.094,-132.324,-702.148,23.438,-72.266,829.994
1666057275.098,-44.922,-493.652,14.648,-12.695,829.998
1666057275.102,83.496,136.719,13.184,54.199,830.002
1666057275.106,16.602,-35.156,20.020,1.953,830.006
1666057275.110,-132.324,-919.922,2.441,-94.727,830.010
1666057275.113,-90.820,-868.652,25.391,-53.711,830.014
1666057275.117,70.801,318.848,37.598,43.945,830.018
1666057275.121,45.898,448.242,1.465,0.488,830.022
1666057275.125,-111.328,-132.812,-12.207,-101.562,830.026
1666057275.129,-109.863,-91.309,2.441,-93.262,830.029
1666057275.132,51.270,343.750,23.926,20.020,830.030
1666057275.136,97.168,363.281,18.555,39.551,830.034
1666057275.140,-62.988,-28.809,12.695,-65.918,830.037
1666057275.144,-138.672,-161.133,26.367,-101.074,830.041
1666057275.148,-8.789,102.051,26.367,-4.883,830.045
1666057275.152,104.492,51.270,31.250,72.754,830.049
1666057275.156,-4.883,-301.758,19.043,-12.695,830.053
1666057275.159,-135.742,-474.121,14.160,-101.074,830.057
1666057275.163,-49.805,-82.520,32.227,-36.621,830.061
1666057275.167,94.727,-301.270,28.809,51.758,830.065
1666057275.171,33.691,-464.355,39.551,-7.324,830.069
1666057275.175,-109.863,-115.723,15.625,-107.422,830.073
1666057275.190,-81.055,-220.215,3.418,-76.172,830.076
1666057275.194,71.777,146.484,30.762,35.156,830.080
1666057275.198,75.195,416.504,19.531,44.434,830.084
1666057275.202,-85.449,-266.113,5.859,-69.336,830.087
1666057275.206,-120.117,-651.855,18.066,-97.656,830.091
1666057275.210,26.367,-852.539,21.484,25.879,830.095
1666057275.214,94.238,-153.320,32.715,44.434,830.099
1666057275.217,-39.551,312.012,35.156,-77.148,830.103
1666057275.221,-127.930,-475.586,30.273,-106.934,830.107
1666057275.225,-20.996,-871.582,41.504,0.000,830.111
1666057275.229,100.586,226.562,38.574,65.918,830.115
1666057275.233,1.465,486.816,1.953,-18.555,830.119
1666057275.250,-139.648,-393.555,15.625,-95.703,830.136
1666057275.254,-73.730,-259.277,49.805,-34.180,830.140
1666057275.258,75.195,538.086,37.109,59.570,830.143
1666057275.262,25.391,510.254,20.508,11.230,830.147
1666057275.266,-125.977,-381.348,26.367,-84.961,830.151
1666057275.270,-110.352,-694.824,29.297,-64.941,830.155
1666057275.274,38.086,-72.754,31.738,36.133,830.159
1666057275.277,61.523,323.242,18.066,28.320,830.163
1666057275.281,-92.773,-604.492,22.949,-77.637,830.167
1666057275.285,-129.883,-759.277,52.734,-79.102,830.171
1666057275.289,7.812,163.574,37.109,13.672,830.175
1666057275.293,76.660,221.191,31.250,36.621,830.179
1666057275.280,-50.781,-492.676,21.973,-60.547,830.180
1666057275.284,-143.555,-418.457,23.926,-107.422,830.184
1666057275.288,-46.387,89.844,40.527,-31.738,830.188
1666057275.292,69.824,61.523,30.273,50.293,830.192
1666057275.296,-5.371,-545.898,33.691,1.953,830.196
1666057275.300,-144.531,-698.242,24.414,-101.074,830.199
1666057275.304,-95.215,-441.406,22.949,-56.152,830.203
1666057275.307,79.590,3.418,48.340,63.477,830.207
1666057275.311,47.363,137.207,29.297,11.719,830.211
1666057275.315,-123.047,-98.145,-4.395,-107.422,830.215
1666057275.319,-117.188,-56.641,-0.977,-82.520,830.219
1666057275.323,46.875,-31.250,30.273,36.133,830.223
1666057275.343,70.312,-286.133,35.156,40.039,830.232
1666057275.347,-76.660,-199.707,34.180,-80.566,830.235
1666057275.351,-132.812,-460.938,34.180,-114.258,830.239
1666057275.355,-12.207,-458.496,48.340,-15.625,830.243
1666057275.359,90.820,190.918,63.477,54.199,830.247
1666057275.363,-25.391,38.086,46.387,-36.133,830.251
1666057275.367,-146.973,-635.254,32.715,-107.422,830.255
1666057275.370,-66.895,-713.867,19.043,-36.621,830.259
1666057275.374,69.824,110.840,38.086,48.340,830.263
1666057275.378,6.348,551.270,58.105,-1.465,830.267
1666057275.382,-149.414,-160.156,41.992,-100.098,830.271
1666057275.386,-114.258,-822.266,31.250,-59.570,830.274
1666057275.401,53.223,29.297,48.340,40.039,830.288
1666057275.405,54.688,667.969,39.551,18.555,830.292
1666057275.409,-94.727,-92.285,18.555,-81.543,830.295
1666057275.413,-106.445,-694.824,24.414,-80.566,830.299
1666057275.417,40.527,-183.594,46.387,25.391,830.303
1666057275.421,81.543,206.055,45.410,54.688,830.307
1666057275.425,-75.195,-351.562,28.809,-58.105,830.311
1666057275.428,-154.785,-649.414,30.762,-115.234,830.315
1666057275.432,-22.461,-23.926,41.992,-9.277,830.319
1666057275.436,84.961,624.512,50.293,60.547,830.323
1666057275.440,-38.574,86.914,41.016,-33.691,830.327
1666057275.444,-158.691,-980.469,37.109,-103.027,830.331
1666057275.432,-74.707,-465.820,49.316,-39.062,830.319
1666057275.436,69.336,525.391,55.664,45.898,830.323
1666057275.440,0.488,216.309,40.039,-15.625,830.327
1666057275.444,-148.926,-210.449,36.133,-111.816,830.331
1666057275.448,-107.910,-44.922,38.086,-78.125,830.335
1666057275.452,45.410,118.164,28.320,20.508,830.339
1666057275.456,39.062,-227.539,22.949,13.672,830.343
1666057275.459,-99.609,-524.902,19.043,-78.613,830.347
1666057275.463,-126.465,-220.215,9.277,-89.355,830.351
1666057275.467,12.695,168.457,19.531,11.719,830.355
1666057275.471,84.961,6.348,21.973,42.969,830.359
1666057275.475,-49.316,-241.699,5.371,-64.453,830.362
1666057275.491,-151.367,-205.078,-11.230,-122.070,830.391
1666057275.495,-40.039,21.973,0.488,-25.391,830.395
1666057275.499,80.566,-500.977,8.789,62.988,830.399
1666057275.503,-34.668,-859.863,0.977,-17.090,830.403
1666057275.507,-134.277,-387.695,17.578,-86.426,830.407
1666057275.511,-32.227,-370.605,22.461,-9.277,830.410
1666057275.515,81.055,-88.379,27.344,57.129,830.414
1666057275.518,16.113,358.887,27.344,-5.859,830.418
1666057275.522,-125.000,48.828,12.207,-96.191,830.422
1666057275.526,-102.539,-414.062,14.160,-59.082,830.426
1666057275.530,69.336,-959.473,20.020,78.613,830.430
1666057275.534,91.797,-534.180,24.902,73.242,830.434
1666057275.539,-66.406,5.371,16.602,-50.293,830.427
1666057275.543,-100.098,-433.594,10.254,-52.246,830.431
1666057275.547,49.805,-16.602,19.531,68.359,830.435
1666057275.551,128.906,706.055,25.391,113.281,830.439
1666057275.555,3.418,314.941,22.461,14.160,830.443
1666057275.559,-94.238,-616.699,22.949,-32.715,830.447
1666057275.563,10.742,-463.379,22.949,42.480,830.451
1666057275.566,151.855,541.016,11.230,105.469,830.455
1666057275.570,60.547,363.281,-0.488,32.227,830.458
1666057275.574,-83.496,-648.438,2.441,-56.152,830.462
1666057275.578,-37.109,-364.746,8.301,-17.578,830.466
1666057275.582,108.887,465.332,4.395,92.285,830.470
1666057275.566,95.703,156.250,2.930,77.637,830.452
1666057275.570,-54.199,-743.652,0.977,-25.391,830.456
1666057275.574,-62.988,-563.477,1.465,-21.973,830.460
1666057275.578,86.426,-5.371,-7.324,77.148,830.464
1666057275.582,121.094,15.137,-19.043,83.984,830.467
1666057275.586,-31.738,-780.762,-20.508,-20.996,830.471
1666057275.590,-86.914,-752.441,-6.348,-50.781,830.475
1666057275.593,39.062,185.547,-7.812,41.504,830.479
1666057275.597,115.234,395.996,-15.137,89.844,830.483
1666057275.601,-5.859,-101.562,-20.020,-18.555,830.487
1666057275.605,-111.816,-272.949,-17.090,-94.727,830.491
1666057275.609,-11.719,115.723,0.000,-9.766,830.495
1666057275.640,124.512,170.410,-15.625,76.660,830.527
1666057275.644,45.410,-800.781,-36.621,22.461,830.531
1666057275.648,-93.262,-958.984,-39.062,-67.383,830.534
1666057275.652,-53.711,-468.262,-28.320,-37.109,830.538
1666057275.656,88.867,-163.574,-20.020,60.059,830.542
1666057275.660,69.824,-105.469,-22.949,34.668,830.546
1666057275.664,-81.055,-224.609,-5.371,-65.918,830.550
1666057275.667,-85.449,-201.660,-5.371,-49.316,830.554
1666057275.671,67.871,-422.363,-28.809,63.965,830.558
1666057275.675,115.234,-80.078,-24.902,83.496,830.562
1666057275.679,-42.969,225.098,-25.391,-31.738,830.566
1666057275.683,-128.418,-264.648,-33.203,-82.520,830.570
1666057275.670,6.836,-170.410,-19.531,10.254,830.601
1666057275.674,119.629,596.680,-16.602,70.312,830.605
1666057275.678,0.488,442.383,-22.949,-9.766,830.609
1666057275.682,-127.930,-520.996,-29.297,-75.684,830.613
1666057275.686,-54.688,-797.363,-41.016,-22.461,830.617
1666057275.690,86.426,-13.184,-17.090,62.500,830.621
1666057275.694,28.809,97.656,25.879,10.254,830.625
1666057275.697,-132.812,-564.941,25.391,-84.473,830.629
1666057275.701,-106.445,-526.855,21.484,-66.895,830.633
1666057275.705,62.500,327.148,33.203,33.691,830.637
1666057275.709,62.500,637.207,24.902,24.414,830.640
1666057275.713,-103.027,-188.477,14.160,-83.984,830.644
1666057275.747,-128.418,-545.410,17.578,-85.938,830.633
1666057275.751,34.668,205.566,24.902,31.250,830.637
1666057275.755,104.980,586.914,32.227,58.594,830.640
1666057275.759,-66.406,-271.973,4.395,-60.059,830.644
1666057275.763,-168.457,-1000.000,-6.836,-109.863,830.648
1666057275.767,-39.062,-427.246,48.828,-23.926,830.652
1666057275.771,80.078,186.523,73.242,49.316,830.656
1666057275.774,-19.531,-311.523,65.918,-24.902,830.660
1666057275.778,-137.207,-666.504,88.867,-106.445,830.664
1666057275.782,-63.965,-9.766,107.422,-46.875,830.668
1666057275.786,81.055,474.121,96.191,49.805,830.672
1666057275.790,34.668,-215.820,83.496,7.812,830.676
1666057275.751,-116.211,-488.281,79.590,-99.609,830.644
1666057275.755,-105.957,-48.828,83.008,-84.473,830.648
1666057275.759,55.176,198.242,74.219,34.180,830.652
1666057275.763,82.520,-25.879,67.871,43.945,830.655
1666057275.767,-77.637,-170.898,60.059,-78.125,830.659
1666057275.771,-130.859,-372.559,49.316,-102.539,830.663
1666057275.775,20.020,-356.934,73.242,6.836,830.667
1666057275.778,88.867,-76.172,77.148,40.039,830.671
1666057275.782,-56.152,63.477,49.805,-60.547,830.675
1666057275.786,-146.484,-73.730,52.734,-116.699,830.679
1666057275.790,-39.551,-363.281,61.523,-32.715,830.683
1666057275.794,82.520,-514.648,59.082,51.758,830.687
1666057275.792,4.395,80.566,47.852,-22.461,830.678
1666057275.796,-134.766,-33.203,29.297,-111.816,830.682
1666057275.800,-87.891,-526.855,19.531,-63.965,830.686
1666057275.804,66.895,106.934,26.855,35.645,830.690
1666057275.808,39.551,535.156,27.832,10.742,830.694
1666057275.812,-108.398,-312.988,8.789,-92.773,830.698
1666057275.816,-112.793,-884.277,15.625,-74.219,830.702
1666057275.819,30.762,-1000.000,32.227,41.016,830.706
1666057275.823,64.941,-781.250,10.254,43.457,830.709
1666057275.827,-74.219,-236.328,10.254,-68.359,830.713
1666057275.831,-130.859,-504.395,39.062,-90.332,830.717
1666057275.835,-12.207,49.316,30.762,-5.371,830.721
1666057275.866,82.520,691.406,10.742,39.062,830.753
1666057275.870,-40.527,23.438,1.953,-56.152,830.757
1666057275.874,-171.875,-812.012,-6.348,-136.719,830.761
1666057275.878,-83.984,-434.570,8.301,-64.453,830.765
1666057275.882,62.988,489.258,20.996,27.344,830.769
1666057275.886,-3.418,156.250,-0.488,-23.926,830.773
1666057275.890,-144.531,-927.734,-6.836,-99.121,830.776
1666057275.893,-95.703,-604.492,13.672,-61.035,830.780
1666057275.897,59.570,495.605,6.348,32.715,830.784
1666057275.901,43.945,481.934,-7.812,21.484,830.788
1666057275.905,-99.121,-165.527,4.883,-78.125,830.792
1666057275.909,-126.465,-216.797,3.906,-84.961,830.796
1666057275.897,19.531,370.605,2.930,26.367,830.783
1666057275.901,65.918,450.195,-4.395,47.852,830.787
1666057275.905,-78.613,39.551,-8.789,-60.059,830.791
1666057275.909,-153.320,-299.805,-12.695,-104.980,830.795
1666057275.913,-36.621,-189.453,-18.555,-21.973,830.798
1666057275.917,72.754,-62.012,-19.043,40.527,830.802
1666057275.921,-36.133,-175.781,-22.461,-46.387,830.806
1666057275.924,-145.508,-165.039,-11.230,-113.281,830.810
1666057275.928,-65.430,-112.305,-10.254,-46.387,830.814
1666057275.932,65.430,-14.160,-9.277,42.969,830.818
1666057275.936,25.879,173.340,2.441,15.625,830.822
1666057275.940,-110.352,-14.160,-16.113,-84.473,830.826
1666057275.955,-125.977,-296.875,-12.695,-91.309,830.841
1666057275.959,2.441,-607.422,-7.812,0.000,830.845
1666057275.963,-1.953,-265.137,-4.395,-21.973,830.849
1666057275.967,-138.672,-275.879,6.836,-120.605,830.853
1666057275.971,-156.250,-683.594,13.184,-126.465,830.857
1666057275.975,-39.062,-423.828,0.000,-53.223,830.861
1666057275.979,-0.488,43.457,-28.320,-44.434,830.865
1666057275.982,-148.438,-104.004,-30.762,-160.156,830.869
1666057275.986,-234.863,-463.379,-18.066,-211.914,830.873
1666057275.990,-101.562,-996.094,14.160,-80.566,830.877
1666057275.994,10.742,-559.082,15.137,-9.277,830.881
1666057275.998,-92.285,256.348,19.531,-99.121,830.884
1666057276.002,-211.914,-265.137,26.367,-169.434,830.888
1666057276.006,-155.762,-208.496,13.672,-131.348,830.892
1666057276.010,-25.879,593.750,19.043,-60.059,830.896
1666057276.014,-67.871,550.293,-17.578,-95.215,830.900
1666057276.018,-201.172,-294.922,-12.207,-178.223,830.904
1666057276.022,-175.781,-633.789,31.250,-148.438,830.908
1666057276.026,-12.207,73.242,41.016,-38.574,830.912
1666057276.029,18.066,486.328,36.621,-32.715,830.915
1666057276.033,-158.203,-541.992,-10.742,-148.438,830.919
1666057276.037,-211.426,-739.258,-15.137,-171.387,830.923
1666057276.041,-50.781,239.746,18.555,-60.059,830.927
1666057276.045,41.016,558.594,35.156,-1.953,830.931
1666057276.030,-89.844,-599.609,10.742,-78.613,830.915
1666057276.034,-190.430,-861.816,8.789,-136.719,830.919
1666057276.038,-71.777,26.855,34.668,-52.246,830.923
1666057276.042,74.707,213.867,24.902,33.203,830.927
1666057276.046,-9.766,-79.590,14.160,-32.227,830.931
1666057276.050,-138.672,-457.520,21.973,-99.609,830.935
1666057276.054,-71.777,-443.848,31.738,-38.086,830.939
1666057276.057,76.660,60.547,29.785,52.734,830.943
1666057276.061,35.156,173.828,17.090,11.230,830.946
1666057276.065,-113.281,-89.355,19.043,-94.238,830.950
1666057276.069,-106.445,-121.582,36.133,-80.566,830.954
1666057276.073,37.109,-83.008,32.227,28.320,830.958
1666057276.076,69.824,-829.590,10.254,40.039,830.975
1666057276.080,-71.289,-794.922,10.254,-69.336,830.979
1666057276.084,-137.207,-252.441,35.156,-112.305,830.982
1666057276.088,-15.137,-137.207,30.273,-22.461,830.986
1666057276.092,88.867,405.762,23.926,41.992,830.990
1666057276.096,-22.949,103.027,33.203,-49.805,830.994
1666057276.100,-140.137,-551.270,27.832,-118.164,830.998
1666057276.103,-58.105,-759.277,28.320,-28.320,831.002
1666057276.107,81.055,-152.832,36.621,52.734,831.006
1666057276.111,8.789,473.145,22.949,-22.949,831.010
1666057276.115,-129.883,-106.445,9.766,-107.910,831.014
1666057276.119,-90.332,-385.742,15.625,-63.965,831.018
1666057276.121,62.012,350.586,26.367,36.133,831.007
1666057276.125,65.430,582.031,32.715,23.926,831.011
1666057276.129,-90.820,-284.668,19.043,-78.125,831.015
1666057276.133,-123.047,-933.105,3.906,-86.914,831.018
1666057276.137,32.715,-75.684,20.020,14.160,831.022
1666057276.141,83.496,427.246,20.020,42.969,831.026
1666057276.145,-68.848,-356.934,3.906,-64.941,831.030
1666057276.148,-149.414,-828.613,10.742,-110.352,831.034
1666057276.152,-22.949,-50.781,19.531,-20.996,831.038
1666057276.156,96.191,727.539,31.250,44.922,831.042
1666057276.160,-15.625,93.750,30.273,-35.645,831.046
1666057276.164,-138.672,-704.102,22.949,-113.770,831.050
1666057276.196,-52.246,-75.684,28.809,-48.828,831.081
1666057276.200,90.820,600.586,21.484,44.434,831.085
1666057276.204,34.668,221.191,9.277,1.465,831.089
1666057276.208,-97.168,-225.586,0.977,-83.008,831.093
1666057276.212,-71.289,-308.594,15.137,-42.480,831.097
1666057276.216,73.730,39.062,21.973,52.246,831.101
1666057276.220,61.523,-245.117,0.000,17.578,831.104
1666057276.223,-100.098,-869.141,-0.977,-94.238,831.108
1666057276.227,-129.883,-347.168,-4.395,-101.074,831.112
1666057276.231,20.020,194.336,4.395,8.301,831.116
1666057276.235,86.914,300.293,32.715,39.062,831.120
1666057276.239,-58.105,148.926,21.484,-79.590,831.124
1666057276.240,-145.996,-129.395,5.371,-129.883,831.126
1666057276.244,-38.086,-46.875,4.883,-34.668,831.130
1666057276.248,86.426,200.684,20.508,41.504,831.134
1666057276.252,-10.254,-50.293,11.719,-38.574,831.138
1666057276.256,-137.207,-276.855,0.000,-117.676,831.142
1666057276.260,-74.219,-425.293,6.836,-54.688,831.146
1666057276.264,60.059,-625.000,11.230,36.621,831.150
1666057276.267,20.996,-193.359,9.766,-22.949,831.154
1666057276.271,-110.840,-85.449,13.672,-116.699,831.158
1666057276.275,-92.285,-383.789,22.949,-77.148,831.162
1666057276.279,52.734,-23.438,2.441,31.250,831.166
1666057276.283,80.566,463.867,-16.113,42.480,831.169
1666057276.258,-62.988,151.855,-18.555,-61.523,831.155
1666057276.262,-128.906,-555.664,-3.906,-102.539,831.158
1666057276.266,6.348,-921.387,20.996,6.836,831.162
1666057276.270,88.867,111.328,27.832,50.781,831.166
1666057276.274,-45.410,318.848,23.926,-48.828,831.170
1666057276.278,-141.602,-734.863,5.859,-94.727,831.174
1666057276.282,-38.086,-494.141,8.301,-29.785,831.178
1666057276.285,93.262,586.426,27.344,53.223,831.182
1666057276.289,8.301,380.371,1.953,-9.277,831.186
1666057276.293,-139.648,-743.652,-30.762,-105.469,831.190
1666057276.297,-101.562,-601.074,-10.742,-59.570,831.194
1666057276.301,56.641,365.234,-8.301,39.551,831.198
1666057276.315,23.926,381.836,-21.973,0.000,831.200
1666057276.319,-148.438,-739.746,-28.320,-98.633,831.204
1666057276.323,-145.020,-1000.000,2.930,-83.496,831.208
1666057276.327,23.438,-151.855,35.645,20.020,831.212
1666057276.331,62.012,216.309,15.625,27.344,831.216
1666057276.335,-88.867,-754.883,-2.930,-64.453,831.220
1666057276.339,-154.785,-879.883,3.906,-88.867,831.224
1666057276.342,-22.461,222.656,0.977,-12.207,831.228
1666057276.346,70.312,454.590,-7.812,36.621,831.232
1666057276.350,-48.340,-306.152,-6.348,-48.340,831.235
1666057276.354,-150.879,-213.867,-16.602,-119.141,831.239
1666057276.358,-58.105,189.453,-19.043,-42.969,831.243
1666057276.392,72.754,279.785,-20.020,43.457,831.319
1666057276.396,6.348,246.094,-16.113,-25.391,831.323
1666057276.400,-128.906,19.043,-5.371,-119.629,831.327
1666057276.404,-88.867,-57.129,-1.465,-83.984,831.331
1666057276.408,67.871,-55.664,6.836,22.461,831.334
1666057276.412,46.875,-183.594,1.465,-2.930,831.338
1666057276.416,-107.422,-312.500,-6.348,-112.305,831.342
1666057276.419,-110.352,-223.145,0.488,-110.840,831.346
1666057276.423,22.461,-402.832,-2.441,7.812,831.350
1666057276.427,77.637,-115.723,-0.488,66.895,831.354
1666057276.431,-46.387,238.281,-2.930,-37.109,831.358
1666057276.435,-137.695,-264.160,0.488,-111.328,831.362
1666057276.436,-38.574,-221.191,9.277,-28.320,831.324
1666057276.440,58.594,507.812,3.906,43.945,831.328
1666057276.444,-26.367,278.809,-8.301,-38.086,831.332
1666057276.448,-133.789,-630.859,-20.020,-111.816,831.336
1666057276.452,-71.289,-668.945,-17.090,-48.340,831.340
1666057276.456,66.406,67.383,-9.766,44.922,831.344
1666057276.460,22.461,56.152,-17.090,-0.977,831.348
1666057276.463,-117.188,-585.449,-18.555,-95.215,831.352
1666057276.467,-84.961,-559.082,-6.836,-58.594,831.356
1666057276.471,78.613,289.551,-9.277,55.664,831.360
1666057276.475,88.379,628.418,-23.926,41.016,831.364
1666057276.479,-63.965,-240.234,-36.133,-71.777,831.367
1666057276.453,-90.820,-777.344,-36.621,-79.590,831.339
1666057276.457,57.617,80.078,-20.996,18.555,831.342
1666057276.461,123.535,657.715,-19.531,50.293,831.346
1666057276.465,-15.137,-203.613,-39.551,-35.645,831.350
1666057276.469,-88.867,-963.867,-41.016,-70.801,831.354
1666057276.473,15.625,-376.465,-20.020,-2.441,831.358
1666057276.477,133.301,186.523,-21.973,66.406,831.362
1666057276.480,43.945,-292.480,-29.785,-1.465,831.366
1666057276.484,-93.262,-433.105,-28.320,-86.426,831.370
1666057276.488,-25.391,36.133,-25.879,-31.250,831.374
1666057276.492,95.215,399.902,-20.996,68.848,831.378
1666057276.496,43.457,-5.371,-24.902,19.043,831.381
1666057276.495,-95.215,-293.945,-21.973,-95.215,831.380
1666057276.499,-93.262,-85.449,-19.043,-76.172,831.384
1666057276.503,65.430,191.895,-18.555,42.480,831.388
1666057276.507,78.125,-520.996,-31.250,50.293,831.392
1666057276.511,-78.613,-884.766,-30.762,-67.871,831.396
1666057276.515,-124.023,-521.484,-26.367,-90.820,831.400
1666057276.519,14.648,-269.043,-20.996,17.578,831.404
1666057276.522,98.145,-656.250,-23.438,71.777,831.408
1666057276.526,-35.156,-1000.000,-30.762,-31.250,831.411
1666057276.530,-128.418,-453.125,-22.461,-104.980,831.415
1666057276.534,-30.273,-30.762,-21.484,-18.555,831.419
1666057276.538,89.355,472.656,-23.438,68.359,831.423
1666057276.557,19.043,540.039,-29.785,4.395,831.442
1666057276.561,-110.352,28.320,-38.574,-90.332,831.446
1666057276.565,-68.359,-215.820,-34.180,-53.711,831.450
1666057276.569,86.426,366.699,-32.227,50.293,831.454
1666057276.573,64.453,620.605,-41.504,20.996,831.458
1666057276.577,-107.422,-225.098,-45.898,-92.773,831.462
1666057276.581,-113.770,-912.598,-48.828,-86.426,831.466
1666057276.584,27.344,-289.062,-38.086,24.414,831.469
1666057276.588,46.875,644.531,-31.738,41.504,831.473
1666057276.592,-81.543,177.734,-47.852,-64.453,831.477
1666057276.596,-133.301,-648.438,-41.016,-95.215,831.481
1666057276.600,-17.090,-122.559,-25.391,6.348,831.485
1666057276.585,81.055,718.262,-30.762,65.918,831.499
1666057276.589,-28.809,241.211,-44.922,-24.414,831.503
1666057276.593,-147.461,-817.871,-49.316,-97.656,831.507
1666057276.597,-65.430,-576.660,-42.480,-33.691,831.511
1666057276.601,56.152,403.320,-44.922,43.945,831.515
1666057276.605,-14.648,94.727,-55.176,-23.438,831.519
1666057276.609,-125.977,-711.914,-42.480,-108.398,831.523
1666057276.612,-85.938,-351.562,-39.551,-69.824,831.527
1666057276.616,48.828,454.102,-53.711,36.133,831.531
1666057276.620,44.434,270.996,-68.359,15.625,831.535
1666057276.624,-105.957,-851.074,-72.754,-95.215,831.538
1666057276.628,-113.281,-664.062,-58.594,-96.680,831.542
1666057276.633,38.574,244.629,-43.457,20.020,831.518
1666057276.637,82.031,178.223,-46.875,57.617,831.522
1666057276.641,-45.410,-278.320,-41.992,-47.852,831.526
1666057276.645,-86.426,-202.148,-26.855,-72.754,831.530
1666057276.649,25.391,107.910,-40.039,15.625,831.534
1666057276.653,71.289,19.043,-60.059,35.645,831.538
1666057276.657,-40.039,-228.516,-66.895,-65.918,831.542
1666057276.660,-129.883,-181.152,-51.758,-134.277,831.546
1666057276.664,-73.242,-56.152,-50.293,-56.641,831.550
1666057276.668,42.480,-56.152,-60.547,51.270,831.553
1666057276.672,11.230,71.777,-64.453,-6.348,831.557
1666057276.676,-112.793,-32.227,-62.012,-118.164,831.561
1666057276.690,-89.355,-305.176,-57.617,-81.055,831.575
1666057276.694,37.109,-454.590,-65.430,28.320,831.579
1666057276.698,38.574,-22.461,-73.730,1.465,831.583
1666057276.702,-92.773,-328.125,-71.289,-111.816,831.587
1666057276.706,-124.023,-732.910,-52.734,-108.398,831.591
1666057276.710,0.000,-960.938,-55.664,8.789,831.595
1666057276.714,56.641,-827.637,-59.570,31.738,831.598
1666057276.717,-54.199,-111.816,-67.383,-85.938,831.602
1666057276.721,-125.488,-358.887,-70.801,-137.695,831.606
1666057276.725,-16.602,-175.293,-55.664,-35.156,831.610
1666057276.729,94.238,582.031,-63.965,49.316,831.614
1666057276.733,8.789,297.852,-72.266,-33.203,831.618
1666057276.735,-100.586,-423.340,-66.895,-113.770,831.620
1666057276.739,-42.480,-279.785,-49.805,-41.992,831.624
1666057276.743,74.707,510.742,-48.340,58.594,831.628
1666057276.747,36.621,535.645,-68.848,3.906,831.632
1666057276.751,-91.797,-364.746,-67.871,-98.145,831.636
1666057276.755,-91.309,-728.027,-49.316,-70.801,831.640
1666057276.759,31.738,-126.465,-40.039,41.016,831.644
1666057276.762,55.176,166.504,-49.805,44.434,831.648
1666057276.766,-75.195,-658.691,-58.105,-67.383,831.652
1666057276.770,-120.117,-893.066,-42.480,-88.867,831.655
1666057276.774,5.371,86.426,-45.410,12.207,831.659
1666057276.778,82.520,505.371,-45.410,63.965,831.663
1666057276.781,-21.484,-66.895,-42.969,-39.551,831.682
1666057276.785,-114.258,-279.785,-52.246,-110.352,831.686
1666057276.789,-41.016,54.688,-50.293,-32.715,831.690
1666057276.793,72.754,57.617,-57.129,64.941,831.693
1666057276.797,9.766,-527.344,-66.895,0.488,831.697
1666057276.801,-115.723,-772.461,-62.012,-104.980,831.701
1666057276.805,-71.289,-386.719,-45.898,-49.805,831.705
1666057276.808,74.707,107.422,-40.039,76.660,831.709
1666057276.812,43.945,-553.223,-67.383,41.504,831.713
1666057276.816,-93.262,-659.668,-73.730,-96.191,831.717
1666057276.820,-112.793,-113.770,-70.312,-105.469,831.721
1666057276.824,7.324,78.613,-62.012,21.973,831.725
1666057276.826,58.594,196.289,-41.016,51.758,831.712
1666057276.830,-68.359,107.910,-50.781,-75.195,831.716
1666057276.834,-137.207,-181.152,-55.664,-117.676,831.719
1666057276.838,-15.137,-103.027,-37.109,-0.977,831.723
1666057276.842,80.566,390.625,-35.645,60.059,831.727
1666057276.846,-24.414,18.555,-45.410,-46.387,831.731
1666057276.850,-122.559,-639.648,-45.410,-121.094,831.735
1666057276.853,-38.574,-667.969,-38.574,-32.715,831.739
1666057276.857,85.938,121.094,-38.086,73.730,831.743
1666057276.861,13.184,493.164,-49.316,-2.441,831.747
1666057276.865,-109.863,-165.039,-47.363,-108.887,831.751
1666057276.869,-77.637,-885.254,-38.574,-59.570,831.755
1666057276.871,39.551,-266.602,-38.086,34.668,831.756
1666057276.875,35.645,591.797,-42.480,10.254,831.760
1666057276.879,-85.938,-54.199,-31.250,-89.355,831.764
1666057276.883,-111.816,-754.395,-16.602,-93.750,831.768
1666057276.887,-4.883,8.789,-26.855,6.348,831.772
1666057276.891,44.922,433.105,-36.133,38.574,831.776
1666057276.895,-71.289,-279.297,-30.273,-70.312,831.780
1666057276.898,-148.438,-934.082,-26.367,-125.000,831.783
1666057276.902,-35.645,-329.590,-5.859,-9.766,831.787
1666057276.906,65.430,644.531,-10.254,74.219,831.791
1666057276.910,-32.715,168.457,-48.340,-46.875,831.795
1666057276.914,-139.648,-479.004,-48.340,-144.043,831.799
1666057276.933,-73.242,-42.480,-29.297,-69.824,831.819
1666057276.937,58.105,530.762,-27.832,21.484,831.823
1666057276.941,14.160,24.414,-41.992,-29.297,831.827
1666057276.945,-117.188,-528.809,-41.992,-128.418,831.831
1666057276.949,-100.586,-180.176,-33.203,-88.379,831.834
1666057276.953,24.902,133.789,-45.410,34.668,831.838
1666057276.957,39.551,-313.477,-57.129,18.066,831.842
1666057276.960,-81.055,-690.918,-43.457,-104.492,831.846
1666057276.964,-129.395,-238.281,-48.828,-124.512,831.850
1666057276.968,-16.113,174.316,-57.129,-9.766,831.854
1666057276.972,52.734,256.348,-56.152,37.598,831.858
1666057276.976,-65.918,41.992,-61.035,-70.312,831.862
1666057276.960,-136.719,-182.129,-58.594,-113.770,831.859
1666057276.964,-40.527,-42.969,-53.711,-0.977,831.863
1666057276.968,54.688,129.883,-59.082,74.219,831.867
1666057276.972,-36.621,-114.746,-65.430,-31.738,831.871
1666057276.976,-145.996,-473.145,-56.152,-124.023,831.874
1666057276.980,-81.055,-614.746,-43.457,-50.293,831.878
1666057276.984,34.668,-271.484,-41.504,53.223,831.882
1666057276.987,2.441,216.797,-45.410,-1.953,831.886
1666057276.991,-118.652,-29.297,-51.758,-119.629,831.890
1666057276.995,-111.816,-446.289,-56.152,-94.727,831.894
1666057276.999,13.184,-958.008,-53.711,33.203,831.898
1666057277.003,30.762,-624.512,-43.457,31.738,831.902
1666057277.007,-92.285,-48.340,-41.504,-100.586,831.906
1666057277.011,-126.465,-470.215,-34.180,-111.328,831.910
1666057277.015,-6.836,-59.570,-36.621,5.859,831.914
1666057277.019,60.059,640.625,-56.641,55.176,831.918
1666057277.023,-42.480,39.062,-58.105,-51.270,831.922
1666057277.027,-125.488,-844.238,-47.363,-111.328,831.926
1666057277.031,-51.270,-666.992,-37.109,-17.578,831.930
1666057277.034,55.176,198.730,-35.156,65.430,831.934
1666057277.038,-5.859,267.090,-44.922,-15.625,831.937
1666057277.042,-132.324,-681.152,-52.246,-112.793,831.941
1666057277.046,-85.449,-501.953,-39.551,-55.176,831.945
1666057277.050,51.270,493.652,-36.621,52.734,831.949
1666057277.066,23.926,394.043,-44.434,10.254,831.951
1666057277.070,-98.145,-292.480,-35.645,-102.539,831.955
1666057277.074,-107.422,-322.754,-39.551,-96.191,831.959
1666057277.078,13.184,53.711,-49.805,16.602,831.963
1666057277.082,46.875,141.602,-46.875,35.645,831.967
1666057277.086,-81.055,-741.211,-49.316,-78.125,831.971
1666057277.090,-148.926,-818.359,-47.852,-118.164,831.975
1666057277.093,-35.645,197.266,-35.156,-8.789,831.979
1666057277.097,63.965,357.910,-36.621,62.012,831.982
1666057277.101,-34.180,-591.797,-49.805,-39.062,831.986
1666057277.105,-137.207,-625.488,-47.363,-125.000,831.990
1666057277.109,-52.246,76.172,-41.992,-30.762,831.994
1666057277.110,76.172,291.992,-48.340,82.031,831.996
1666057277.114,14.160,60.547,-58.105,5.859,832.000
1666057277.118,-108.887,-134.766,-46.875,-117.188,832.004
1666057277.122,-87.891,-114.746,-25.879,-76.660,832.008
1666057277.126,42.969,103.516,-20.020,45.410,832.011
1666057277.130,43.457,27.344,-31.738,9.277,832.015
1666057277.134,-91.797,-332.031,-41.504,-124.512,832.019
1666057277.137,-108.398,-287.598,-40.527,-120.117,832.023
1666057277.141,16.602,-455.078,-39.062,15.137,832.027
1666057277.145,62.012,-134.277,-32.715,36.621,832.031
1666057277.149,-52.246,160.156,-39.551,-73.242,832.035
1666057277.153,-125.488,-523.438,-42.480,-114.746,832.039
1666057277.156,-25.391,-517.578,-35.156,-17.090,832.042
1666057277.160,72.754,337.891,-32.227,52.734,832.046
1666057277.164,-13.672,293.945,-39.062,-49.805,832.050
1666057277.168,-119.141,-552.246,-41.992,-128.906,832.054
1666057277.172,-71.289,-931.641,-44.922,-47.363,832.058
1666057277.176,41.992,-315.918,-38.574,55.176,832.062
1666057277.180,8.301,139.648,-36.133,-7.812,832.066
1666057277.183,-121.582,-330.078,-44.922,-119.141,832.069
1666057277.187,-112.793,-834.473,-40.527,-76.172,832.073
1666057277.191,30.762,37.598,-39.551,45.898,832.077
1666057277.195,41.992,634.277,-46.875,25.391,832.081
1666057277.199,-96.191,-122.559,-48.340,-103.027,832.085
1666057277.202,-137.207,-420.898,-35.156,-111.816,832.094
1666057277.206,-10.254,229.492,-26.367,5.859,832.098
1666057277.210,46.875,495.605,-30.273,32.227,832.102
1666057277.214,-66.406,-308.594,-32.227,-80.078,832.106
1666057277.218,-133.789,-670.410,-19.531,-131.836,832.110
1666057277.222,-42.969,-283.203,-26.855,-33.203,832.114
1666057277.226,61.523,108.398,-46.875,44.922,832.118
1666057277.229,-28.809,-415.527,-47.363,-55.176,832.122
1666057277.233,-144.531,-786.133,-28.809,-142.578,832.126
1666057277.237,-76.660,-83.984,-13.184,-62.988,832.129
1666057277.241,52.246,413.086,-23.438,58.105,832.133
1666057277.245,12.695,189.453,-30.273,13.184,832.137
1666057277.246,-110.840,-197.754,-20.996,-94.238,832.133
1666057277.250,-94.727,-118.652,-13.672,-56.641,832.136
1666057277.254,30.273,168.457,-10.254,70.312,832.140
1666057277.258,42.480,-17.578,-11.719,67.871,832.144
1666057277.262,-80.078,-277.344,-16.113,-61.035,832.148
1666057277.266,-138.672,-520.508,-23.926,-99.609,832.152
1666057277.270,-26.855,-408.203,-18.066,16.113,832.156
1666057277.273,61.035,-748.047,-19.531,97.168,832.160
1666057277.277,-41.016,-769.531,-13.672,0.977,832.164
1666057277.281,-131.348,-317.871,-13.672,-63.965,832.168
1666057277.285,-50.293,-223.145,-22.949,30.762,832.172
1666057277.289,62.500,299.316,-21.484,120.117,832.176
1666057277.292,5.371,432.617,-25.879,44.434,832.178
1666057277.296,-95.215,-111.816,-32.715,-50.781,832.182
1666057277.300,-56.641,-454.102,-27.832,4.883,832.186
1666057277.304,76.660,204.102,-13.184,109.375,832.190
1666057277.308,67.871,555.664,-11.719,79.590,832.194
1666057277.312,-64.941,-286.621,-19.043,-29.297,832.197
1666057277.316,-78.613,-922.363,-15.625,-25.879,832.201
1666057277.319,44.922,-420.410,-8.301,103.516,832.205
1666057277.323,96.680,278.809,-8.789,141.113,832.209
1666057277.327,-3.418,-4.395,-14.648,14.648,832.213
1666057277.331,-77.148,-751.465,-27.832,-20.508,832.217
1666057277.335,26.367,-193.359,-23.926,104.004,832.221
1666057277.336,122.559,629.395,-27.832,161.621,832.234
1666057277.340,18.555,218.262,-43.457,47.852,832.238
1666057277.344,-84.961,-564.941,-43.457,-26.855,832.242
1666057277.348,-14.648,-481.934,-27.344,54.199,832.246
1666057277.352,105.957,325.684,-15.137,150.391,832.249
1666057277.356,44.434,87.402,-30.762,77.148,832.253
1666057277.360,-85.449,-939.941,-42.969,-38.574,832.257
1666057277.363,-71.777,-704.102,-26.367,-10.254,832.261
1666057277.367,66.406,395.020,-20.508,110.352,832.265
1666057277.371,79.102,438.477,-36.133,95.215,832.269
1666057277.375,-50.781,-331.543,-34.668,-31.738,832.273
1666057277.379,-86.426,-408.691,-25.391,-40.039,832.277
1666057277.383,28.809,289.062,-42.969,79.102,832.280
1666057277.387,81.055,336.426,-45.898,108.887,832.284
1666057277.391,-42.480,-180.664,-41.992,-14.648,832.288
1666057277.395,-116.699,-277.344,-47.363,-64.453,832.292
1666057277.399,-21.973,176.270,-38.574,37.109,832.296
1666057277.403,78.125,-38.086,-47.363,123.535,832.300
1666057277.407,-10.254,-671.387,-51.270,29.297,832.303
1666057277.410,-111.816,-362.305,-36.133,-69.824,832.307
1666057277.414,-47.852,-115.723,-34.180,0.000,832.311
1666057277.418,56.152,12.207,-46.387,97.168,832.315
1666057277.422,26.855,225.098,-54.199,30.762,832.319
1666057277.426,-83.496,-7.324,-50.293,-83.496,832.323
1666057277.440,-79.590,-376.953,-49.805,-49.805,832.326
1666057277.444,41.504,-236.816,-45.410,73.730,832.330
1666057277.448,60.059,236.816,-48.828,63.477,832.333
1666057277.452,-77.637,-259.766,-62.012,-74.707,832.337
1666057277.456,-119.141,-627.930,-59.082,-92.285,832.341
1666057277.460,2.930,-926.270,-59.570,34.668,832.345
1666057277.464,81.055,-652.344,-51.270,79.102,832.349
1666057277.467,-19.531,75.195,-55.664,-41.992,832.353
1666057277.471,-120.605,-291.016,-74.707,-104.492,832.357
1666057277.475,-36.621,-203.125,-63.477,-8.301,832.361
1666057277.479,68.359,559.570,-57.617,75.684,832.365
1666057277.483,0.977,426.270,-67.383,-3.418,832.369
1666057277.486,-105.469,-369.629,-69.824,-114.258,832.373
1666057277.490,-61.035,-320.312,-48.340,-48.828,832.376
1666057277.494,70.312,481.445,-37.109,75.684,832.380
1666057277.498,35.156,402.832,-48.828,29.785,832.384
1666057277.502,-98.633,-596.191,-61.523,-88.867,832.388
1666057277.506,-103.516,-882.324,-56.641,-76.660,832.392
1666057277.510,32.227,-9.766,-46.387,49.805,832.396
1666057277.513,60.059,487.305,-54.199,59.082,832.400
1666057277.517,-86.426,-541.992,-68.848,-72.266,832.404
1666057277.521,-133.789,-810.059,-60.547,-95.215,832.408
1666057277.525,-4.395,148.926,-58.594,29.297,832.412
1666057277.529,70.312,496.582,-64.941,81.543,832.415
1666057277.561,-39.062,-113.281,-70.801,-34.668,832.448
1666057277.565,-136.230,-390.137,-68.848,-114.258,832.452
1666057277.569,-68.848,-20.020,-69.336,-25.391,832.456
1666057277.573,51.270,56.641,-71.289,68.359,832.459
1666057277.577,-2.441,-580.078,-67.383,-8.301,832.463
1666057277.581,-115.723,-845.215,-59.570,-95.703,832.467
1666057277.585,-82.520,-514.648,-51.270,-52.246,832.471
1666057277.588,45.410,-102.539,-57.617,62.012,832.475
1666057277.592,23.926,-663.086,-69.336,46.387,832.479
1666057277.596,-87.402,-630.859,-47.363,-79.102,832.483
1666057277.600,-98.145,-182.129,-51.270,-86.426,832.487
1666057277.604,13.672,-46.387,-54.688,38.574,832.491
1666057277.576,60.547,350.586,-42.480,63.477,832.462
1666057277.580,-71.777,174.805,-62.012,-65.430,832.466
1666057277.584,-144.531,-246.094,-63.477,-106.934,832.470
1666057277.588,-28.320,-227.539,-48.340,6.348,832.474
1666057277.592,75.684,315.918,-52.246,67.871,832.477
1666057277.596,-26.367,29.785,-64.453,-30.762,832.481
1666057277.600,-135.254,-678.711,-56.641,-102.539,832.485
1666057277.603,-62.988,-680.176,-39.062,-27.344,832.489
1666057277.607,68.359,92.773,-30.273,76.172,832.493
1666057277.611,9.766,232.910,-37.598,8.301,832.497
1666057277.615,-99.609,-333.496,-37.109,-101.074,832.501
1666057277.619,-65.430,-672.852,-37.598,-51.270,832.505
1666057277.621,53.711,90.820,-35.156,67.871,832.521
1666057277.625,51.270,550.293,-38.574,48.340,832.525
1666057277.629,-80.078,-85.449,-46.875,-70.801,832.529
1666057277.633,-130.371,-943.359,-49.805,-70.801,832.533
1666057277.637,-9.766,-919.434,-48.828,44.434,832.537
1666057277.641,65.430,-58.594,-41.504,62.012,832.541
1666057277.645,-62.500,-304.688,-44.922,-57.129,832.545
1666057277.648,-150.879,-925.781,-42.969,-94.727,832.549
1666057277.652,-49.316,-152.832,-38.574,-0.488,832.553
1666057277.656,54.199,667.480,-41.992,67.383,832.557
1666057277.660,-20.508,192.383,-37.598,-14.160,832.561
1666057277.664,-120.117,-539.551,-38.574,-87.891,832.564
1666057277.668,-51.270,-216.309,-45.410,-10.742,832.553
1666057277.672,81.543,618.652,-33.691,91.309,832.557
1666057277.676,21.484,177.734,-37.598,6.348,832.561
1666057277.680,-142.090,-592.285,-52.246,-139.648,832.565
1666057277.684,-127.441,-251.465,-38.574,-113.770,832.569
1666057277.688,1.465,127.441,-40.527,-2.930,832.573
1666057277.692,-3.418,-135.742,-53.711,-34.668,832.577
1666057277.695,-146.973,-410.645,-50.293,-184.082,832.581
1666057277.699,-199.219,-207.520,-29.785,-206.055,832.585
1666057277.703,-86.914,211.914,-19.043,-87.891,832.589
1666057277.707,-42.969,-68.848,-41.992,-75.684,832.592
1666057277.711,-160.156,-285.156,-33.203,-192.383,832.596
1666057277.711,-230.469,-118.164,-29.297,-255.371,832.639
1666057277.715,-147.461,-75.684,-41.992,-179.199,832.643
1666057277.719,-45.898,-31.738,-48.828,-85.938,832.647
1666057277.723,-132.812,-184.082,-48.340,-172.852,832.651
1666057277.727,-237.793,-301.758,-42.969,-264.160,832.655
1666057277.731,-187.012,-382.812,-28.320,-185.059,832.659
1666057277.735,-69.336,-891.602,-29.785,-62.988,832.663
1666057277.738,-95.703,-681.641,-53.711,-126.953,832.667
1666057277.742,-235.352,-150.879,-56.152,-266.113,832.670
1666057277.746,-236.328,-347.168,-52.734,-242.676,832.674
1666057277.750,-69.824,94.727,-38.086,-87.402,832.678
1666057277.754,-34.668,579.590,-20.020,-63.477,832.682
1666057277.758,-164.062,135.254,-31.738,-194.336,832.670
1666057277.762,-185.059,-434.082,-27.344,-193.359,832.674
1666057277.766,-60.547,-38.086,-9.277,-52.246,832.678
1666057277.770,0.000,589.355,-41.992,-26.855,832.682
1666057277.774,-105.957,45.410,-58.105,-146.973,832.686
1666057277.778,-175.781,-860.840,-44.922,-182.129,832.689
1666057277.782,-83.496,-802.734,-35.156,-74.219,832.693
1666057277.785,31.738,230.957,-36.133,19.043,832.697
1666057277.789,-29.785,322.266,-45.898,-47.363,832.701
1666057277.793,-135.254,-722.656,-44.434,-141.602,832.705
1666057277.797,-86.914,-471.191,-35.156,-82.520,832.709
1666057277.801,52.246,510.254,-26.855,44.434,832.713
1666057277.816,54.199,393.066,-35.645,21.484,832.702
1666057277.820,-76.660,-487.793,-37.109,-91.797,832.706
1666057277.824,-88.379,-489.258,-21.484,-74.219,832.710
1666057277.828,52.246,5.371,-11.719,70.312,832.714
1666057277.832,93.262,104.980,-39.062,88.867,832.718
1666057277.836,-46.875,-764.648,-45.898,-38.086,832.722
1666057277.840,-95.215,-881.836,-5.371,-75.195,832.725
1666057277.843,8.789,-134.766,-4.883,27.832,832.729
1666057277.847,80.566,213.867,-29.297,87.891,832.733
1666057277.851,-18.066,-43.945,-39.062,-17.090,832.737
1666057277.855,-113.281,-252.441,-30.273,-94.238,832.741
1666057277.859,-44.434,67.871,-18.555,-10.254,832.745
1666057277.860,75.195,218.262,-23.438,94.727,832.759
1666057277.864,34.668,-183.105,-20.996,25.391,832.763
1666057277.868,-81.055,-232.910,-15.625,-92.773,832.767
1666057277.872,-63.965,-138.184,-27.344,-47.363,832.771
1666057277.876,66.406,-16.602,-24.902,80.566,832.775
1666057277.880,77.148,-40.527,-12.207,58.594,832.779
1666057277.884,-51.270,-358.887,-12.695,-66.406,832.783
1666057277.887,-83.496,-284.668,-23.438,-62.500,832.787
1666057277.891,55.176,-352.051,-29.297,76.172,832.791
1666057277.895,104.492,-281.738,-40.527,92.285,832.795
1666057277.899,-30.273,-71.289,-44.434,-53.223,832.799
1666057277.903,-101.562,-315.918,-30.273,-94.727,832.802
1666057277.905,-9.277,-537.598,-25.879,9.766,832.791
1666057277.909,84.961,270.996,-25.879,82.031,832.795
1666057277.913,6.348,350.586,-28.809,-6.348,832.798
1666057277.917,-95.703,-614.258,-22.949,-82.520,832.802
1666057277.921,-52.734,-835.938,-20.020,-3.906,832.806
1666057277.925,70.801,-75.195,-23.926,99.609,832.810
1666057277.929,47.852,183.105,-33.203,44.922,832.814
1666057277.932,-83.984,-379.883,-46.875,-78.613,832.818
1666057277.936,-81.055,-779.785,-31.738,-48.828,832.822
1666057277.940,63.965,149.902,-9.277,78.613,832.826
1666057277.944,79.102,722.168,-32.715,54.688,832.830
1666057277.948,-60.547,-182.617,-57.617,-78.125,832.834
1666057277.953,-99.609,-858.398,-46.875,-83.984,832.853
1666057277.957,26.855,5.859,-39.551,39.551,832.857
1666057277.961,88.379,695.312,-59.082,72.266,832.861
1666057277.965,-23.926,-80.078,-72.266,-33.691,832.865
1666057277.969,-90.332,-633.301,-70.801,-72.266,832.869
1666057277.973,-38.086,-268.555,-74.707,-8.789,832.873
1666057277.977,43.945,177.734,-70.312,52.734,832.877
1666057277.980,-18.555,-313.477,-77.637,-26.367,832.880
1666057277.984,-123.047,-762.695,-77.637,-118.652,832.884
1666057277.988,-77.148,-86.426,-71.777,-59.082,832.888
1666057277.992,49.316,445.312,-74.219,53.223,832.892
1666057277.996,28.809,208.008,-82.031,9.766,832.896
1666057277.996,-94.727,-134.277,-96.191,-116.699,832.883
1666057278.000,-90.332,-105.469,-92.773,-82.031,832.887
1666057278.004,27.344,163.574,-96.680,47.363,832.891
1666057278.008,29.297,-0.977,-99.609,39.062,832.895
1666057278.012,-94.727,-452.637,-96.191,-94.727,832.899
1666057278.016,-126.465,-612.793,-101.074,-133.789,832.902
1666057278.020,-20.996,-319.824,-111.816,-13.184,832.906
1666057278.023,52.246,-634.766,-125.000,51.758,832.910
1666057278.027,-38.574,-581.543,-125.488,-64.453,832.914
1666057278.031,-132.812,-120.117,-123.535,-142.090,832.918
1666057278.035,-64.453,-244.141,-121.582,-47.852,832.922
1666057278.039,50.781,-127.930,-119.141,55.664,832.926
1666057278.042,1.953,285.645,-125.488,-21.973,832.929
1666057278.046,-115.723,-12.207,-145.020,-128.418,832.933
1666057278.050,-86.426,-387.695,-146.484,-79.102,832.937
1666057278.054,57.617,218.262,-122.070,52.734,832.941
1666057278.058,53.711,501.465,-139.160,29.297,832.945
1666057278.062,-89.844,-281.738,-172.852,-115.723,832.949
1666057278.066,-114.746,-952.637,-176.758,-105.469,832.953
1666057278.069,18.555,-739.746,-158.203,39.062,832.956
1666057278.073,70.312,364.258,-152.344,52.246,832.960
1666057278.077,-60.547,184.570,-172.852,-83.008,832.964
1666057278.081,-129.883,-549.805,-185.059,-120.117,832.968
1666057278.085,-21.973,32.715,-187.500,0.000,832.972
1666057278.086,68.848,700.195,-184.570,73.730,833.002
1666057278.090,-23.926,277.832,-194.336,-31.250,833.006
1666057278.094,-129.395,-583.496,-221.191,-118.652,833.010
1666057278.098,-72.266,-529.297,-215.820,-52.246,833.014
1666057278.102,51.758,333.008,-202.148,52.246,833.018
1666057278.106,-3.906,144.043,-231.934,-20.996,833.022
1666057278.110,-130.371,-912.598,-250.977,-126.465,833.025
1666057278.113,-99.121,-781.738,-232.910,-72.266,833.029
1666057278.117,32.227,72.266,-233.398,47.363,833.033
1666057278.121,34.180,111.816,-279.297,19.043,833.037
1666057278.125,-93.750,-455.078,-307.129,-106.934,833.041
1666057278.129,-125.488,-282.227,-305.664,-117.676,833.045
1666057278.132,-9.766,277.832,-318.359,-0.977,833.031
1666057278.136,54.688,365.723,-328.125,37.109,833.035
1666057278.140,-56.152,2.930,-317.871,-78.613,833.038
1666057278.144,-119.629,-179.688,-292.480,-110.352,833.042
1666057278.148,-36.621,98.145,-307.617,-8.301,833.046
1666057278.152,32.227,30.762,-321.289,56.641,833.050
1666057278.156,-45.898,-280.273,-324.219,-40.527,833.054
1666057278.159,-140.625,-242.188,-334.473,-136.230,833.058
1666057278.163,-78.125,-122.070,-335.449,-52.246,833.062
1666057278.167,40.527,-50.293,-340.332,67.383,833.066
1666057278.171,-4.395,-13.184,-343.750,10.254,833.070
1666057278.175,-120.117,-287.109,-335.449,-103.027,833.074
1666057278.191,-111.816,-298.340,-341.309,-76.660,833.077
1666057278.195,0.000,-540.039,-371.094,44.434,833.081
1666057278.199,22.949,-395.508,-368.652,34.668,833.085
1666057278.203,-98.633,-345.703,-357.910,-87.891,833.089
1666057278.207,-152.344,-679.688,-371.582,-107.422,833.093
1666057278.211,-21.973,-875.488,-368.652,14.648,833.097
1666057278.215,49.316,-274.414,-359.375,51.758,833.100
1666057278.218,-62.012,159.668,-374.023,-81.055,833.104
1666057278.222,-136.719,-412.109,-389.160,-134.766,833.108
1666057278.226,-54.199,-439.941,-385.742,-35.156,833.112
1666057278.230,54.688,460.449,-381.348,45.898,833.116
1666057278.234,-13.672,462.402,-395.996,-37.598,833.120
1666057278.236,-119.141,-399.902,-414.551,-131.836,833.122
1666057278.240,-82.520,-555.176,-414.551,-80.566,833.126
1666057278.244,32.715,270.508,-408.203,29.297,833.130
1666057278.248,5.859,528.809,-425.293,-8.301,833.134
1666057278.252,-115.234,-415.527,-439.941,-122.559,833.138
1666057278.256,-104.980,-916.016,-420.410,-96.680,833.142
1666057278.260,34.668,-63.477,-399.414,33.203,833.145
1666057278.263,64.453,532.715,-414.062,43.945,833.149
1666057278.267,-69.336,-464.844,-437.988,-75.195,833.153
1666057278.271,-118.164,-835.449,-425.293,-108.398,833.157
1666057278.275,4.883,83.984,-414.062,18.066,833.161
1666057278.279,91.797,475.586,-422.363,92.773,833.165
1666057278.296,-21.484,-106.934,-432.617,-34.668,833.182
1666057278.300,-110.840,-364.746,-423.340,-106.445,833.186
1666057278.304,-40.039,-41.504,-407.227,-6.836,833.190
1666057278.308,67.383,13.184,-425.781,84.961,833.194
1666057278.312,0.977,-699.707,-462.402,1.465,833.198
1666057278.316,-124.023,-1000.000,-464.844,-121.094,833.202
1666057278.320,-84.473,-420.410,-449.219,-66.406,833.206
1666057278.323,44.434,151.855,-454.102,70.312,833.210
1666057278.327,25.879,-495.117,-465.820,43.457,833.214
1666057278.331,-94.727,-452.637,-462.891,-91.309,833.218
1666057278.335,-100.586,-90.820,-461.426,-83.496,833.221
1666057278.339,24.902,62.988,-457.031,57.129,833.225
1666057278.327,73.730,386.230,-465.820,79.102,833.214
1666057278.331,-42.480,148.926,-460.449,-51.758,833.218
1666057278.335,-100.586,-239.746,-454.102,-90.820,833.222
1666057278.339,14.160,-182.617,-443.359,40.039,833.225
1666057278.343,104.980,301.758,-435.059,108.398,833.229
1666057278.347,-1.953,5.371,-463.867,-12.207,833.233
1666057278.351,-111.328,-667.480,-472.656,-96.680,833.237
1666057278.354,-43.457,-690.918,-459.961,-11.230,833.241
1666057278.358,75.684,160.645,-470.215,86.914,833.245
1666057278.362,33.691,479.004,-478.027,17.090,833.249
1666057278.366,-76.660,-128.418,-463.867,-84.473,833.253
1666057278.370,-51.758,-902.344,-456.543,-28.809,833.257
1666057278.371,71.777,-545.410,-448.242,93.262,833.272
1666057278.375,77.637,459.473,-448.730,66.895,833.275
1666057278.379,-43.457,-54.199,-459.473,-53.711,833.279
1666057278.383,-83.008,-811.523,-445.312,-44.922,833.283
1666057278.387,44.922,-54.199,-425.293,95.703,833.287
1666057278.391,102.051,387.695,-435.547,125.488,833.291
1666057278.395,-8.301,-304.688,-442.383,-7.324,833.295
1666057278.398,-52.246,-929.199,-431.641,-26.367,833.299
1666057278.402,47.852,-365.723,-419.434,85.449,833.303
1666057278.406,121.582,343.750,-422.852,131.348,833.307
1666057278.410,24.902,-47.363,-426.758,17.090,833.311
1666057278.414,-90.820,-504.883,-419.434,-72.266,833.314
1666057278.434,-30.273,-121.094,-411.133,13.184,833.331
1666057278.438,108.398,524.414,-403.320,131.348,833.335
1666057278.442,72.266,148.926,-407.227,81.055,833.339
1666057278.446,-51.758,-509.766,-410.156,-34.180,833.342
1666057278.450,-31.738,-228.516,-395.508,-9.766,833.346
1666057278.454,104.980,85.449,-375.488,126.465,833.350
1666057278.458,118.164,-112.793,-386.230,116.211,833.354
1666057278.461,-3.418,-268.555,-388.672,-27.832,833.358
1666057278.465,-44.922,-160.156,-384.277,-55.176,833.362
1666057278.469,62.012,175.781,-393.066,58.594,833.366
1666057278.473,130.371,-108.398,-384.277,118.164,833.370
1666057278.477,21.973,-565.918,-373.047,2.930,833.374
1666057278.462,-59.570,-456.543,-360.352,-58.594,833.361
1666057278.466,20.020,-160.645,-354.004,41.016,833.364
1666057278.470,116.699,-107.910,-360.352,122.070,833.368
1666057278.474,38.086,-265.137,-367.188,35.645,833.372
1666057278.478,-61.035,-370.605,-375.000,-45.410,833.376
1666057278.482,-3.418,-505.371,-351.074,36.133,833.380
1666057278.486,102.051,-242.188,-323.730,143.555,833.384
1666057278.489,69.824,248.047,-343.262,82.031,833.388
1666057278.493,-57.129,-37.598,-349.121,-44.922,833.392
1666057278.497,-55.664,-475.098,-324.219,-29.785,833.396
1666057278.501,82.520,-902.344,-316.895,105.957,833.400
1666057278.505,108.887,-347.168,-307.617,109.863,833.404
1666057278.509,-22.461,99.609,-307.617,-23.926,833.406
1666057278.513,-65.918,-540.527,-300.293,-39.551,833.410
1666057278.517,44.922,-480.957,-282.227,75.684,833.414
1666057278.521,116.699,435.059,-278.809,116.211,833.418
1666057278.525,18.555,358.887,-277.344,-4.883,833.421
1666057278.529,-70.801,-683.105,-263.672,-73.730,833.425
1666057278.533,4.883,-732.910,-235.352,18.555,833.429
1666057278.536,105.469,462.891,-229.980,106.445,833.433
1666057278.540,40.527,499.512,-239.258,30.273,833.437
1666057278.544,-76.172,-478.027,-237.305,-74.219,833.441
1666057278.548,-45.898,-309.082,-209.473,-11.719,833.445
1666057278.552,92.285,511.230,-186.523,121.094,833.449
1666057278.566,91.309,457.031,-193.848,83.496,833.452
1666057278.570,-41.992,-311.035,-192.383,-58.594,833.456
1666057278.574,-61.523,-407.227,-176.270,-51.758,833.460
1666057278.578,76.660,-10.742,-164.062,90.820,833.464
1666057278.582,113.770,83.496,-168.945,102.051,833.468
1666057278.586,-20.996,-771.973,-181.152,-22.949,833.472
1666057278.590,-63.965,-974.121,-146.484,-45.410,833.476
1666057278.593,37.598,76.172,-134.277,56.641,833.480
1666057278.597,99.609,425.781,-154.785,107.422,833.484
1666057278.601,0.000,-229.004,-161.133,-2.930,833.488
1666057278.605,-102.051,-269.531,-158.691,-105.957,833.491
1666057278.609,-41.992,77.148,-145.996,-31.250,833.495
1666057278.612,69.824,324.707,-136.230,83.984,833.504
1666057278.616,7.812,229.004,-142.090,3.418,833.508
1666057278.620,-120.117,-158.203,-143.066,-115.723,833.512
1666057278.624,-99.609,-180.176,-119.141,-145.020,833.516
1666057278.628,20.508,72.754,-108.398,-134.766,833.520
1666057278.632,11.719,15.137,-109.375,-168.457,833.524
1666057278.636,-119.629,-474.609,-102.539,-273.926,833.528
1666057278.639,-151.367,-597.168,-94.727,-277.344,833.532
1666057278.643,-49.316,-647.461,-100.586,-158.203,833.535
1666057278.647,-10.254,-651.855,-104.004,-125.488,833.539
1666057278.651,-123.535,-96.191,-98.633,-242.188,833.543
1666057278.655,-206.543,-290.039,-95.703,-287.598,833.547
1666057278.656,-125.000,-290.527,-87.402,-178.223,833.572
1666057278.660,-11.719,489.746,-85.938,-90.820,833.576
1666057278.664,-90.820,333.496,-71.777,-186.035,833.579
1666057278.668,-207.520,-635.254,-57.617,-281.250,833.583
1666057278.672,-158.203,-815.918,-49.805,-196.777,833.587
1666057278.676,-39.062,-68.848,-44.434,-78.613,833.591
1666057278.680,-63.477,187.012,-40.039,-138.184,833.595
1666057278.683,-189.453,-302.246,-42.480,-251.465,833.599
1666057278.687,-199.219,-892.578,-42.969,-215.332,833.603
1666057278.691,-48.828,-205.078,-5.859,-75.195,833.607
1666057278.695,-22.949,398.438,2.441,-81.055,833.611
1666057278.699,-164.551,-224.121,-20.996,-217.285,833.615
1666057278.703,-208.008,-610.840,-15.625,-222.168,833.591
1666057278.707,-83.496,166.016,6.836,-95.215,833.595
1666057278.711,-16.113,645.996,12.695,-63.477,833.599
1666057278.715,-139.160,-14.648,5.371,-190.918,833.603
1666057278.719,-216.309,-415.039,16.113,-250.488,833.606
1666057278.723,-134.766,-255.859,20.508,-151.367,833.610
1666057278.727,-36.621,108.887,15.137,-66.406,833.614
1666057278.730,-111.328,-307.617,24.902,-147.461,833.618
1666057278.734,-232.422,-720.215,21.484,-244.141,833.622
1666057278.738,-192.383,-54.199,-3.418,-199.707,833.626
1666057278.742,-69.824,445.312,-0.977,-89.844,833.630
1666057278.746,-99.609,-16.113,21.484,-124.512,833.634
1666057278.747,-229.492,-526.855,26.367,-240.723,833.635
1666057278.751,-231.934,-255.859,5.371,-220.703,833.639
1666057278.755,-110.352,200.195,-19.043,-99.121,833.643
1666057278.759,-84.961,-350.586,-20.020,-87.891,833.647
1666057278.763,-208.496,-482.422,-31.250,-219.238,833.651
1666057278.767,-263.184,-427.734,-28.809,-253.906,833.655
1666057278.771,-160.645,-340.820,7.324,-138.672,833.659
1666057278.774,-99.609,-654.297,16.602,-87.402,833.663
1666057278.778,-209.961,-791.504,20.020,-215.820,833.667
1666057278.782,-290.527,-334.961,29.785,-294.922,833.671
1666057278.786,-199.219,-197.754,48.340,-189.453,833.674
1666057278.790,-91.797,314.453,35.156,-101.074,833.678
1666057278.807,-158.203,437.012,21.484,-192.383,833.695
1666057278.811,-285.156,-89.844,35.645,-305.664,833.699
1666057278.815,-259.277,-437.988,41.992,-257.812,833.703
1666057278.819,-134.766,-17.578,47.852,-143.066,833.707
1666057278.823,-145.508,383.301,40.527,-176.758,833.711
1666057278.827,-279.785,-239.258,51.758,-288.574,833.714
1666057278.831,-318.359,-949.219,53.223,-282.715,833.718
1666057278.834,-191.895,-762.695,59.082,-158.691,833.722
1666057278.838,-133.789,328.613,73.730,-143.555,833.726
1666057278.842,-255.859,232.910,51.270,-276.855,833.730
1666057278.846,-329.590,-517.578,58.594,-319.336,833.734
1666057278.850,-237.305,-117.676,82.520,-201.172,833.738
1666057278.836,-140.137,580.566,72.754,-129.883,833.736
1666057278.840,-219.238,263.672,61.523,-235.352,833.740
1666057278.844,-323.242,-560.547,62.988,-320.312,833.744
1666057278.848,-252.441,-491.211,79.102,-240.723,833.748
1666057278.852,-114.746,323.242,93.262,-124.023,833.752
1666057278.856,-167.969,94.727,64.453,-200.195,833.756
1666057278.860,-316.895,-839.844,46.387,-331.543,833.760
1666057278.863,-302.246,-633.301,62.500,-291.016,833.763
1666057278.867,-153.320,376.465,78.125,-150.391,833.767
1666057278.871,-148.438,342.773,62.012,-173.340,833.771
1666057278.875,-295.898,-866.699,46.387,-310.059,833.775
1666057278.879,-339.355,-865.234,57.129,-330.566,833.779
1666057278.882,-201.172,217.773,62.988,-208.008,833.781
1666057278.886,-136.230,458.008,48.828,-169.922,833.785
1666057278.890,-272.461,20.996,38.574,-309.082,833.789
1666057278.894,-353.027,-192.871,51.270,-365.234,833.793
1666057278.898,-251.465,126.465,57.129,-246.582,833.797
1666057278.902,-161.621,69.336,22.949,-160.645,833.801
1666057278.906,-247.070,-244.629,10.254,-258.301,833.804
1666057278.909,-350.586,-248.535,10.742,-355.957,833.808
1666057278.913,-302.246,-305.176,16.602,-293.945,833.812
1666057278.917,-180.176,-345.215,20.020,-166.504,833.816
1666057278.921,-208.496,-207.520,17.090,-221.191,833.820
1666057278.925,-335.449,-62.988,12.695,-354.492,833.824
1666057278.941,-326.660,-297.852,21.484,-310.059,833.827
1666057278.945,-202.637,-10.254,29.297,-177.246,833.831
1666057278.949,-193.848,388.672,5.859,-187.500,833.835
1666057278.953,-312.500,-208.984,-2.930,-311.035,833.839
1666057278.957,-340.332,-659.180,3.906,-317.383,833.843
1666057278.961,-215.820,-869.141,1.953,-187.500,833.847
1666057278.965,-148.926,-306.641,8.789,-156.250,833.850
1666057278.968,-256.348,207.520,5.859,-277.344,833.854
1666057278.972,-334.473,-413.086,-8.789,-325.195,833.858
1666057278.976,-250.977,-470.215,-8.789,-222.656,833.862
1666057278.980,-125.000,311.523,-9.766,-123.535,833.866
1666057278.984,-178.711,159.180,-38.574,-202.148,833.870
1666057278.986,-290.527,-511.230,-51.270,-293.457,833.872
1666057278.990,-252.930,-492.676,-26.855,-226.074,833.876
1666057278.994,-135.254,373.047,-29.297,-114.258,833.880
1666057278.998,-161.621,507.324,-31.250,-168.945,833.884
1666057279.002,-280.273,-311.523,-21.484,-286.133,833.888
1666057279.006,-274.902,-725.586,-18.555,-261.719,833.891
1666057279.010,-146.484,-42.480,-24.414,-140.625,833.895
1666057279.013,-110.840,505.371,-38.086,-130.371,833.899
1666057279.017,-241.699,-485.352,-39.062,-260.742,833.903
1666057279.021,-306.641,-810.547,-25.391,-299.316,833.907
1666057279.025,-179.199,173.340,-7.812,-165.527,833.911
1666057279.029,-89.355,531.250,-6.836,-92.773,833.915
1666057279.032,-206.055,-103.516,-22.949,-216.309,833.920
1666057279.036,-307.129,-546.875,-35.156,-293.945,833.924
1666057279.040,-204.590,-244.141,-33.203,-180.176,833.928
1666057279.044,-63.965,105.469,-9.766,-57.617,833.932
1666057279.048,-153.809,-601.074,-5.859,-151.855,833.936
1666057279.052,-305.664,-1000.000,-15.137,-289.062,833.940
1666057279.056,-260.254,-476.562,-6.348,-223.145,833.944
1666057279.059,-116.211,-15.137,-12.695,-74.219,833.948
1666057279.063,-123.047,-436.035,-25.391,-110.840,833.952
1666057279.067,-253.418,-368.164,-14.160,-252.441,833.956
1666057279.071,-270.508,-100.098,-9.766,-245.605,833.959
1666057279.075,-128.906,92.285,-8.789,-98.633,833.963
1666057279.077,-69.336,428.223,-9.766,-55.664,833.964
1666057279.081,-187.988,207.031,-30.273,-177.734,833.968
1666057279.085,-250.977,-151.367,-32.715,-219.727,833.972
1666057279.089,-144.531,-210.938,-21.484,-99.609,833.976
1666057279.093,-46.875,114.258,-14.648,-11.230,833.980
1666057279.097,-129.883,-99.121,-21.484,-111.328,833.984
1666057279.101,-222.168,-544.434,-36.133,-190.430,833.988
1666057279.104,-144.531,-786.133,-27.832,-82.520,833.991
1666057279.108,-13.184,-681.641,-1.953,41.016,833.995
1666057279.112,-55.176,199.219,-1.953,-41.016,833.999
1666057279.116,-186.035,-38.086,-13.672,-158.203,834.003
1666057279.120,-165.527,-463.867,-14.160,-102.539,834.007
1666057279.120,-23.438,272.949,-6.348,24.902,834.006
1666057279.124,-10.742,609.863,-1.953,8.789,834.010
1666057279.128,-136.230,-97.168,-8.789,-110.840,834.014
1666057279.132,-167.480,-752.930,9.277,-118.652,834.017
1666057279.136,-40.527,-41.992,34.180,10.254,834.021
1666057279.140,6.348,257.324,24.902,37.598,834.025
1666057279.144,-121.094,-381.836,23.438,-87.402,834.029
1666057279.147,-198.242,-988.770,45.898,-144.531,834.033
1666057279.151,-104.492,-634.277,67.871,-54.199,834.037
1666057279.155,5.859,468.262,77.637,29.297,834.041
1666057279.159,-68.359,194.824,71.289,-60.059,834.045
1666057279.163,-179.199,-433.594,69.336,-149.902,834.049
1666057279.181,-124.023,-107.422,96.680,-65.918,834.066
1666057279.185,10.742,488.770,127.441,58.105,834.070
1666057279.189,-9.277,227.051,135.742,13.672,834.074
1666057279.193,-131.836,-348.633,140.137,-104.492,834.078
1666057279.197,-132.812,-294.922,140.137,-91.797,834.082
1666057279.201,3.906,70.312,159.180,27.832,834.086
1666057279.205,31.738,-173.340,166.504,29.785,834.090
1666057279.208,-96.191,-686.035,170.898,-85.449,834.094
1666057279.212,-138.184,-365.234,179.199,-106.445,834.098
1666057279.216,-13.672,-57.617,181.152,17.578,834.101
1666057279.220,68.359,-111.328,182.617,72.266,834.105
1666057279.224,-35.645,-114.746,180.664,-36.133,834.109
1666057279.211,-124.023,-174.805,180.176,-100.098,834.111
1666057279.215,-35.156,-84.473,186.035,-3.906,834.115
1666057279.219,80.078,158.203,179.199,90.820,834.119
1666057279.223,-7.812,-121.094,160.156,-9.277,834.123
1666057279.227,-127.441,-292.969,166.992,-109.863,834.127
1666057279.231,-75.684,-448.242,169.434,-31.738,834.130
1666057279.235,63.477,-657.227,153.809,77.148,834.134
1666057279.238,53.223,14.160,153.320,27.832,834.138
1666057279.242,-91.797,74.219,148.926,-99.609,834.142
1666057279.246,-101.074,-465.820,140.137,-90.820,834.146
1666057279.250,43.457,-784.180,134.766,45.410,834.150
1666057279.254,77.637,-216.797,142.090,55.176,834.154
1666057279.259,-40.039,-115.234,148.438,-67.871,834.147
1666057279.263,-74.707,-585.938,160.156,-87.891,834.151
1666057279.267,38.574,-246.582,168.457,32.227,834.155
1666057279.271,122.070,585.938,171.387,97.168,834.159
1666057279.275,14.648,360.352,177.734,-9.277,834.163
1666057279.279,-112.305,-654.297,145.996,-87.891,834.166
1666057279.283,-38.574,-555.176,133.301,-7.324,834.170
1666057279.286,95.215,549.805,143.066,96.191,834.174
1666057279.290,25.391,452.148,122.559,23.438,834.178
1666057279.294,-93.262,-665.527,112.793,-81.055,834.182
1666057279.298,-52.734,-479.004,130.371,-20.996,834.186
1666057279.302,97.656,502.930,153.320,111.816,834.190
1666057279.317,91.797,457.031,141.113,82.031,834.205
1666057279.321,-55.664,-355.469,109.375,-50.781,834.209
1666057279.325,-77.637,-617.676,73.242,-57.129,834.213
1666057279.329,51.758,-96.191,41.992,63.477,834.217
1666057279.333,102.539,162.598,22.461,96.680,834.221
1666057279.337,-30.762,-746.582,-3.906,-18.066,834.225
1666057279.341,-98.633,-1000.000,-2.930,-66.895,834.229
1666057279.344,21.484,-51.758,13.672,42.480,834.233
1666057279.348,98.633,531.250,-0.977,109.863,834.237
1666057279.352,-7.324,194.336,-7.324,-3.418,834.240
1666057279.356,-88.867,-112.305,25.879,-76.172,834.244
1666057279.360,-7.812,17.578,60.547,16.602,834.248
1666057279.361,101.074,342.773,52.246,113.281,834.247
1666057279.365,44.922,290.039,53.711,42.480,834.251
1666057279.369,-83.984,-69.824,51.270,-75.195,834.255
1666057279.373,-66.895,-168.457,37.109,-34.668,834.259
1666057279.377,79.590,0.488,42.480,97.656,834.263
1666057279.381,89.355,-6.348,38.574,87.402,834.267
1666057279.385,-51.270,-468.262,34.668,-36.621,834.271
1666057279.388,-89.355,-402.832,51.758,-49.316,834.275
1666057279.392,34.668,-467.773,46.875,78.125,834.279
1666057279.396,95.703,-664.551,51.270,124.512,834.283
1666057279.400,-4.395,-29.297,55.176,-0.488,834.286
1666057279.404,-81.055,-178.223,54.199,-75.195,834.290
1666057279.406,7.812,-263.184,77.637,22.461,834.292
1666057279.410,114.258,490.723,71.289,110.352,834.296
1666057279.414,20.996,376.953,43.945,13.184,834.300
1666057279.418,-102.051,-566.895,28.809,-76.172,834.304
1666057279.422,-39.551,-861.328,25.879,10.742,834.308
1666057279.426,103.027,-109.375,31.738,129.883,834.312
1666057279.430,77.637,174.805,44.434,81.055,834.315
1666057279.433,-62.012,-353.516,36.133,-39.062,834.319
1666057279.437,-78.125,-929.199,40.527,-16.113,834.323
1666057279.441,65.918,-120.605,70.801,106.445,834.327
1666057279.445,101.074,644.043,63.965,96.191,834.331
1666057279.449,-42.480,-120.117,43.457,-37.598,834.335
1666057279.452,-87.402,-447.754,54.199,-49.805,834.339
1666057279.456,33.691,239.746,55.664,71.289,834.343
1666057279.460,106.445,642.578,61.523,125.977,834.347
1666057279.464,-4.395,9.766,81.543,19.043,834.350
1666057279.468,-92.773,-493.652,88.867,-48.340,834.354
1666057279.472,0.488,-277.832,95.215,47.363,834.358
1666057279.476,135.742,186.523,100.098,136.230,834.362
1666057279.479,60.059,-254.395,81.055,54.688,834.366
1666057279.483,-90.332,-780.273,67.383,-60.059,834.370
1666057279.487,-30.762,-188.477,72.754,-6.836,834.374
1666057279.491,125.977,205.078,94.238,137.695,834.378
1666057279.495,83.496,-174.316,101.074,94.727,834.382
1666057279.511,-69.336,-337.402,82.520,-55.664,834.397
1666057279.515,-72.266,-92.773,91.309,-43.457,834.401
1666057279.519,58.105,147.949,99.609,82.031,834.405
1666057279.523,71.289,22.949,67.383,80.566,834.409
1666057279.527,-65.430,-160.156,35.645,-50.293,834.413
1666057279.531,-112.793,-415.527,25.391,-83.984,834.417
1666057279.535,2.441,-363.281,15.137,28.809,834.421
1666057279.538,89.355,-614.746,5.859,89.844,834.424
1666057279.542,-20.996,-510.254,23.926,-24.414,834.428
1666057279.546,-122.070,-181.152,33.691,-95.215,834.432
1666057279.550,-34.668,-204.102,16.602,0.488,834.436
1666057279.554,85.938,294.434,20.020,104.492,834.440
1666057279.544,20.020,204.590,20.996,30.273,834.432
1666057279.548,-110.352,-354.492,14.648,-86.914,834.436
1666057279.552,-81.055,-521.484,20.996,-34.668,834.440
1666057279.556,52.734,-76.660,22.461,75.684,834.444
1666057279.560,47.363,411.621,11.719,40.039,834.448
1666057279.564,-87.891,-289.062,-6.348,-76.172,834.452
1666057279.568,-102.539,-873.047,-0.488,-74.707,834.456
1666057279.571,44.434,-131.836,10.742,48.828,834.460
1666057279.575,93.262,607.422,0.977,71.289,834.463
1666057279.579,-36.133,129.395,-1.953,-48.828,834.467
1666057279.583,-100.098,-819.336,-14.648,-84.473,834.471
1666057279.587,1.953,-398.438,-3.906,18.555,834.475
1666057279.586,88.379,593.750,1.953,85.938,834.487
1666057279.590,-13.184,266.113,-7.812,-15.137,834.491
1666057279.594,-124.023,-600.586,-14.160,-100.586,834.495
1666057279.598,-50.781,-515.625,-11.230,-21.484,834.499
1666057279.602,82.031,108.398,-4.395,81.055,834.502
1666057279.606,40.527,-15.625,-4.395,25.391,834.506
1666057279.610,-92.773,-897.949,-7.324,-80.078,834.510
1666057279.613,-77.148,-960.938,4.883,-42.480,834.514
1666057279.617,62.012,249.023,11.719,73.730,834.518
1666057279.621,70.312,534.180,-5.859,56.641,834.522
1666057279.625,-78.125,-100.098,-19.043,-70.312,834.526
1666057279.629,-111.816,-153.809,-25.879,-83.496,834.530
1666057279.633,32.227,310.547,-22.461,43.945,834.546
1666057279.637,107.422,452.637,-23.438,90.332,834.550
1666057279.641,-12.695,26.855,-22.949,-28.320,834.554
1666057279.645,-104.980,-178.223,-5.859,-88.867,834.558
1666057279.649,-9.766,113.770,-10.742,5.859,834.562
1666057279.653,95.215,47.363,-34.668,81.543,834.566
1666057279.657,13.184,-399.902,-39.551,1.465,834.569
1666057279.660,-90.820,-520.996,-27.344,-75.195,834.573
1666057279.664,-37.598,-119.629,-26.855,-6.348,834.577
1666057279.668,96.191,-121.094,-15.137,110.352,834.581
1666057279.672,59.570,-283.203,4.395,63.477,834.585
1666057279.676,-91.797,-204.590,-4.395,-56.641,834.589
1666057279.691,-78.613,-291.504,-9.766,-36.133,834.577
1666057279.695,67.383,45.410,6.348,83.984,834.581
1666057279.699,90.332,367.188,-4.395,88.867,834.585
1666057279.703,-55.664,-226.074,-24.414,-33.691,834.589
1666057279.707,-114.746,-628.418,-32.227,-61.035,834.593
1666057279.711,11.230,-864.746,-24.902,52.246,834.597
1666057279.715,92.773,-208.496,-5.371,92.773,834.601
1666057279.718,-24.414,208.984,-10.254,-36.621,834.605
1666057279.722,-128.906,-532.227,-20.996,-112.793,834.609
1666057279.726,-59.082,-434.082,-21.484,-22.949,834.613
1666057279.730,68.359,467.773,-12.207,68.848,834.616
1666057279.734,4.883,492.188,6.348,-17.090,834.620
1666057279.735,-127.930,-421.387,3.418,-111.328,834.621
1666057279.739,-85.449,-762.695,20.020,-49.805,834.625
1666057279.743,56.152,282.227,27.344,58.594,834.629
1666057279.747,34.180,597.656,13.184,17.578,834.633
1666057279.751,-103.027,-339.355,13.672,-98.145,834.636
1666057279.755,-106.934,-806.641,28.809,-74.707,834.640
1666057279.759,37.109,-79.102,43.457,54.199,834.644
1666057279.762,82.520,555.664,29.785,65.430,834.648
1666057279.766,-56.152,-401.367,2.930,-61.035,834.652
1666057279.770,-124.023,-849.609,3.906,-95.215,834.656
1666057279.774,5.859,42.480,5.371,20.020,834.660
1666057279.778,108.398,254.883,1.953,92.773,834.664
1666057279.781,3.418,-475.098,12.207,-7.812,834.667
1666057279.785,-116.211,-495.117,19.531,-96.680,834.671
1666057279.789,-44.922,29.297,8.301,-17.090,834.675
1666057279.793,69.824,62.500,-17.578,81.055,834.679
1666057279.797,12.695,-497.070,-21.484,13.184,834.682
1666057279.801,-96.680,-791.016,-11.719,-84.473,834.686
1666057279.805,-57.129,-363.281,-4.883,-43.457,834.690
1666057279.808,62.500,184.082,-1.465,65.430,834.694
1666057279.812,40.527,-415.527,-14.648,41.016,834.698
1666057279.816,-85.938,-403.809,-19.043,-82.520,834.702
1666057279.820,-102.051,-37.598,-8.301,-83.984,834.706
1666057279.824,23.438,115.723,7.812,30.762,834.710
1666057279.843,57.617,346.680,17.578,36.621,834.757
1666057279.847,-48.828,-39.062,1.953,-62.500,834.760
1666057279.851,-106.445,-385.742,-6.348,-99.121,834.764
1666057279.855,-2.441,-200.195,23.926,0.488,834.768
1666057279.859,98.145,297.852,46.875,74.219,834.772
1666057279.863,-14.160,-44.434,33.691,-32.715,834.776
1666057279.867,-119.629,-547.852,16.602,-114.258,834.780
1666057279.870,-52.246,-759.766,-1.953,-32.715,834.784
1666057279.874,64.941,-698.730,4.395,70.312,834.788
1666057279.878,24.414,203.125,15.625,4.883,834.792
1666057279.882,-96.191,-71.777,8.301,-103.516,834.796
1666057279.886,-74.219,-501.953,19.043,-62.012,834.800
1666057279.872,65.918,307.617,31.738,63.477,834.759
1666057279.876,81.055,702.637,42.480,55.176,834.763
1666057279.880,-54.199,-39.062,43.945,-66.895,834.766
1666057279.884,-101.074,-802.734,31.738,-89.355,834.770
1666057279.888,15.137,-322.266,27.832,22.461,834.774
1666057279.892,79.590,231.934,38.086,65.430,834.778
1666057279.896,-31.738,-261.230,36.621,-48.340,834.782
1666057279.899,-107.910,-687.988,28.320,-95.215,834.786
1666057279.903,-6.348,-67.383,22.461,15.137,834.790
1666057279.907,103.516,680.176,0.977,90.332,834.794
1666057279.911,14.648,185.059,-7.812,-7.324,834.798
1666057279.915,-104.492,-879.883,23.438,-89.844,834.802
1666057279.931,-44.434,-412.598,49.805,-23.438,834.818
1666057279.935,95.215,551.758,45.410,84.473,834.822
1666057279.939,59.082,157.227,36.621,38.086,834.825
1666057279.943,-95.215,-581.055,40.527,-96.191,834.829
1666057279.947,-111.328,-294.434,49.805,-82.520,834.833
1666057279.951,43.457,126.465,64.941,53.223,834.837
1666057279.955,72.754,-182.129,48.828,58.594,834.841
1666057279.958,-73.242,-944.824,42.480,-59.082,834.845
1666057279.962,-108.398,-532.227,68.848,-91.309,834.849
1666057279.966,34.180,238.281,73.730,27.344,834.853
1666057279.970,104.980,317.383,65.918,92.285,834.857
1666057279.974,-18.555,139.160,58.105,-31.738,834.861
1666057279.961,-111.816,-89.844,64.453,-108.887,834.861
1666057279.965,-16.113,30.762,73.730,9.766,834.865
1666057279.969,109.863,239.746,58.594,111.816,834.869
1666057279.973,22.949,-28.809,27.832,3.418,834.873
1666057279.977,-100.586,-215.332,35.156,-94.727,834.877
1666057279.981,-44.922,-417.969,56.152,-20.508,834.881
1666057279.985,79.102,-594.238,45.410,97.656,834.884
1666057279.988,55.176,85.938,41.504,60.059,834.888
1666057279.992,-73.730,62.500,37.598,-57.617,834.892
1666057279.996,-85.938,-594.238,43.945,-52.246,834.896
1666057280.000,43.945,-770.508,43.945,69.336,834.900
1666057280.004,85.938,159.668,37.109,84.961,834.904
1666057280.011,-48.340,282.227,33.691,-44.434,834.906
1666057280.015,-111.328,-546.875,37.598,-84.961,834.910
1666057280.019,12.695,-287.598,62.012,36.621,834.914
1666057280.023,104.004,577.148,76.172,100.586,834.917
1666057280.027,1.465,354.004,62.988,-17.090,834.921
1666057280.031,-99.121,-648.926,49.316,-95.703,834.925
1666057280.035,-30.273,-607.910,48.340,-3.906,834.929
1666057280.038,100.098,484.863,41.016,98.145,834.933
1666057280.042,34.180,472.656,0.977,23.926,834.937
1666057280.046,-95.215,-644.043,-22.949,-82.031,834.941
1666057280.050,-61.035,-510.254,3.906,-43.945,834.945
1666057280.054,74.707,414.551,16.602,61.523,834.949
1666057280.066,72.754,183.105,10.254,39.062,834.982
1666057280.070,-73.242,-701.172,11.230,-70.801,834.986
1666057280.074,-105.957,-591.797,31.250,-78.613,834.990
1666057280.078,33.203,-24.902,42.969,44.434,834.994
1666057280.082,94.238,119.629,37.598,87.891,834.998
1666057280.086,-28.320,-719.727,33.691,-21.973,835.002
1666057280.090,-105.957,-860.352,41.504,-76.172,835.005
1666057280.093,7.324,148.926,48.340,25.391,835.009
1666057280.097,114.746,426.758,41.992,110.840,835.013
1666057280.101,6.836,-145.996,34.668,6.836,835.017
1666057280.105,-118.652,-268.066,36.621,-97.168,835.021
1666057280.109,-59.570,-61.035,41.504,-29.297,835.025
1666057280.111,78.125,326.660,36.133,92.773,834.998
1666057280.115,24.414,224.609,22.949,18.555,835.002
1666057280.119,-105.469,-328.125,18.555,-91.309,835.006
1666057280.123,-80.078,-268.066,26.855,-35.156,835.010
1666057280.127,71.777,26.855,25.391,91.309,835.014
1666057280.131,89.355,-186.035,18.066,84.961,835.018
1666057280.135,-55.664,-377.930,23.438,-48.828,835.022
1666057280.138,-87.402,-276.367,18.066,-65.918,835.025
1666057280.142,41.992,-313.965,8.789,60.059,835.029
1666057280.146,100.586,83.496,5.371,91.309,835.033
1666057280.150,-24.902,246.582,-17.578,-42.480,835.037
1666057280.154,-108.398,-359.863,-10.254,-96.680,835.041
1666057280.156,1.953,-541.992,32.715,26.855,835.057
1666057280.160,113.770,328.613,54.199,96.191,835.061
1666057280.164,21.484,323.730,48.828,-4.883,835.065
1666057280.168,-95.215,-588.379,22.461,-80.078,835.069
1666057280.172,-40.527,-1000.000,8.789,-10.254,835.073
1666057280.176,101.562,-605.469,16.113,90.820,835.076
1666057280.180,80.078,19.531,17.090,51.758,835.080
1666057280.183,-46.387,-381.836,27.344,-40.527,835.084
1666057280.187,-64.453,-935.059,33.691,-29.785,835.088
1666057280.191,62.012,-6.348,42.480,59.082,835.092
1666057280.195,105.957,764.648,30.762,64.941,835.096
1666057280.199,-35.645,39.551,-3.418,-50.781,835.100
1666057280.202,-94.238,-352.051,-9.766,-82.520,835.089
1666057280.206,24.414,223.633,-17.090,30.273,835.093
1666057280.210,99.609,616.211,-32.227,77.148,835.097
1666057280.214,-21.973,-4.395,-46.387,-43.945,835.101
1666057280.218,-116.211,-443.359,-41.992,-102.051,835.105
1666057280.222,-21.973,-287.598,-21.973,5.859,835.109
1666057280.226,93.262,81.543,-27.832,83.984,835.113
1666057280.229,16.602,-342.285,-46.875,-1.953,835.117
1666057280.233,-100.098,-747.070,-32.715,-92.285,835.121
1666057280.237,-50.781,-117.676,-18.066,-37.109,835.124
1666057280.241,74.219,486.328,-40.039,70.801,835.128
1666057280.245,40.527,-228.027,-53.223,29.297,835.132
1666057280.246,-97.168,-864.258,-17.578,-89.355,835.133
1666057280.250,-102.539,-223.633,-0.488,-80.078,835.137
1666057280.254,34.180,205.078,-18.555,37.109,835.141
1666057280.258,73.730,5.371,-30.762,58.105,835.144
1666057280.262,-54.199,-233.887,-39.062,-65.430,835.148
1666057280.266,-113.770,-496.094,-44.922,-101.074,835.152
1666057280.270,-7.324,-390.137,-49.316,0.977,835.156
1666057280.273,73.242,-577.637,-52.246,63.477,835.160
1666057280.277,-33.203,-462.402,-46.387,-42.969,835.164
1666057280.281,-125.977,-150.391,-61.035,-120.117,835.168
1666057280.285,-54.688,-333.496,-90.820,-33.691,835.172
1666057280.289,65.918,43.945,-79.102,71.289,835.176
1666057280.294,21.973,454.102,-54.688,12.207,835.183
1666057280.298,-112.793,-1.953,-53.223,-106.445,835.187
1666057280.302,-97.168,-421.387,-53.223,-74.219,835.190
1666057280.306,47.852,198.730,-45.898,50.781,835.194
1666057280.310,48.828,590.820,-44.434,34.668,835.198
1666057280.314,-101.562,-198.242,-58.594,-89.355,835.202
1666057280.318,-128.906,-917.969,-62.988,-92.773,835.206
1666057280.321,16.113,-450.684,-32.227,37.598,835.210
1666057280.325,74.707,578.613,-26.367,64.453,835.214
1666057280.329,-55.176,241.699,-43.945,-68.848,835.218
1666057280.333,-133.789,-529.297,-37.109,-113.770,835.222
1666057280.337,-18.555,-23.926,-26.367,0.000,835.226
1666057280.337,89.355,516.602,-30.762,65.918,835.226
1666057280.341,-15.625,-49.316,-45.898,-42.969,835.230
1666057280.345,-133.789,-851.074,-57.129,-130.371,835.234
1666057280.349,-69.336,-603.516,-60.059,-63.477,835.238
1666057280.353,63.477,362.305,-62.988,41.016,835.242
1666057280.357,19.531,130.859,-72.754,-11.719,835.246
1666057280.361,-99.609,-916.992,-62.500,-104.004,835.250
1666057280.364,-81.543,-957.520,-23.438,-69.336,835.253
1666057280.368,55.176,223.633,-5.859,42.480,835.257
1666057280.372,71.777,522.949,-25.391,39.551,835.261
1666057280.376,-66.406,-108.887,-50.293,-84.473,835.265
1666057280.380,-103.027,-150.391,-55.176,-93.750,835.269
1666057280.383,23.438,309.082,-41.504,26.855,835.282
1666057280.387,79.102,455.078,-57.617,56.641,835.286
1666057280.391,-44.434,20.996,-73.730,-55.176,835.290
1666057280.395,-128.418,-474.609,-77.148,-109.375,835.294
1666057280.399,-24.414,-36.133,-73.242,-13.184,835.298
1666057280.403,83.496,34.668,-72.266,69.824,835.301
1666057280.407,-19.043,-830.078,-62.988,-32.227,835.305
1666057280.410,-125.488,-526.367,-51.758,-130.859,835.309
1666057280.414,-65.918,-62.012,-54.688,-58.594,835.313
1666057280.418,69.824,153.809,-41.992,60.547,835.317
1666057280.422,33.691,354.980,-36.133,17.090,835.321
1666057280.426,-97.656,34.668,-41.992,-99.609,835.325
1666057280.441,-90.332,-258.789,-32.715,-76.172,835.327
1666057280.445,41.992,66.895,-11.230,40.039,835.331
1666057280.449,74.707,400.391,-9.277,44.434,835.335
1666057280.453,-62.500,-208.496,-8.789,-83.008,835.339
1666057280.457,-126.465,-675.293,-5.859,-118.164,835.343
1666057280.461,-2.930,-803.711,-14.160,10.254,835.346
1666057280.465,88.867,-340.820,-11.230,65.430,835.350
1666057280.468,-23.438,11.230,-14.648,-53.711,835.354
1666057280.472,-119.141,-395.020,-28.809,-114.258,835.358
1666057280.476,-25.391,-791.504,-29.297,-8.789,835.362
1666057280.480,101.074,185.547,-10.254,73.242,835.366
1666057280.484,26.855,585.449,-12.695,-13.672,835.370
1666057280.486,-105.469,-276.855,-18.555,-110.840,835.387
1666057280.490,-69.336,-285.645,-12.207,-67.871,835.390
1666057280.494,64.453,489.746,-8.789,46.875,835.394
1666057280.498,56.152,567.383,-14.160,22.949,835.398
1666057280.502,-89.355,-251.953,-17.090,-94.727,835.402
1666057280.506,-99.609,-718.750,3.418,-77.637,835.406
1666057280.510,53.223,-30.762,37.598,61.035,835.410
1666057280.513,91.309,559.082,39.062,70.312,835.414
1666057280.517,-53.711,-425.293,6.348,-49.316,835.418
1666057280.521,-113.281,-858.887,1.465,-80.566,835.422
1666057280.525,-1.953,100.586,13.672,25.879,835.426
1666057280.529,86.914,388.184,0.977,91.797,835.430
1666057280.531,-20.996,-338.379,-11.719,-16.602,835.417
1666057280.535,-120.117,-431.641,1.465,-112.305,835.421
1666057280.539,-39.551,12.695,8.789,-34.180,835.425
1666057280.543,81.543,146.484,9.766,76.660,835.429
1666057280.547,17.578,-550.781,4.883,2.441,835.433
1666057280.551,-110.352,-1000.000,8.301,-112.793,835.437
1666057280.555,-70.801,-439.941,21.484,-66.406,835.440
1666057280.558,70.312,203.125,18.066,63.965,835.444
1666057280.562,68.848,-274.902,4.883,55.176,835.448
1666057280.566,-71.777,-336.426,4.883,-70.801,835.452
1666057280.570,-97.656,-62.012,18.555,-78.125,835.456
1666057280.574,37.598,-97.656,25.879,44.434,835.460
1666057280.579,94.238,-292.480,26.367,81.055,835.469
1666057280.583,-44.434,-51.270,18.555,-48.828,835.473
1666057280.587,-122.559,-108.398,8.301,-107.422,835.476
1666057280.591,-18.555,-145.996,21.484,-5.859,835.480
1666057280.595,86.914,439.453,32.227,71.289,835.484
1666057280.599,-6.836,109.863,28.320,-19.043,835.488
1666057280.603,-126.465,-511.230,30.762,-102.539,835.492
1666057280.606,-61.035,-669.434,32.227,-26.367,835.496
1666057280.610,72.266,-231.934,33.203,88.379,835.500
1666057280.614,39.551,492.676,17.578,35.645,835.504
1666057280.618,-94.727,-24.902,12.207,-82.520,835.508
1666057280.622,-78.613,-466.797,20.508,-48.340,835.512
1666057280.622,68.359,324.707,32.715,60.059,835.516
1666057280.626,21.484,233.398,38.086,2.441,835.520
1666057280.630,-120.605,-750.488,18.555,-106.445,835.524
1666057280.634,-47.852,-430.664,16.602,-23.438,835.527
1666057280.638,90.332,428.223,11.719,81.055,835.531
1666057280.642,44.434,144.043,-2.930,10.742,835.535
1666057280.646,-93.262,-605.957,-6.348,-85.938,835.539
1666057280.649,-93.750,-1000.000,-9.766,-52.246,835.543
1666057280.653,60.547,-366.211,11.230,64.453,835.547
1666057280.657,92.285,537.109,15.625,55.664,835.551
1666057280.661,-61.035,-83.984,1.465,-72.754,835.555
1666057280.665,-108.398,-292.480,18.066,-99.121,835.559
1666057280.668,24.902,315.430,42.480,21.973,835.566
1666057280.672,103.516,563.477,42.480,85.449,835.570
1666057280.676,-6.836,4.395,45.898,-14.160,835.574
1666057280.680,-104.004,-483.887,45.898,-79.590,835.578
1666057280.684,-28.809,-204.590,34.668,1.465,835.581
1666057280.688,99.121,230.957,28.320,90.820,835.585
1666057280.692,24.414,-560.547,8.789,19.043,835.589
1666057280.695,-117.676,-859.863,8.789,-93.750,835.593
1666057280.699,-68.359,-72.266,23.926,-42.969,835.597
1666057280.703,79.590,298.340,35.156,102.051,835.601
1666057280.707,53.711,267.090,21.484,56.641,835.605
1666057280.711,-95.703,31.738,17.090,-94.238,835.609
1666057280.710,-99.121,-144.043,34.180,-81.543,835.611
1666057280.714,40.527,106.934,45.898,48.828,835.615
1666057280.718,69.336,148.438,47.363,62.012,835.619
1666057280.722,-68.848,-198.730,53.223,-73.242,835.623
1666057280.726,-111.328,-193.359,62.500,-99.609,835.626
1666057280.730,4.395,-479.980,44.922,20.508,835.630
1666057280.734,87.402,-776.855,33.203,77.148,835.634
1666057280.737,-17.090,-421.387,34.668,-31.250,835.638
1666057280.741,-115.234,-319.336,31.738,-100.098,835.642
1666057280.745,-32.227,-558.594,45.410,-1.465,835.646
1666057280.749,83.984,-65.430,56.152,87.402,835.650
1666057280.753,12.695,463.867,39.551,0.977,835.654
1666057280.770,-119.629,-182.129,25.879,-110.840,835.656
1666057280.774,-83.008,-393.555,43.457,-57.617,835.660
1666057280.778,71.289,348.633,57.129,74.219,835.664
1666057280.782,70.312,629.395,53.223,60.547,835.668
1666057280.786,-70.801,-112.305,41.504,-60.059,835.672
1666057280.790,-102.539,-792.480,32.715,-67.871,835.676
1666057280.794,24.902,-173.828,50.781,41.992,835.680
1666057280.797,81.543,592.773,59.570,64.453,835.684
1666057280.801,-50.781,-134.766,40.039,-55.176,835.687
1666057280.805,-126.953,-995.117,36.133,-100.586,835.691
1666057280.809,-9.766,-212.402,49.805,8.301,835.695
1666057280.813,100.098,681.152,44.922,91.309,835.699
1666057280.816,0.488,99.609,32.715,2.441,835.702
1666057280.820,-109.863,-520.508,20.508,-80.078,835.706
1666057280.824,-34.668,-316.406,28.320,-7.812,835.710
1666057280.828,95.215,326.172,39.062,87.402,835.714
1666057280.832,31.738,-28.809,16.602,21.973,835.718
1666057280.836,-106.445,-1000.000,33.203,-86.914,835.722
1666057280.840,-65.918,-596.191,67.871,-47.363,835.725
1666057280.843,86.914,430.176,73.730,78.613,835.729
1666057280.847,63.477,-55.176,46.387,57.617,835.733
1666057280.851,-92.773,-799.316,10.254,-78.613,835.737
1666057280.855,-110.840,-222.168,12.695,-81.055,835.741
1666057280.859,26.367,100.586,18.555,53.223,835.745
1666057280.861,89.844,76.660,13.184,86.426,835.747
1666057280.865,-34.180,-44.434,-0.488,-35.645,835.751
1666057280.869,-108.398,-119.629,5.859,-82.520,835.755
1666057280.873,-11.719,-51.758,31.250,8.301,835.759
1666057280.877,75.195,186.523,36.133,65.430,835.763
1666057280.881,-10.254,-55.664,31.738,-19.043,835.767
1666057280.885,-124.512,-391.113,35.645,-106.934,835.770
1666057280.888,-73.730,-322.266,27.832,-39.062,835.774
1666057280.892,64.453,-395.020,34.668,76.172,835.778
1666057280.896,14.648,13.184,46.875,4.883,835.782
1666057280.900,-131.348,0.977,33.691,-126.953,835.786
1666057280.904,-113.770,-430.176,21.973,-93.750,835.790
1666057280.907,40.527,81.055,26.367,36.621,835.793
1666057280.911,74.219,535.645,39.062,43.945,835.797
1666057280.915,-61.035,-175.293,33.203,-67.871,835.801
1666057280.919,-121.094,-922.363,22.461,-92.285,835.805
1666057280.923,7.324,-651.367,37.109,8.789,835.809
1666057280.927,98.145,100.586,43.457,59.082,835.813
1666057280.931,-20.996,-121.094,19.043,-51.758,835.817
1666057280.934,-133.301,-828.125,11.719,-121.094,835.820
1666057280.938,-48.340,-562.500,30.273,-30.273,835.824
1666057280.942,88.867,609.375,32.227,60.059,835.828
1666057280.946,15.625,417.969,4.883,-19.531,835.832
1666057280.950,-112.305,-424.316,12.695,-112.793,835.836
1666057280.951,-62.988,-193.359,25.879,-39.062,835.837
1666057280.955,83.496,562.012,33.203,87.402,835.841
1666057280.959,59.082,444.336,47.363,51.270,835.845
1666057280.963,-89.355,-325.195,38.574,-80.078,835.849
1666057280.967,-99.121,-477.539,32.227,-75.195,835.853
1666057280.971,38.086,-38.574,46.387,51.270,835.857
1666057280.975,78.613,108.887,41.016,59.082,835.861
1666057280.978,-60.059,-729.492,29.785,-62.988,835.865
1666057280.982,-121.094,-784.668,48.340,-92.773,835.868
1666057280.986,6.836,221.191,64.941,16.602,835.872
1666057280.990,105.957,499.023,52.246,86.914,835.876
1666057280.994,-14.160,85.938,22.461,-30.762,835.880
1666057280.996,-128.418,-132.812,12.207,-113.281,835.881
1666057281.000,-41.016,83.008,20.020,-13.672,835.885
1666057281.004,86.914,124.512,29.785,90.332,835.889
1666057281.008,23.438,-70.801,40.527,20.020,835.893
1666057281.012,-94.727,-186.523,45.898,-84.473,835.897
1666057281.016,-45.898,-305.664,56.641,-26.855,835.901
1666057281.020,88.867,-397.949,48.828,88.867,835.905
1666057281.023,70.312,-851.074,31.250,61.523,835.908
1666057281.027,-70.312,-538.086,46.387,-67.871,835.912
1666057281.031,-84.961,-192.383,44.434,-73.730,835.916
1666057281.035,53.223,39.551,49.805,52.246,835.920
1666057281.039,114.258,467.285,48.828,70.801,835.924
1666057281.056,-16.602,239.258,38.086,-57.617,835.955
1666057281.060,-98.145,-293.945,22.461,-101.074,835.959
1666057281.064,13.184,-180.664,18.066,10.254,835.963
1666057281.068,117.676,488.281,40.039,88.379,835.967
1666057281.072,5.371,293.945,33.691,-26.367,835.971
1666057281.076,-117.188,-581.055,5.859,-119.629,835.975
1666057281.080,-44.922,-870.605,19.531,-37.598,835.979
1666057281.083,106.934,104.492,45.410,70.801,835.983
1666057281.087,47.363,604.980,14.160,5.859,835.987
1666057281.091,-111.816,-390.137,-11.230,-119.141,835.990
1666057281.095,-89.844,-708.984,7.324,-82.520,835.994
1666057281.099,61.035,303.711,27.344,40.039,835.998
1666057281.087,80.078,641.602,18.066,33.203,836.001
1666057281.091,-68.359,-263.672,10.742,-83.008,836.005
1666057281.095,-122.070,-892.090,17.090,-102.051,836.009
1666057281.099,22.461,-93.750,32.715,29.297,836.013
1666057281.103,93.262,568.359,36.133,68.848,836.017
1666057281.107,-23.926,-354.004,17.090,-37.598,836.021
1666057281.111,-100.586,-941.895,11.230,-83.984,836.025
1666057281.114,-11.719,-62.500,13.184,-5.859,836.029
1666057281.118,104.004,666.992,27.344,74.219,836.033
1666057281.122,2.930,-200.684,28.320,-14.648,836.036
1666057281.126,-126.953,-850.098,18.066,-111.816,836.040
1666057281.130,-56.641,-90.332,16.602,-49.805,836.044
1666057281.148,84.473,223.145,13.184,61.523,836.038
1666057281.152,45.898,27.832,9.277,16.602,836.042
1666057281.156,-98.145,-233.887,16.602,-97.168,836.046
1666057281.160,-84.961,-166.504,29.297,-67.871,836.049
1666057281.164,66.406,216.797,39.062,56.641,836.053
1666057281.168,84.473,-132.324,47.852,61.035,836.057
1666057281.172,-62.012,-582.031,46.875,-62.500,836.061
1666057281.175,-112.305,-232.422,31.738,-90.332,836.065
1666057281.179,17.578,7.812,24.414,29.297,836.069
1666057281.183,108.398,97.168,31.738,89.844,836.073
1666057281.187,-18.066,154.785,25.391,-27.832,836.077
1666057281.191,-122.559,-80.078,12.207,-112.305,836.081
1666057281.191,-28.320,-368.652,11.719,-21.484,836.078
1666057281.195,92.285,-250.977,21.484,78.613,836.081
1666057281.199,13.672,0.488,20.996,-4.883,836.085
1666057281.203,-116.211,-523.926,9.277,-107.422,836.089
1666057281.207,-66.895,-791.992,14.160,-43.945,836.093
1666057281.211,76.172,-278.320,18.555,74.707,836.097
1666057281.215,48.340,132.812,18.066,35.645,836.101
1666057281.218,-101.562,-74.707,24.902,-94.727,836.105
1666057281.222,-115.723,-667.480,9.277,-89.844,836.109
1666057281.226,25.879,-933.105,9.277,41.016,836.113
1666057281.230,76.172,78.125,26.855,57.129,836.117
1666057281.234,-54.688,145.508,6.348,-65.918,836.121
1666057281.251,-108.887,-482.910,10.742,-95.703,836.152
1666057281.255,9.766,91.797,42.969,17.578,836.156
1666057281.259,95.703,728.027,36.621,77.148,836.160
1666057281.263,-17.578,226.074,10.254,-34.668,836.164
1666057281.267,-102.539,-509.277,26.367,-95.215,836.168
1666057281.271,-10.742,-364.746,50.781,-10.254,836.172
1666057281.275,85.938,157.715,43.457,61.035,836.176
1666057281.278,27.832,-33.691,40.039,-1.953,836.179
1666057281.282,-102.051,-896.484,35.156,-96.191,836.183
1666057281.286,-85.449,-627.441,39.062,-60.059,836.187
1666057281.290,66.895,458.496,40.039,59.570,836.191
1666057281.294,64.453,408.203,29.297,42.969,836.195
1666057281.281,-87.891,-195.801,18.555,-88.867,836.167
1666057281.285,-107.422,-154.297,19.531,-89.355,836.171
1666057281.289,30.273,178.711,26.367,37.598,836.175
1666057281.293,75.684,-123.047,19.531,61.035,836.179
1666057281.297,-53.711,-606.934,23.438,-56.152,836.183
1666057281.301,-120.605,-540.527,30.273,-108.398,836.187
1666057281.305,-20.020,-234.375,20.020,-12.695,836.190
1666057281.308,81.055,65.918,9.766,59.570,836.194
1666057281.312,-19.531,-192.383,13.672,-36.621,836.198
1666057281.316,-140.625,-224.121,25.391,-120.605,836.202
1666057281.320,-66.895,31.738,23.438,-41.016,836.206
1666057281.324,67.871,42.480,15.625,64.941,836.210
1666057281.326,23.926,40.039,19.531,2.930,836.213
1666057281.330,-99.609,-17.578,19.043,-103.516,836.217
1666057281.334,-81.055,-112.305,20.508,-61.035,836.221
1666057281.338,58.594,-418.457,33.203,75.195,836.224
1666057281.342,47.363,-361.816,38.086,51.270,836.228
1666057281.346,-103.516,-271.484,33.691,-94.727,836.232
1666057281.350,-121.582,-635.742,19.043,-94.727,836.236
1666057281.353,20.508,-548.828,17.090,30.273,836.240
1666057281.357,74.219,247.070,24.414,57.129,836.244
1666057281.361,-59.082,353.516,11.230,-62.988,836.248
1666057281.365,-128.906,-531.250,10.742,-104.492,836.252
1666057281.369,-37.598,-412.109,21.973,-11.719,836.256
1666057281.370,72.266,536.133,31.250,67.871,836.256
1666057281.374,-8.301,490.234,20.996,-11.230,836.260
1666057281.378,-109.375,-541.016,1.465,-83.008,836.264
1666057281.382,-51.270,-819.336,13.184,-15.625,836.268
1666057281.386,73.242,274.414,28.320,72.754,836.271
1666057281.390,57.617,342.285,11.230,20.996,836.275
1666057281.394,-86.914,-681.641,-1.953,-91.797,836.279
1666057281.397,-103.027,-783.203,12.695,-77.148,836.283
1666057281.401,38.086,334.961,18.555,29.785,836.287
1666057281.405,60.547,698.730,6.836,32.227,836.291
1666057281.409,-76.172,-38.574,8.301,-80.078,836.295
1666057281.413,-123.047,-261.719,16.602,-109.375,836.299
1666057281.424,5.371,248.535,23.438,2.930,836.313
1666057281.428,85.449,374.512,8.301,55.664,836.317
1666057281.432,-29.297,-256.836,2.441,-50.293,836.321
1666057281.436,-127.930,-459.961,13.184,-111.328,836.324
1666057281.440,-43.945,31.250,18.555,-30.273,836.328
1666057281.444,84.961,155.762,5.859,62.500,836.332
1666057281.448,12.207,-521.484,5.371,-10.254,836.336
1666057281.451,-114.258,-613.770,44.922,-118.164,836.340
1666057281.455,-79.102,-27.344,52.246,-67.871,836.344
1666057281.459,35.156,222.168,27.832,35.645,836.348
1666057281.463,16.113,183.105,17.090,1.465,836.352
1666057281.467,-112.793,-63.965,31.250,-111.816,836.356
1666057281.461,-121.582,-188.965,35.156,-101.074,836.377
1666057281.465,20.996,52.734,31.250,25.391,836.381
1666057281.469,62.988,82.520,30.762,46.875,836.385
1666057281.473,-77.148,-349.121,17.090,-80.078,836.389
1666057281.477,-130.371,-574.219,20.508,-111.328,836.392
1666057281.481,-14.648,-595.703,28.809,11.719,836.396
1666057281.485,74.219,-988.281,25.391,77.637,836.400
1666057281.488,-20.508,-680.176,31.250,-29.785,836.404
1666057281.492,-123.047,-288.574,27.344,-103.027,836.408
1666057281.496,-36.621,-222.656,38.574,-15.625,836.412
1666057281.500,96.680,417.480,45.410,75.684,836.416
1666057281.504,28.809,558.594,39.551,-1.953,836.420
1666057281.522,-109.375,-152.832,38.574,-104.980,836.409
1666057281.526,-82.520,-449.707,25.391,-65.430,836.413
1666057281.530,59.570,310.547,40.039,52.246,836.417
1666057281.534,61.035,661.621,55.664,39.062,836.421
1666057281.538,-87.891,-100.586,46.387,-82.520,836.424
1666057281.542,-106.934,-750.977,45.898,-81.055,836.428
1666057281.546,34.180,-271.973,45.898,39.551,836.432
1666057281.549,83.984,392.090,35.156,68.359,836.436
1666057281.553,-41.016,-96.680,23.438,-48.828,836.440
1666057281.557,-117.188,-727.051,33.203,-94.238,836.444
1666057281.561,-11.230,-58.105,39.551,5.371,836.448
1666057281.565,91.309,649.414,25.879,77.148,836.452
1666057281.566,-3.418,-39.551,17.090,-12.207,836.452
1666057281.570,-133.301,-967.773,14.648,-105.469,836.456
1666057281.574,-71.289,-569.824,25.879,-42.969,836.460
1666057281.578,73.242,234.375,21.973,59.082,836.464
1666057281.582,21.484,60.547,2.441,-1.465,836.468
1666057281.586,-112.793,-732.910,4.883,-102.539,836.471
1666057281.590,-84.473,-603.516,29.785,-59.570,836.475
1666057281.593,59.082,302.734,31.250,57.617,836.479
1666057281.597,71.777,-18.066,10.254,48.340,836.483
1666057281.601,-82.520,-1000.000,21.973,-69.824,836.487
1666057281.605,-119.141,-454.590,38.086,-82.520,836.491
1666057281.609,26.367,266.602,29.785,39.551,836.495
1666057281.611,97.656,421.387,42.480,84.473,836.497
1666057281.615,-31.738,148.438,48.340,-46.387,836.501
1666057281.619,-126.465,-127.441,41.992,-124.512,836.505
1666057281.623,-28.320,23.926,44.434,-21.973,836.509
1666057281.627,80.078,331.543,37.109,73.730,836.513
1666057281.631,-13.184,-26.855,17.578,-19.531,836.517
1666057281.635,-133.789,-439.453,15.625,-126.465,836.520
1666057281.638,-76.172,-276.367,22.949,-59.570,836.524
1666057281.642,65.430,-291.016,25.391,65.918,836.528
1666057281.646,31.738,100.586,24.902,19.531,836.532
1666057281.650,-112.305,55.176,22.461,-109.863,836.536
1666057281.654,-110.840,-550.781,24.902,-87.402,836.540
1666057281.656,34.668,-111.816,34.180,37.598,836.542
1666057281.660,66.406,602.051,30.762,36.621,836.546
1666057281.664,-78.125,-41.504,18.066,-91.309,836.550
1666057281.668,-131.348,-910.156,21.484,-110.352,836.554
1666057281.672,6.836,-554.199,41.016,11.719,836.558
1666057281.676,93.750,235.840,39.062,58.105,836.562
1666057281.680,-36.133,-71.777,6.836,-61.035,836.565
1666057281.683,-134.766,-801.270,-13.184,-124.023,836.569
1666057281.687,-43.457,-619.141,1.465,-38.574,836.573
1666057281.691,86.426,540.527,22.461,50.781,836.577
1666057281.695,20.996,496.094,14.160,-14.160,836.581
1666057281.699,-120.117,-387.695,4.883,-125.977,836.585
1666057281.703,-80.566,-237.793,18.555,-74.707,836.592
1666057281.707,68.359,534.668,27.832,47.852,836.596
1666057281.711,52.246,317.871,3.906,15.137,836.600
1666057281.715,-96.191,-541.504,-9.766,-100.586,836.604
1666057281.719,-109.375,-485.352,-5.859,-89.844,836.608
1666057281.723,36.133,31.250,0.977,27.832,836.611
1666057281.727,74.707,78.125,5.371,47.852,836.615
1666057281.730,-62.012,-625.488,12.207,-64.453,836.619
1666057281.734,-121.582,-613.281,21.973,-107.910,836.623
1666057281.738,-11.719,253.418,4.395,-13.184,836.627
1666057281.742,75.195,405.762,-4.395,49.316,836.631
1666057281.746,-34.668,-16.113,-1.953,-56.152,836.635
1666057281.746,-136.719,-216.797,-9.766,-140.137,836.632
1666057281.750,-50.293,82.520,5.371,-50.293,836.636
1666057281.754,78.613,43.945,15.137,62.012,836.640
1666057281.758,5.859,-241.699,12.695,-3.418,836.644
1666057281.762,-124.512,-351.074,21.973,-110.840,836.648
1666057281.766,-82.520,-457.031,32.715,-65.918,836.652
1666057281.770,60.547,-398.438,21.973,62.988,836.655
1666057281.773,58.105,-766.113,10.742,50.781,836.659
1666057281.777,-83.008,-467.773,13.184,-84.473,836.663
1666057281.781,-108.398,-200.684,22.461,-90.820,836.667
1666057281.785,21.973,-23.438,41.504,26.855,836.671
1666057281.789,80.078,382.812,41.504,57.129,836.675
1666057281.793,-56.152,269.043,21.973,-73.730,836.680
1666057281.797,-132.324,-296.387,13.184,-132.324,836.683
1666057281.801,-21.973,-225.098,36.621,-19.531,836.687
1666057281.805,81.543,498.047,50.781,59.082,836.691
1666057281.809,-15.137,357.422,30.762,-41.992,836.695
1666057281.813,-132.812,-518.066,22.461,-125.488,836.699
1666057281.817,-72.266,-891.113,27.832,-46.875,836.703
1666057281.820,57.129,-171.875,34.180,58.105,836.707
1666057281.824,11.230,443.848,33.691,0.488,836.711
1666057281.828,-121.094,-306.641,23.926,-113.281,836.715
1666057281.832,-100.098,-737.793,26.855,-83.496,836.719
1666057281.836,44.434,170.898,35.156,36.133,836.723
1666057281.851,53.711,557.129,23.926,28.809,836.737
1666057281.855,-83.496,-184.570,13.184,-87.891,836.741
1666057281.859,-114.746,-791.016,22.461,-92.285,836.745
1666057281.863,13.184,-151.855,31.738,18.066,836.749
1666057281.867,69.336,492.676,29.785,45.898,836.753
1666057281.871,-49.316,-348.145,12.695,-60.547,836.757
1666057281.875,-128.906,-1000.000,14.160,-116.211,836.760
1666057281.878,-34.180,-199.219,26.855,-32.227,836.764
1666057281.882,80.078,550.293,20.508,52.246,836.768
1666057281.886,-1.465,-24.414,9.277,-27.344,836.772
1666057281.890,-118.164,-540.039,9.277,-114.746,836.776
1666057281.894,-68.848,-104.980,21.973,-58.105,836.780
1666057281.884,63.965,477.051,14.648,53.223,836.781
1666057281.888,36.621,-3.906,4.395,28.320,836.785
1666057281.892,-96.191,-492.188,3.418,-88.379,836.789
1666057281.896,-92.773,-155.762,14.160,-78.613,836.793
1666057281.900,43.945,188.965,16.602,47.363,836.797
1666057281.904,71.777,16.602,6.836,54.199,836.801
1666057281.908,-62.988,-372.559,14.160,-76.172,836.805
1666057281.911,-117.188,-245.605,20.020,-107.422,836.809
1666057281.915,-9.277,-29.297,19.531,0.000,836.813
1666057281.919,47.363,-231.934,7.324,38.086,836.816
1666057281.923,-49.805,-111.816,3.906,-61.523,836.820
1666057281.927,-121.094,-125.000,-1.953,-111.816,836.824
1666057281.942,-55.176,-358.887,-10.254,-29.297,836.841
1666057281.946,58.594,171.387,2.930,58.105,836.845
1666057281.950,-12.207,152.832,7.324,-19.531,836.849
1666057281.954,-146.484,-382.324,2.930,-137.207,836.853
1666057281.958,-93.262,-630.371,14.160,-73.730,836.856
1666057281.962,45.898,-820.312,34.180,57.129,836.860
1666057281.966,36.133,-119.141,25.391,20.020,836.864
1666057281.969,-86.426,52.734,0.488,-96.680,836.868
1666057281.973,-101.562,-673.828,4.395,-82.031,836.872
1666057281.977,32.715,-287.598,33.691,39.062,836.876
1666057281.981,81.543,644.531,32.715,54.199,836.880
1666057281.985,-59.082,156.250,16.113,-63.477,836.884
1666057282.002,-131.836,-468.750,19.531,-109.375,836.889
1666057282.006,-16.113,8.301,28.320,-10.254,836.893
1666057282.010,74.707,522.949,30.273,63.965,836.897
1666057282.014,-33.691,-40.039,17.090,-24.902,836.901
1666057282.018,-147.461,-657.715,14.648,-115.234,836.905
1666057282.022,-56.641,-396.973,38.086,-29.785,836.909
1666057282.026,80.078,194.824,39.062,71.777,836.912
1666057282.029,21.484,-12.207,18.066,-3.906,836.916
1666057282.033,-125.000,-812.012,8.789,-115.723,836.920
1666057282.037,-108.398,-463.867,15.137,-85.938,836.924
1666057282.041,34.180,588.867,9.766,25.391,836.928
1666057282.045,36.621,250.000,0.000,19.531,836.932
1666057282.046,-99.121,-605.469,10.254,-90.820,836.932
1666057282.050,-120.117,-251.465,20.996,-100.586,836.936
1666057282.054,12.695,97.656,18.555,23.438,836.940
1666057282.058,66.895,-24.902,32.715,59.570,836.944
1666057282.062,-58.105,-292.480,35.645,-63.477,836.948
1666057282.066,-142.090,-496.094,21.973,-129.395,836.952
1666057282.070,-44.434,-330.566,24.902,-37.109,836.956
1666057282.073,72.754,-19.531,33.203,52.734,836.960
1666057282.077,-14.648,5.859,28.320,-32.227,836.964
1666057282.081,-130.859,-188.965,21.484,-127.930,836.968
1666057282.085,-64.941,6.836,19.531,-63.965,836.971
1666057282.089,61.523,-157.227,0.488,48.340,836.975
1666057282.077,16.602,-926.270,2.441,10.254,836.963
1666057282.081,-115.723,-529.785,17.578,-107.422,836.967
1666057282.085,-100.098,-178.223,8.789,-85.449,836.971
1666057282.089,45.898,148.926,9.277,44.434,836.975
1666057282.093,65.430,572.754,-0.488,43.945,836.979
1666057282.097,-75.195,-72.754,-7.324,-78.613,836.983
1666057282.101,-119.141,-651.855,1.953,-92.285,836.987
1666057282.104,3.418,-272.949,9.766,19.531,836.991
1666057282.108,76.660,265.625,10.254,50.293,836.995
1666057282.112,-48.828,205.566,3.906,-67.871,836.999
1666057282.116,-136.230,-369.629,3.906,-113.770,837.003
1666057282.120,-38.086,-934.082,13.184,-5.371,837.006
1666057282.121,83.984,-30.762,32.227,71.777,837.007
1666057282.125,-5.859,531.738,19.531,-17.090,837.011
1666057282.129,-147.461,-495.605,0.977,-113.770,837.015
1666057282.133,-86.426,-543.457,26.367,-54.688,837.019
1666057282.137,54.688,437.500,39.551,50.781,837.023
1666057282.141,5.859,269.043,15.625,0.977,837.027
1666057282.145,-125.000,-643.066,7.812,-94.238,837.031
1666057282.148,-110.352,-886.719,24.902,-69.336,837.034
1666057282.152,38.574,178.223,43.945,44.922,837.038
1666057282.156,64.453,654.785,19.531,46.875,837.042
1666057282.160,-78.613,-233.887,-3.906,-78.613,837.046
1666057282.164,-124.512,-568.359,5.859,-102.539,837.050
1666057282.167,5.371,248.047,21.973,13.672,837.066
1666057282.171,84.961,632.812,20.508,73.242,837.070
1666057282.175,-36.621,-196.777,6.348,-41.992,837.074
1666057282.179,-135.254,-526.855,12.207,-118.652,837.077
1666057282.183,-47.852,45.410,14.160,-26.855,837.081
1666057282.187,63.965,267.578,0.488,67.383,837.085
1666057282.191,-2.930,-425.781,0.000,-18.066,837.089
1666057282.194,-131.348,-619.141,5.859,-137.695,837.093
1666057282.198,-94.238,-42.969,7.324,-79.590,837.097
1666057282.202,67.871,307.617,4.883,60.547,837.101
1666057282.206,52.246,249.023,8.301,34.180,837.105
1666057282.210,-104.980,-140.625,22.949,-98.145,837.109
1666057282.226,-123.047,-181.152,22.461,-105.957,837.114
1666057282.230,18.555,-171.875,9.766,12.207,837.118
1666057282.234,65.430,-263.672,6.836,42.969,837.122
1666057282.238,-71.289,-206.055,12.207,-76.172,837.126
1666057282.242,-133.301,-148.438,22.949,-115.723,837.130
1666057282.246,-22.949,-460.938,19.043,0.488,837.134
1666057282.250,61.035,-648.926,7.812,60.547,837.138
1666057282.253,-39.551,-36.621,11.719,-56.152,837.141
1666057282.257,-147.949,-119.629,17.578,-130.859,837.145
1666057282.261,-71.777,-269.043,24.414,-48.340,837.149
1666057282.265,62.500,342.285,21.484,41.504,837.153
1666057282.269,5.371,543.945,7.324,-25.391,837.157
1666057282.271,-126.953,-141.602,5.371,-124.512,837.158
1666057282.275,-98.145,-450.195,20.508,-75.684,837.162
1666057282.279,48.340,304.688,26.855,38.086,837.165
1666057282.283,59.570,465.332,13.184,17.578,837.169
1666057282.287,-82.520,-370.605,14.648,-95.703,837.173
1666057282.291,-121.582,-883.301,19.043,-102.539,837.177
1666057282.295,15.137,-217.773,30.273,10.742,837.181
1666057282.298,83.008,638.184,30.273,43.457,837.185
1666057282.302,-47.852,5.371,7.324,-69.336,837.189
1666057282.306,-133.301,-921.875,-4.883,-112.793,837.193
1666057282.310,-28.320,-243.652,4.883,-15.625,837.197
1666057282.314,86.914,675.781,10.254,52.734,837.201
1666057282.317,-7.812,114.746,16.113,-38.086,837.202
1666057282.321,-137.695,-492.188,15.137,-132.812,837.206
1666057282.325,-68.848,-359.375,12.695,-62.988,837.210
1666057282.329,76.660,270.996,13.184,44.434,837.214
1666057282.333,34.180,-1.465,-4.395,-1.953,837.218
1666057282.337,-115.234,-994.629,3.418,-110.352,837.222
1666057282.341,-105.469,-739.746,28.809,-90.820,837.226
1666057282.344,47.852,31.738,31.250,28.809,837.230
1666057282.348,60.059,-188.965,12.695,24.902,837.234
1666057282.352,-78.125,-897.949,6.348,-90.332,837.238
1666057282.356,-106.445,-371.094,25.391,-98.633,837.242
1666057282.360,23.926,233.887,29.297,25.391,837.245
1666057282.361,88.379,454.590,8.789,62.012,837.247
1666057282.365,-39.551,177.734,-8.789,-56.641,837.251
1666057282.369,-132.324,-144.531,7.324,-120.605,837.255
1666057282.373,-35.645,-54.688,18.066,-27.344,837.259
1666057282.377,84.961,268.555,3.906,61.035,837.263
1666057282.381,-6.348,-5.859,-10.742,-28.809,837.267
1666057282.385,-127.441,-430.664,16.113,-124.512,837.270
1666057282.388,-73.242,-287.598,53.711,-60.547,837.274
1666057282.392,59.082,-511.230,43.945,57.617,837.278
1666057282.396,34.668,-304.199,24.902,10.254,837.282
1666057282.400,-116.699,14.648,12.207,-125.977,837.286
1666057282.404,-131.348,-500.000,5.371,-118.164,837.290
1666057282.421,13.672,-321.777,10.254,4.883,837.307
1666057282.425,64.941,507.812,20.508,22.949,837.311
1666057282.429,-68.359,10.254,16.113,-94.727,837.315
1666057282.433,-134.766,-886.230,11.719,-131.836,837.319
1666057282.437,-8.789,-501.953,28.809,-13.672,837.323
1666057282.441,85.449,274.902,32.227,54.688,837.327
1666057282.445,-28.320,-87.402,18.555,-52.734,837.331
1666057282.448,-127.930,-822.754,15.137,-119.141,837.335
1666057282.452,-45.410,-608.887,21.484,-20.020,837.338
1666057282.456,71.777,565.918,8.789,61.523,837.342
1666057282.460,10.742,505.371,-13.184,-20.996,837.346
1666057282.464,-115.723,-453.125,-10.742,-118.164,837.350
1666057282.467,-78.613,-370.605,8.789,-62.500,837.354
1666057282.471,67.871,563.477,20.996,56.152,837.358
1666057282.475,60.547,551.270,7.324,21.973,837.362
1666057282.479,-85.449,-433.594,-0.977,-94.238,837.365
1666057282.483,-104.492,-509.277,6.836,-80.078,837.369
1666057282.487,37.598,75.684,15.137,42.969,837.373
1666057282.491,95.703,85.449,12.207,65.918,837.377
1666057282.494,-39.551,-369.141,1.465,-64.453,837.381
1666057282.498,-120.605,-405.273,15.137,-105.469,837.385
1666057282.502,-20.508,187.500,25.879,0.000,837.389
1666057282.506,77.637,286.133,7.324,67.871,837.393
1666057282.510,-28.320,-562.500,-10.742,-28.320,837.397
1666057282.512,-130.859,-550.293,1.953,-118.164,837.399
1666057282.516,-51.270,2.930,-14.160,-44.922,837.403
1666057282.520,75.195,-90.332,-37.598,60.059,837.407
1666057282.524,13.672,-454.102,-40.527,-5.371,837.411
1666057282.528,-126.465,-355.957,-46.387,-126.953,837.415
1666057282.532,-102.051,-416.992,-44.922,-84.961,837.419
1666057282.536,34.668,-284.180,-40.527,39.062,837.423
1666057282.539,33.691,159.180,-47.852,19.531,837.427
1666057282.543,-85.449,40.527,-42.969,-94.727,837.430
1666057282.547,-104.492,-73.242,-37.598,-100.098,837.434
1666057282.551,1.953,-401.367,-44.922,10.742,837.438
1666057282.555,55.664,-563.965,-32.227,48.340,837.442
1666057282.558,-51.758,65.918,-28.809,-66.895,837.445
1666057282.562,-134.766,-193.848,-54.688,-128.906,837.449
1666057282.566,-43.945,-340.332,-43.457,-28.809,837.453
1666057282.570,69.824,379.883,-22.949,47.363,837.456
1666057282.574,-18.066,300.781,-20.996,-40.527,837.460
1666057282.578,-139.160,-600.098,-21.484,-123.047,837.464
1666057282.582,-74.219,-712.891,-8.301,-52.734,837.468
1666057282.585,65.430,239.746,8.301,52.246,837.472
1666057282.589,23.926,588.379,-4.883,-0.488,837.476
1666057282.593,-110.840,-261.719,-33.203,-108.887,837.480
1666057282.597,-106.934,-1000.000,-37.109,-72.266,837.484
1666057282.601,37.109,-169.922,-8.789,43.457,837.488
1666057282.601,58.594,673.340,-21.973,35.156,837.487
1666057282.605,-86.914,-131.348,-40.527,-84.961,837.491
1666057282.609,-128.906,-760.254,-29.297,-111.816,837.495
1666057282.613,-7.324,-91.309,-16.602,-6.348,837.499
1666057282.617,53.223,559.082,-10.742,37.109,837.503
1666057282.621,-66.895,-263.184,-20.020,-64.453,837.507
1666057282.625,-148.438,-850.098,-19.043,-122.070,837.511
1666057282.628,-51.758,-336.914,-11.230,-27.344,837.515
1666057282.632,70.312,386.719,-16.113,62.500,837.519
